Dividing Wavelength (nm)	Counts (n)	Blue Motor Position (mm): 0.000000	Red Motor Position (mm): 3.900000	
326.493990	2125.884824
326.888308	2125.884824
327.282561	2125.884824
327.676750	2094.833837
328.070874	2089.888465
328.464933	2095.574886
328.858929	2101.762903
329.252859	2114.259923
329.646726	2123.545728
330.040528	2136.251957
330.434265	2154.619401
330.827938	2172.064314
331.221547	2189.544515
331.615091	2209.293235
332.008571	2227.837119
332.401986	2247.422002
332.795338	2266.427152
333.188625	2284.456839
333.581847	2303.613223
333.975006	2322.923363
334.368100	2341.270643
334.761129	2358.403004
335.154095	2374.678369
335.546996	2394.739641
335.939833	2406.190622
336.332606	2419.746284
336.725315	2434.375713
337.117960	2442.670932
337.510540	2448.561520
337.903056	2462.520475
338.295508	2470.460292
338.687896	2479.705768
339.080220	2486.549135
339.472480	2493.760505
339.864676	2497.012049
340.256807	2503.293327
340.648875	2505.692916
341.040879	2509.793895
341.432818	2510.371107
341.824694	2511.333968
342.216506	2510.320696
342.608253	2512.566530
342.999937	2511.482682
343.391557	2508.904131
343.783113	2511.298679
344.174605	2509.009996
344.566033	2507.225427
344.957397	2506.552433
345.348697	2502.083450
345.739934	2501.997751
346.131106	2500.407267
346.522215	2498.557163
346.913260	2496.578510
347.304241	2497.347286
347.695159	2491.612974
348.086012	2492.880824
348.476802	2490.521564
348.867528	2490.463591
349.258191	2487.753970
349.648789	2486.677684
350.039324	2485.021665
350.429796	2485.566110
350.820203	2480.376242
351.210548	2479.277270
351.600828	2480.219966
351.991045	2479.909935
352.381198	2477.492702
352.771288	2476.978504
353.161314	2475.766107
353.551276	2478.929431
353.941175	2476.058493
354.331010	2477.772486
354.720782	2476.824749
355.110490	2474.639409
355.500135	2476.547485
355.889717	2479.219297
356.279235	2478.516056
356.668689	2478.390027
357.058080	2480.676190
357.447408	2478.034626
357.836672	2476.466827
358.225873	2478.551344
358.615010	2474.967084
359.004084	2478.735346
359.393095	2481.386993
359.782043	2481.460090
360.170927	2483.537045
360.559748	2483.244658
360.948505	2483.761377
361.337199	2484.174751
361.725830	2484.038640
362.114398	2487.456542
362.502903	2484.197436
362.891344	2483.756335
363.279722	2486.476038
363.668037	2488.583240
364.056289	2487.053250
364.444478	2485.848414
364.832603	2489.069712
365.220665	2487.055771
365.608665	2489.220946
365.996601	2488.462253
366.384474	2489.435195
366.772284	2493.004332
367.160031	2491.628097
367.547715	2491.610453
367.935336	2492.525423
368.322893	2496.394508
368.710388	2494.662872
369.097820	2502.567401
369.485189	2499.628408
369.872495	2500.762668
370.259738	2502.557319
370.646918	2508.034532
371.034035	2507.059069
371.421090	2510.106447
371.808081	2512.185923
372.195010	2511.724657
372.581875	2515.727333
372.968678	2516.173475
373.355418	2519.369567
373.742096	2520.181192
374.128710	2522.255627
374.515262	2524.425844
374.901751	2522.936183
375.288177	2524.420803
375.674540	2523.939373
376.060841	2526.089425
376.447079	2526.989271
376.833254	2525.892820
377.219367	2523.105062
377.605417	2525.517254
377.991404	2524.078004
378.377329	2525.234949
378.763191	2520.622293
379.148991	2525.318128
379.534727	2525.350896
379.920402	2528.554549
380.306013	2522.026255
380.691563	2525.423992
381.077049	2522.759743
381.462474	2522.331245
381.847835	2523.226049
382.233134	2517.206912
382.618371	2519.258661
383.003545	2517.174144
383.388657	2514.640964
383.773706	2511.722136
384.158693	2513.466376
384.543618	2512.382528
384.928480	2513.315141
385.313280	2511.656601
385.698017	2507.968997
386.082692	2511.084430
386.467305	2509.405726
386.851856	2507.744666
387.236344	2506.386075
387.620770	2506.123935
388.005133	2506.113853
388.389435	2506.675941
388.773674	2505.544202
389.157851	2502.920282
389.541965	2502.733759
389.926018	2502.764006
390.310008	2503.845333
390.693936	2505.708040
391.077802	2506.454131
391.461606	2504.614109
391.845348	2506.612927
392.229027	2505.619820
392.612645	2502.995899
392.996200	2505.161075
393.379694	2504.772906
393.763125	2504.445231
394.146494	2504.442710
394.529801	2506.197032
394.913047	2508.531086
395.296230	2504.709891
395.679351	2504.793070
396.062410	2504.530930
396.445408	2507.285921
396.828343	2507.911024
397.211217	2499.756958
397.594028	2502.103615
397.976778	2504.082268
398.359466	2507.230468
398.742092	2503.903307
399.124656	2506.612927
399.507158	2507.827845
399.889598	2509.378000
400.271977	2509.125942
400.654294	2509.251971
401.036549	2506.209635
401.418742	2505.513955
401.800874	2508.407578
402.182944	2509.791374
402.564952	2509.529234
402.946898	2511.147445
403.328783	2506.842299
403.710606	2509.562002
404.092367	2509.675428
404.474067	2510.275325
404.855705	2510.388751
405.237282	2510.643329
405.618797	2506.950684
406.000250	2510.298010
406.381642	2511.545696
406.762972	2509.907321
407.144240	2511.089472
407.525447	2510.958402
407.906593	2512.145593
408.287677	2512.768176
408.668700	2511.470079
409.049661	2513.279853
409.430560	2512.458145
409.811399	2513.869668
410.192176	2508.566374
410.572891	2509.609893
410.953545	2513.854544
411.334138	2514.025944
411.714669	2514.346057
412.095139	2512.906808
412.475547	2512.082579
412.855894	2512.596777
413.236180	2511.452435
413.616405	2514.099040
413.996568	2514.570388
414.376670	2514.648526
414.756711	2511.891015
415.136691	2514.706499
415.516609	2512.616941
415.896466	2514.454442
416.276262	2515.016530
416.655997	2511.003772
417.035670	2510.965963
417.415283	2514.381345
417.794834	2510.945799
418.174324	2513.917559
418.553753	2515.797909
418.933121	2516.458300
419.312428	2515.177847
419.691674	2516.347395
420.070859	2514.192302
420.449983	2516.584329
420.829045	2516.017199
421.208047	2517.406037
421.586988	2515.513084
421.965867	2517.884947
422.344686	2519.046933
422.723444	2517.017868
423.102141	2516.367560
423.480777	2519.140194
423.859352	2518.762108
424.237866	2518.482324
424.616319	2518.068949
424.994712	2518.459638
425.373044	2518.157169
425.751314	2517.244720
426.129524	2520.720596
426.507673	2516.828825
426.885762	2515.571057
427.263789	2517.216994
427.641756	2518.762108
428.019662	2517.511902
428.397508	2518.129443
428.775292	2520.274454
429.153016	2518.764628
429.530679	2520.140863
429.908282	2518.981398
430.285824	2520.917201
430.663305	2518.401665
431.040726	2518.643641
431.418086	2516.987622
431.795385	2520.715555
432.172624	2521.685977
432.549802	2523.084897
432.926920	2520.040040
433.303977	2517.416120
433.680974	2517.862262
434.057910	2521.960720
434.434786	2520.050123
434.811601	2521.350740
435.188355	2521.761594
435.565050	2521.292767
435.941683	2519.057015
436.318257	2517.562313
436.694770	2517.128774
437.071222	2515.555934
437.447614	2518.381501
437.823946	2518.999042
438.200218	2521.018024
438.576429	2519.649351
438.952580	2517.945441
439.328670	2520.420647
439.704700	2524.773684
440.080670	2521.575072
440.456580	2523.957017
440.832429	2519.425019
441.208218	2521.741430
441.583947	2524.014990
441.959616	2521.958199
442.335224	2520.052643
442.710773	2524.637573
443.086261	2521.615401
443.461689	2523.115144
443.837057	2522.918539
444.212365	2525.315608
444.587612	2520.718075
444.962800	2522.497603
445.337927	2523.538601
445.712995	2521.320493
446.088002	2526.016328
446.462949	2524.803931
446.837837	2524.773684
447.212664	2525.623118
447.587431	2524.642614
447.962139	2525.423992
448.336786	2525.476925
448.711374	2524.037675
449.085901	2525.537418
449.460369	2525.678571
449.834776	2525.247552
450.209124	2524.456091
450.583412	2522.795031
450.957640	2527.027079
451.331808	2524.141019
451.705917	2524.269568
452.079965	2526.192768
452.453954	2524.120854
452.827883	2525.923067
453.201752	2527.148067
453.575562	2523.997346
453.949311	2524.249404
454.323001	2523.868797
454.696632	2527.266534
455.070202	2524.529188
455.443713	2525.587830
455.817164	2523.339475
456.190556	2522.507685
456.563888	2524.458612
456.937160	2521.005421
457.310373	2526.941380
457.683526	2525.376102
458.056619	2528.925074
458.429653	2526.321318
458.802628	2526.792666
459.175542	2527.241328
459.548398	2525.706297
459.921194	2526.039013
460.293930	2525.484486
460.666607	2527.569003
461.039224	2528.184024
461.411782	2524.430885
461.784280	2528.448685
462.156719	2525.975999
462.529099	2529.613191
462.901419	2527.858870
463.273680	2528.705784
463.645882	2523.843591
464.018024	2526.308715
464.390106	2526.570855
464.762130	2526.681760
465.134094	2529.832482
465.505999	2526.901051
465.877845	2527.211082
466.249631	2528.330218
466.621358	2528.093283
466.993026	2532.529499
467.364634	2532.963038
467.736184	2530.417255
468.107674	2526.633869
468.479105	2530.656710
468.850477	2527.385001
469.221790	2527.137985
469.593043	2527.301822
469.964238	2528.005063
470.335373	2528.975485
470.706449	2528.652852
471.077467	2531.037317
471.448425	2526.800227
471.819324	2529.441792
472.190164	2529.300640
472.560945	2530.061854
472.931667	2528.491535
473.302330	2527.967255
473.672934	2530.082019
474.043479	2529.741741
474.413965	2529.373737
474.784393	2528.272244
475.154761	2527.679909
475.525070	2526.717048
475.895321	2525.895340
476.265513	2524.395597
476.635645	2531.075126
477.005719	2528.030269
477.375734	2532.726104
477.745691	2528.927594
478.115588	2528.975485
478.485427	2526.981709
478.855207	2532.811803
479.224928	2530.424817
479.594591	2528.100845
479.964194	2529.950949
480.333739	2530.742410
480.703226	2529.504807
481.072653	2528.791483
481.442022	2530.016484
481.811333	2532.428676
482.180584	2533.179808
482.549777	2532.181659
482.918912	2528.728469
483.287988	2530.578572
483.657005	2530.583613
484.025964	2531.271731
484.394864	2532.022863
484.763706	2528.544467
485.132489	2529.098994
485.501213	2527.642100
485.869879	2531.667462
486.238487	2531.604447
486.607036	2533.867925
486.975527	2531.004550
487.343959	2531.312060
487.712333	2531.944725
488.080648	2530.712163
488.448905	2529.570342
488.817104	2529.804755
489.185244	2530.613860
489.553326	2530.916330
489.921350	2531.919519
490.289315	2532.002698
490.657222	2531.705270
491.025070	2531.425486
491.392861	2531.964890
491.760593	2531.188552
492.128267	2532.098480
492.495883	2532.002698
492.863440	2531.564118
493.230939	2530.780218
493.598380	2532.806762
493.965763	2525.413910
494.333088	2525.794517
494.700354	2530.800383
495.067563	2530.172759
495.434713	2526.691843
495.801805	2531.997657
496.168839	2529.177132
496.535815	2531.866587
496.902733	2530.243336
497.269593	2531.397760
497.636395	2532.489170
498.003139	2528.110928
498.369825	2530.762574
498.736453	2532.264838
499.103023	2531.743079
499.469535	2532.108562
499.835989	2533.217616
500.202385	2530.172759
500.568723	2532.174097
500.935003	2533.141999
501.301226	2532.728624
501.667390	2532.360620
502.033497	2535.861702
502.399546	2532.721063
502.765537	2531.395239
503.131470	2534.218285
503.497345	2532.171577
503.863163	2532.380785
504.228923	2532.143851
504.594625	2531.710311
504.960269	2533.089067
505.325856	2533.121834
505.691385	2529.950949
506.056856	2532.221988
506.422270	2534.687113
506.787625	2529.870290
507.152924	2533.232740
507.518164	2533.028573
507.883347	2534.273738
508.248472	2534.246012
508.613540	2533.149561
508.978550	2532.166536
509.343503	2533.608306
509.708398	2535.755837
510.073236	2532.169056
510.438016	2533.389016
510.802738	2533.943542
511.167403	2533.457071
511.532010	2531.874149
511.896561	2531.755682
512.261053	2531.508665
512.625488	2530.727286
512.989866	2527.692512
513.354186	2529.706453
513.718449	2527.362316
514.082655	2532.181659
514.446803	2533.106711
514.810894	2536.007895
515.174927	2535.486136
515.538904	2535.145858
515.902822	2535.148378
516.266684	2532.221988
516.630488	2532.640404
516.994235	2534.697195
517.357925	2535.738193
517.721558	2533.457071
518.085133	2533.837678
518.448651	2534.518234
518.812112	2533.852802
519.175516	2535.118131
519.538863	2534.361958
519.902152	2534.878677
520.265385	2534.316588
520.628560	2532.673172
520.991678	2535.085364
521.354739	2532.763913
521.717743	2533.510003
522.080690	2531.175949
522.443580	2533.741896
522.806413	2537.142155
523.169189	2534.558563
523.531908	2534.735004
523.894569	2535.087884
524.257174	2535.622247
524.619722	2533.522606
524.982213	2534.427493
525.344647	2535.193749
525.707025	2533.441948
526.069345	2534.941691
526.431608	2534.293903
526.793815	2534.145189
527.155964	2533.164684
527.518057	2536.799356
527.880093	2534.079654
528.242072	2535.191228
528.603995	2535.821372
528.965860	2535.105528
529.327669	2533.094108
529.689421	2533.820034
530.051117	2536.333049
530.412755	2535.160981
530.774337	2536.171732
531.135862	2534.777853
531.497331	2533.446989
531.858743	2531.422966
532.220098	2528.400794
532.581396	2531.790970
532.942638	2529.862728
533.303824	2535.246681
533.664953	2533.336083
534.026025	2537.580735
534.387040	2535.294572
534.747999	2537.815149
535.108902	2531.906916
535.469748	2535.544109
535.830537	2535.443286
536.191270	2535.992772
536.551947	2536.985879
536.912567	2535.350024
537.273131	2533.280631
537.633638	2535.418080
537.994089	2534.185518
538.354483	2532.564787
538.714821	2534.462781
539.075103	2532.874818
539.435328	2535.629808
539.795497	2536.204500
540.155609	2537.016126
540.515665	2537.331198
540.875665	2534.941691
541.235609	2534.329191
541.595496	2535.380271
541.955328	2534.747607
542.315102	2534.437576
542.674821	2536.811959
543.034483	2535.481094
543.394090	2537.023688
543.753640	2535.551671
544.113134	2537.416898
544.472571	2536.854809
544.831953	2535.934798
545.191278	2535.266845
545.550548	2536.340611
545.909761	2535.090405
546.268918	2534.389685
546.628019	2536.917823
546.987064	2535.503780
547.346053	2537.605941
547.704986	2536.625436
548.063863	2536.796836
548.422684	2536.927906
548.781449	2537.094264
549.140158	2533.930940
549.498811	2538.871270
549.857408	2533.746937
550.215949	2531.170908
550.574434	2530.724766
550.932864	2533.867925
551.291237	2531.455733
551.649555	2534.077133
552.007817	2535.397915
552.366022	2536.796836
552.724173	2535.574356
553.082267	2534.462781
553.440305	2535.367668
553.798288	2538.102494
554.156215	2533.774664
554.514086	2537.174922
554.871902	2534.717360
555.229661	2536.244829
555.587365	2535.095446
555.945014	2537.689120
556.302606	2536.080992
556.660143	2534.298944
557.017625	2535.753317
557.375050	2534.099818
557.732421	2537.515200
558.089735	2535.259284
558.446994	2537.399253
558.804197	2535.226516
559.161345	2534.740045
559.518437	2536.411187
559.875474	2535.551671
560.232455	2539.851775
560.589381	2536.093595
560.946251	2537.517721
561.303065	2534.412370
561.659825	2533.797349
562.016528	2536.811959
562.373177	2536.534696
562.729770	2536.101156
563.086307	2537.626105
563.442789	2535.647452
563.799216	2538.379758
564.155587	2534.659386
564.511904	2535.841537
564.868164	2533.709129
565.224370	2538.336908
565.580520	2535.831455
565.936615	2535.634850
566.292654	2537.603420
566.648638	2532.227030
567.004567	2538.362114
567.360441	2535.670138
567.716260	2538.556198
568.072023	2535.226516
568.427732	2533.663758
568.783385	2533.648635
569.138982	2531.722914
569.494525	2533.998995
569.850013	2529.973634
570.205445	2536.360776
570.560823	2535.907072
570.916145	2537.789943
571.271412	2536.133924
571.626625	2535.866743
571.981782	2538.848585
572.336884	2537.941178
572.691931	2537.391692
573.046923	2535.344983
573.401860	2536.824562
573.756743	2540.333205
574.111570	2537.230375
574.466342	2535.902031
574.821059	2535.347504
575.175722	2535.733152
575.530330	2534.558563
575.884882	2536.960673
576.239380	2537.101825
576.593823	2538.858667
576.948211	2534.636701
577.302544	2535.904551
577.656823	2537.323636
578.011047	2536.839685
578.365216	2534.200641
578.719330	2538.581404
579.073389	2537.439583
579.427394	2537.328677
579.781344	2536.254912
580.135239	2536.670807
580.489080	2534.669469
580.842866	2535.690302
581.196597	2536.736342
581.550273	2538.979655
581.903895	2533.381454
582.257463	2538.140303
582.610975	2535.947401
582.964434	2533.073943
583.317837	2535.239119
583.671186	2538.745242
584.024481	2536.650642
584.377721	2535.972607
584.730906	2538.009233
585.084037	2536.247350
585.437113	2537.784902
585.790135	2536.779192
586.143103	2537.011085
586.496016	2538.309182
586.848874	2530.286185
587.201679	2535.350024
587.554428	2532.400949
587.907124	2537.764737
588.259765	2530.520599
588.612352	2537.464788
588.964884	2534.394726
589.317362	2539.042670
589.669786	2536.290200
590.022155	2537.210210
590.374470	2534.200641
590.726731	2535.564273
591.078937	2534.931609
591.431090	2537.903369
591.783188	2536.423790
592.135232	2538.168029
592.487222	2536.411187
592.839157	2536.017977
593.191038	2538.621733
593.542866	2537.137113
593.894639	2536.454037
594.246358	2536.254912
594.598022	2536.819521
594.949633	2535.294572
595.301190	2537.182484
595.652692	2536.262473
596.004141	2536.174253
596.355535	2538.979655
596.706876	2537.679037
597.058162	2534.019160
597.409395	2535.266845
597.760573	2535.123172
598.111698	2535.934798
598.462768	2536.542257
598.813785	2537.782381
599.164748	2537.971424
599.515657	2535.576876
599.866511	2536.869932
600.217312	2537.994110
600.568060	2536.806918
600.918753	2537.424459
601.269392	2535.387833
601.619978	2536.423790
601.970510	2535.808769
602.320988	2534.893800
602.671412	2536.113759
603.021783	2535.362627
603.372100	2532.421114
603.722363	2537.835313
604.072572	2536.363296
604.422728	2539.642567
604.772830	2532.118645
605.122878	2533.308357
605.472872	2532.640404
605.822813	2529.524971
606.172701	2536.880015
606.522534	2536.948070
606.872314	2538.135262
607.222041	2537.784902
607.571714	2535.594520
607.921333	2536.030580
608.270899	2539.561908
608.620411	2538.432690
608.969870	2536.144006
609.319276	2536.295241
609.668627	2542.518545
610.017926	2544.144317
610.367171	2544.328319
610.716362	2546.213711
611.065500	2542.705068
611.414585	2541.006199
611.763616	2539.498894
612.112594	2538.934285
612.461518	2537.121990
612.810389	2540.892773
613.159207	2541.336395
613.507971	2538.394881
613.856682	2538.994779
614.205340	2540.688606
614.553945	2537.656352
614.902496	2537.069058
615.250994	2536.131403
615.599439	2536.267514
615.947830	2537.537885
616.296169	2536.138965
616.644454	2537.255581
616.992686	2536.138965
617.340864	2537.411856
617.688990	2535.498738
618.037063	2540.250026
618.385082	2538.755324
618.733048	2537.527803
619.080961	2535.347504
619.428821	2536.612833
619.776628	2536.557381
620.124382	2537.512679
620.472083	2536.761547
620.819731	2533.898172
621.167326	2535.476053
621.514868	2535.894469
621.862357	2535.617206
622.209793	2537.759696
622.557176	2536.259953
622.904506	2535.211393
623.251783	2530.858356
623.599007	2533.416742
623.946179	2530.923891
624.293297	2534.913965
624.640363	2534.941691
624.987376	2535.178625
625.334336	2536.978317
625.681243	2538.394881
626.028097	2534.699716
626.374899	2536.353214
626.721647	2535.652494
627.068343	2536.915303
627.414987	2537.179963
627.761577	2538.772968
628.108115	2537.104346
628.454600	2538.823379
628.801032	2536.179294
629.147412	2535.735673
629.493739	2538.276414
629.840014	2539.692978
630.186236	2536.741383
630.532405	2538.268853
630.878521	2534.505631
631.224585	2535.962525
631.570597	2537.114428
631.916556	2536.025539
632.262462	2535.173584
632.608316	2537.152237
632.954117	2535.072761
633.299866	2538.029398
633.645562	2534.344314
633.991206	2537.671476
634.336797	2535.876825
634.682336	2538.087371
635.027823	2534.117462
635.373257	2534.067051
635.718639	2535.506300
636.063968	2536.028060
636.409245	2535.924716
636.754470	2535.833975
637.099642	2535.506300
637.444762	2538.185673
637.789829	2535.682741
638.134845	2535.990251
638.479808	2535.287010
638.824719	2535.995292
639.169577	2532.504293
639.514383	2536.539737
639.859137	2534.840868
640.203839	2536.590148
640.548489	2533.114273
640.893086	2533.923378
641.237632	2530.528161
641.582125	2533.489839
641.926566	2533.078985
642.270955	2534.619057
642.615292	2535.786084
642.959576	2536.259953
643.303809	2536.295241
643.647990	2537.454706
643.992118	2533.641073
644.336195	2537.162319
644.680219	2535.823893
645.024192	2537.275745
645.368112	2535.922195
645.711981	2534.969417
646.055797	2534.737524
646.399562	2537.001002
646.743274	2534.624098
647.086935	2535.929757
647.430544	2532.781557
647.774101	2535.869263
648.117606	2537.502597
648.461059	2534.908923
648.804460	2537.800025
649.147810	2534.351876
649.491108	2534.387164
649.834354	2534.563604
650.177548	2536.474202
650.520690	2536.506969
650.863781	2536.217103
651.206820	2539.692978
651.549807	2534.210724
651.892742	2536.073430
652.235626	2533.126876
652.578458	2536.547298
652.921238	2534.651825
653.263967	2540.920499
653.606644	2537.346321
653.949269	2535.216434
654.291843	2535.012267
654.634365	2534.311547
654.976836	2537.081661
655.319255	2535.307175
655.661622	2538.553678
656.003938	2532.166536
656.346203	2536.446475
656.688416	2536.017977
657.030577	2536.948070
657.372687	2536.078471
657.714746	2537.076620
658.056753	2534.034283
658.398708	2527.977337
658.740612	2530.313912
659.082465	2530.359282
659.424266	2534.215765
659.766016	2531.639735
660.107715	2534.523275
660.449362	2533.542771
660.790958	2535.700385
661.132503	2536.544778
661.473996	2534.666948
661.815438	2537.379089
662.156829	2534.515713
662.498168	2533.159643
662.839456	2535.037473
663.180693	2535.592000
663.521879	2534.959335
663.863013	2532.337935
664.204097	2536.088553
664.545129	2533.520086
664.886110	2533.336083
665.227040	2534.848430
665.567918	2533.285672
665.908746	2534.465302
666.249522	2536.312885
666.590248	2534.062010
666.930922	2536.645601
667.271545	2535.251722
667.612118	2535.377751
667.952639	2534.966897
668.293109	2532.345497
668.633528	2535.891948
668.973896	2533.557894
669.314213	2534.767771
669.654480	2533.908254
669.994695	2535.080323
670.334859	2536.136444
670.674973	2536.196938
671.015035	2534.964376
671.355047	2535.223996
671.695008	2536.126362
672.034918	2535.768440
672.374777	2533.094108
672.714585	2535.523944
673.054342	2532.708460
673.394049	2535.695343
673.733705	2535.909592
674.073310	2535.977648
674.412864	2537.694161
674.752368	2533.026053
675.091820	2534.359438
675.431223	2534.344314
675.770574	2538.208359
676.109875	2529.817358
676.449125	2531.538912
676.788324	2532.194262
677.127473	2533.757020
677.466571	2530.185362
677.805619	2534.336753
678.144616	2534.167874
678.483562	2533.799870
678.822458	2534.309026
679.161303	2534.036804
679.500098	2534.881197
679.838842	2537.487474
680.177535	2533.636032
680.516179	2534.072092
680.854771	2534.404808
681.193314	2536.393543
681.531805	2535.571835
681.870247	2535.193749
682.208638	2534.545960
682.546978	2534.273738
682.885268	2535.627288
683.223508	2534.072092
683.561697	2534.324150
683.899836	2536.822041
684.237925	2533.835158
684.575963	2533.051258
684.913951	2535.057638
685.251889	2536.905220
685.589776	2535.113090
685.927614	2534.354397
686.265401	2536.141486
686.603137	2536.249870
686.940824	2533.167205
687.278460	2534.326670
687.616046	2534.356917
687.953582	2536.196938
688.291068	2534.119983
688.628504	2533.915816
688.965889	2534.906403
689.303224	2533.010929
689.640510	2534.946732
689.977745	2533.126876
690.314930	2536.960673
690.652065	2536.330529
690.989150	2535.528985
691.326185	2536.259953
691.663170	2534.399767
692.000105	2535.052596
692.336990	2535.362627
692.673825	2535.750796
693.010610	2535.297092
693.347345	2530.460105
693.684030	2529.532533
694.020665	2532.143851
694.357251	2529.300640
694.693786	2535.564273
695.030272	2533.494880
695.366707	2537.646270
695.703093	2533.205013
696.039429	2532.975641
696.375716	2534.994623
696.711952	2533.668800
697.048139	2533.686444
697.384276	2535.347504
697.720363	2533.968748
698.056400	2536.010416
698.392388	2533.252904
698.728326	2532.741227
699.064214	2533.416742
699.400053	2535.607123
699.735842	2534.218285
700.071581	2535.796167
700.407270	2535.138296
700.742910	2534.634181
701.078501	2534.926567
701.414042	2535.460930
701.749533	2534.782895
702.084974	2531.669982
702.420366	2534.843388
702.755709	2532.773995
703.091002	2534.016639
703.426246	2533.099149
703.761440	2534.929088
704.096584	2534.969417
704.431679	2533.895652
704.766725	2535.922195
705.101721	2535.410518
705.436668	2535.160981
705.771565	2533.126876
706.106413	2536.070909
706.441212	2533.923378
706.775961	2536.345652
707.110661	2533.260466
707.445311	2533.673841
707.779913	2536.527134
708.114465	2534.331711
708.448967	2535.435724
708.783421	2533.507483
709.117825	2535.849099
709.452180	2535.498738
709.786485	2534.603934
710.120742	2534.321629
710.454949	2535.123173
710.789107	2532.569828
711.123216	2532.269879
711.457275	2529.963552
711.791286	2529.393901
712.125247	2530.331556
712.459159	2532.582431
712.793023	2532.952956
713.126837	2533.404139
713.460602	2535.342463
713.794318	2532.612678
714.127985	2534.891279
714.461602	2533.913296
714.795171	2538.783050
715.128691	2535.685261
715.462162	2533.293234
715.795584	2534.422452
716.128957	2534.293903
716.462281	2534.233409
716.795556	2534.538399
717.128782	2535.491177
717.461960	2534.147709
717.795088	2532.007739
718.128167	2534.024201
718.461198	2532.615198
718.794180	2533.918337
719.127113	2535.297092
719.459997	2535.390354
719.792833	2532.229550
720.125619	2531.748120
720.458357	2534.588810
720.791046	2533.409180
721.123686	2532.254756
721.456278	2532.287523
721.788821	2533.600744
722.121315	2536.053265
722.453761	2532.940353
722.786158	2534.354397
723.118506	2532.867256
723.450805	2531.874149
723.783056	2532.063192
724.115259	2532.252235
724.447412	2530.913809
724.779518	2533.976310
725.111574	2533.462112
725.443582	2533.855322
725.775542	2532.569828
726.107453	2531.702750
726.439315	2535.960004
726.771129	2535.506300
727.102895	2532.327853
727.434612	2532.907585
727.766281	2533.688964
728.097901	2529.948428
728.429473	2531.518748
728.760996	2529.149405
729.092471	2526.384332
729.423897	2533.605785
729.755276	2533.842719
730.086606	2535.632329
730.417887	2532.191742
730.749120	2535.808769
731.080305	2531.528830
731.411442	2532.695857
731.742530	2533.041176
732.073570	2535.501259
732.404562	2531.732997
732.735506	2535.400436
733.066401	2532.942873
733.397249	2532.559746
733.728048	2533.772143
734.058798	2536.020498
734.389501	2531.541433
734.720156	2531.911958
735.050762	2536.166691
735.381320	2531.370033
735.711831	2535.128214
736.042293	2531.120496
736.372707	2535.196269
736.703073	2533.865405
737.033391	2534.077133
737.363661	2533.953625
737.693883	2533.837678
738.024056	2535.075282
738.354182	2533.194931
738.684260	2533.552853
739.014290	2533.809952
739.344272	2531.622091
739.674207	2529.247708
740.004093	2532.791639
740.333931	2532.083357
740.663722	2532.927750
740.993464	2533.855322
741.323159	2532.320291
741.652806	2532.090918
741.982405	2533.547812
742.311956	2532.716022
742.641460	2531.304498
742.970915	2532.640404
743.300323	2534.787936
743.629683	2533.255425
743.958996	2529.749302
744.288260	2534.276259
744.617477	2533.394057
744.946647	2526.865763
745.275768	2529.298119
745.604842	2528.801566
745.933869	2530.470188
746.262847	2528.365506
746.591778	2533.351207
746.920662	2531.717873
747.249498	2532.322812
747.578286	2531.831299
747.907027	2530.981865
748.235720	2532.479087
748.564365	2531.077647
748.892963	2533.366330
749.221514	2535.297092
749.550017	2530.878521
749.878473	2533.295754
750.206881	2531.249046
750.535242	2533.310878
750.863555	2534.021680
751.191821	2533.182328
751.520039	2530.918850
751.848210	2532.113604
752.176334	2532.252235
752.504411	2532.673172
752.832440	2531.732997
753.160421	2535.029911
753.488356	2534.424973
753.816243	2532.753830
754.144082	2531.987575
754.471875	2535.276928
754.799620	2532.799201
755.127318	2531.828778
755.454969	2532.378264
755.782572	2534.447658
756.110129	2530.487832
756.437638	2533.189890
756.765100	2533.641073
757.092515	2533.905734
757.419882	2532.852133
757.747203	2534.205682
758.074477	2532.484128
758.401703	2532.920188
758.728882	2528.604961
759.056014	2531.024714
759.383099	2533.157122
759.710138	2531.692667
760.037129	2532.809283
760.364073	2532.892462
760.690970	2532.819365
761.017820	2529.819879
761.344623	2530.187883
761.671379	2533.951104
761.998088	2530.119827
762.324751	2529.391381
762.651366	2527.886596
762.977935	2532.559746
763.304456	2530.860877
763.630931	2531.763243
763.957359	2532.620240
764.283740	2531.415404
764.610074	2534.737524
764.936362	2531.647297
765.262602	2534.646783
765.588796	2533.015970
765.914943	2533.653676
766.241044	2531.206196
766.567097	2532.085877
766.893104	2531.362472
767.219064	2528.824251
767.544978	2531.987575
767.870845	2532.985723
768.196665	2531.576721
768.522438	2530.071936
768.848165	2532.174097
769.173846	2532.224509
769.499479	2531.274252
769.825066	2533.593182
770.150607	2532.353058
770.476101	2530.923891
770.801548	2534.687113
771.126949	2532.524458
771.452303	2531.435568
771.777611	2533.658717
772.102872	2532.569828
772.428087	2530.699560
772.753256	2530.384488
773.078378	2531.082688
773.403453	2533.883049
773.728482	2530.576052
774.053465	2531.614529
774.378401	2533.036135
774.703291	2532.264838
775.028135	2534.213244
775.352932	2531.334745
775.677683	2533.295754
776.002388	2533.194931
776.327046	2532.088398
776.651658	2532.214427
776.976224	2531.100332
777.300743	2529.920702
777.625216	2530.913809
777.949643	2532.433717
778.274024	2534.198121
778.598359	2529.149405
778.922647	2524.549352
779.246889	2529.257790
779.571086	2526.777542
779.895236	2531.775846
780.219339	2531.284334
780.543397	2530.944056
780.867409	2532.277441
781.191374	2531.155784
781.515294	2531.722914
781.839167	2533.668800
782.162995	2532.703419
782.486776	2529.598068
782.810511	2531.075126
783.134201	2529.288037
783.457844	2532.486649
783.781441	2531.150743
784.104993	2530.772657
784.428498	2532.272400
784.751958	2529.489683
785.075372	2531.811134
785.398739	2530.197965
785.722061	2533.205013
786.045337	2529.963552
786.368568	2529.308202
786.691752	2531.750641
787.014891	2533.157123
787.337983	2528.703263
787.661030	2531.906916
787.984031	2530.792821
788.306987	2529.789632
788.629897	2532.481608
788.952760	2532.726104
789.275579	2530.336597
789.598351	2532.975641
789.921078	2533.207534
790.243759	2530.767616
790.566395	2531.687626
790.888984	2530.266021
791.211529	2530.228212
791.534027	2531.438089
791.856480	2528.458767
792.178888	2530.417255
792.501249	2533.202493
792.823566	2531.425486
793.145836	2532.688295
793.468062	2532.647966
793.790241	2531.226361
794.112375	2531.201155
794.434464	2529.832482
794.756507	2531.249046
795.078505	2532.937832
795.400457	2525.232429
795.722364	2526.747295
796.044226	2528.307533
796.366042	2527.016997
796.687812	2528.436082
797.009538	2533.298275
797.331218	2532.400949
797.652852	2532.521937
797.974442	2529.961031
798.295986	2531.969931
798.617484	2530.172759
798.938938	2527.480783
799.260346	2532.360620
799.581709	2530.618902
799.903026	2533.651156
800.224299	2531.407842
800.545526	2530.825589
800.866708	2530.989426
801.187845	2531.012112
801.508936	2531.090249
801.829983	2531.891793
802.150984	2532.607637
802.471940	2534.135106
802.792851	2529.242667
803.113717	2530.843233
803.434538	2530.321473
803.755314	2532.786598
804.076045	2528.113448
804.396731	2530.583613
804.717372	2530.792821
805.037967	2531.778367
805.358518	2531.196114
805.679024	2534.868594
805.999485	2530.855836
806.319901	2528.378109
806.640272	2528.625125
806.960598	2529.474560
807.280879	2532.469005
807.601115	2530.528161
807.921306	2531.390198
808.241453	2533.162164
808.561554	2530.409694
808.881611	2531.430527
809.201623	2532.234591
809.521590	2532.736186
809.841513	2529.502286
810.161390	2532.458923
810.481223	2530.923891
810.801011	2531.178470
811.120755	2529.300640
811.440453	2530.623943
811.760107	2530.021525
812.079716	2527.957172
812.399281	2526.356606
812.718801	2527.188396
813.038276	2522.895854
813.357707	2531.032276
813.677093	2530.676875
813.996434	2529.383819
814.315731	2530.500434
814.634983	2530.308871
814.954191	2531.869108
815.273354	2530.742410
815.592473	2529.527492
815.911547	2531.823737
816.230577	2529.857687
816.549562	2531.402801
816.868502	2528.599919
817.187399	2531.438089
817.506250	2529.840043
817.825058	2531.901875
818.143821	2529.789632
818.462539	2530.823068
818.781213	2528.650331
819.099843	2528.902389
819.418429	2529.330887
819.736970	2528.199148
820.055466	2530.770136
820.373919	2529.870290
820.692327	2529.640918
821.010691	2532.635363
821.329011	2529.330887
821.647286	2536.073430
821.965517	2531.077647
822.283704	2532.368182
822.601847	2531.768285
822.919945	2531.511186
823.237999	2531.977492
823.556010	2532.479087
823.873976	2530.636546
824.191897	2531.296937
824.509775	2529.202337
824.827609	2531.652338
825.145398	2533.215096
825.463144	2530.346679
825.780845	2528.839374
826.098502	2528.859539
826.416116	2531.995137
826.733685	2532.456402
827.051210	2531.337266
827.368692	2529.756864
827.686129	2529.207378
828.003522	2531.470857
828.320872	2524.312418
828.638177	2528.007584
828.955439	2524.871986
829.272656	2528.907430
829.589830	2526.893489
829.906960	2531.158305
830.224046	2529.406504
830.541088	2529.227543
830.858086	2529.376257
831.175041	2530.649148
831.491952	2530.250897
831.808819	2530.142512
832.125642	2528.322656
832.442421	2531.571680
832.759157	2530.770136
833.075849	2530.991947
833.392497	2531.864067
833.709101	2531.493542
834.025662	2528.121010
834.342179	2531.460774
834.658653	2529.608150
834.975083	2530.787780
835.291469	2531.077647
835.607811	2531.985054
835.924110	2529.575383
836.240366	2528.988088
836.556578	2529.741741
836.872746	2531.082688
837.188871	2528.496576
837.504952	2531.112935
837.820990	2531.322143
838.136984	2526.502799
838.452935	2529.686288
838.768842	2529.605630
839.084706	2529.724097
839.400526	2529.847605
839.716303	2529.300640
840.032037	2531.680064
840.347727	2529.630835
840.663373	2529.860208
840.978977	2528.857018
841.294537	2530.820548
841.610054	2528.340300
841.925527	2531.349869
842.240957	2530.402132
842.556344	2529.048582
842.871687	2534.180477
843.186987	2532.859694
843.502244	2528.647810
843.817458	2530.124868
844.132629	2527.062368
844.447756	2530.200486
844.762840	2527.909281
845.077881	2526.119672
845.392879	2527.604292
845.707833	2528.534384
846.022745	2524.640093
846.337613	2529.696370
846.652438	2528.292409
846.967221	2530.649148
847.281960	2526.616225
847.596656	2532.605116
847.911309	2530.704601
848.225919	2530.608819
848.540485	2529.320804
848.855009	2527.642100
849.169490	2530.291227
849.483928	2528.947759
849.798323	2530.051772
850.112675	2529.955990
850.426984	2527.667306
850.741251	2528.952800
851.055474	2528.768798
851.369654	2531.385157
851.683792	2531.105373
851.997887	2529.792152
852.311938	2526.349044
852.625947	2528.219312
852.939914	2528.483973
853.253837	2532.337935
853.567718	2530.245856
853.881555	2529.424148
854.195350	2528.415917
854.509103	2531.090249
854.822812	2529.242667
855.136479	2528.970444
855.450103	2531.911958
855.763685	2526.860721
856.077224	2527.780732
856.390720	2531.430527
856.704173	2526.817872
857.017584	2527.843746
857.330953	2525.960875
857.644278	2530.548325
857.957561	2531.508665
858.270802	2532.869777
858.584000	2531.128058
858.897155	2532.474046
859.210268	2529.948428
859.523339	2529.129241
859.836367	2529.976154
860.149352	2529.908099
860.462295	2530.785260
860.775195	2527.052285
861.088054	2525.814682
861.400869	2527.536236
861.713642	2524.246883
862.026373	2527.069929
862.339062	2527.442975
862.651708	2527.657224
862.964312	2529.414066
863.276873	2529.139323
863.589392	2525.681091
863.901869	2526.160001
864.214303	2530.513037
864.526696	2528.526823
864.839045	2529.403983
865.151353	2531.347348
865.463619	2528.642769
865.775842	2529.663603
866.088023	2527.339631
866.400162	2529.482121
866.712258	2530.001360
867.024313	2528.652852
867.336325	2531.256608
867.648296	2530.220650
867.960224	2529.469518
868.272110	2530.545805
868.583954	2528.917512
868.895755	2527.931967
869.207515	2528.816689
869.519233	2527.037162
869.830909	2528.617563
870.142542	2529.693850
870.454134	2528.627646
870.765684	2530.177801
871.077191	2528.519261
871.388657	2529.835002
871.700081	2529.255269
872.011463	2528.897347
872.322803	2526.036493
872.634101	2526.724610
872.945357	2526.096987
873.256571	2527.193438
873.567744	2526.132275
873.878874	2529.023376
874.189963	2527.644621
874.501010	2529.416586
874.812015	2529.227543
875.122979	2528.577234
875.433900	2528.277286
875.744780	2531.919519
876.055618	2529.565300
876.366415	2531.380116
876.677169	2527.760567
876.987882	2528.299971
877.298554	2523.805782
877.609183	2523.926770
877.919771	2527.896678
878.230317	2524.516585
878.540822	2531.294416
878.851285	2529.852646
879.161707	2527.586648
879.472087	2529.212420
879.782425	2528.761236
880.092722	2527.551359
880.402977	2528.080681
880.713191	2529.366175
881.023363	2528.846936
881.333494	2528.751154
881.643583	2529.920702
881.953631	2527.765608
882.263637	2529.661082
882.573602	2527.785773
882.883526	2527.710156
883.193408	2530.036648
883.503248	2529.807276
883.813048	2528.809127
884.122806	2527.374919
884.432522	2528.887265
884.742197	2527.664785
885.051831	2530.039169
885.361424	2527.122861
885.670975	2528.546987
885.980485	2526.943900
886.289954	2530.371885
886.599382	2528.559590
886.908768	2527.654703
887.218113	2527.158149
887.527417	2529.081350
887.836680	2528.436082
888.145901	2528.274765
888.455082	2527.135464
888.764221	2525.686133
889.073319	2527.732841
889.382376	2528.851977
889.691392	2531.440610
890.000366	2528.015146
890.309300	2527.291740
890.618193	2529.323325
890.927044	2529.756864
891.235855	2527.924405
891.544625	2528.017666
891.853353	2528.136133
892.162041	2526.157480
892.470687	2527.105217
892.779293	2528.057995
893.087858	2526.467511
893.396381	2523.780576
893.704864	2524.786287
894.013306	2524.919877
894.321707	2530.838192
894.630068	2529.106555
894.938387	2527.929446
895.246665	2526.112110
895.554903	2528.675537
895.863100	2529.159487
896.171256	2528.196627
896.479371	2528.514220
896.787446	2528.486493
897.095480	2528.433561
897.403473	2528.158818
897.711425	2528.776360
898.019336	2529.587986
898.327207	2526.207892
898.635038	2529.361134
898.942827	2527.284178
899.250576	2527.074970
899.558284	2528.756195
899.865952	2526.764939
900.173579	2529.915661
900.481165	2529.177132
900.788711	2527.901720
901.096216	2526.636390
901.403681	2525.502130
901.711105	2528.052954
902.018489	2527.793335
902.325832	2532.915147
902.633135	2526.318797
902.940397	2529.300640
903.247619	2524.423323
903.554800	2526.517923
903.861941	2526.454908
904.169041	2529.935825
904.476101	2528.988088
904.783121	2528.189065
905.090100	2527.039682
905.397039	2529.630835
905.703938	2530.901206
906.010796	2529.615712
906.317614	2528.788963
906.624391	2528.244518
906.931129	2526.437264
907.237826	2527.495907
907.544483	2526.185207
907.851099	2527.536236
908.157675	2527.473222
908.464211	2529.656041
908.770707	2521.577592
909.077163	2527.112779
909.383578	2523.803262
909.689954	2523.394928
909.996289	2525.766791
910.302584	2528.771319
910.608839	2525.388704
910.915054	2528.902389
911.221229	2527.478263
911.527363	2527.327028
911.833458	2529.618233
912.139513	2529.421628
912.445527	2526.056657
912.751502	2528.829292
913.057436	2527.206040
913.363331	2528.945238
913.669186	2527.183355
913.975000	2526.971627
914.280775	2524.047757
914.586510	2529.101514
914.892205	2525.701256
915.197859	2529.961031
915.503475	2528.148736
915.809050	2528.690660
916.114585	2525.552542
916.420081	2530.218130
916.725536	2526.349044
917.030952	2528.272244
917.336328	2528.463808
917.641665	2528.073119
917.946961	2526.911133
918.252218	2527.148067
918.557435	2527.256452
918.862612	2529.940866
919.167750	2526.359127
919.472848	2527.213602
919.777906	2525.025741
920.082925	2526.938859
920.387904	2523.856194
920.692843	2527.773170
920.997743	2528.347862
921.302603	2524.834178
921.607423	2529.237625
921.912204	2526.253262
922.216946	2526.696884
922.521647	2526.132275
922.826310	2527.944569
923.130932	2527.924405
923.435516	2526.638911
923.740059	2527.112779
924.044564	2526.953983
924.349028	2527.332069
924.653454	2525.315608
924.957840	2523.662109
925.262186	2522.840401
925.566493	2525.083715
925.870761	2523.115144
926.174989	2524.909795
926.479178	2528.506658
926.783328	2526.389373
927.087438	2527.221164
927.391509	2528.395753
927.695541	2528.115969
927.999533	2526.454908
928.303486	2529.930784
928.607400	2526.754857
928.911275	2528.257121
929.215110	2524.090607
929.518906	2526.472552
929.822663	2528.095804
930.126381	2525.943231
930.430060	2525.799558
930.733699	2526.109589
931.037299	2527.803417
931.340861	2527.253931
931.644383	2525.557583
931.947866	2524.388035
932.251309	2529.444313
932.554714	2526.245701
932.858080	2526.709487
933.161407	2526.591020
933.464694	2525.121523
933.767943	2522.389218
934.071153	2526.308715
934.374323	2526.850639
934.677455	2529.535053
934.980548	2527.107738
935.283602	2526.873324
935.586617	2526.119672
935.889593	2527.863911
936.192530	2528.849457
936.495428	2526.943900
936.798287	2527.072450
937.101108	2526.291071
937.403890	2525.794517
937.706632	2528.249559
938.009336	2528.680578
938.312002	2526.618746
938.614628	2527.072450
938.917216	2527.455578
939.219765	2522.928621
939.522275	2525.292923
939.824747	2524.856863
940.127179	2523.657068
940.429573	2521.358302
940.731929	2522.593385
941.034246	2520.607170
941.336524	2527.707635
941.638763	2526.336441
941.940964	2525.892820
942.243126	2528.262162
942.545250	2525.613036
942.847335	2526.651513
943.149381	2524.607326
943.451389	2527.397604
943.753359	2525.418951
944.055290	2526.762419
944.357182	2524.446009
944.659036	2525.446678
944.960851	2526.921215
945.262628	2526.613705
945.564367	2527.085053
945.866067	2525.713859
946.167729	2527.064888
946.469352	2523.921729
946.770937	2526.129754
947.072484	2527.011956
947.373992	2529.681247
947.675462	2525.255114
947.976893	2527.964734
948.278286	2526.946421
948.579641	2528.398273
948.880958	2527.614374
949.182236	2524.708149
949.483476	2527.500948
949.784678	2525.996163
950.085841	2525.582789
950.386967	2526.160001
950.688054	2528.801566
950.989103	2525.766791
951.290114	2527.425331
951.591087	2526.659075
951.892021	2526.399456
952.192917	2528.667975
952.493776	2525.923067
952.794596	2526.270906
953.095378	2526.255783
953.396122	2527.798376
953.696828	2525.892820
953.997496	2525.691174
954.298126	2526.381812
954.598718	2527.155629
954.899272	2529.663603
955.199788	2526.598581
955.500266	2524.803931
955.800706	2523.969620
956.101108	2522.114475
956.401472	2523.475587
956.701798	2520.317304
957.002087	2522.013652
957.302337	2526.326359
957.602550	2526.129754
957.902724	2525.643283
958.202861	2529.323325
958.502960	2526.840557
958.803022	2525.570186
959.103045	2527.563962
959.403031	2525.297964
959.702979	2525.429034
960.002889	2527.594209
960.302762	2525.335772
960.602596	2526.535567
960.902393	2525.955834
961.202153	2526.442306
961.501875	2526.318797
961.801559	2525.799558
962.101205	2527.687471
962.400814	2527.364837
962.700385	2526.341483
962.999918	2527.274096
963.299414	2526.195289
963.598873	2525.602953
963.898293	2526.391894
964.197677	2525.764270
964.497022	2525.597912
964.796331	2527.294261
965.095601	2524.141019
965.394835	2525.479445
965.694030	2525.950793
965.993189	2525.345855
966.292309	2527.276617
966.591393	2526.913653
966.890439	2526.840557
967.189447	2525.464322
967.488419	2523.021883
967.787353	2529.063706
968.086249	2525.592871
968.385108	2524.559435
968.683930	2523.954496
968.982714	2524.299815
969.281462	2527.400125
969.580172	2526.379291
969.878844	2527.629497
970.177480	2527.052285
970.476078	2525.839888
970.774639	2526.795186
971.073162	2523.571368
971.371649	2527.805938
971.670098	2524.322500
971.968510	2521.486851
972.266885	2522.384177
972.565223	2525.890299
972.863524	2522.706811
973.161788	2526.202851
973.460014	2521.935514
973.758204	2525.998684
974.056356	2524.987933
974.354471	2523.899043
974.652550	2524.113293
974.950591	2528.864580
975.248595	2525.716379
975.546563	2524.733354
975.844493	2525.529857
976.142386	2525.638242
976.440243	2525.993643
976.738062	2527.251411
977.035845	2525.723941
977.333590	2526.356606
977.631299	2525.182017
977.928971	2526.540608
978.226606	2525.061029
978.524204	2526.079343
978.821765	2527.264014
979.119290	2525.759229
979.416777	2524.483817
979.714228	2525.691174
980.011642	2525.096318
980.309020	2526.747295
980.606360	2526.338962
980.903664	2525.262676
981.200931	2523.863755
981.498162	2524.519105
981.795356	2524.778725
982.092513	2527.004394
982.389633	2523.508354
982.686717	2525.096318
982.983764	2524.735875
983.280775	2524.924918
983.577749	2527.427851
983.874686	2526.550690
984.171587	2525.126564
984.468451	2524.826616
984.765279	2526.192768
985.062070	2525.809641
985.358824	2526.437264
985.655543	2526.069260
985.952224	2527.586647
986.248869	2527.866432
986.545478	2519.914011
986.842050	2523.853673
987.138586	2521.280164
987.435086	2524.196472
987.731549	2519.770338
988.027975	2527.397604
988.324366	2523.178158
988.620719	2525.794517
988.917037	2523.810823
989.213318	2523.717562
989.509563	2524.297295
989.805772	2526.782583
990.101944	2526.482635
990.398080	2527.125382
990.694180	2521.035668
990.990244	2524.589682
991.286271	2525.335772
991.582262	2525.907943
991.878217	2522.958868
992.174136	2525.761750
992.470019	2525.509692
992.765865	2524.899713
993.061676	2523.641945
993.357450	2523.987264
993.653188	2524.486338
993.948890	2526.860721
994.244556	2524.241842
994.540186	2522.056502
994.835780	2526.374250
995.131337	2524.009949
995.426859	2525.565145
995.722345	2521.564989
996.017795	2525.436595
996.313208	2526.341482
996.608586	2524.002387
996.903928	2526.485155
997.199234	2524.519105
997.494504	2528.766277
997.789738	2523.672192
998.084936	2526.603623
998.380099	2522.999197
998.675225	2524.773684
998.970316	2524.640093
999.265371	2524.700587
999.560390	2525.287881
999.855373	2524.135978
1000.150320	2521.499454
1000.445232	2526.129754
1000.740108	2524.516585
1001.034948	2524.292253
1001.329752	2525.418951
1001.624521	2525.441637
1001.919254	2522.013652
1002.213951	2522.840401
1002.508613	2521.948117
1002.803239	2523.329393
1003.097829	2520.609691
1003.392384	2523.410052
1003.686903	2525.852491
1003.981386	2526.152439
1004.275834	2525.643283
1004.570246	2523.805782
1004.864623	2526.142357
1005.158964	2524.133457
1005.453270	2524.047758
1005.747540	2523.866276
1006.041775	2524.493900
1006.335974	2526.979188
1006.630138	2523.394928
1006.924266	2525.492048
1007.218359	2526.054137
1007.512416	2524.065402
1007.806438	2524.695546
1008.100425	2524.834177
1008.394376	2523.536080
1008.688292	2523.019362
1008.982172	2525.421472
1009.276017	2525.476925
1009.569827	2525.691174
1009.863602	2526.157480
1010.157341	2526.875845
1010.451045	2523.125226
1010.744714	2525.164373
1011.038347	2525.134126
1011.331945	2523.062212
1011.625508	2525.318128
1011.919036	2523.515916
1012.212528	2524.773684
1012.505986	2521.259999
1012.799408	2525.544980
1013.092795	2526.926256
1013.386147	2525.623118
1013.679464	2525.751668
1013.972745	2527.412728
1014.265992	2524.816533
1014.559204	2524.932480
1014.852380	2524.287212
1015.145521	2525.731503
1015.438628	2524.687984
1015.731699	2527.700073
1016.024736	2523.838550
1016.317737	2526.172604
1016.610703	2524.516585
1016.903635	2523.152953
1017.196531	2521.932993
1017.489393	2523.180679
1017.782219	2521.320493
1018.075011	2521.345699
1018.367768	2527.140505
1018.660490	2526.522964
1018.953177	2526.522964
1019.245829	2526.522964
