Dividing Wavelength (nm)	Counts (n)	Blue Motor Position (mm): 0.000000	Red Motor Position (mm): 14.900000	
326.493990	2129.070833
326.888308	2129.070833
327.282561	2129.070833
327.676750	2097.067068
328.070874	2096.469691
328.464933	2097.014136
328.858929	2107.151896
329.252859	2116.551128
329.646726	2126.197375
330.040528	2137.774385
330.434265	2157.807931
330.827938	2174.204283
331.221547	2189.985616
331.615091	2211.423122
332.008571	2230.191338
332.401986	2248.762949
332.795338	2268.083171
333.188625	2288.396500
333.581847	2307.613379
333.975006	2324.660041
334.368100	2345.631241
334.761129	2362.025073
335.154095	2375.984028
335.546996	2393.355844
335.939833	2408.176836
336.332606	2424.414393
336.725315	2437.115580
337.117960	2446.277877
337.510540	2454.822633
337.903056	2466.326546
338.295508	2472.217134
338.687896	2480.572847
339.080220	2490.017448
339.472480	2496.581031
339.864676	2501.032370
340.256807	2506.005468
340.648875	2508.654594
341.040879	2511.318844
341.432818	2512.790861
341.824694	2513.005110
342.216506	2513.902435
342.608253	2516.327230
342.999937	2516.143228
343.391557	2515.392096
343.783113	2514.204905
344.174605	2513.549555
344.566033	2509.289780
344.957397	2506.219717
345.348697	2507.543020
345.739934	2505.135869
346.131106	2502.892555
346.522215	2503.061434
346.913260	2501.463388
347.304241	2499.278048
347.695159	2500.490446
348.086012	2498.300064
348.476802	2492.515340
348.867528	2491.345793
349.258191	2490.592140
349.648789	2492.535505
350.039324	2484.149545
350.429796	2486.917139
350.820203	2485.563589
351.210548	2486.133239
351.600828	2485.835811
351.991045	2484.948568
352.381198	2482.843887
352.771288	2483.602580
353.161314	2483.012765
353.551276	2484.300780
353.941175	2479.907414
354.331010	2484.154587
354.720782	2483.811788
355.110490	2481.452528
355.500135	2484.268013
355.889717	2483.937817
356.279235	2482.042343
356.668689	2484.167189
357.058080	2485.775318
357.447408	2482.279277
357.836672	2483.216932
358.225873	2484.325986
358.615010	2482.685090
359.004084	2487.486789
359.393095	2488.893271
359.782043	2489.329331
360.170927	2490.403097
360.559748	2489.110041
360.948505	2489.626759
361.337199	2490.375370
361.725830	2490.345123
362.114398	2491.968375
362.502903	2492.069198
362.891344	2491.577686
363.279722	2491.539877
363.668037	2493.125320
364.056289	2495.726555
364.444478	2492.129692
364.832603	2496.117245
365.220665	2497.407780
365.608665	2493.246308
365.996601	2499.378871
366.384474	2497.127996
366.772284	2501.332318
367.160031	2500.016577
367.547715	2500.891217
367.935336	2504.510766
368.322893	2507.096878
368.710388	2509.761127
369.097820	2517.829494
369.485189	2521.015503
369.872495	2525.045906
370.259738	2530.845753
370.646918	2542.231199
371.034035	2546.266643
371.421090	2556.774928
371.808081	2568.150292
372.195010	2575.669173
372.581875	2588.471183
372.968678	2601.547936
373.355418	2613.341716
373.742096	2634.504479
374.128710	2649.249854
374.515262	2659.571617
374.901751	2676.043587
375.288177	2686.935000
375.674540	2711.724874
376.060841	2727.145764
376.447079	2748.147211
376.833254	2770.691251
377.219367	2781.312962
377.605417	2821.614466
377.991404	2828.661999
378.377329	2849.159331
378.763191	2865.543081
379.148991	2904.145716
379.534727	2928.887699
379.920402	2960.329376
380.306013	2968.168370
380.691563	3018.085876
381.077049	3040.806356
381.462474	3058.493244
381.847835	3100.072681
382.233134	3119.060187
382.618371	3120.733850
383.003545	3188.708769
383.388657	3194.327135
383.773706	3226.371229
384.158693	3242.734814
384.543618	3270.136006
384.928480	3303.299237
385.313280	3349.861854
385.698017	3348.273891
386.082692	3403.068713
386.467305	3407.394023
386.851856	3437.953497
387.236344	3460.863021
387.620770	3493.547342
388.005133	3517.875950
388.389435	3543.222872
388.773674	3555.515725
389.157851	3599.303188
389.541965	3613.428501
389.926018	3580.577822
390.310008	3647.821773
390.693936	3667.247859
391.077802	3706.515927
391.461606	3695.501006
391.845348	3758.525511
392.229027	3755.336982
392.612645	3767.193775
392.996200	3843.053058
393.379694	3879.112432
393.763125	3937.103345
394.146494	3898.702356
394.529801	3950.858133
394.913047	3992.087210
395.296230	3951.294193
395.679351	3991.764576
396.062410	4006.290661
396.445408	3978.559274
396.828343	3996.110051
397.211217	4005.194210
397.594028	3914.100560
397.976778	3957.141932
398.359466	3965.711893
398.742092	3973.692040
399.124656	3881.859861
399.507158	3933.783745
399.889598	3933.481276
400.271977	3962.263744
400.654294	3912.023605
401.036549	3895.725554
401.418742	3838.352183
401.800874	3898.974578
402.182944	3882.875653
402.564952	3898.591450
402.946898	3857.506047
403.328783	3819.440294
403.710606	3726.554514
404.092367	3820.924914
404.474067	3760.506685
404.855705	3730.103486
405.237282	3652.336126
405.618797	3678.552647
406.000250	3659.769308
406.381642	3666.380781
406.762972	3600.477777
407.144240	3564.725913
407.525447	3527.116385
407.906593	3519.771424
408.287677	3496.446005
408.668700	3424.609563
409.049661	3407.983838
409.430560	3378.987121
409.811399	3312.229641
410.192176	3330.445850
410.572891	3270.025101
410.953545	3263.499327
411.334138	3190.142977
411.714669	3173.605472
412.095139	3109.804629
412.475547	3110.238168
412.855894	3069.611509
413.236180	3037.602703
413.616405	2993.016218
413.996568	2984.726040
414.376670	2941.669545
414.756711	2902.726632
415.136691	2882.166286
415.516609	2871.726056
415.896466	2849.938189
416.276262	2832.773060
416.655997	2801.321301
417.035670	2798.006743
417.415283	2786.442336
417.794834	2757.405290
418.174324	2739.567167
418.553753	2713.592622
418.933121	2711.674462
419.312428	2693.985054
419.691674	2675.317661
420.070859	2666.243584
420.449983	2649.166675
420.829045	2641.925058
421.208047	2628.492903
421.586988	2617.944289
421.965867	2609.548247
422.344686	2604.494491
422.723444	2591.979826
423.102141	2579.666808
423.480777	2581.375759
423.859352	2568.777916
424.237866	2570.350756
424.616319	2565.876732
424.994712	2562.620146
425.373044	2558.241904
425.751314	2555.716286
426.129524	2550.901984
426.507673	2549.460214
426.885762	2547.905018
427.263789	2545.341591
427.641756	2543.836807
428.019662	2546.627086
428.397508	2543.282280
428.775292	2539.977804
429.153016	2539.647608
429.530679	2542.019471
429.908282	2536.191897
430.285824	2539.196425
430.663305	2536.943029
431.040726	2536.091074
431.418086	2538.520910
431.795385	2537.802546
432.172624	2536.363296
432.549802	2536.426311
432.926920	2533.474715
433.303977	2536.660724
433.680974	2535.201310
434.057910	2538.057124
434.434786	2533.590662
434.811601	2534.253573
435.188355	2536.151568
435.565050	2534.646783
435.941683	2535.012267
436.318257	2533.762061
436.694770	2531.362472
437.071222	2532.789118
437.447614	2532.249715
437.823946	2536.665766
438.200218	2536.179294
438.576429	2534.508152
438.952580	2535.579397
439.328670	2535.196269
439.704700	2535.287010
440.080670	2534.871115
440.456580	2533.840199
440.832429	2535.133255
441.208218	2536.721218
441.583947	2535.211393
441.959616	2537.212731
442.335224	2535.624767
442.710773	2535.503780
443.086261	2534.334232
443.461689	2533.870446
443.837057	2535.985210
444.212365	2537.179963
444.587612	2536.219623
444.962800	2537.149716
445.337927	2536.905220
445.712995	2536.738862
446.088002	2536.869932
446.462949	2537.749614
446.837837	2538.447813
447.212664	2536.368337
447.587431	2537.802546
447.962139	2539.942516
448.336786	2544.615665
448.711374	2540.353370
449.085901	2542.105171
449.460369	2539.934954
449.834776	2540.686086
450.209124	2543.869574
450.583412	2539.856816
450.957640	2541.487629
451.331808	2541.981662
451.705917	2539.496373
452.079965	2540.728936
452.453954	2539.181301
452.827883	2538.649460
453.201752	2539.506456
453.575562	2539.317413
453.949311	2540.212217
454.323001	2539.292207
454.696632	2542.059800
455.070202	2539.082999
455.443713	2540.708771
455.817164	2539.418236
456.190556	2538.304141
456.563888	2538.538554
456.937160	2536.527134
457.310373	2543.463762
457.683526	2538.757844
458.056619	2538.866229
458.429653	2540.912938
458.802628	2543.582229
459.175542	2541.764893
459.548398	2543.955274
459.921194	2544.600542
460.293930	2542.442928
460.666607	2548.819987
461.039224	2545.339071
461.411782	2548.341078
461.784280	2545.984338
462.156719	2550.768393
462.529099	2548.850234
462.901419	2544.713968
463.273680	2546.095244
463.645882	2545.455017
464.018024	2548.187323
464.390106	2548.204967
464.762130	2547.685728
465.134094	2549.929041
465.505999	2554.052705
465.877845	2559.295505
466.249631	2561.006977
466.621358	2558.173848
466.993026	2559.615618
467.364634	2558.652758
467.736184	2554.803837
468.107674	2553.173024
468.479105	2554.445915
468.850477	2556.510268
469.221790	2556.502706
469.593043	2550.838970
469.964238	2551.214536
470.335373	2551.695966
470.706449	2552.154711
471.077467	2552.401727
471.448425	2559.272820
471.819324	2561.095197
472.190164	2560.351627
472.560945	2557.883982
472.931667	2554.556821
473.302330	2552.837787
473.672934	2554.937428
474.043479	2553.450287
474.413965	2555.318035
474.784393	2550.715461
475.154761	2554.153528
475.525070	2549.745039
475.895321	2551.905174
476.265513	2547.799154
476.635645	2555.938097
477.005719	2557.576472
477.375734	2558.156204
477.745691	2555.312994
478.115588	2559.013201
478.485427	2558.559497
478.855207	2562.504200
479.224928	2565.097873
479.594591	2562.398335
479.964194	2563.908161
480.333739	2567.031156
480.703226	2561.841288
481.072653	2564.576114
481.442022	2564.281206
481.811333	2564.175342
482.180584	2563.005794
482.549777	2560.870866
482.918912	2563.746844
483.287988	2562.053016
483.657005	2562.461350
484.025964	2557.175700
484.394864	2561.735424
484.763706	2562.350444
485.132489	2559.192162
485.501213	2560.056719
485.869879	2559.822306
486.238487	2559.408931
486.607036	2561.511092
486.975527	2561.266596
487.343959	2558.264589
487.712333	2559.930691
488.080648	2558.655279
488.448905	2562.325239
488.817104	2558.035217
489.185244	2557.672254
489.553326	2560.903633
489.921350	2562.579817
490.289315	2566.443861
490.657222	2565.687688
491.025070	2564.434962
491.392861	2566.022925
491.760593	2563.126782
492.128267	2565.586865
492.495883	2561.551422
492.863440	2563.729200
493.230939	2559.655948
493.598380	2560.931360
493.965763	2555.454146
494.333088	2555.865000
494.700354	2556.976574
495.067563	2557.752912
495.434713	2554.161090
495.801805	2562.436144
496.168839	2558.188972
496.535815	2561.483366
496.902733	2557.573951
497.269593	2562.892368
497.636395	2558.390618
498.003139	2558.030176
498.369825	2556.853066
498.736453	2561.158212
499.103023	2560.437327
499.469535	2559.209806
499.835989	2560.245763
500.202385	2559.658468
500.568723	2556.066646
500.935003	2561.085115
501.301226	2561.674930
501.667390	2560.880948
502.033497	2559.925649
502.399546	2561.586710
502.765537	2560.848181
503.131470	2559.776935
503.497345	2559.413972
503.863163	2560.674261
504.228923	2562.068140
504.594625	2560.404559
504.960269	2560.354147
505.325856	2558.390618
505.691385	2559.401369
506.056856	2558.897254
506.422270	2561.924467
506.787625	2559.252655
507.152924	2559.865156
507.518164	2561.256514
507.883347	2558.012532
508.248472	2561.342214
508.613540	2559.098900
508.978550	2560.863304
509.343503	2560.129816
509.708398	2561.294323
510.073236	2559.141750
510.438016	2561.800959
510.802738	2557.339537
511.167403	2560.641493
511.532010	2559.197203
511.896561	2562.305074
512.261053	2563.383881
512.625488	2558.292316
512.989866	2558.917419
513.354186	2559.603016
513.718449	2556.787531
514.082655	2559.817265
514.446803	2561.253993
514.810894	2561.458160
515.174927	2563.552760
515.538904	2563.751885
515.902822	2560.825495
516.266684	2559.056050
516.630488	2559.171997
516.994235	2560.495300
517.357925	2564.971844
517.721558	2563.595609
518.085133	2561.599313
518.448651	2561.357337
518.812112	2561.206102
519.175516	2560.883469
519.538863	2563.464539
519.902152	2564.263562
520.265385	2562.433623
520.628560	2562.259704
520.991678	2559.469425
521.354739	2562.932698
521.717743	2562.093346
522.080690	2561.856411
522.443580	2561.105279
522.806413	2563.721638
523.169189	2560.654096
523.531908	2562.980589
523.894569	2562.289951
524.257174	2561.954714
524.619722	2558.080587
524.982213	2562.501679
525.344647	2560.923798
525.707025	2562.910012
526.069345	2561.737944
526.431608	2560.391956
526.793815	2559.933211
527.155964	2563.487225
527.518057	2563.088973
527.880093	2561.488407
528.242072	2559.769374
528.603995	2562.922615
528.965860	2558.506565
529.327669	2560.437327
529.689421	2564.107287
530.051117	2561.190979
530.412755	2562.108469
530.774337	2562.221895
531.135862	2562.844477
531.497331	2561.748027
531.858743	2560.523026
532.220098	2559.555125
532.581396	2554.085473
532.942638	2559.842470
533.303824	2560.601164
533.664953	2561.818603
534.026025	2562.864642
534.387040	2560.984292
534.747999	2560.696946
535.108902	2561.193500
535.469748	2562.358006
535.830537	2560.223077
536.191270	2560.293654
536.551947	2563.038562
536.912567	2562.012687
537.273131	2563.877914
537.633638	2560.830537
537.994089	2559.930691
538.354483	2561.019580
538.714821	2563.240208
539.075103	2558.340207
539.435328	2561.009497
539.795497	2562.302553
540.155609	2560.081925
540.515665	2564.702143
540.875665	2561.571586
541.235609	2560.656617
541.595496	2564.324056
541.955328	2561.029662
542.315102	2561.904302
542.674821	2564.492935
543.034483	2561.180897
543.394090	2559.623180
543.753640	2563.315825
544.113134	2561.160732
544.472571	2560.946483
544.831953	2561.566545
545.191278	2561.990002
545.550548	2559.287943
545.909761	2563.824982
546.268918	2563.078891
546.628019	2563.109138
546.987064	2561.443037
547.346053	2562.892368
547.704986	2561.032183
548.063863	2561.740465
548.422684	2558.292316
548.781449	2562.841957
549.140158	2562.221895
549.498811	2560.674261
549.857408	2560.439847
550.215949	2557.737789
550.574434	2559.270299
550.932864	2557.226112
551.291237	2557.571431
551.649555	2562.047975
552.007817	2562.378171
552.366022	2560.157543
552.724173	2562.660475
553.082267	2560.540670
553.440305	2560.008828
553.798288	2563.562842
554.156215	2560.119734
554.514086	2560.008828
554.871902	2559.406411
555.229661	2561.546380
555.587365	2563.048644
555.945014	2560.144940
556.302606	2562.274827
556.660143	2561.022100
557.017625	2562.133675
557.375050	2559.507234
557.732421	2561.639642
558.089735	2563.217523
558.446994	2560.626370
558.804197	2562.834395
559.161345	2560.633932
559.518437	2562.136195
559.875474	2558.541853
560.232455	2559.560166
560.589381	2562.607543
560.946251	2563.177194
561.303065	2563.333469
561.659825	2561.450598
562.016528	2560.354147
562.373177	2561.395146
562.729770	2563.005794
563.086307	2563.562842
563.442789	2562.620146
563.799216	2558.781307
564.155587	2561.483366
564.511904	2557.589075
564.868164	2561.705177
565.224370	2559.766853
565.580520	2561.473284
565.936615	2561.828685
566.292654	2559.918088
566.648638	2561.012018
567.004567	2562.385733
567.360441	2562.426062
567.716260	2562.466391
568.072023	2561.485887
568.427732	2555.161759
568.783385	2557.586554
569.138982	2556.028837
569.494525	2554.758467
569.850013	2556.117058
570.205445	2561.422872
570.560823	2559.129147
570.916145	2562.284909
571.271412	2560.775084
571.626625	2562.836916
571.981782	2558.947666
572.336884	2561.127965
572.691931	2560.336503
573.046923	2559.219888
573.401860	2560.056719
573.756743	2560.782646
574.111570	2560.638973
574.466342	2560.449929
574.821059	2557.500854
575.175722	2560.843139
575.530330	2559.325752
575.884882	2561.291802
576.239380	2560.840619
576.593823	2559.948335
576.948211	2559.391287
577.302544	2559.696277
577.656823	2557.208467
578.011047	2559.892882
578.365216	2561.188458
578.719330	2558.801472
579.073389	2557.430278
579.427394	2559.371122
579.781344	2561.455640
580.135239	2560.391956
580.489080	2559.151832
580.842866	2556.767367
581.196597	2557.994887
581.550273	2560.177707
581.903895	2556.875751
582.257463	2557.674774
582.610975	2559.983623
582.964434	2560.525547
583.317837	2558.511606
583.671186	2561.964796
584.024481	2558.090669
584.377721	2558.383056
584.730906	2560.195351
585.084037	2557.846173
585.437113	2558.125957
585.790135	2557.556307
586.143103	2558.365412
586.496016	2558.884651
586.848874	2552.121943
587.201679	2557.616801
587.554428	2554.834084
587.907124	2556.432130
588.259765	2552.933569
588.612352	2555.658313
588.964884	2558.156204
589.317362	2557.274002
589.669786	2554.808878
590.022155	2560.374312
590.374470	2556.316183
590.726731	2557.463046
591.078937	2556.999260
591.431090	2557.609239
591.783188	2556.459856
592.135232	2558.932542
592.487222	2555.547407
592.839157	2560.293654
593.191038	2557.054712
593.542866	2559.285423
593.894639	2554.624876
594.246358	2556.084290
594.598022	2555.512119
594.949633	2557.959599
595.301190	2551.910215
595.652692	2557.034548
596.004141	2556.263251
596.355535	2557.359702
596.706876	2559.247614
597.058162	2555.496996
597.409395	2555.388611
597.760573	2553.586398
598.111698	2555.098745
598.462768	2555.318035
598.813785	2556.321224
599.164748	2557.087480
599.515657	2554.619835
599.866511	2554.304763
600.217312	2553.772921
600.568060	2555.106306
600.918753	2557.344579
601.269392	2556.593447
601.619978	2555.418858
601.970510	2556.240566
602.320988	2555.741492
602.671412	2555.514640
603.021783	2554.211502
603.372100	2555.930535
603.722363	2557.541184
604.072572	2555.623025
604.422728	2555.653272
604.772830	2552.502550
605.122878	2550.087838
605.472872	2550.556665
605.822813	2547.814277
606.172701	2555.300391
606.522534	2553.573796
606.872314	2555.363405
607.222041	2555.096224
607.571714	2555.340720
607.921333	2556.800134
608.270899	2555.539846
608.620411	2554.987839
608.969870	2558.756102
609.319276	2556.626214
609.668627	2562.358006
610.017926	2563.613253
610.367171	2563.073850
610.716362	2564.054354
611.065500	2562.395815
611.414585	2560.638973
611.763616	2558.405742
612.112594	2558.027655
612.461518	2558.161246
612.810389	2557.241235
613.159207	2556.424568
613.507971	2557.503375
613.856682	2558.158725
614.205340	2556.689229
614.553945	2558.594785
614.902496	2556.623694
615.250994	2556.618652
615.599439	2554.448436
615.947830	2555.013045
616.296169	2557.820968
616.644454	2555.008004
616.992686	2554.919784
617.340864	2557.856256
617.688990	2555.771739
618.037063	2555.991029
618.385082	2557.223591
618.733048	2556.522871
619.080961	2557.014383
619.428821	2557.218550
619.776628	2558.952707
620.124382	2557.551266
620.472083	2557.538663
620.819731	2556.227963
621.167326	2556.033879
621.514868	2554.604712
621.862357	2555.590257
622.209793	2554.254351
622.557176	2553.074721
622.904506	2552.668908
623.251783	2547.721016
623.599007	2550.554144
623.946179	2550.927190
624.293297	2551.942982
624.640363	2550.191181
624.987376	2556.056564
625.334336	2551.103630
625.681243	2553.225956
626.028097	2553.770401
626.374899	2554.433312
626.721647	2553.173024
627.068343	2552.754608
627.414987	2552.870555
627.761577	2553.775442
628.108115	2554.299722
628.454600	2554.138405
628.801032	2552.689073
629.147412	2552.820143
629.493739	2552.011038
629.840014	2553.752757
630.186236	2555.943138
630.532405	2552.822664
630.878521	2552.366439
631.224585	2552.447098
631.570597	2551.380894
631.916556	2553.941800
632.262462	2551.978270
632.608316	2552.031203
632.954117	2551.975750
633.299866	2551.196892
633.645562	2553.130174
633.991206	2553.568754
634.336797	2550.549103
634.682336	2550.402910
635.027823	2551.650595
635.373257	2552.812581
635.718639	2549.797971
636.063968	2550.468445
636.409245	2552.933569
636.754470	2551.446429
637.099642	2550.869217
637.444762	2552.074052
637.789829	2548.885522
638.134845	2550.844011
638.479808	2550.097920
638.824719	2549.666901
639.169577	2550.465924
639.514383	2550.251675
639.859137	2551.973229
640.203839	2549.054401
640.548489	2550.234031
640.893086	2548.469627
641.237632	2546.629606
641.582125	2547.930224
641.926566	2544.958464
642.270955	2547.683207
642.615292	2550.171017
642.959576	2549.936603
643.303809	2549.417364
643.647990	2551.133877
643.992118	2549.492982
644.336195	2550.329813
644.680219	2549.278733
645.024192	2549.883671
645.368112	2549.356870
645.711981	2550.244113
646.055797	2551.569937
646.399562	2550.758311
646.743274	2549.533311
647.086935	2549.424926
647.430544	2549.258568
647.774101	2550.420554
648.117606	2549.792930
648.461059	2550.541542
648.804460	2553.329300
649.147810	2550.360060
649.491108	2550.044988
649.834354	2547.874771
650.177548	2551.154042
650.520690	2550.176058
650.863781	2548.520039
651.206820	2550.889381
651.549807	2549.987015
651.892742	2548.333516
652.235626	2549.482899
652.578458	2548.870399
652.921238	2548.081458
653.263967	2551.441388
653.606644	2551.103630
653.949269	2548.182282
654.291843	2550.425595
654.634365	2549.555996
654.976836	2544.751776
655.319255	2551.635472
655.661622	2548.167158
656.003938	2550.730585
656.346203	2547.375697
656.688416	2546.974925
657.030577	2547.070707
657.372687	2548.197405
657.714746	2547.060625
658.056753	2548.509957
658.398708	2544.290511
658.740612	2547.635316
659.082465	2542.871426
659.424266	2545.873433
659.766016	2543.917465
660.107715	2549.187992
660.449362	2548.570450
660.790958	2546.864020
661.132503	2548.157076
661.473996	2548.978784
661.815438	2549.671942
662.156829	2550.959957
662.498168	2549.112374
662.839456	2549.180430
663.180693	2546.490974
663.521879	2547.809236
663.863013	2547.048022
664.204097	2547.458876
664.545129	2548.162117
664.886110	2546.100285
665.227040	2545.938968
665.567918	2548.764535
665.908746	2547.219421
666.249522	2551.035575
666.590248	2544.524924
666.930922	2545.838145
667.271545	2546.637168
667.612118	2548.716644
667.952639	2546.624565
668.293109	2547.161448
668.633528	2547.423588
668.973896	2547.466438
669.314213	2547.350491
669.654480	2548.898125
669.994695	2548.492313
670.334859	2547.776469
670.674973	2546.541386
671.015035	2546.546427
671.355047	2546.397713
671.695008	2546.271684
672.034918	2549.281253
672.374777	2546.816129
672.714585	2547.766386
673.054342	2550.337375
673.394049	2548.217570
673.733705	2547.012734
674.073310	2546.564071
674.412864	2546.932075
674.752368	2545.563402
675.091820	2548.567930
675.431223	2547.189174
675.770574	2546.569112
676.109875	2540.436549
676.449125	2545.938968
676.788324	2542.362269
677.127473	2544.842517
677.466571	2542.362269
677.805619	2547.479041
678.144616	2546.798485
678.483562	2544.945861
678.822458	2545.215563
679.161303	2550.765873
679.500098	2546.269164
679.838842	2546.422919
680.177535	2546.380069
680.516179	2547.796633
680.854771	2549.568599
681.193314	2545.860830
681.531805	2542.140459
681.870247	2550.052550
682.208638	2548.043650
682.546978	2547.393341
682.885268	2547.597508
683.223508	2549.485420
683.561697	2548.772097
683.899836	2547.048022
684.237925	2549.495502
684.575963	2544.134235
684.913951	2547.665563
685.251889	2549.956768
685.589776	2545.127342
685.927614	2547.862168
686.265401	2545.646581
686.603137	2545.747404
686.940824	2547.312683
687.278460	2546.344781
687.616046	2545.268495
687.953582	2546.972405
688.291068	2547.214380
688.628504	2547.879812
688.965889	2547.315203
689.303224	2545.470141
689.640510	2546.967363
689.977745	2545.449976
690.314930	2547.330327
690.652065	2547.849565
690.989150	2546.057435
691.326185	2545.157589
691.663170	2545.182795
692.000105	2544.724050
692.336990	2544.550130
692.673825	2546.279246
693.010610	2544.603062
693.347345	2544.693803
693.684030	2542.395037
694.020665	2541.830428
694.357251	2539.375386
694.693786	2543.768751
695.030272	2545.434853
695.366707	2544.348484
695.703093	2546.001982
696.039429	2544.920655
696.375716	2542.828576
696.711952	2542.707588
697.048139	2544.033412
697.384276	2545.757487
697.720363	2546.775800
698.056400	2543.862013
698.392388	2543.294883
698.728326	2544.759338
699.064214	2545.323947
699.400053	2545.472661
699.735842	2543.168854
700.071581	2543.183977
700.407270	2542.752959
700.742910	2544.807229
701.078501	2543.728422
701.414042	2541.089378
701.749533	2546.765717
702.084974	2545.271015
702.420366	2543.831766
702.755709	2547.448794
703.091002	2542.949564
703.426246	2542.047197
703.761440	2543.783875
704.096584	2542.800850
704.431679	2540.227341
704.766725	2545.187836
705.101721	2540.736497
705.436668	2543.640202
705.771565	2544.187167
706.106413	2543.529297
706.441212	2541.951415
706.775961	2544.779503
707.110661	2544.287990
707.445311	2543.244471
707.779913	2545.381921
708.114465	2545.747404
708.448967	2542.127856
708.783421	2543.544420
709.117825	2542.130376
709.452180	2544.734132
709.786485	2544.880326
710.120742	2542.090047
710.454949	2546.309493
710.789107	2543.801519
711.123216	2539.556867
711.457275	2542.014430
711.791286	2543.302445
712.125247	2542.271529
712.459159	2543.168854
712.793023	2546.463248
713.126837	2541.107022
713.460602	2547.400903
713.794318	2542.188350
714.127985	2545.119781
714.461602	2544.348484
714.795171	2543.889739
715.128691	2541.258257
715.462162	2540.280273
715.795584	2542.947043
716.128957	2543.793957
716.462281	2542.442928
716.795556	2542.536189
717.128782	2540.832279
717.461960	2543.453679
717.795088	2541.661549
718.128167	2544.930737
718.461198	2541.676673
718.794180	2543.746066
719.127113	2541.538041
719.459997	2542.125335
719.792833	2542.672300
720.125619	2540.812115
720.458357	2539.496373
720.791046	2543.108360
721.123686	2538.619213
721.456278	2538.835982
721.788821	2543.037784
722.121315	2543.128525
722.453761	2541.699358
722.786158	2540.973432
723.118506	2540.171888
723.450805	2542.919317
723.783056	2539.541744
724.115259	2539.347659
724.447412	2541.278421
724.779518	2541.606096
725.111574	2540.854964
725.443582	2542.858823
725.775542	2541.535520
726.107453	2540.108874
726.439315	2539.556867
726.771129	2544.562733
727.102895	2538.437731
727.434612	2540.948226
727.766281	2542.155582
728.097901	2539.912269
728.429473	2539.939995
728.760996	2539.587114
729.092471	2539.652649
729.423897	2541.348998
729.755276	2541.447300
730.086606	2542.563916
730.417887	2541.399409
730.749120	2541.291024
731.080305	2543.171375
731.411442	2542.468134
731.742530	2543.738504
732.073570	2543.294883
732.404562	2543.418391
732.735506	2542.896632
733.066401	2541.447300
733.397249	2544.164482
733.728048	2542.284132
734.058798	2544.182126
734.389501	2544.030891
734.720156	2542.763041
735.050762	2542.180788
735.381320	2541.596014
735.711831	2540.928061
736.042293	2539.937474
736.372707	2542.079965
736.703073	2542.316899
737.033391	2543.362938
737.363661	2539.418236
737.693883	2539.829090
738.024056	2548.111705
738.354182	2539.559388
738.684260	2540.590304
739.014290	2540.612989
739.344272	2541.812784
739.674207	2539.821528
740.004093	2542.274049
740.333931	2538.732639
740.663722	2541.593493
740.993464	2541.681714
741.323159	2540.723894
741.652806	2540.955788
741.982405	2542.067362
742.311956	2541.477547
742.641460	2540.010571
742.970915	2539.128369
743.300323	2541.361600
743.629683	2541.225489
743.958996	2540.451672
744.288260	2541.197763
744.617477	2537.878163
744.946647	2534.704757
745.275768	2537.933616
745.604842	2536.275076
745.933869	2536.002854
746.262847	2532.753830
746.591778	2536.219623
746.920662	2539.483771
747.249498	2539.771116
747.578286	2540.166847
747.907027	2538.898997
748.235720	2539.362783
748.564365	2541.079296
748.892963	2540.950746
749.221514	2542.599204
749.550017	2539.766075
749.878473	2539.604758
750.206881	2540.202135
750.535242	2540.302958
750.863555	2538.866229
751.191821	2541.313709
751.520039	2536.524613
751.848210	2538.160468
752.176334	2540.681045
752.504411	2540.965870
752.832440	2540.504604
753.160421	2538.853626
753.488356	2539.655170
753.816243	2541.331353
754.144082	2539.211548
754.471875	2538.730118
754.799620	2540.393699
755.127318	2537.948739
755.454969	2540.338246
755.782572	2538.977135
756.110129	2537.968904
756.437638	2539.955118
756.765100	2538.702392
757.092515	2542.042156
757.419882	2539.332536
757.747203	2535.536547
758.074477	2538.157947
758.401703	2539.831610
758.728882	2540.703730
759.056014	2539.748431
759.383099	2537.457227
759.710138	2538.946888
760.037129	2538.457896
760.364073	2538.793132
760.690970	2542.142979
761.017820	2540.867567
761.344623	2540.499563
761.671379	2540.915458
761.998088	2536.501928
762.324751	2537.159799
762.651366	2538.765406
762.977935	2540.222300
763.304456	2539.057793
763.630931	2548.071376
763.957359	2545.402085
764.283740	2541.502753
764.610074	2544.116591
764.936362	2541.895963
765.262602	2538.657021
765.588796	2537.878163
765.914943	2537.994110
766.241044	2540.028215
766.567097	2540.474357
766.893104	2538.561239
767.219064	2538.493184
767.544978	2540.691127
767.870845	2538.760365
768.196665	2537.797505
768.522438	2537.406815
768.848165	2539.105684
769.173846	2537.666435
769.499479	2538.354552
769.825066	2537.835313
770.150607	2539.909748
770.476101	2538.586445
770.801548	2539.476209
771.126949	2538.042001
771.452303	2539.733308
771.777611	2536.781712
772.102872	2536.655683
772.428087	2538.823379
772.753256	2535.561753
773.078378	2539.803884
773.403453	2539.345139
773.728482	2537.147196
774.053465	2537.598379
774.378401	2539.297248
774.703291	2538.170550
775.028135	2536.917823
775.352932	2537.444624
775.677683	2535.965045
776.002388	2541.081816
776.327046	2539.743390
776.651658	2538.392361
776.976224	2534.999664
777.300743	2536.612833
777.625216	2539.350180
777.949643	2536.307844
778.274024	2537.754655
778.598359	2535.778522
778.922647	2533.232740
779.246889	2534.601413
779.571086	2532.310209
779.895236	2535.811290
780.219339	2537.225334
780.543397	2534.538399
780.867409	2535.234078
781.191374	2537.744572
781.515294	2535.919675
781.839167	2538.236085
782.162995	2536.108718
782.486776	2536.645601
782.810511	2537.653832
783.134201	2534.833306
783.457844	2533.326001
783.781441	2535.889428
784.104993	2536.454037
784.428498	2534.732483
784.751958	2536.542257
785.075372	2537.094264
785.398739	2534.039324
785.722061	2536.953111
786.045337	2536.385982
786.368568	2538.551157
786.691752	2536.058307
787.014891	2537.840354
787.337983	2538.722556
787.661030	2535.755837
787.984031	2535.556712
788.306987	2539.072917
788.629897	2535.876825
788.952760	2537.517721
789.275579	2535.355066
789.598351	2536.506969
789.921078	2537.316074
790.243759	2537.525282
790.566395	2536.307844
790.888984	2535.881866
791.211529	2538.611651
791.534027	2536.169212
791.856480	2538.404964
792.178888	2539.203987
792.501249	2534.412370
792.823566	2535.264325
793.145836	2535.864222
793.468062	2536.264994
793.790241	2536.595189
794.112375	2535.788605
794.434464	2537.394212
794.756507	2534.495549
795.078505	2537.696682
795.400457	2535.718029
795.722364	2535.332380
796.044226	2535.367668
796.366042	2535.395395
796.687812	2533.416742
797.009538	2535.055117
797.331218	2535.561753
797.652852	2533.373892
797.974442	2536.227185
798.295986	2535.103008
798.617484	2535.370189
798.938938	2534.240971
799.260346	2534.946732
799.581709	2537.038811
799.903026	2537.696682
800.224299	2533.913296
800.545526	2537.058976
800.866708	2534.707277
801.187845	2536.411187
801.508936	2534.046886
801.829983	2536.333049
802.150984	2535.813811
802.471940	2536.696012
802.792851	2536.774150
803.113717	2534.087215
803.434538	2536.401105
803.755314	2533.184849
804.076045	2535.433203
804.396731	2536.547298
804.717372	2533.141999
805.037967	2532.894982
805.358518	2536.330529
805.679024	2536.885056
805.999485	2537.318595
806.319901	2535.478574
806.640272	2535.055117
806.960598	2534.240971
807.280879	2537.348842
807.601115	2534.611495
807.921306	2537.293389
808.241453	2535.264325
808.561554	2534.629139
808.881611	2537.638708
809.201623	2533.510003
809.521590	2535.561753
809.841513	2535.208872
810.161390	2536.892618
810.481223	2535.546629
810.801011	2535.912113
811.120755	2535.433203
811.440453	2535.443286
811.760107	2536.302803
812.079716	2533.751979
812.399281	2531.864067
812.718801	2536.494366
813.038276	2529.230064
813.357707	2535.392874
813.677093	2534.737524
813.996434	2538.152906
814.315731	2536.955632
814.634983	2535.564273
814.954191	2534.412370
815.273354	2534.296423
815.592473	2536.756506
815.911547	2536.413708
816.230577	2538.402443
816.549562	2534.782895
816.868502	2533.275590
817.187399	2536.753986
817.506250	2534.545960
817.825058	2534.992103
818.143821	2535.123172
818.462539	2537.260622
818.781213	2534.382123
819.099843	2535.849099
819.418429	2538.548637
819.736970	2536.799356
820.055466	2536.703574
820.373919	2537.696682
820.692327	2535.269366
821.010691	2540.776827
821.329011	2546.221273
821.647286	2558.037737
821.965517	2566.048131
822.283704	2574.686148
822.601847	2577.509194
822.919945	2567.409242
823.237999	2565.455795
823.556010	2559.431616
823.873976	2554.904660
824.191897	2549.190512
824.509775	2544.507280
824.827609	2546.163299
825.145398	2543.582229
825.463144	2541.908566
825.780845	2543.604914
826.098502	2544.759338
826.416116	2549.445091
826.733685	2549.646737
827.051210	2550.629762
827.368692	2550.052550
827.686129	2544.671118
828.003522	2546.327137
828.320872	2536.668286
828.638177	2540.008051
828.955439	2536.128883
829.272656	2534.931609
829.589830	2531.261649
829.906960	2537.857998
830.224046	2535.423121
830.541088	2534.475384
830.858086	2535.869263
831.175041	2539.710622
831.491952	2534.518234
831.808819	2534.813142
832.125642	2538.001671
832.442421	2538.203318
832.759157	2539.866898
833.075849	2539.675334
833.392497	2542.773123
833.709101	2543.052908
834.025662	2541.837989
834.342179	2543.541899
834.658653	2539.642567
834.975083	2541.258257
835.291469	2544.915614
835.607811	2538.866229
835.924110	2537.958822
836.240366	2537.850437
836.556578	2538.352032
836.872746	2539.244316
837.188871	2534.155271
837.504952	2534.210724
837.820990	2533.777184
838.136984	2533.026052
838.452935	2533.399098
838.768842	2534.104859
839.084706	2533.991433
839.400526	2535.629808
839.716303	2537.880684
840.032037	2537.555529
840.347727	2536.620395
840.663373	2535.972607
840.978977	2534.777853
841.294537	2536.035621
841.610054	2535.954963
841.925527	2535.977648
842.240957	2533.515044
842.556344	2532.761392
842.871687	2531.402801
843.186987	2533.081505
843.502244	2531.541433
843.817458	2531.359951
844.132629	2532.600075
844.447756	2534.573687
844.762840	2528.912471
845.077881	2533.189890
845.392879	2528.970444
845.707833	2532.332894
846.022745	2529.482121
846.337613	2534.608975
846.652438	2533.658717
846.967221	2534.757689
847.281960	2533.298275
847.596656	2534.881197
847.911309	2533.673841
848.225919	2536.622916
848.540485	2531.599406
848.855009	2534.772812
849.169490	2531.526309
849.483928	2536.887576
849.798323	2534.230888
850.112675	2533.956145
850.426984	2534.409849
850.741251	2531.392719
851.055474	2533.787267
851.369654	2534.351876
851.683792	2533.550332
851.997887	2534.062010
852.311938	2530.727286
852.625947	2533.000847
852.939914	2532.305167
853.253837	2536.801877
853.567718	2531.591844
853.881555	2533.444468
854.195350	2531.954807
854.509103	2536.524613
854.822812	2531.914478
855.136479	2535.229037
855.450103	2530.029087
855.763685	2533.683923
856.077224	2532.968079
856.390720	2531.153264
856.704173	2533.399098
857.017584	2533.104190
857.330953	2530.999509
857.644278	2532.337935
857.957561	2533.953625
858.270802	2532.637884
858.584000	2530.986906
858.897155	2532.547143
859.210268	2532.418593
859.523339	2531.990095
859.836367	2533.373892
860.149352	2532.615198
860.462295	2533.494880
860.775195	2527.750485
861.088054	2529.098994
861.400869	2532.602596
861.713642	2530.127389
862.026373	2531.236443
862.339062	2531.942204
862.651708	2530.210568
862.964312	2533.918337
863.276873	2530.447502
863.589392	2532.456402
863.901869	2531.188552
864.214303	2530.268541
864.526696	2533.010929
864.839045	2531.488501
865.151353	2532.947915
865.463619	2532.801721
865.775842	2532.211906
866.088023	2533.126876
866.400162	2535.004705
866.712258	2534.702236
867.024313	2533.764582
867.336325	2531.927081
867.648296	2533.378933
867.960224	2532.496731
868.272110	2531.697708
868.583954	2531.609488
868.895755	2533.547812
869.207515	2533.562935
869.519233	2533.822555
869.830909	2532.837009
870.142542	2535.087884
870.454134	2531.790970
870.765684	2533.590662
871.077191	2530.187883
871.388657	2534.757689
871.700081	2532.814324
872.011463	2534.351876
872.322803	2533.147040
872.634101	2533.051258
872.945357	2534.361958
873.256571	2532.675692
873.567744	2533.144520
873.878874	2532.169056
874.189963	2533.862884
874.501010	2534.568646
874.812015	2532.582431
875.122979	2533.081505
875.433900	2534.470343
875.744780	2534.614016
876.055618	2533.653676
876.366415	2531.349869
876.677169	2534.268697
876.987882	2532.758871
877.298554	2529.162008
877.609183	2530.853315
877.919771	2530.533202
878.230317	2531.871628
878.540822	2536.572504
878.851285	2536.295241
879.161707	2534.891279
879.472087	2534.188038
879.782425	2536.002854
880.092722	2537.442103
880.402977	2541.933771
880.713191	2547.849565
881.023363	2553.543549
881.333494	2557.798283
881.643583	2556.641338
881.953631	2559.731565
882.263637	2556.653941
882.573602	2553.667057
882.883526	2549.112374
883.193408	2549.966850
883.503248	2544.756817
883.813048	2542.987372
884.122806	2540.368493
884.432522	2541.767413
884.742197	2540.234903
885.051831	2537.840354
885.361424	2535.430683
885.670975	2535.024870
885.980485	2535.362627
886.289954	2537.530323
886.599382	2533.527647
886.908768	2536.229706
887.218113	2535.390354
887.527417	2533.719211
887.836680	2531.329704
888.145901	2532.927750
888.455082	2532.040507
888.764221	2534.664427
889.073319	2532.393388
889.382376	2534.641742
889.691392	2533.605785
890.000366	2534.745086
890.309300	2531.675023
890.618193	2531.027235
890.927044	2532.831968
891.235855	2533.784746
891.544625	2533.194931
891.853353	2536.126362
892.162041	2533.552853
892.470687	2531.972451
892.779293	2534.901362
893.087858	2533.323481
893.396381	2531.894313
893.704864	2531.430527
894.013306	2530.646628
894.321707	2537.147196
894.630068	2538.911600
894.938387	2539.977804
895.246665	2542.092568
895.554903	2538.198276
895.863100	2536.451517
896.171256	2537.369007
896.479371	2535.730632
896.787446	2536.338091
897.095480	2536.055786
897.403473	2535.980169
897.711425	2531.231402
898.019336	2533.610826
898.327207	2536.244829
898.635038	2532.763912
898.942827	2533.053779
899.250576	2534.024201
899.558284	2531.727955
899.865952	2534.427493
900.173579	2530.928932
900.481165	2535.576876
900.788711	2533.820034
901.096216	2533.205013
901.403681	2534.767771
901.711105	2532.862215
902.018489	2532.705939
902.325832	2535.360107
902.633135	2531.977492
902.940397	2532.761392
903.247619	2534.326670
903.554800	2534.125024
903.861941	2538.490663
904.169041	2541.323792
904.476101	2540.776827
904.783121	2545.782692
905.090100	2543.577187
905.397039	2539.198945
905.703938	2537.921013
906.010796	2536.070909
906.317614	2537.265663
906.624391	2535.576876
906.931129	2533.270548
907.237826	2535.269366
907.544483	2533.399098
907.851099	2532.955476
908.157675	2531.160826
908.464211	2530.991947
908.770707	2528.995650
909.077163	2532.920188
909.383578	2526.482635
909.689954	2528.935156
909.996289	2528.592358
910.302584	2533.416742
910.608839	2531.180990
910.915054	2530.785260
911.221229	2532.703419
911.527363	2534.699716
911.833458	2532.378264
912.139513	2534.530837
912.445527	2533.525127
912.751502	2529.560259
913.057436	2531.669982
913.363331	2534.939170
913.669186	2532.279962
913.975000	2535.705426
914.280775	2533.809952
914.586510	2532.572349
914.892205	2534.722401
915.197859	2537.744573
915.503475	2538.082330
915.809050	2540.449152
916.114585	2544.958464
916.420081	2542.803370
916.725536	2544.056097
917.030952	2541.359080
917.336328	2540.557536
917.641665	2537.535365
917.946961	2539.892104
918.252218	2539.173740
918.557435	2538.886394
918.862612	2533.857843
919.167750	2534.737524
919.472848	2535.523944
919.777906	2534.941691
920.082925	2533.217616
920.387904	2531.735517
920.692843	2532.693336
920.997743	2531.929602
921.302603	2528.395753
921.607423	2531.269210
921.912204	2531.811134
922.216946	2532.731145
922.521647	2533.104190
922.826310	2530.855836
923.130932	2531.180990
923.435516	2533.746937
923.740059	2531.818696
924.044564	2530.117307
924.349028	2532.532019
924.653454	2527.105217
924.957840	2524.602284
925.262186	2528.703263
925.566493	2528.274765
925.870761	2526.752337
926.174989	2532.196783
926.479178	2529.479601
926.783328	2531.024714
927.087438	2530.142513
927.391509	2532.060672
927.695541	2528.574714
927.999533	2532.683254
928.303486	2529.512368
928.607400	2529.613191
928.911275	2531.743079
929.215110	2531.526309
929.518906	2530.959179
929.822663	2531.508665
930.126381	2528.347862
930.430060	2532.600075
930.733699	2528.788963
931.037299	2531.541433
931.340861	2530.044210
931.644383	2530.245856
931.947866	2526.396935
932.251309	2527.952131
932.554714	2531.710311
932.858080	2533.139478
933.161407	2530.296268
933.464694	2528.221833
933.767943	2531.080167
934.071153	2530.881042
934.374323	2529.524971
934.677455	2530.059333
934.980548	2531.528830
935.283602	2533.452030
935.586617	2528.252080
935.889593	2527.390043
936.192530	2530.593696
936.495428	2529.668644
936.798287	2528.383150
937.101108	2530.122348
937.403890	2529.880372
937.706632	2531.286854
938.009336	2529.822399
938.312002	2531.551515
938.614628	2529.754344
938.917216	2531.158305
939.219765	2531.836340
939.522275	2531.886752
939.824747	2532.161495
940.127179	2527.115300
940.429573	2526.845598
940.731929	2528.103366
941.034246	2525.474404
941.336524	2531.044879
941.638763	2529.063706
941.940964	2530.523120
942.243126	2530.671834
942.545250	2531.964890
942.847335	2529.333407
943.149381	2531.485980
943.451389	2531.894313
943.753359	2531.110414
944.055290	2529.419107
944.357182	2529.651000
944.659036	2530.404652
944.960851	2528.191586
945.262628	2528.889786
945.564367	2531.128058
945.866067	2530.576052
946.167729	2531.279293
946.469352	2530.089580
946.770937	2530.606299
947.072484	2531.289375
947.373992	2531.944725
947.675462	2528.620084
947.976893	2528.647810
948.278286	2528.463808
948.579641	2531.327184
948.880958	2529.741741
949.182236	2528.725948
949.483476	2527.846267
949.784678	2530.107224
950.085841	2528.678057
950.386967	2534.170394
950.688054	2530.669313
950.989103	2529.262831
951.290114	2528.874662
951.591087	2530.167718
951.892021	2531.864067
952.192917	2529.416586
952.493776	2529.877852
952.794596	2529.358613
953.095378	2528.794004
953.396122	2531.087729
953.696828	2529.787111
953.997496	2527.311905
954.298126	2528.511699
954.598718	2528.950280
954.899272	2529.043541
955.199788	2530.311391
955.500266	2531.954807
955.800706	2527.982378
956.101108	2526.033972
956.401472	2526.553211
956.701798	2525.943231
957.002087	2527.430372
957.302337	2528.398273
957.602550	2527.221164
957.902724	2528.862059
958.202861	2528.635208
958.502960	2529.106555
958.803022	2527.616894
959.103045	2527.909281
959.403031	2529.847605
959.702979	2529.557739
960.002889	2528.390712
960.302762	2528.118489
960.602596	2527.664785
960.902393	2527.206040
961.202153	2530.865918
961.501875	2525.655886
961.801559	2529.862728
962.101205	2526.611184
962.400814	2530.258459
962.700385	2525.353416
962.999918	2528.872142
963.299414	2528.725948
963.598873	2532.337935
963.898293	2529.913140
964.197677	2529.996319
964.497022	2528.794004
964.796331	2529.701412
965.095601	2528.627646
965.394835	2530.714683
965.694030	2528.244518
965.993189	2528.970444
966.292309	2526.933818
966.591393	2528.857018
966.890439	2525.739065
967.189447	2529.320804
967.488419	2528.536905
967.787353	2526.142357
968.086249	2528.554549
968.385108	2529.807276
968.683930	2527.135464
968.982714	2528.486493
969.281462	2529.764426
969.580172	2530.167718
969.878844	2528.335259
970.177480	2530.117307
970.476078	2529.179652
970.774639	2530.659231
971.073162	2529.318284
971.371649	2524.130937
971.670098	2524.506502
971.968510	2524.493900
972.266885	2525.456760
972.565223	2528.839374
972.863524	2527.170752
973.161788	2526.104548
973.460014	2528.294930
973.758204	2528.337779
974.056356	2529.819879
974.354471	2528.713345
974.652550	2531.395239
974.950591	2530.896165
975.248595	2528.451205
975.546563	2533.081505
975.844493	2526.371729
976.142386	2531.004550
976.440243	2527.962213
976.738062	2530.578572
977.035845	2530.598737
977.333590	2529.116638
977.631299	2526.018849
977.928971	2529.593027
978.226606	2528.413397
978.524204	2530.538243
978.821765	2526.223015
979.119290	2529.078829
979.416777	2526.228057
979.714228	2529.542615
980.011642	2526.933818
980.309020	2531.221319
980.606360	2529.514889
980.903664	2525.890299
981.200931	2526.875845
981.498162	2527.430372
981.795356	2526.328880
982.092513	2530.238294
982.389633	2528.307533
982.686717	2529.744261
982.983764	2531.165867
983.280775	2527.485824
983.577749	2527.450536
983.874686	2528.879703
984.171587	2531.513706
984.468451	2528.292409
984.765279	2528.549508
985.062070	2530.213089
985.358824	2526.528005
985.655543	2529.293078
985.952224	2525.411390
986.248869	2528.408356
986.545478	2524.420803
986.842050	2527.173273
987.138586	2524.430885
987.435086	2524.957686
987.731549	2524.433406
988.027975	2526.689322
988.324366	2530.034128
988.620719	2527.684950
988.917037	2528.461288
989.213318	2527.642100
989.509563	2528.148736
989.805772	2526.167563
990.101944	2527.029600
990.398080	2528.478932
990.694180	2528.032790
990.990244	2530.281144
991.286271	2529.542615
991.582262	2528.350382
991.878217	2525.955834
992.174136	2529.078829
992.470019	2527.359796
992.765865	2528.153777
993.061676	2527.253931
993.357450	2525.383663
993.653188	2528.274765
993.948890	2526.351565
994.244556	2528.665454
994.540186	2529.338448
994.835780	2525.199661
995.131337	2528.380629
995.426859	2525.756709
995.722345	2528.060516
996.017795	2527.695032
996.313208	2529.333407
996.608586	2526.724610
996.903928	2527.047244
997.199234	2530.432379
997.494504	2530.180321
997.789738	2530.099663
998.084936	2528.068078
998.380099	2528.768798
998.675225	2528.920033
998.970316	2528.650331
999.265371	2525.108920
999.560390	2525.759229
999.855373	2527.916843
1000.150320	2529.797193
1000.445232	2528.546987
1000.740108	2528.037831
1001.034948	2529.333407
1001.329752	2527.521112
1001.624521	2527.556401
1001.919254	2521.431399
1002.213951	2523.891482
1002.508613	2523.596574
1002.803239	2523.528519
1003.097829	2523.037006
1003.392384	2528.766278
1003.686903	2527.321987
1003.981386	2529.643438
1004.275834	2524.032634
1004.570246	2529.403983
1004.864623	2528.410876
1005.158964	2528.229395
1005.453270	2527.284178
1005.747540	2525.643283
1006.041775	2527.790814
1006.335974	2525.842408
1006.630138	2525.996163
1006.924266	2526.429703
1007.218359	2527.059847
1007.512416	2525.633200
1007.806438	2527.516071
1008.100425	2527.405166
1008.394376	2528.196627
1008.688292	2527.972296
1008.982172	2526.296112
1009.276017	2529.272913
1009.569827	2528.650331
1009.863602	2529.492204
1010.157341	2528.050434
1010.451045	2525.812161
1010.744714	2525.174455
1011.038347	2526.888448
1011.331945	2526.991791
1011.625508	2530.495393
1011.919036	2526.840557
1012.212528	2528.874662
1012.505986	2526.555732
1012.799408	2525.542460
1013.092795	2528.133613
1013.386147	2525.552542
1013.679464	2525.928108
1013.972745	2527.548839
1014.265992	2524.405679
1014.559204	2526.139836
1014.852380	2526.578417
1015.145521	2527.667306
1015.438628	2528.612522
1015.731699	2528.499096
1016.024736	2524.168745
1016.317737	2527.810979
1016.610703	2528.161339
1016.903635	2522.956348
1017.196531	2521.839732
1017.489393	2523.180679
1017.782219	2520.884433
1018.075011	2527.596730
1018.367768	2528.040351
1018.660490	2527.949611
1018.953177	2527.949611
1019.245829	2527.949611
