Dividing Wavelength (nm)	Counts (n)	Blue Motor Position (mm): 0.000000	Red Motor Position (mm): 32.200000	
326.493990	2127.414814
326.888308	2127.414814
327.282561	2127.414814
327.676750	2096.202510
328.070874	2092.872828
328.464933	2094.685123
328.858929	2101.896493
329.252859	2111.830087
329.646726	2123.119751
330.040528	2135.699950
330.434265	2153.318783
330.827938	2168.729590
331.221547	2187.729699
331.615091	2208.345498
332.008571	2228.487428
332.401986	2247.104409
332.795338	2265.103849
333.188625	2285.853238
333.581847	2304.354273
333.975006	2322.048723
334.368100	2340.148986
334.761129	2356.119361
335.154095	2375.376569
335.546996	2391.858621
335.939833	2410.687331
336.332606	2427.655855
336.725315	2437.667586
337.117960	2450.215018
337.510540	2453.884978
337.903056	2466.649180
338.295508	2474.583956
338.687896	2483.239617
339.080220	2490.662716
339.472480	2498.988182
339.864676	2500.195538
340.256807	2506.519666
340.648875	2511.744822
341.040879	2511.603669
341.432818	2515.616428
341.824694	2515.513084
342.216506	2517.096006
342.608253	2515.112312
342.999937	2516.082734
343.391557	2516.002076
343.783113	2514.172137
344.174605	2517.529546
344.566033	2512.211128
344.957397	2511.081910
345.348697	2510.509739
345.739934	2507.948833
346.131106	2506.113853
346.522215	2503.487412
346.913260	2502.287617
347.304241	2499.777122
347.695159	2498.821824
348.086012	2496.686895
348.476802	2494.677995
348.867528	2495.610609
349.258191	2492.278406
349.648789	2493.596668
350.039324	2488.789928
350.429796	2491.466780
350.820203	2487.685915
351.210548	2488.585761
351.600828	2487.451501
351.991045	2487.607777
352.381198	2485.341778
352.771288	2486.891933
353.161314	2482.748105
353.551276	2484.578043
353.941175	2484.802375
354.331010	2484.913280
354.720782	2484.288177
355.110490	2484.477220
355.500135	2482.491006
355.889717	2485.747591
356.279235	2485.215749
356.668689	2486.493682
357.058080	2486.975112
357.447408	2483.443784
357.836672	2481.223156
358.225873	2486.702890
358.615010	2484.809937
359.004084	2485.117447
359.393095	2489.651965
359.782043	2487.116264
360.170927	2490.927377
360.559748	2491.381081
360.948505	2491.769249
361.337199	2492.023828
361.725830	2494.977944
362.114398	2494.299909
362.502903	2495.282934
362.891344	2494.073057
363.279722	2496.911226
363.668037	2498.605054
364.056289	2495.797131
364.444478	2499.179746
364.832603	2495.333345
365.220665	2499.227637
365.608665	2499.633449
365.996601	2498.272338
366.384474	2499.749396
366.772284	2502.786691
367.160031	2501.990189
367.547715	2507.331291
367.935336	2505.987824
368.322893	2511.228103
368.710388	2513.400841
369.097820	2520.965092
369.485189	2522.290915
369.872495	2529.764426
370.259738	2535.435724
370.646918	2542.969728
371.034035	2550.412992
371.421090	2561.735424
371.808081	2572.132803
372.195010	2581.353074
372.581875	2593.159456
372.968678	2609.155037
373.355418	2618.430760
373.742096	2636.304171
374.128710	2652.882006
374.515262	2664.542195
374.901751	2681.684638
375.288177	2693.869107
375.674540	2718.490102
376.060841	2732.930488
376.447079	2757.622059
376.833254	2779.467899
377.219367	2788.942748
377.605417	2825.380208
377.991404	2837.733556
378.377329	2856.494210
378.763191	2874.009699
379.148991	2911.352046
379.534727	2935.156374
379.920402	2962.862556
380.306013	2976.277066
380.691563	3028.823533
381.077049	3049.078889
381.462474	3066.498597
381.847835	3106.162395
382.233134	3125.724592
382.618371	3128.474542
383.003545	3197.029193
383.388657	3202.645038
383.773706	3232.612177
384.158693	3250.956936
384.543618	3279.278139
384.928480	3314.309117
385.313280	3359.888709
385.698017	3358.925849
386.082692	3411.681524
386.467305	3416.279056
386.851856	3451.582257
387.236344	3471.119248
387.620770	3501.724093
388.005133	3529.422713
388.389435	3556.274419
388.773674	3567.896799
389.157851	3611.832976
389.541965	3624.899646
389.926018	3590.128288
390.310008	3664.024041
390.693936	3681.383255
391.077802	3720.769790
391.461606	3711.176474
391.845348	3770.059671
392.229027	3770.331894
392.612645	3783.479223
392.996200	3866.380998
393.379694	3905.956576
393.763125	3967.748519
394.146494	3934.295422
394.529801	3997.758508
394.913047	4044.674007
395.296230	4009.421218
395.679351	4066.706369
396.062410	4088.297631
396.445408	4071.215682
396.828343	4103.892441
397.211217	4127.658961
397.594028	4047.660890
397.976778	4113.566415
398.359466	4142.981548
398.742092	4171.141433
399.124656	4095.975309
399.507158	4173.692257
399.889598	4201.350548
400.271977	4260.200978
400.654294	4231.007656
401.036549	4238.110641
401.418742	4209.786918
401.800874	4314.433711
402.182944	4330.850228
402.564952	4398.250455
402.946898	4383.699164
403.328783	4380.876118
403.710606	4293.215494
404.092367	4485.835462
404.474067	4451.361531
404.855705	4455.533086
405.237282	4388.331985
405.618797	4494.526411
406.000250	4529.257441
406.381642	4609.273155
406.762972	4572.162701
407.144240	4582.023198
407.525447	4586.161985
407.906593	4645.095594
408.287677	4684.071275
408.668700	4612.418835
409.049661	4664.506557
409.430560	4710.323084
409.811399	4637.647289
410.192176	4792.544303
410.572891	4734.513061
410.953545	4835.802444
411.334138	4716.150658
411.714669	4786.320999
412.095139	4680.234957
412.475547	4822.062779
412.855894	4801.240293
413.236180	4814.551460
413.616405	4764.870889
413.996568	4854.709292
414.376670	4793.161844
414.756711	4753.603910
415.136691	4781.063075
415.516609	4856.536710
415.896466	4893.158172
416.276262	4936.199544
416.655997	4911.107200
417.035670	5093.407926
417.415283	5188.947874
417.794834	5128.882526
418.174324	5082.811421
418.553753	4992.045446
418.933121	5173.254762
419.312428	5240.413014
419.691674	5181.015618
420.070859	5308.582017
420.449983	5214.380495
420.829045	5335.171582
421.208047	5242.495010
421.586988	5307.951872
421.965867	5321.653728
422.344686	5460.948371
422.723444	5317.484694
423.102141	5131.138442
423.480777	5429.035347
423.859352	5200.512281
424.237866	5461.656653
424.616319	5449.089057
424.994712	5557.564605
425.373044	5432.307055
425.751314	5577.068829
426.129524	5379.836206
426.507673	5575.909364
426.885762	5658.392723
427.263789	5589.243216
427.641756	5471.975895
428.019662	5594.614565
428.397508	5602.020020
428.775292	5547.215116
429.153016	5646.427544
429.530679	5573.461884
429.908282	5658.042363
430.285824	5524.885325
430.663305	5801.984949
431.040726	5536.507705
431.418086	5537.178179
431.795385	5645.096680
432.172624	5656.746786
432.549802	5647.276979
432.926920	5661.931613
433.303977	5668.880844
433.680974	5704.604980
434.057910	5727.466613
434.434786	5731.638168
434.811601	5700.869485
435.188355	5935.757008
435.565050	5809.846629
435.941683	5789.679493
436.318257	6004.440208
436.694770	5989.175594
437.071222	6023.125245
437.447614	5952.670079
437.823946	5867.711513
438.200218	6018.076529
438.576429	5884.322115
438.952580	5988.636191
439.328670	6029.464496
439.704700	5938.718686
440.080670	5925.435245
440.456580	6194.526996
440.832429	6076.763122
441.208218	5925.102529
441.583947	6078.144398
441.959616	6082.005922
442.335224	6012.977402
442.710773	6147.349358
443.086261	6173.386918
443.461689	5973.071628
443.837057	6116.381550
444.212365	6272.793430
444.587612	6169.003634
444.962800	6317.382436
445.337927	6299.168747
445.712995	5910.105096
446.088002	6486.722356
446.462949	6315.761705
446.837837	6250.209061
447.212664	6419.538898
447.587431	6567.121198
447.962139	7105.564319
448.336786	8034.475053
448.711374	7773.469313
449.085901	6846.801893
449.460369	6765.561178
449.834776	6701.919131
450.209124	7092.152330
450.583412	7241.841831
450.957640	7388.945221
451.331808	7157.793194
451.705917	6709.977415
452.079965	6627.307533
452.453954	6844.288877
452.827883	6720.415124
453.201752	6812.353168
453.575562	6616.584999
453.949311	6815.408107
454.323001	6698.617175
454.696632	6780.107427
455.070202	6913.244300
455.443713	7074.659526
455.817164	7174.476892
456.190556	7251.752740
456.563888	7328.368196
456.937160	7376.478448
457.310373	7025.110025
457.683526	7056.027421
458.056619	6942.477951
458.429653	6933.005623
458.802628	6868.453648
459.175542	6979.021276
459.548398	7331.304668
459.921194	7485.722772
460.293930	7498.101325
460.666607	8024.170935
461.039224	8334.335487
461.411782	8452.815205
461.784280	8475.449986
462.156719	8370.263791
462.529099	8250.324658
462.901419	7838.235537
463.273680	7727.476346
463.645882	7747.787155
464.018024	7610.246834
464.390106	7772.753469
464.762130	8162.225454
465.134094	8628.839695
465.505999	9652.874481
465.877845	10882.220341
466.249631	11521.741117
466.621358	11139.046964
466.993026	10508.811993
467.364634	10255.481409
467.736184	9889.355008
468.107674	9556.767404
468.479105	9588.493906
468.850477	9360.585861
469.221790	9127.719841
469.593043	8797.090725
469.964238	8659.522678
470.335373	8668.848812
470.706449	8730.877690
471.077467	8709.024288
471.448425	10020.407364
471.819324	11096.174472
472.190164	11119.658687
472.560945	9867.420948
472.931667	9080.564888
473.302330	8940.292262
473.672934	8592.341741
474.043479	8942.941388
474.413965	8884.509374
474.784393	8764.282896
475.154761	8926.199716
475.525070	9010.061831
475.895321	8829.112134
476.265513	8999.823247
476.635645	9169.488321
477.005719	9175.714146
477.375734	9289.631620
477.745691	9525.050984
478.115588	9649.771651
478.485427	9897.322552
478.855207	10421.176574
479.224928	11226.470654
479.594591	11855.276459
479.964194	11667.193529
480.333739	11603.869075
480.703226	11516.679799
481.072653	11598.051584
481.442022	11822.342601
481.811333	12008.961075
482.180584	11813.283647
482.549777	11515.560663
482.918912	11334.820174
483.287988	11342.192862
483.657005	11351.183759
484.025964	11027.624862
484.394864	11153.625981
484.763706	11111.882707
485.132489	10868.836077
485.501213	10818.323716
485.869879	10886.724612
486.238487	10717.102388
486.607036	10819.037039
486.975527	10588.232851
487.343959	10762.356826
487.712333	10798.282608
488.080648	10713.702129
488.448905	10746.794784
488.817104	10673.088073
489.185244	10918.259549
489.553326	11044.421986
489.921350	11537.086390
490.289315	12508.620080
490.657222	12845.280936
491.025070	12720.073798
491.392861	12572.980491
491.760593	12201.276053
492.128267	11861.000689
492.495883	11529.020544
492.863440	11179.749241
493.230939	10840.247694
493.598380	10748.743190
493.965763	10600.220715
494.333088	10485.458848
494.700354	10378.483042
495.067563	10414.247508
495.434713	10224.891688
495.801805	10308.831940
496.168839	10208.467608
496.535815	10117.217683
496.902733	10088.107540
497.269593	9988.998455
497.636395	10055.476151
498.003139	10003.716104
498.369825	9851.732877
498.736453	9953.206263
499.103023	9858.233445
499.469535	9833.753602
499.835989	9793.205081
500.202385	9725.353671
500.568723	9545.276094
500.935003	9706.129231
501.301226	9474.495773
501.667390	9661.046192
502.033497	9698.093631
502.399546	9540.229899
502.765537	9410.037059
503.131470	9418.957381
503.497345	9514.734263
503.863163	9154.369901
504.228923	9349.636475
504.594625	9357.314152
504.960269	9095.947969
505.325856	9223.262309
505.691385	9000.821396
506.056856	9065.423783
506.422270	9025.747381
506.787625	8890.977174
507.152924	8915.386441
507.518164	8856.977112
507.883347	8735.528154
508.248472	8617.303014
508.613540	8726.224705
508.978550	8581.409999
509.343503	8505.127259
509.708398	8525.332203
510.073236	8540.390130
510.438016	8480.342426
510.802738	8378.866520
511.167403	8356.541770
511.532010	8205.317237
511.896561	8310.689955
512.261053	8288.655072
512.625488	8124.444526
512.989866	8046.835963
513.354186	7973.948440
513.718449	7835.805701
514.082655	7901.423880
514.446803	7756.210923
514.810894	7766.817511
515.174927	7608.263140
515.538904	7564.253867
515.902822	7576.556803
516.266684	7443.258613
516.630488	7334.697365
516.994235	7307.419681
517.357925	7260.350428
517.721558	7248.833912
518.085133	7180.821185
518.448651	7121.196937
518.812112	6991.606516
519.175516	6916.505927
519.538863	6912.283960
519.902152	6809.328475
520.265385	6802.898484
520.628560	6709.284257
520.991678	6611.110306
521.354739	6576.197795
521.717743	6481.444267
522.080690	6405.421147
522.443580	6380.427106
522.806413	6298.341998
523.169189	6246.309729
523.531908	6201.657708
523.894569	6059.842489
524.257174	5992.129711
524.619722	5970.256144
524.982213	5899.349795
525.344647	5838.921483
525.707025	5761.375934
526.069345	5733.092541
526.431608	5623.092043
526.793815	5601.445329
527.155964	5471.645699
527.518057	5430.041057
527.880093	5347.000650
528.242072	5314.228109
528.603995	5220.429880
528.965860	5136.204802
529.327669	5096.611580
529.689421	5027.930900
530.051117	4964.548472
530.412755	4930.044295
530.774337	4856.070403
531.135862	4790.540444
531.497331	4751.574846
531.858743	4656.092871
532.220098	4647.843023
532.581396	4567.817226
532.942638	4515.822766
533.303824	4461.640444
533.664953	4408.610026
534.026025	4345.414122
534.387040	4324.102644
534.747999	4280.055562
535.108902	4243.590376
535.469748	4156.794309
535.830537	4131.888489
536.191270	4081.996189
536.551947	4043.958163
536.912567	4009.834592
537.273131	3957.134370
537.633638	3915.844799
537.994089	3872.231257
538.354483	3828.572344
538.714821	3813.590035
539.075103	3783.398564
539.435328	3735.341245
539.795497	3682.920807
540.155609	3667.845236
540.515665	3646.269097
540.875665	3581.976742
541.235609	3558.825243
541.595496	3532.081922
541.955328	3512.250023
542.315102	3474.887511
542.674821	3440.567335
543.034483	3412.656987
543.394090	3384.824777
543.753640	3351.371680
544.113134	3347.673993
544.472571	3311.518838
544.831953	3294.215078
545.191278	3255.151176
545.550548	3235.601582
545.909761	3224.473235
546.268918	3200.696632
546.628019	3183.937317
546.987064	3150.557316
547.346053	3129.573513
547.704986	3113.141872
548.063863	3097.451281
548.422684	3077.150555
548.781449	3054.414951
549.140158	3042.149823
549.498811	3019.878006
549.857408	2995.320025
550.215949	2989.784838
550.574434	2964.321970
550.932864	2954.282512
551.291237	2948.427212
551.649555	2928.928029
552.007817	2918.573499
552.366022	2906.242836
552.724173	2893.904612
553.082267	2880.900956
553.440305	2876.621016
553.798288	2857.303315
554.156215	2847.359639
554.514086	2840.304544
554.871902	2825.140753
555.229661	2820.457521
555.587365	2808.686427
555.945014	2799.934984
556.302606	2796.116310
556.660143	2783.435287
557.017625	2782.842952
557.375050	2770.839965
557.732421	2766.980961
558.089735	2756.949065
558.446994	2751.585277
558.804197	2746.861716
559.161345	2742.054976
559.518437	2732.638101
559.875474	2729.404201
560.232455	2724.652913
560.589381	2718.263251
560.946251	2716.264433
561.303065	2709.095912
561.659825	2705.065510
562.016528	2700.427648
562.373177	2696.740044
562.729770	2695.378933
563.086307	2686.448529
563.442789	2685.967098
563.799216	2682.786130
564.155587	2679.844617
564.511904	2676.751869
564.868164	2674.304389
565.224370	2673.641477
565.580520	2670.621826
565.936615	2669.091836
566.292654	2660.471463
566.648638	2661.220074
567.004567	2660.113541
567.360441	2660.048006
567.716260	2657.111534
568.072023	2656.728406
568.427732	2647.470327
568.783385	2647.354381
569.138982	2644.967394
569.494525	2646.126860
569.850013	2641.854482
570.205445	2646.046201
570.560823	2641.879688
570.916145	2640.768113
571.271412	2636.871301
571.626625	2639.467495
571.981782	2639.316261
572.336884	2636.614202
572.691931	2637.433390
573.046923	2633.773512
573.401860	2632.117493
573.756743	2630.358130
574.111570	2630.053141
574.466342	2627.893006
574.821059	2629.768315
575.175722	2626.955352
575.530330	2628.699591
575.884882	2625.062398
576.239380	2626.027779
576.593823	2624.134826
576.948211	2622.130967
577.302544	2619.764146
577.656823	2619.544855
578.011047	2620.674074
578.365216	2619.925462
578.719330	2619.915380
579.073389	2617.109978
579.427394	2615.529576
579.781344	2617.614093
580.135239	2617.598970
580.489080	2616.603342
580.842866	2613.734926
581.196597	2614.221397
581.550273	2615.620317
581.903895	2612.885491
582.257463	2614.659977
582.610975	2614.881788
582.964434	2609.570932
583.317837	2608.746704
583.671186	2612.096551
584.024481	2612.023454
584.377721	2609.545727
584.730906	2606.183277
585.084037	2608.713936
585.437113	2609.656632
585.790135	2608.111518
586.143103	2610.390120
586.496016	2609.177722
586.848874	2602.440220
587.201679	2605.258225
587.554428	2601.510127
587.907124	2602.268821
588.259765	2601.124479
588.612352	2604.655807
588.964884	2603.231682
589.317362	2603.382916
589.669786	2604.257556
590.022155	2607.531786
590.374470	2605.386775
590.726731	2604.242433
591.078937	2603.045159
591.431090	2604.040787
591.783188	2603.743359
592.135232	2598.767740
592.487222	2602.288986
592.839157	2603.012391
593.191038	2601.225302
593.542866	2602.220930
593.894639	2599.781012
594.246358	2599.314705
594.598022	2599.874273
594.949633	2598.528285
595.301190	2601.174891
595.652692	2599.254211
596.004141	2601.885693
596.355535	2598.639190
596.706876	2599.203800
597.058162	2598.235898
597.409395	2597.479725
597.760573	2598.084663
598.111698	2598.727411
598.462768	2596.668099
598.813785	2595.140630
599.164748	2596.819334
599.515657	2594.707090
599.866511	2593.857656
600.217312	2596.877307
600.568060	2592.715835
600.918753	2596.690784
601.269392	2596.731114
601.619978	2594.439909
601.970510	2595.135588
602.320988	2592.904878
602.671412	2597.230188
603.021783	2594.707090
603.372100	2594.268510
603.722363	2592.811617
604.072572	2596.113572
604.422728	2596.910075
604.772830	2589.096286
605.122878	2590.028900
605.472872	2591.823550
605.822813	2589.728951
606.172701	2592.070567
606.522534	2592.851946
606.872314	2593.903026
607.222041	2593.950917
607.571714	2593.086359
607.921333	2594.507965
608.270899	2592.373036
608.620411	2595.049889
608.969870	2590.870772
609.319276	2595.876638
609.668627	2595.687595
610.017926	2601.860488
610.367171	2601.273193
610.716362	2600.574993
611.065500	2597.981320
611.414585	2598.319077
611.763616	2596.068202
612.112594	2596.239601
612.461518	2597.822523
612.810389	2596.310177
613.159207	2595.579210
613.507971	2594.835640
613.856682	2596.335383
614.205340	2595.206165
614.553945	2597.424272
614.902496	2595.286823
615.250994	2592.970413
615.599439	2598.165322
615.947830	2595.059971
616.296169	2593.197265
616.644454	2597.905702
616.992686	2593.224991
617.340864	2596.156422
617.688990	2593.083839
618.037063	2597.784715
618.385082	2594.886051
618.733048	2598.883686
619.080961	2595.594333
619.428821	2592.841863
619.776628	2593.797162
620.124382	2595.622060
620.472083	2594.117275
620.819731	2595.080136
621.167326	2592.294898
621.514868	2592.156267
621.862357	2593.552666
622.209793	2592.436051
622.557176	2590.462439
622.904506	2589.991091
623.251783	2585.234762
623.599007	2585.955647
623.946179	2586.807602
624.293297	2589.552511
624.640363	2588.854311
624.987376	2589.368508
625.334336	2587.354567
625.681243	2587.016810
626.028097	2587.029413
626.374899	2586.986563
626.721647	2587.147880
627.068343	2587.334403
627.414987	2588.103179
627.761577	2586.432036
628.108115	2587.866245
628.454600	2586.023703
628.801032	2587.805751
629.147412	2588.516553
629.493739	2586.071594
629.840014	2586.651327
630.186236	2589.439085
630.532405	2585.943044
630.878521	2584.435739
631.224585	2584.186202
631.570597	2583.850966
631.916556	2582.797364
632.262462	2583.677046
632.608316	2585.512026
632.954117	2581.766448
633.299866	2582.005903
633.645562	2580.778382
633.991206	2580.662436
634.336797	2580.128073
634.682336	2581.743763
635.027823	2578.582960
635.373257	2581.267374
635.718639	2578.436766
636.063968	2578.134297
636.409245	2579.283680
636.754470	2580.193608
637.099642	2578.199832
637.444762	2577.834348
637.789829	2579.684452
638.134845	2578.905594
638.479808	2576.354770
638.824719	2577.133628
639.169577	2575.938875
639.514383	2575.772517
639.859137	2576.543813
640.203839	2575.926272
640.548489	2576.929461
640.893086	2574.983576
641.237632	2572.626837
641.582125	2573.327557
641.926566	2571.263204
642.270955	2574.489543
642.615292	2576.788309
642.959576	2577.163875
643.303809	2577.370562
643.647990	2577.819225
643.992118	2578.330902
644.336195	2575.059193
644.680219	2572.707495
645.024192	2574.207238
645.368112	2577.350398
645.711981	2575.344018
646.055797	2577.655388
646.399562	2577.305027
646.743274	2577.040367
647.086935	2578.351067
647.430544	2578.736715
647.774101	2577.836869
648.117606	2578.209914
648.461059	2578.668659
648.804460	2579.601273
649.147810	2577.912486
649.491108	2572.894018
649.834354	2577.105902
650.177548	2576.732856
650.520690	2575.044070
650.863781	2576.163206
651.206820	2577.872157
651.549807	2574.136662
651.892742	2575.301169
652.235626	2573.367886
652.578458	2571.951322
652.921238	2573.380489
653.263967	2574.839903
653.606644	2572.505849
653.949269	2569.128276
654.291843	2570.723801
654.634365	2570.877556
654.976836	2570.081054
655.319255	2572.959553
655.661622	2572.193297
656.003938	2569.564336
656.346203	2573.892166
656.688416	2574.300500
657.030577	2571.192628
657.372687	2572.052145
657.714746	2570.131465
658.056753	2569.629871
658.398708	2561.364899
658.740612	2570.620457
659.082465	2567.590724
659.424266	2568.669531
659.766016	2566.534602
660.107715	2570.451579
660.449362	2570.615416
660.790958	2573.836713
661.132503	2573.473750
661.473996	2572.281517
661.815438	2571.399316
662.156829	2570.791857
662.498168	2574.018195
662.839456	2571.575756
663.180693	2571.724470
663.521879	2568.934191
663.863013	2572.289079
664.204097	2572.964594
664.545129	2569.914696
664.886110	2571.800087
665.227040	2569.728173
665.567918	2571.180025
665.908746	2572.979717
666.249522	2573.065417
666.590248	2573.451065
666.930922	2572.455437
667.271545	2571.787484
667.612118	2572.825962
667.952639	2572.571384
668.293109	2572.977197
668.633528	2569.786146
668.973896	2571.666497
669.314213	2573.808987
669.654480	2573.256981
669.994695	2570.002916
670.334859	2571.255643
670.674973	2572.949470
671.015035	2571.298492
671.355047	2572.125242
671.695008	2569.118193
672.034918	2571.298493
672.374777	2573.272104
672.714585	2570.096177
673.054342	2571.195149
673.394049	2572.838565
673.733705	2573.282187
674.073310	2568.798080
674.412864	2572.657083
674.752368	2569.982751
675.091820	2570.680951
675.431223	2568.634243
675.770574	2568.553584
676.109875	2567.777247
676.449125	2568.409911
676.788324	2564.994530
677.127473	2566.968141
677.466571	2564.697102
677.805619	2566.534602
678.144616	2569.007288
678.483562	2570.045766
678.822458	2565.405384
679.161303	2569.834037
679.500098	2567.535271
679.838842	2567.754561
680.177535	2567.671382
680.516179	2567.023594
680.854771	2567.197514
681.193314	2568.916547
681.531805	2568.641804
681.870247	2572.047104
682.208638	2572.654563
682.546978	2574.050963
682.885268	2573.509038
683.223508	2573.017526
683.561697	2567.817576
683.899836	2570.391085
684.237925	2568.684654
684.575963	2571.137176
684.913951	2571.490056
685.251889	2570.839747
685.589776	2571.127093
685.927614	2569.768502
686.265401	2568.195662
686.603137	2568.674572
686.940824	2570.907803
687.278460	2573.856878
687.616046	2572.546178
687.953582	2573.788822
688.291068	2572.846127
688.628504	2573.357804
688.965889	2574.229923
689.303224	2572.057186
689.640510	2570.295303
689.977745	2569.632391
690.314930	2571.366548
690.652065	2569.234140
690.989150	2567.557956
691.326185	2568.767833
691.663170	2567.028635
692.000105	2565.904458
692.336990	2565.967472
692.673825	2567.784808
693.010610	2565.347410
693.347345	2561.064950
693.684030	2558.473797
694.020665	2559.547563
694.357251	2557.387428
694.693786	2561.294323
695.030272	2562.100907
695.366707	2560.384394
695.703093	2559.940773
696.039429	2561.087635
696.375716	2564.185424
696.711952	2564.639128
697.048139	2561.649724
697.384276	2563.280537
697.720363	2561.359858
698.056400	2561.085115
698.392388	2561.281720
698.728326	2561.806000
699.064214	2560.515464
699.400053	2561.324570
699.735842	2557.117727
700.071581	2561.264076
700.407270	2559.759291
700.742910	2559.713921
701.078501	2556.752243
701.414042	2555.832232
701.749533	2559.114024
702.084974	2561.795917
702.420366	2558.705690
702.755709	2559.250135
703.091002	2559.471946
703.426246	2557.246276
703.761440	2558.012532
704.096584	2557.165618
704.431679	2554.692932
704.766725	2555.368446
705.101721	2553.639331
705.436668	2556.913560
705.771565	2556.321224
706.106413	2557.823488
706.441212	2556.530432
706.775961	2556.769887
707.110661	2558.788869
707.445311	2556.527912
707.779913	2560.490259
708.114465	2558.476318
708.448967	2562.499158
708.783421	2560.654096
709.117825	2561.269117
709.452180	2559.471946
709.786485	2561.445557
710.120742	2557.941955
710.454949	2561.596792
710.789107	2557.248797
711.123216	2559.229970
711.457275	2562.239539
711.791286	2558.186451
712.125247	2561.019580
712.459159	2561.155691
712.793023	2562.400856
713.126837	2559.993705
713.460602	2561.838767
713.794318	2559.877758
714.127985	2562.181566
714.461602	2559.320711
714.795171	2561.952193
715.128691	2560.492779
715.462162	2557.221070
715.795584	2556.028838
716.128957	2558.811554
716.462281	2556.328786
716.795556	2556.532953
717.128782	2556.066646
717.461960	2558.294836
717.795088	2554.486244
718.128167	2556.043961
718.461198	2555.615463
718.794180	2556.331307
719.127113	2557.170659
719.459997	2554.584547
719.792833	2551.958106
720.125619	2555.078580
720.458357	2551.930379
720.791046	2553.417520
721.123686	2555.267623
721.456278	2555.083621
721.788821	2554.455998
722.121315	2554.052705
722.453761	2550.990204
722.786158	2551.965667
723.118506	2553.581357
723.450805	2552.132026
723.783056	2553.898950
724.115259	2553.132695
724.447412	2552.353836
724.779518	2554.866852
725.111574	2553.324258
725.443582	2551.587581
725.775542	2551.325441
726.107453	2553.702345
726.439315	2552.908363
726.771129	2558.025134
727.102895	2554.057746
727.434612	2555.244938
727.766281	2553.649413
728.097901	2552.621017
728.429473	2552.152190
728.760996	2552.807540
729.092471	2551.983312
729.423897	2554.720658
729.755276	2554.700493
730.086606	2559.086297
730.417887	2557.354661
730.749120	2555.670916
731.080305	2557.455484
731.411442	2560.885989
731.742530	2559.474466
732.073570	2558.259548
732.404562	2554.851728
732.735506	2558.647717
733.066401	2556.144784
733.397249	2555.295350
733.728048	2555.496996
734.058798	2555.572613
734.389501	2553.452808
734.720156	2553.719989
735.050762	2554.398024
735.381320	2550.087838
735.711831	2550.866696
736.042293	2550.970040
736.372707	2553.619166
736.703073	2551.476676
737.033391	2550.695297
737.363661	2552.875596
737.693883	2551.885009
738.024056	2555.474311
738.354182	2552.933569
738.684260	2552.424412
739.014290	2554.929866
739.344272	2553.220915
739.674207	2555.008004
740.004093	2553.339382
740.333931	2555.378529
740.663722	2553.409958
740.993464	2551.343085
741.323159	2553.689742
741.652806	2554.400545
741.982405	2553.568754
742.311956	2553.389793
742.641460	2554.062788
742.970915	2551.786707
743.300323	2551.615307
743.629683	2554.108158
743.958996	2551.862324
744.288260	2551.073383
744.617477	2549.878630
744.946647	2543.851930
745.275768	2547.940306
745.604842	2544.988711
745.933869	2546.387631
746.262847	2548.540203
746.591778	2547.400903
746.920662	2548.436860
747.249498	2550.463404
747.578286	2549.860986
747.907027	2550.949875
748.235720	2551.842159
748.564365	2550.390307
748.892963	2549.626572
749.221514	2551.814433
749.550017	2547.620193
749.878473	2551.327962
750.206881	2550.760832
750.535242	2548.751932
750.863555	2548.414175
751.191821	2549.644216
751.520039	2551.859803
751.848210	2551.166645
752.176334	2550.274360
752.504411	2549.273691
752.832440	2546.075079
753.160421	2548.968702
753.488356	2548.731767
753.816243	2553.271326
754.144082	2550.221428
754.471875	2548.104144
754.799620	2549.724875
755.127318	2546.758156
755.454969	2547.705892
755.782572	2549.533311
756.110129	2546.974925
756.437638	2549.540873
756.765100	2546.299411
757.092515	2549.596325
757.419882	2547.577343
757.747203	2547.700851
758.074477	2549.437529
758.401703	2550.145811
758.728882	2548.472148
759.056014	2548.867878
759.383099	2550.662529
759.710138	2548.545245
760.037129	2547.950388
760.364073	2551.418702
760.690970	2548.189843
761.017820	2546.934596
761.344623	2551.844680
761.671379	2549.732436
761.998088	2546.702703
762.324751	2552.200081
762.651366	2556.999260
762.977935	2564.782801
763.304456	2570.358317
763.630931	2574.119018
763.957359	2570.749007
764.283740	2564.545867
764.610074	2561.639642
764.936362	2558.022614
765.262602	2553.881306
765.588796	2553.896429
765.914943	2549.830739
766.241044	2548.903167
766.567097	2550.125646
766.893104	2548.083979
767.219064	2546.357384
767.544978	2544.446787
767.870845	2545.160110
768.196665	2547.000131
768.522438	2544.479554
768.848165	2549.679504
769.173846	2544.739173
769.499479	2546.203629
769.825066	2543.965356
770.150607	2545.628937
770.476101	2541.220448
770.801548	2544.618186
771.126949	2544.076262
771.452303	2543.297403
771.777611	2540.441590
772.102872	2542.805891
772.428087	2541.964018
772.753256	2543.529297
773.078378	2541.689275
773.403453	2542.659698
773.728482	2542.758000
774.053465	2542.639533
774.378401	2541.870757
774.703291	2543.022661
775.028135	2539.783719
775.352932	2540.930582
775.677683	2542.614327
776.002388	2543.249512
776.327046	2542.236241
776.651658	2541.941333
776.976224	2542.311858
777.300743	2542.473175
777.625216	2539.014943
777.949643	2539.534182
778.274024	2539.466127
778.598359	2538.442772
778.922647	2535.551671
779.246889	2540.242464
779.571086	2534.724921
779.895236	2539.019984
780.219339	2541.031405
780.543397	2541.432177
780.867409	2539.577032
781.191374	2542.967208
781.515294	2540.174409
781.839167	2539.892104
782.162995	2543.113401
782.486776	2541.787578
782.810511	2540.983514
783.134201	2541.303627
783.457844	2539.365303
783.781441	2538.162988
784.104993	2540.897814
784.428498	2537.807587
784.751958	2541.414533
785.075372	2539.360262
785.398739	2539.771116
785.722061	2542.180788
786.045337	2541.946374
786.368568	2543.151210
786.691752	2538.863709
787.014891	2543.478885
787.337983	2538.838503
787.661030	2544.761859
787.984031	2542.392516
788.306987	2546.362425
788.629897	2545.497867
788.952760	2545.709596
789.275579	2543.700696
789.598351	2542.218597
789.921078	2541.570808
790.243759	2541.129707
790.566395	2543.985521
790.888984	2538.949408
791.211529	2542.805891
791.534027	2539.375386
791.856480	2541.114584
792.178888	2538.215920
792.501249	2542.034594
792.823566	2540.368493
793.145836	2539.138452
793.468062	2538.278935
793.790241	2539.869419
794.112375	2540.292876
794.434464	2539.418236
794.756507	2539.672814
795.078505	2541.454862
795.400457	2541.717002
795.722364	2535.367668
796.044226	2539.294727
796.366042	2538.911600
796.687812	2539.115766
797.009538	2540.766744
797.331218	2541.215407
797.652852	2540.008051
797.974442	2540.363452
798.295986	2540.360931
798.617484	2540.728936
798.938938	2540.512166
799.260346	2539.670293
799.581709	2541.787578
799.903026	2540.494522
800.224299	2541.396888
800.545526	2539.350180
800.866708	2538.906558
801.187845	2536.254912
801.508936	2537.132072
801.829983	2539.168698
802.150984	2538.944367
802.471940	2536.900179
802.792851	2541.936292
803.113717	2539.327495
803.434538	2539.640046
803.755314	2539.423277
804.076045	2536.839685
804.396731	2541.472506
804.717372	2538.024357
805.037967	2537.636188
805.358518	2536.101156
805.679024	2540.207176
805.999485	2537.527803
806.319901	2540.252547
806.640272	2536.874973
806.960598	2538.430169
807.280879	2537.558050
807.601115	2538.147865
807.921306	2539.188863
808.241453	2540.696168
808.561554	2540.691127
808.881611	2539.088040
809.201623	2539.312371
809.521590	2539.062834
809.841513	2537.142155
810.161390	2541.069213
810.481223	2538.011754
810.801011	2540.270191
811.120755	2538.062165
811.440453	2538.682227
811.760107	2538.717515
812.079716	2534.067051
812.399281	2536.151568
812.718801	2533.971269
813.038276	2537.210210
813.357707	2537.926054
813.677093	2536.587628
813.996434	2538.341949
814.315731	2539.725746
814.634983	2538.510828
814.954191	2539.161137
815.273354	2539.337577
815.592473	2538.193235
815.911547	2539.461085
816.230577	2539.282124
816.549562	2539.551826
816.868502	2540.297917
817.187399	2540.749100
817.506250	2539.287166
817.825058	2539.811446
818.143821	2541.878319
818.462539	2541.764893
818.781213	2539.839172
819.099843	2542.800850
819.418429	2546.246478
819.736970	2547.010213
820.055466	2548.734288
820.373919	2553.440205
820.692327	2555.648230
821.010691	2567.462174
821.329011	2580.596901
821.647286	2612.076386
821.965517	2646.295738
822.283704	2669.351455
822.601847	2675.118535
822.919945	2659.503561
823.237999	2638.116466
823.556010	2617.979577
823.873976	2600.801845
824.191897	2590.124682
824.509775	2578.461972
824.827609	2571.817731
825.145398	2567.404201
825.463144	2564.331618
825.780845	2568.722463
826.098502	2573.302351
826.416116	2580.697724
826.733685	2590.817840
827.051210	2592.735999
827.368692	2588.859352
827.686129	2581.673187
828.003522	2570.388564
828.320872	2557.165618
828.638177	2555.151677
828.955439	2551.000287
829.272656	2547.184133
829.589830	2541.989224
829.906960	2544.729091
830.224046	2543.816642
830.541088	2545.195398
830.858086	2541.525438
831.175041	2543.095757
831.491952	2543.070552
831.808819	2540.728936
832.125642	2542.289173
832.442421	2544.966025
832.759157	2546.695141
833.075849	2557.014383
833.392497	2561.957234
833.709101	2570.005437
834.025662	2566.582493
834.342179	2565.402863
834.658653	2558.062943
834.975083	2554.398024
835.291469	2551.151521
835.607811	2546.312013
835.924110	2543.005017
836.240366	2543.100798
836.556578	2541.291024
836.872746	2538.856147
837.188871	2537.777340
837.504952	2538.951929
837.820990	2537.981507
838.136984	2535.760878
838.452935	2536.948070
838.768842	2538.891435
839.084706	2538.936805
839.400526	2539.360262
839.716303	2544.015768
840.032037	2548.358722
840.347727	2549.097251
840.663373	2547.169010
840.978977	2542.339584
841.294537	2539.508976
841.610054	2539.929913
841.925527	2538.649460
842.240957	2535.962525
842.556344	2534.188038
842.871687	2536.123842
843.186987	2536.990920
843.502244	2535.443286
843.817458	2532.549663
844.132629	2534.460261
844.447756	2532.559746
844.762840	2530.364323
845.077881	2532.101001
845.392879	2529.225022
845.707833	2530.944056
846.022745	2527.432892
846.337613	2535.833975
846.652438	2534.009078
846.967221	2535.236598
847.281960	2532.703419
847.596656	2534.578728
847.911309	2532.922709
848.225919	2533.673841
848.540485	2533.497400
848.855009	2533.068902
849.169490	2535.052596
849.483928	2532.181659
849.798323	2532.746268
850.112675	2534.016639
850.426984	2533.084026
850.741251	2535.287010
851.055474	2531.390198
851.369654	2532.489170
851.683792	2533.444468
851.997887	2533.930940
852.311938	2532.355579
852.625947	2533.941022
852.939914	2532.206865
853.253837	2535.503780
853.567718	2534.167874
853.881555	2532.771474
854.195350	2532.378264
854.509103	2530.639066
854.822812	2531.687626
855.136479	2533.711649
855.450103	2534.230888
855.763685	2532.872297
856.077224	2531.760723
856.390720	2535.962525
856.704173	2532.388347
857.017584	2534.563604
857.330953	2534.177956
857.644278	2533.063861
857.957561	2535.660055
858.270802	2534.208203
858.584000	2534.493028
858.897155	2534.702236
859.210268	2530.818027
859.523339	2534.482946
859.836367	2532.877338
860.149352	2533.182328
860.462295	2534.137627
860.775195	2532.348017
861.088054	2531.228881
861.400869	2530.694519
861.713642	2527.760567
862.026373	2530.238294
862.339062	2532.819365
862.651708	2530.119827
862.964312	2531.289375
863.276873	2532.516896
863.589392	2530.785260
863.901869	2530.215609
864.214303	2531.617050
864.526696	2534.374561
864.839045	2531.962369
865.151353	2532.448840
865.463619	2532.804242
865.775842	2535.292051
866.088023	2532.758871
866.400162	2533.396577
866.712258	2534.364479
867.024313	2532.589993
867.336325	2533.545291
867.648296	2533.391536
867.960224	2532.617719
868.272110	2532.358100
868.583954	2530.008922
868.895755	2533.247863
869.207515	2533.767102
869.519233	2532.655528
869.830909	2535.607123
870.142542	2533.895652
870.454134	2536.209541
870.765684	2536.532175
871.077191	2532.068233
871.388657	2536.254912
871.700081	2534.931609
872.011463	2535.155940
872.322803	2533.832637
872.634101	2537.154757
872.945357	2532.869777
873.256571	2535.526465
873.567744	2534.329191
873.878874	2537.038811
874.189963	2536.383461
874.501010	2538.503266
874.812015	2536.902700
875.122979	2536.776671
875.433900	2533.628470
875.744780	2535.665097
876.055618	2537.190046
876.366415	2535.760878
876.677169	2537.227854
876.987882	2533.978831
877.298554	2531.102852
877.609183	2537.129552
877.919771	2531.049920
878.230317	2536.713657
878.540822	2539.151054
878.851285	2537.159799
879.161707	2542.957126
879.472087	2545.676828
879.782425	2548.401572
880.092722	2556.550597
880.402977	2564.997050
880.713191	2581.030440
881.023363	2601.951228
881.333494	2613.041767
881.643583	2616.071500
881.953631	2616.883126
882.263637	2608.066148
882.573602	2603.582042
882.883526	2591.596698
883.193408	2582.154617
883.503248	2575.470047
883.813048	2569.667679
884.122806	2563.517472
884.432522	2559.729044
884.742197	2556.832902
885.051831	2550.748229
885.361424	2549.714792
885.670975	2547.405944
885.980485	2546.894267
886.289954	2542.730274
886.599382	2541.981662
886.908768	2541.752290
887.218113	2537.981507
887.527417	2539.720705
887.836680	2537.873122
888.145901	2535.460930
888.455082	2538.246167
888.764221	2540.030736
889.073319	2537.999151
889.382376	2535.828934
889.691392	2536.068389
890.000366	2537.873122
890.309300	2536.736342
890.618193	2538.760365
890.927044	2534.571166
891.235855	2539.261960
891.544625	2538.019315
891.853353	2537.152237
892.162041	2538.848585
892.470687	2540.247505
892.779293	2538.893956
893.087858	2540.925541
893.396381	2539.067875
893.704864	2543.302445
894.013306	2545.021478
894.321707	2557.974723
894.630068	2560.207954
894.938387	2564.611402
895.246665	2562.335321
895.554903	2557.750392
895.863100	2554.380380
896.171256	2552.626059
896.479371	2547.426108
896.787446	2549.387117
897.095480	2541.744728
897.403473	2544.260264
897.711425	2542.954605
898.019336	2539.032587
898.327207	2538.195756
898.635038	2541.205325
898.942827	2538.820859
899.250576	2539.340098
899.558284	2537.416897
899.865952	2540.081147
900.173579	2532.957997
900.481165	2536.650642
900.788711	2537.179963
901.096216	2537.396733
901.403681	2535.460930
901.711105	2537.691640
902.018489	2534.974458
902.325832	2538.369676
902.633135	2536.272556
902.940397	2535.589479
903.247619	2540.862526
903.554800	2545.089534
903.861941	2553.457849
904.169041	2566.022925
904.476101	2572.057186
904.783121	2571.316137
905.090100	2565.367575
905.397039	2559.106462
905.703938	2556.661502
906.010796	2549.371994
906.317614	2544.620706
906.624391	2544.507280
906.931129	2542.460572
907.237826	2539.264480
907.544483	2536.005374
907.851099	2535.395395
908.157675	2533.890610
908.464211	2533.202493
908.770707	2526.669158
909.077163	2532.126207
909.383578	2528.257121
909.689954	2529.081350
909.996289	2528.065557
910.302584	2532.090918
910.608839	2529.840043
910.915054	2532.685775
911.221229	2530.586134
911.527363	2532.905065
911.833458	2532.312729
912.139513	2535.216434
912.445527	2532.363141
912.751502	2532.695857
913.057436	2531.750641
913.363331	2534.273738
913.669186	2533.971269
913.975000	2536.605272
914.280775	2538.490663
914.586510	2542.815973
914.892205	2545.051725
915.197859	2549.321582
915.503475	2555.915412
915.809050	2565.569221
916.114585	2567.338666
916.420081	2569.821434
916.725536	2567.552915
917.030952	2569.226578
917.336328	2560.092008
917.641665	2556.467418
917.946961	2553.407437
918.252218	2548.857796
918.557435	2547.158927
918.862612	2543.889739
919.167750	2542.735315
919.472848	2541.724563
919.777906	2542.286652
920.082925	2538.266332
920.387904	2537.424459
920.692843	2536.144006
920.997743	2533.585621
921.302603	2532.385826
921.607423	2535.833975
921.912204	2533.424304
922.216946	2532.985723
922.521647	2537.520241
922.826310	2530.865918
923.130932	2534.815662
923.435516	2533.000847
923.740059	2532.194262
924.044564	2533.310878
924.349028	2530.876000
924.653454	2524.730834
924.957840	2527.405166
925.262186	2526.462470
925.566493	2529.035979
925.870761	2524.612367
926.174989	2530.074457
926.479178	2528.486493
926.783328	2531.271731
927.087438	2531.571680
927.391509	2530.460105
927.695541	2529.719056
927.999533	2528.821730
928.303486	2528.695701
928.607400	2530.230733
928.911275	2527.034641
929.215110	2529.587986
929.518906	2528.307533
929.822663	2528.042872
930.126381	2527.001874
930.430060	2530.379447
930.733699	2531.296937
931.037299	2530.308871
931.340861	2531.271731
931.644383	2529.522451
931.947866	2530.848274
932.251309	2529.222502
932.554714	2528.380629
932.858080	2529.466998
933.161407	2529.277955
933.464694	2529.494724
933.767943	2529.469518
934.071153	2530.586134
934.374323	2527.599250
934.677455	2529.235105
934.980548	2531.410363
935.283602	2528.771319
935.586617	2528.836854
935.889593	2528.894827
936.192530	2528.206709
936.495428	2529.237625
936.798287	2527.160670
937.101108	2527.821061
937.403890	2529.794673
937.706632	2530.034128
938.009336	2532.932791
938.312002	2529.973634
938.614628	2531.899355
938.917216	2529.804755
939.219765	2530.994467
939.522275	2530.381967
939.824747	2533.885569
940.127179	2530.260980
940.429573	2528.241998
940.731929	2529.628315
941.034246	2526.868283
941.336524	2529.850126
941.638763	2530.686957
941.940964	2530.606299
942.243126	2527.024559
942.545250	2529.761905
942.847335	2529.187214
943.149381	2529.290558
943.451389	2531.082688
943.753359	2527.354754
944.055290	2530.213089
944.357182	2528.673016
944.659036	2527.856349
944.960851	2529.154446
945.262628	2528.037831
945.564367	2529.250228
945.866067	2529.078829
946.167729	2531.324663
946.469352	2529.144364
946.770937	2528.020187
947.072484	2528.110927
947.373992	2529.204858
947.675462	2529.403983
947.976893	2526.485155
948.278286	2526.147398
948.579641	2529.653521
948.880958	2527.455577
949.182236	2528.816689
949.483476	2528.791483
949.784678	2531.720394
950.085841	2527.140505
950.386967	2528.635208
950.688054	2530.407173
950.989103	2526.928777
951.290114	2526.941380
951.591087	2530.724766
951.892021	2527.493386
952.192917	2530.712163
952.493776	2530.734848
952.794596	2529.464477
953.095378	2529.716535
953.396122	2529.464477
953.696828	2529.295599
953.997496	2527.130423
954.298126	2527.011956
954.598718	2529.945908
954.899272	2528.025228
955.199788	2529.129241
955.500266	2528.882224
955.800706	2526.225536
956.101108	2523.500792
956.401472	2527.473222
956.701798	2520.095493
957.002087	2525.487007
957.302337	2525.741585
957.602550	2527.397604
957.902724	2529.046062
958.202861	2523.853673
958.502960	2527.609333
958.803022	2524.594723
959.103045	2525.940711
959.403031	2527.992460
959.702979	2525.015659
960.002889	2526.525485
960.302762	2525.575227
960.602596	2527.054806
960.902393	2525.252593
961.202153	2526.611184
961.501875	2527.228726
961.801559	2524.927439
962.101205	2526.177645
962.400814	2526.984230
962.700385	2523.997346
962.999918	2528.524302
963.299414	2525.804600
963.598873	2526.999353
963.898293	2527.571524
964.197677	2527.228726
964.497022	2524.302336
964.796331	2523.856194
965.095601	2524.604805
965.394835	2526.787625
965.694030	2523.152953
965.993189	2527.034641
966.292309	2524.768643
966.591393	2524.665299
966.890439	2527.193438
967.189447	2524.566996
967.488419	2524.687984
967.787353	2525.086235
968.086249	2525.363499
968.385108	2528.715866
968.683930	2525.799558
968.982714	2526.507841
969.281462	2524.430885
969.580172	2524.763601
969.878844	2525.093797
970.177480	2523.977181
970.476078	2525.663447
970.774639	2526.286030
971.073162	2525.300484
971.371649	2523.455422
971.670098	2521.380987
971.968510	2523.571368
972.266885	2517.731192
972.565223	2527.574045
972.863524	2525.403828
973.161788	2525.986081
973.460014	2522.868127
973.758204	2525.154291
974.056356	2528.156298
974.354471	2523.374763
974.652550	2525.265196
974.950591	2524.514064
975.248595	2527.470701
975.546563	2527.569003
975.844493	2524.624970
976.142386	2525.171935
976.440243	2523.261338
976.738062	2524.146060
977.035845	2526.185207
977.333590	2527.591689
977.631299	2525.338293
977.928971	2523.793179
978.226606	2527.700073
978.524204	2524.599764
978.821765	2524.985412
979.119290	2524.914836
979.416777	2524.718231
979.714228	2524.617408
980.011642	2528.020187
980.309020	2527.884076
980.606360	2526.573376
980.903664	2525.550021
981.200931	2527.674868
981.498162	2525.469363
981.795356	2527.581606
982.092513	2526.888448
982.389633	2526.903571
982.686717	2529.424148
982.983764	2529.537574
983.280775	2527.977337
983.577749	2528.899868
983.874686	2529.736700
984.171587	2525.655886
984.468451	2526.190248
984.765279	2524.970289
985.062070	2524.098169
985.358824	2526.890968
985.655543	2525.030783
985.952224	2526.769981
986.248869	2524.292253
986.545478	2522.099352
986.842050	2523.243693
987.138586	2521.141532
987.435086	2524.176307
987.731549	2522.011131
988.027975	2524.695546
988.324366	2524.297295
988.620719	2525.164373
988.917037	2528.055475
989.213318	2523.160514
989.509563	2524.541791
989.805772	2525.386184
990.101944	2523.606657
990.398080	2525.383663
990.694180	2524.153622
990.990244	2526.815351
991.286271	2523.871317
991.582262	2522.931142
991.878217	2526.364168
992.174136	2524.282171
992.470019	2526.328880
992.765865	2522.898374
993.061676	2520.992818
993.357450	2525.560104
993.653188	2524.927439
993.948890	2524.559435
994.244556	2523.755371
994.540186	2523.551204
994.835780	2525.799558
995.131337	2526.709487
995.426859	2522.217819
995.722345	2521.542304
996.017795	2522.853004
996.313208	2527.763088
996.608586	2526.069260
996.903928	2526.162522
997.199234	2526.815351
997.494504	2522.353930
997.789738	2523.011800
998.084936	2526.991791
998.380099	2524.279651
998.675225	2522.424506
998.970316	2523.773015
999.265371	2524.672861
999.560390	2525.146729
999.855373	2523.583971
1000.150320	2525.323169
1000.445232	2523.689836
1000.740108	2524.796369
1001.034948	2521.373425
1001.329752	2523.324352
1001.624521	2525.179497
1001.919254	2520.342509
1002.213951	2525.247552
1002.508613	2521.101203
1002.803239	2524.423323
1003.097829	2516.629700
1003.392384	2524.012469
1003.686903	2523.979702
1003.981386	2524.322500
1004.275834	2522.724455
1004.570246	2524.463653
1004.864623	2522.497603
1005.158964	2524.370391
1005.453270	2524.027593
1005.747540	2522.588343
1006.041775	2524.438447
1006.335974	2524.677902
1006.630138	2523.566327
1006.924266	2523.435257
1007.218359	2524.410721
1007.512416	2524.198992
1007.806438	2526.674199
1008.100425	2524.468694
1008.394376	2521.290246
1008.688292	2524.471214
1008.982172	2522.376615
1009.276017	2523.185720
1009.569827	2525.141688
1009.863602	2526.981709
1010.157341	2522.815195
1010.451045	2526.268386
1010.744714	2524.274609
1011.038347	2522.795031
1011.331945	2521.222191
1011.625508	2525.358458
1011.919036	2522.666481
1012.212528	2523.581451
1012.505986	2525.504651
1012.799408	2525.900382
1013.092795	2522.311080
1013.386147	2524.478776
1013.679464	2523.909126
1013.972745	2522.268230
1014.265992	2522.258148
1014.559204	2521.481810
1014.852380	2524.115813
1015.145521	2523.092459
1015.438628	2525.602953
1015.731699	2526.570855
1016.024736	2523.818385
1016.317737	2528.050434
1016.610703	2522.842922
1016.903635	2521.496934
1017.196531	2518.212622
1017.489393	2521.776718
1017.782219	2517.416120
1018.075011	2521.151615
1018.367768	2521.486851
1018.660490	2524.534229
1018.953177	2524.534229
1019.245829	2524.534229
