Dividing Wavelength (nm)	Counts (n)	Blue Motor Position (mm): 0.000000	Red Motor Position (mm): 46.100000	
326.493990	2126.774588
326.888308	2126.774588
327.282561	2126.774588
327.676750	2093.301326
328.070874	2092.424165
328.464933	2094.980030
328.858929	2103.431525
329.252859	2114.249841
329.646726	2122.633280
330.040528	2136.798922
330.434265	2155.158804
330.827938	2170.851916
331.221547	2188.145594
331.615091	2207.790971
332.008571	2229.982130
332.401986	2245.609707
332.795338	2266.180135
333.188625	2285.124792
333.581847	2306.532051
333.975006	2323.765236
334.368100	2343.506394
334.761129	2357.815709
335.154095	2374.733822
335.546996	2394.948849
335.939833	2422.133271
336.332606	2435.341094
336.725315	2448.198557
337.117960	2456.380349
337.510540	2468.973152
337.903056	2477.860706
338.295508	2484.600729
338.687896	2495.592965
339.080220	2502.927843
339.472480	2510.045953
339.864676	2515.271109
340.256807	2517.968126
340.648875	2522.011131
341.040879	2523.490710
341.432818	2525.575227
341.824694	2526.674199
342.216506	2527.579086
342.608253	2529.403983
342.999937	2530.195445
343.391557	2527.740403
343.783113	2525.726462
344.174605	2524.627490
344.566033	2523.281502
344.957397	2521.345699
345.348697	2521.408713
345.739934	2520.327386
346.131106	2516.642303
346.522215	2516.881757
346.913260	2512.369925
347.304241	2512.579133
347.695159	2511.061745
348.086012	2509.206601
348.476802	2507.169974
348.867528	2505.289624
349.258191	2503.283245
349.648789	2502.335508
350.039324	2498.012718
350.429796	2500.694612
350.820203	2500.245950
351.210548	2498.050527
351.600828	2497.264107
351.991045	2497.120434
352.381198	2496.759992
352.771288	2497.566576
353.161314	2497.531288
353.551276	2498.768892
353.941175	2499.910713
354.331010	2496.485249
354.720782	2494.272182
355.110490	2497.770743
355.500135	2496.190341
355.889717	2497.932060
356.279235	2495.600526
356.668689	2496.815444
357.058080	2499.313336
357.447408	2494.413335
357.836672	2494.272182
358.225873	2497.115393
358.615010	2494.577172
359.004084	2497.057420
359.393095	2500.566063
359.782043	2498.983141
360.170927	2499.769561
360.559748	2504.112515
360.948505	2501.849037
361.337199	2502.922802
361.725830	2502.572442
362.114398	2504.916579
362.502903	2505.266939
362.891344	2506.454131
363.279722	2506.864985
363.668037	2504.775426
364.056289	2507.835407
364.444478	2508.624347
364.832603	2507.558143
365.220665	2511.759945
365.608665	2509.062928
365.996601	2514.484689
366.384474	2511.586025
366.772284	2514.174658
367.160031	2511.102074
367.547715	2517.549710
367.935336	2516.354957
368.322893	2524.151101
368.710388	2524.514064
369.097820	2533.131917
369.485189	2534.054448
369.872495	2540.643236
370.259738	2546.899308
370.646918	2556.835422
371.034035	2558.405742
371.421090	2573.544327
371.808081	2582.439442
372.195010	2590.974116
372.581875	2606.876436
372.968678	2617.840945
373.355418	2627.913171
373.742096	2647.097282
374.128710	2660.161432
374.515262	2675.592404
374.901751	2690.219312
375.288177	2703.182639
375.674540	2726.906309
376.060841	2744.782240
376.447079	2762.327976
376.833254	2785.003086
377.219367	2798.972124
377.605417	2834.736590
377.991404	2845.083558
378.377329	2865.515354
378.763191	2882.677963
379.148991	2920.869744
379.534727	2945.170626
379.920402	2973.597693
380.306013	2988.552276
380.691563	3036.798639
381.077049	3060.408883
381.462474	3075.247519
381.847835	3112.451234
382.233134	3135.711118
382.618371	3134.720532
383.003545	3204.404401
383.388657	3211.356152
383.773706	3247.627254
384.158693	3258.914398
384.543618	3286.970939
384.928480	3323.085766
385.313280	3366.969010
385.698017	3367.170656
386.082692	3419.744849
386.467305	3426.920932
386.851856	3458.292032
387.236344	3481.567040
387.620770	3512.003006
388.005133	3537.619629
388.389435	3566.603743
388.773674	3578.059765
389.157851	3623.450315
389.541965	3633.590596
389.926018	3598.191613
390.310008	3669.395391
390.693936	3690.802651
391.077802	3731.267992
391.461606	3719.204511
391.845348	3780.686424
392.229027	3782.871764
392.612645	3796.765184
392.996200	3874.204869
393.379694	3911.509407
393.763125	3978.259325
394.146494	3948.287145
394.529801	4007.918954
394.913047	4055.918300
395.296230	4019.193494
395.679351	4076.607196
396.062410	4100.955969
396.445408	4078.545519
396.828343	4114.753607
397.211217	4137.166577
397.594028	4059.767221
397.976778	4125.836583
398.359466	4149.507321
398.742092	4180.109646
399.124656	4097.041513
399.507158	4178.118390
399.889598	4203.487997
400.271977	4270.558028
400.654294	4238.050148
401.036549	4244.785129
401.418742	4218.845872
401.800874	4319.933609
402.182944	4338.359027
402.564952	4408.501641
402.946898	4391.583529
403.328783	4390.154362
403.710606	4299.945434
404.092367	4496.439529
404.474067	4458.214980
404.855705	4467.326866
405.237282	4395.346750
405.618797	4503.660982
406.000250	4539.039800
406.381642	4620.260350
406.762972	4584.304320
407.144240	4593.433850
407.525447	4589.456379
407.906593	4652.090195
408.287677	4697.899160
408.668700	4622.425525
409.049661	4674.553577
409.430560	4713.241912
409.811399	4644.672137
410.192176	4805.646262
410.572891	4739.465994
410.953545	4845.715873
411.334138	4725.769179
411.714669	4797.073780
412.095139	4690.531514
412.475547	4833.528884
412.855894	4810.299247
413.236180	4821.959436
413.616405	4774.403711
413.996568	4861.865210
414.376670	4803.173576
414.756711	4755.080968
415.136691	4786.469713
415.516609	4865.252865
415.896466	4902.932969
416.276262	4936.875058
416.655997	4918.973921
417.035670	5103.764977
417.415283	5194.430129
417.794834	5139.847036
418.174324	5091.152010
418.553753	4997.792361
418.933121	5182.507800
419.312428	5248.534313
419.691674	5189.152041
420.070859	5310.878262
420.449983	5229.251899
420.829045	5342.045196
421.208047	5250.505404
421.586988	5321.986445
421.965867	5330.553886
422.344686	5465.230831
422.723444	5322.241023
423.102141	5138.332169
423.480777	5436.012303
423.859352	5204.565369
424.237866	5465.336695
424.616319	5457.676662
424.994712	5566.419392
425.373044	5442.437254
425.751314	5587.743472
426.129524	5389.245519
426.507673	5582.432617
426.885762	5665.972098
427.263789	5595.738742
427.641756	5481.047451
428.019662	5596.142035
428.397508	5607.111586
428.775292	5554.489501
429.153016	5654.889121
429.530679	5580.199386
429.908282	5663.537221
430.285824	5539.469383
430.663305	5810.774201
431.040726	5544.465167
431.418086	5545.533891
431.795385	5651.698071
432.172624	5668.122150
432.549802	5657.994472
432.926920	5669.823539
433.303977	5677.034910
433.680974	5714.725097
434.057910	5741.234004
434.434786	5741.523871
434.811601	5706.472728
435.188355	5946.676147
435.565050	5818.981199
435.941683	5800.117202
436.318257	6015.472773
436.694770	5994.849413
437.071222	6033.472213
437.447614	5963.385051
437.823946	5876.359613
438.200218	6031.637233
438.576429	5897.860134
438.952580	5993.541234
439.328670	6041.923708
439.704700	5945.723369
440.080670	5928.233086
440.456580	6205.375559
440.832429	6085.708649
441.208218	5935.688952
441.583947	6090.001192
441.959616	6092.136121
442.335224	6017.940418
442.710773	6152.241798
443.086261	6180.167270
443.461689	5977.442309
443.837057	6123.781964
444.212365	6285.340862
444.587612	6176.018400
444.962800	6330.244940
445.337927	6309.059491
445.712995	5917.198000
446.088002	6493.875753
446.462949	6324.137582
446.837837	6261.193735
447.212664	6428.186998
447.587431	6568.353760
447.962139	7111.044054
448.336786	8037.484622
448.711374	7781.194881
449.085901	6855.513006
449.460369	6774.297497
449.834776	6713.544032
450.209124	7100.308917
450.583412	7255.314315
450.957640	7392.421097
451.331808	7167.313413
451.705917	6715.752057
452.079965	6639.575181
452.453954	6851.553180
452.827883	6729.063224
453.201752	6823.819272
453.575562	6618.087263
453.949311	6826.566701
454.323001	6713.581840
454.696632	6788.619415
455.070202	6928.251815
455.443713	7081.205464
455.817164	7184.907040
456.190556	7261.527537
456.563888	7335.423291
456.937160	7384.403142
457.310373	7037.450769
457.683526	7062.459933
458.056619	6952.189734
458.429653	6942.619104
458.802628	6873.290635
459.175542	6989.126268
459.548398	7345.840835
459.921194	7499.711974
460.293930	7505.320258
460.666607	8032.703088
461.039224	8347.392076
461.411782	8468.341959
461.784280	8488.405752
462.156719	8378.879123
462.529099	8252.774659
462.901419	7847.574275
463.273680	7734.692758
463.645882	7754.935511
464.018024	7617.836291
464.390106	7783.309645
464.762130	8171.702823
465.134094	8641.024164
465.505999	9649.743925
465.877845	10876.067612
466.249631	11528.498784
466.621358	11149.245219
466.993026	10520.026040
467.364634	10270.226784
467.736184	9902.096525
468.107674	9568.919105
468.479105	9598.941697
468.850477	9366.831850
469.221790	9138.170153
469.593043	8811.468096
469.964238	8669.179008
470.335373	8683.790792
470.706449	8742.114422
471.077467	8721.473417
471.448425	10024.538590
471.819324	11101.341654
472.190164	11133.511777
472.560945	9883.958453
472.931667	9092.220036
473.302330	8953.311042
473.672934	8601.264583
474.043479	8965.034245
474.413965	8904.358917
474.784393	8784.150083
475.154761	8938.888300
475.525070	9020.686063
475.895321	8852.934107
476.265513	9028.094038
476.635645	9195.972023
477.005719	9195.130150
477.375734	9309.405546
477.745691	9547.491681
478.115588	9683.514614
478.485427	9919.695193
478.855207	10459.282656
479.224928	11275.858839
479.594591	11907.510374
479.964194	11724.007333
480.333739	11655.840851
480.703226	11576.961917
481.072653	11673.678974
481.442022	11909.617577
481.811333	12094.511976
482.180584	11904.410065
482.549777	11604.511822
482.918912	11433.767942
483.287988	11454.295520
483.657005	11468.501492
484.025964	11147.072481
484.394864	11278.616350
484.763706	11250.620302
485.132489	11009.499393
485.501213	10972.464556
485.869879	11055.744418
486.238487	10883.480629
486.607036	10996.765438
486.975527	10782.017326
487.343959	10962.528442
487.712333	11018.714622
488.080648	10949.658376
488.448905	10988.192956
488.817104	10935.074318
489.185244	11192.427743
489.553326	11345.096566
489.921350	11879.852084
490.289315	12949.426134
490.657222	13287.911888
491.025070	13200.805791
491.392861	13077.821802
491.760593	12699.447917
492.128267	12338.345026
492.495883	12021.679906
492.863440	11683.123576
493.230939	11348.111176
493.598380	11283.667586
493.965763	11145.330763
494.333088	11041.906450
494.700354	10973.500513
495.067563	11036.857735
495.434713	10857.715292
495.801805	10986.206742
496.168839	10906.256562
496.535815	10844.701553
496.902733	10839.723414
497.269593	10773.039031
497.636395	10879.707325
498.003139	10861.060097
498.369825	10734.113761
498.736453	10894.246013
499.103023	10817.438993
499.469535	10850.042656
499.835989	10833.444657
500.202385	10801.771087
500.568723	10652.759620
500.935003	10872.097704
501.301226	10677.839361
501.667390	10932.299163
502.033497	11032.703824
502.399546	10890.162678
502.765537	10801.030037
503.131470	10873.292457
503.497345	11047.010619
503.863163	10656.981587
504.228923	10966.596653
504.594625	11034.639627
504.960269	10779.153950
505.325856	11003.074442
505.691385	10792.419747
506.056856	10951.208531
506.422270	10974.206275
506.787625	10867.401869
507.152924	10983.000568
507.518164	10960.907711
507.883347	10888.504139
508.248472	10804.785697
508.613540	11036.666171
508.978550	10918.612430
509.343503	10892.713502
509.708398	11012.433344
510.073236	11127.742177
510.438016	11128.664708
510.802738	11085.913203
511.167403	11133.831891
511.532010	11029.134687
511.896561	11259.555747
512.261053	11328.972436
512.625488	11195.530573
512.989866	11180.946515
513.354186	11165.419761
513.718449	11074.983981
514.082655	11263.737384
514.446803	11160.582774
514.810894	11282.147678
515.174927	11155.284521
515.538904	11176.449805
515.902822	11326.187198
516.266684	11212.126051
516.630488	11151.405353
516.994235	11213.736700
517.357925	11275.538725
517.721558	11361.293793
518.085133	11379.378933
518.448651	11386.318081
518.812112	11269.817016
519.175516	11288.610437
519.538863	11404.705690
519.902152	11325.778865
520.265385	11483.710653
520.628560	11395.374514
520.991678	11371.550021
521.354739	11437.125350
521.717743	11365.430060
522.080690	11338.175062
522.443580	11479.128244
522.806413	11437.599219
523.169189	11470.835546
523.531908	11520.122907
523.894569	11341.068684
524.257174	11344.841988
524.619722	11467.621810
524.982213	11418.871332
525.344647	11459.339195
525.707025	11418.026939
526.069345	11514.025632
526.431608	11425.618917
526.793815	11540.894982
527.155964	11328.750625
527.518057	11374.307532
527.880093	11325.652836
528.242072	11399.624207
528.603995	11295.310131
528.965860	11227.393186
529.327669	11277.408993
529.689421	11224.426467
530.051117	11196.037209
530.412755	11300.678960
530.774337	11187.888183
531.135862	11173.896461
531.497331	11195.218021
531.858743	11049.364838
532.220098	11208.395597
532.581396	11085.338511
532.942638	11067.392004
533.303824	11028.091168
533.664953	11044.517768
534.026025	10960.111209
534.387040	11052.684437
534.747999	11054.690817
535.108902	11114.345311
535.469748	10877.133816
535.830537	10974.193672
536.191270	10954.250867
536.551947	10980.285906
536.912567	10981.853705
537.273131	10904.144319
537.633638	10875.634073
537.994089	10868.969668
538.354483	10820.579632
538.714821	10965.532970
539.075103	10971.400873
539.435328	10937.226891
539.795497	10761.227607
540.155609	10923.386403
540.515665	11011.021821
540.875665	10747.155226
541.235609	10815.324229
541.595496	10810.162088
541.955328	10964.837290
542.315102	10845.576193
542.674821	10799.890737
543.034483	10800.253700
543.394090	10807.586058
543.753640	10735.520243
544.113134	10962.268823
544.472571	10818.719446
544.831953	10955.080137
545.191278	10761.761969
545.550548	10781.014136
545.909761	10924.127453
546.268918	10903.206664
546.628019	10977.399846
546.987064	10844.525113
547.346053	10768.232290
547.704986	10866.007990
548.063863	10855.598007
548.422684	10842.894299
548.781449	10756.720816
549.140158	10858.862154
549.498811	10735.162321
549.857408	10597.932031
550.215949	10824.804119
550.574434	10671.580768
550.932864	10779.494228
551.291237	10831.019862
551.649555	10779.620257
552.007817	10793.652309
552.366022	10752.758469
552.724173	10744.853939
553.082267	10736.432692
553.440305	10866.154183
553.798288	10666.879892
554.156215	10823.896711
554.514086	10802.055912
554.871902	10652.474795
555.229661	10688.932420
555.587365	10663.061218
555.945014	10559.949458
556.302606	10685.438900
556.660143	10581.835627
557.017625	10734.554862
557.375050	10625.413881
557.732421	10765.371436
558.089735	10683.223313
558.446994	10681.748776
558.804197	10715.426204
559.161345	10721.722605
559.518437	10560.761083
559.875474	10651.925309
560.232455	10680.417911
560.589381	10633.353699
560.946251	10634.251024
561.303065	10738.197096
561.659825	10675.054123
562.016528	10604.077198
562.373177	10486.527572
562.729770	10600.989491
563.086307	10509.739565
563.442789	10602.595098
563.799216	10483.487757
564.155587	10534.468945
564.511904	10487.734929
564.868164	10472.306477
565.224370	10499.261527
565.580520	10415.782540
565.936615	10421.317727
566.292654	10288.964753
566.648638	10418.751779
567.004567	10377.285768
567.360441	10364.163645
567.716260	10278.592579
568.072023	10363.364622
568.427732	10315.793774
568.783385	10222.189629
569.138982	10290.923241
569.494525	10315.072889
569.850013	10190.715185
570.205445	10270.499007
570.560823	10167.911526
570.916145	10084.528321
571.271412	10150.423763
571.626625	10099.707235
571.981782	10077.369882
572.336884	10048.534482
572.691931	10063.458818
573.046923	10006.982772
573.401860	9963.971647
573.756743	9894.401203
574.111570	9944.517834
574.466342	9923.556717
574.821059	9954.774062
575.175722	9838.058747
575.530330	9854.684473
575.884882	9840.964973
576.239380	9776.259242
576.593823	9749.402495
576.948211	9762.572510
577.302544	9643.818048
577.656823	9666.601543
578.011047	9663.218929
578.365216	9639.573397
578.719330	9556.762363
579.073389	9566.663189
579.427394	9513.410960
579.781344	9489.614193
580.135239	9439.376575
580.489080	9455.336868
580.842866	9347.254529
581.196597	9357.483031
581.550273	9400.887365
581.903895	9364.437302
582.257463	9432.755019
582.610975	9306.852202
582.964434	9336.191717
583.317837	9262.550542
583.671186	9246.030681
584.024481	9235.998785
584.377721	9159.718565
584.730906	9128.014749
585.084037	9165.069750
585.437113	9102.675389
585.790135	9119.858162
586.143103	9018.679683
586.496016	8994.953493
586.848874	9049.342502
587.201679	9042.390751
587.554428	8925.947658
587.907124	8972.832910
588.259765	8941.358466
588.612352	8946.881050
588.964884	8825.336310
589.317362	8835.549688
589.669786	8833.182866
590.022155	8886.861072
590.374470	8900.220130
590.726731	8840.555553
591.078937	8684.965381
591.431090	8801.300088
591.783188	8674.268053
592.135232	8666.870159
592.487222	8664.788163
592.839157	8716.679280
593.191038	8655.840115
593.542866	8598.645704
593.894639	8499.672730
594.246358	8548.337509
594.598022	8568.902896
594.949633	8464.694684
595.301190	8436.136548
595.652692	8461.551525
596.004141	8579.385976
596.355535	8347.266047
596.706876	8333.503697
597.058162	8268.500538
597.409395	8343.487702
597.760573	8411.071931
598.111698	8311.877147
598.462768	8300.731156
598.813785	8266.557174
599.164748	8240.922906
599.515657	8225.207109
599.866511	8133.425342
600.217312	8260.966534
600.568060	8120.134340
600.918753	8221.305256
601.269392	8198.143675
601.619978	8105.267977
601.970510	8173.147113
602.320988	8162.989188
602.671412	8222.058909
603.021783	8159.561204
603.372100	8133.649673
603.722363	8136.402143
604.072572	8109.310982
604.422728	8116.955892
604.772830	8053.124802
605.122878	8058.866676
605.472872	8054.135553
605.822813	8087.046726
606.172701	8028.055144
606.522534	8101.512317
606.872314	8103.770754
607.222041	8079.767300
607.571714	8131.653376
607.921333	8085.335255
608.270899	8092.266841
608.620411	8183.045419
608.969870	8085.733506
609.319276	8081.025068
609.668627	8097.106349
610.017926	8127.708673
610.367171	8176.935541
610.716362	8153.143815
611.065500	8145.889595
611.414585	8171.581835
611.763616	8160.226636
612.112594	8144.878843
612.461518	8157.869897
612.810389	8221.201913
613.159207	8159.362078
613.507971	8103.120445
613.856682	8223.820792
614.205340	8179.377980
614.553945	8256.610977
614.902496	8156.455853
615.250994	8211.490130
615.599439	8188.361316
615.947830	8208.321764
616.296169	8176.386055
616.644454	8193.523457
616.992686	8191.617901
617.340864	8246.306859
617.688990	8144.218452
618.037063	8240.786795
618.385082	8187.751336
618.733048	8273.468596
619.080961	8214.257723
619.428821	8236.504335
619.776628	8235.448213
620.124382	8187.095986
620.472083	8172.887494
620.819731	8195.595372
621.167326	8098.217923
621.514868	8101.585414
621.862357	7985.381777
622.209793	8006.468923
622.557176	7937.427801
622.904506	7908.753718
623.251783	7842.102102
623.599007	7800.981410
623.946179	7801.051986
624.293297	7757.917353
624.640363	7676.273346
624.987376	7655.440778
625.334336	7610.244313
625.681243	7557.110552
626.028097	7548.767442
626.374899	7522.414810
626.721647	7513.630600
627.068343	7446.293387
627.414987	7420.764984
627.761577	7373.368056
628.108115	7410.710403
628.454600	7298.060779
628.801032	7352.953903
629.147412	7311.356822
629.493739	7303.328785
629.840014	7239.152376
630.186236	7296.089688
630.532405	7177.259609
630.878521	7226.705767
631.224585	7187.518357
631.570597	7111.754856
631.916556	7137.701675
632.262462	7136.403578
632.608316	7094.625016
632.954117	7075.892088
633.299866	7061.527320
633.645562	7055.984571
633.991206	6978.280226
634.336797	6918.363592
634.682336	6876.317848
635.027823	6840.926428
635.373257	6835.565161
635.718639	6766.682834
636.063968	6781.367716
636.409245	6670.114491
636.754470	6669.726323
637.099642	6634.344984
637.444762	6573.031951
637.789829	6579.071253
638.134845	6526.015629
638.479808	6511.315625
638.824719	6516.114803
639.169577	6445.079904
639.514383	6467.515559
639.859137	6389.584362
640.203839	6401.720940
640.548489	6386.123610
640.893086	6360.267532
641.237632	6336.695097
641.582125	6360.166709
641.926566	6329.803839
642.270955	6340.118040
642.615292	6332.977246
642.959576	6347.510892
643.303809	6332.011865
643.647990	6347.505851
643.992118	6334.552606
644.336195	6283.778105
644.680219	6305.714686
645.024192	6298.891484
645.368112	6391.936060
645.711981	6414.061685
646.055797	6490.901472
646.399562	6449.987467
646.743274	6576.381797
647.086935	6629.876001
647.430544	6624.119004
647.774101	6645.541387
648.117606	6646.199258
648.461059	6644.328989
648.804460	6605.565037
649.147810	6512.192785
649.491108	6486.694629
649.834354	6458.625485
650.177548	6374.723041
650.520690	6287.929495
650.863781	6267.197750
651.206820	6289.782119
651.549807	6207.603749
651.892742	6150.137116
652.235626	6153.872611
652.578458	6140.614377
652.921238	6051.627929
653.263967	6085.829637
653.606644	6030.104722
653.949269	6028.577253
654.291843	5970.586340
654.634365	6018.144585
654.976836	5969.305887
655.319255	5977.296115
655.661622	5949.292506
656.003938	5946.227484
656.346203	5910.233646
656.688416	5939.958809
657.030577	5893.101284
657.372687	5856.157188
657.714746	5851.607547
658.056753	5896.095730
658.398708	5830.023847
658.740612	5825.086037
659.082465	5869.213777
659.424266	5864.807808
659.766016	5861.324371
660.107715	5837.063818
660.449362	5851.489080
660.790958	5852.086457
661.132503	5835.894271
661.473996	5872.281319
661.815438	5860.323702
662.156829	5855.136355
662.498168	5850.190983
662.839456	5822.472198
663.180693	5852.487228
663.521879	5857.770358
663.863013	5851.473957
664.204097	5865.410226
664.545129	5910.931846
664.886110	5902.273664
665.227040	5940.097441
665.567918	5903.246607
665.908746	5930.473878
666.249522	5933.201143
666.590248	5924.613537
666.930922	5952.145799
667.271545	5959.820956
667.612118	5963.702644
667.952639	5939.048881
668.293109	5954.265604
668.633528	5916.555253
668.973896	5918.236478
669.314213	5907.697945
669.654480	5891.041973
669.994695	5886.414194
670.334859	5875.875662
670.674973	5866.741091
671.015035	5873.450867
671.355047	5866.017685
671.695008	5853.891190
672.034918	5827.142828
672.374777	5838.336710
672.714585	5822.273073
673.054342	5823.548485
673.394049	5819.492877
673.733705	5846.820972
674.073310	5836.887378
674.412864	5797.639475
674.752368	5781.273369
675.091820	5788.827538
675.431223	5723.111056
675.770574	5727.385955
676.109875	5679.573131
676.449125	5687.931364
676.788324	5647.511392
677.127473	5591.289924
677.466571	5583.362710
677.805619	5578.815589
678.144616	5561.237086
678.483562	5542.695722
678.822458	5511.879148
679.161303	5504.481255
679.500098	5495.628989
679.838842	5476.250793
680.177535	5477.914374
680.516179	5493.567157
680.854771	5503.967057
681.193314	5587.123411
681.531805	5694.290780
681.870247	5842.707390
682.208638	5941.289674
682.546978	5960.919927
682.885268	5935.141987
683.223508	5847.282237
683.561697	5793.417508
683.899836	5763.785606
684.237925	5718.843719
684.575963	5680.535991
684.913951	5646.666999
685.251889	5698.177509
685.589776	5670.443601
685.927614	5640.899919
686.265401	5711.778542
686.603137	5696.390420
686.940824	5770.334065
687.278460	5792.379031
687.616046	5796.253157
687.953582	5871.396597
688.291068	5848.766857
688.628504	5908.935549
688.965889	5872.687132
689.303224	5817.577238
689.640510	5768.773828
689.977745	5691.661818
690.314930	5591.960398
690.652065	5539.416451
690.989150	5447.808603
691.326185	5371.533425
691.663170	5317.933357
692.000105	5242.442078
692.336990	5164.215973
692.673825	5137.099607
693.010610	5072.046037
693.347345	5003.178834
693.684030	4987.536134
694.020665	4946.778405
694.357251	4855.384806
694.693786	4867.755798
695.030272	4836.228422
695.366707	4798.061846
695.703093	4761.442904
696.039429	4781.587355
696.375716	4765.836270
696.711952	4743.135954
697.048139	4728.952668
697.384276	4708.132702
697.720363	4716.750555
698.056400	4723.722471
698.392388	4674.276313
698.728326	4656.037419
699.064214	4638.627794
699.400053	4628.661433
699.735842	4595.697328
700.071581	4567.323193
700.407270	4542.941653
700.742910	4523.218138
701.078501	4471.778204
701.414042	4468.251917
701.749533	4438.793935
702.084974	4375.295561
702.420366	4429.498047
702.755709	4375.892938
703.091002	4318.716171
703.426246	4361.762583
703.761440	4322.413857
704.096584	4284.973208
704.431679	4303.441475
704.766725	4291.693066
705.101721	4276.032721
705.436668	4306.080519
705.771565	4254.970780
706.106413	4282.306437
706.441212	4312.263494
706.775961	4314.635357
707.110661	4299.869817
707.445311	4329.657995
707.779913	4346.261035
708.114465	4357.414588
708.448967	4379.295717
708.783421	4438.388122
709.117825	4476.312722
709.452180	4483.042663
709.786485	4526.172254
710.120742	4605.187300
710.454949	4591.309003
710.789107	4657.731246
711.123216	4727.339499
711.457275	4720.468406
711.791286	4791.853665
712.125247	4800.035458
712.459159	4713.123445
712.793023	4783.417294
713.126837	4734.588678
713.460602	4728.146083
713.794318	4654.993900
714.127985	4657.438859
714.461602	4575.643618
714.795171	4552.129156
715.128691	4491.186647
715.462162	4426.848921
715.795584	4380.835789
716.128957	4359.715875
716.462281	4315.517559
716.795556	4287.697951
717.128782	4247.401488
717.461960	4179.114018
717.795088	4191.343857
718.128167	4152.322806
718.461198	4096.013117
718.794180	4084.282352
719.127113	4068.374991
719.459997	4046.324984
719.792833	4005.156402
720.125619	4000.475690
720.458357	3959.284422
720.791046	3963.849187
721.123686	3939.893624
721.456278	3897.124475
721.788821	3914.428235
722.121315	3887.072414
722.453761	3866.025597
722.786158	3870.366030
723.118506	3893.328486
723.450805	3849.926672
723.783056	3874.073799
724.115259	3882.306003
724.447412	3883.213411
724.779518	3881.295252
725.111574	3883.057135
725.443582	3911.771547
725.775542	3895.413003
726.107453	3941.821865
726.439315	3941.317750
726.771129	3957.469607
727.102895	3991.378928
727.434612	4031.284702
727.766281	4045.289027
728.097901	4045.193245
728.429473	4049.763051
728.760996	4055.187333
729.092471	4047.282804
729.423897	4033.643962
729.755276	4034.954662
730.086606	4039.590003
730.417887	4075.087288
730.749120	4137.222029
731.080305	4193.738405
731.411442	4221.318558
731.742530	4193.332592
732.073570	4193.617418
732.404562	4240.507710
732.735506	4229.134867
733.066401	4195.976678
733.397249	4138.993995
733.728048	4063.779980
734.058798	3981.528513
734.389501	3918.768669
734.720156	3858.451263
735.050762	3813.348059
735.381320	3807.013850
735.711831	3760.209257
736.042293	3729.639700
736.372707	3751.407402
736.703073	3719.375911
737.033391	3712.862740
737.363661	3734.572469
737.693883	3752.700458
738.024056	3761.777056
738.354182	3755.659615
738.684260	3814.179850
739.014290	3833.119465
739.344272	3828.746264
739.674207	3865.332438
740.004093	3872.221175
740.333931	3867.870659
740.663722	3865.592057
740.993464	3860.011500
741.323159	3839.788911
741.652806	3810.741783
741.982405	3782.017288
742.311956	3750.499994
742.641460	3746.305754
742.970915	3719.111250
743.300323	3681.423584
743.629683	3653.830828
743.958996	3641.245588
744.288260	3617.229531
744.617477	3589.299018
744.946647	3571.589444
745.275768	3548.362328
745.604842	3538.441337
745.933869	3502.485308
746.262847	3491.795541
746.591778	3523.998432
746.920662	3499.891634
747.249498	3472.455154
747.578286	3508.693488
747.907027	3526.445912
748.235720	3528.641334
748.564365	3547.896021
748.892963	3540.394784
749.221514	3529.652086
749.550017	3507.075278
749.878473	3503.622088
750.206881	3478.418839
750.535242	3473.518838
750.863555	3474.514465
751.191821	3469.286789
751.520039	3451.098306
751.848210	3432.874535
752.176334	3462.629945
752.504411	3467.088846
752.832440	3428.839091
753.160421	3416.909200
753.488356	3418.048501
753.816243	3431.533588
754.144082	3392.739388
754.471875	3379.647512
754.799620	3398.372878
755.127318	3392.159656
755.454969	3385.812843
755.782572	3394.342475
756.110129	3370.641490
756.437638	3362.255531
756.765100	3371.102756
757.092515	3378.795557
757.419882	3384.338305
757.747203	3362.956251
758.074477	3361.864842
758.401703	3374.908827
758.728882	3393.208216
759.056014	3401.992426
759.383099	3403.860174
759.710138	3401.347158
760.037129	3420.485899
760.364073	3443.161009
760.690970	3431.442847
761.017820	3414.552461
761.344623	3429.433947
761.671379	3469.354844
761.998088	3511.748428
762.324751	3627.770583
762.651366	3857.798433
762.977935	4290.256337
763.304456	4686.541441
763.630931	4764.767545
763.957359	4439.265283
764.283740	4130.834888
764.610074	3949.958287
764.936362	3765.323507
765.262602	3627.077425
765.588796	3525.251158
765.914943	3439.009619
766.241044	3365.595295
766.567097	3335.605471
766.893104	3291.870941
767.219064	3268.278341
767.544978	3241.683734
767.870845	3193.560879
768.196665	3177.288035
768.522438	3180.650484
768.848165	3175.742921
769.173846	3145.853920
769.499479	3126.818523
769.825066	3116.544651
770.150607	3100.690222
770.476101	3109.875205
770.801548	3106.908486
771.126949	3066.929615
771.452303	3053.043757
771.777611	3051.433108
772.102872	3058.452915
772.428087	3034.840150
772.753256	3023.300949
773.078378	3019.268026
773.403453	2990.293994
773.728482	2977.791933
774.053465	2994.452946
774.378401	2984.738643
774.703291	2957.710497
775.028135	2959.341310
775.352932	2956.205712
775.677683	2943.736418
776.002388	2939.443876
776.327046	2940.789864
776.651658	2932.678647
776.976224	2920.390835
777.300743	2924.010383
777.625216	2914.094433
777.949643	2911.712488
778.274024	2910.207704
778.598359	2900.042217
778.922647	2906.625964
779.246889	2900.823596
779.571086	2889.513767
779.895236	2884.182747
780.219339	2890.441340
780.543397	2904.130593
780.867409	2904.337280
781.191374	2897.995509
781.515294	2895.643810
781.839167	2899.049110
782.162995	2888.813047
782.486776	2897.554408
782.810511	2893.758419
783.134201	2883.812222
783.457844	2886.736092
783.781441	2880.069166
784.104993	2862.742720
784.428498	2860.554859
784.751958	2875.264946
785.075372	2870.329656
785.398739	2856.716020
785.722061	2869.628936
786.045337	2875.766541
786.368568	2867.168853
786.691752	2860.388501
787.014891	2900.634553
787.337983	2925.343768
787.661030	2954.108592
787.984031	3007.774195
788.306987	3050.732388
788.629897	3047.122922
788.952760	3028.447967
789.275579	3011.668487
789.598351	2959.888275
789.921078	2924.572472
790.243759	2913.353384
790.566395	2895.795045
790.888984	2877.639329
791.211529	2863.705580
791.534027	2853.875330
791.856480	2846.452231
792.178888	2833.415807
792.501249	2827.681495
792.823566	2824.734940
793.145836	2818.758652
793.468062	2817.760504
793.790241	2813.946871
794.112375	2821.821153
794.434464	2832.301712
794.756507	2833.662824
795.078505	2839.626509
795.400457	2853.731657
795.722364	2886.589898
796.044226	2908.665111
796.366042	2906.961201
796.687812	2898.907958
797.009538	2913.658374
797.331218	2902.507341
797.652852	2889.917060
797.974442	2873.437528
798.295986	2869.084491
798.617484	2865.071733
798.938938	2854.646627
799.260346	2839.437466
799.581709	2830.018070
799.903026	2829.125785
800.224299	2822.872234
800.545526	2815.141625
800.866708	2803.526806
801.187845	2793.386525
801.508936	2796.834674
801.829983	2802.503452
802.150984	2791.428037
802.471940	2780.045112
802.792851	2778.527724
803.113717	2779.440173
803.434538	2783.946965
803.755314	2776.705347
804.076045	2773.927671
804.396731	2772.430449
804.717372	2771.472629
805.037967	2767.510282
805.358518	2774.126797
805.679024	2782.487551
805.999485	2778.116870
806.319901	2783.805812
806.640272	2774.497322
806.960598	2780.783641
807.280879	2787.833694
807.601115	2797.628656
807.921306	2784.814043
808.241453	2780.236675
808.561554	2786.152469
808.881611	2786.820422
809.201623	2781.680966
809.521590	2778.444545
809.841513	2778.159720
810.161390	2779.752725
810.481223	2774.590583
810.801011	2765.423245
811.120755	2764.697319
811.440453	2764.793101
811.760107	2765.365272
812.079716	2758.600043
812.399281	2752.729619
812.718801	2750.241810
813.038276	2743.799215
813.357707	2747.932962
813.677093	2755.746750
813.996434	2747.640575
814.315731	2746.713002
814.634983	2740.444327
814.954191	2742.470871
815.273354	2753.276585
815.592473	2758.421082
815.911547	2761.559200
816.230577	2768.815941
816.549562	2776.027312
816.868502	2772.664862
817.187399	2782.598456
817.506250	2795.034982
817.825058	2786.268416
818.143821	2797.560601
818.462539	2809.346818
818.781213	2833.020077
819.099843	2864.078626
819.418429	2914.507808
819.736970	2963.734675
820.055466	3027.958975
820.373919	3109.391254
820.692327	3217.521483
821.010691	3362.550438
821.329011	3752.574429
821.647286	4546.301582
821.965517	5761.179329
822.283704	6434.493481
822.601847	6412.700573
822.919945	5800.777593
823.237999	5306.406759
823.556010	4800.794151
823.873976	4324.815967
824.191897	3975.857215
824.509775	3727.764391
824.827609	3510.752800
825.145398	3401.019483
825.463144	3398.221643
825.780845	3469.422900
826.098502	3563.022003
826.416116	3800.866162
826.733685	4074.439499
827.051210	4125.420688
827.368692	4020.635264
827.686129	3780.018471
828.003522	3517.671783
828.320872	3297.985861
828.638177	3144.316368
828.955439	3038.074051
829.272656	2968.206179
829.589830	2914.374218
829.906960	2877.586397
830.224046	2840.233968
830.541088	2813.571305
830.858086	2800.706281
831.175041	2786.722120
831.491952	2786.638941
831.808819	2793.280661
832.125642	2814.314875
832.442421	2852.277284
832.759157	2922.314035
833.075849	3066.362485
833.392497	3297.597692
833.709101	3460.900829
834.025662	3410.741349
834.342179	3276.054321
834.658653	3133.629122
834.975083	3013.881553
835.291469	2936.870367
835.607811	2866.780684
835.924110	2821.017089
836.240366	2783.329423
836.556578	2747.575040
836.872746	2732.282699
837.188871	2715.777962
837.504952	2705.824203
837.820990	2694.534539
838.136984	2682.781089
838.452935	2676.809842
838.768842	2676.656087
839.084706	2692.003880
839.400526	2756.031575
839.716303	2865.366640
840.032037	2936.169646
840.347727	2913.555030
840.663373	2860.627956
840.978977	2799.289716
841.294537	2744.058835
841.610054	2708.727908
841.925527	2685.024403
842.240957	2674.347239
842.556344	2654.323776
842.871687	2644.145686
843.186987	2634.993471
843.502244	2633.365179
843.817458	2626.920063
844.132629	2618.798765
844.447756	2613.132508
844.762840	2608.368617
845.077881	2609.994389
845.392879	2606.616816
845.707833	2604.817124
846.022745	2599.629777
846.337613	2600.080960
846.652438	2599.465940
846.967221	2599.634818
847.281960	2597.618357
847.596656	2598.981989
847.911309	2598.782863
848.225919	2594.427306
848.540485	2592.564600
848.855009	2593.681216
849.169490	2591.347161
849.483928	2595.246494
849.798323	2592.534353
850.112675	2592.234404
850.426984	2592.098293
850.741251	2592.710793
851.055474	2591.856318
851.369654	2593.308170
851.683792	2593.562748
851.997887	2590.061667
852.311938	2591.185844
852.625947	2594.089549
852.939914	2594.626432
853.253837	2590.777511
853.567718	2591.095104
853.881555	2587.846080
854.195350	2593.615681
854.509103	2592.010073
854.822812	2590.250710
855.136479	2588.824064
855.450103	2589.802048
855.763685	2590.648962
856.077224	2588.118302
856.390720	2588.264496
856.704173	2586.220308
857.017584	2593.013263
857.330953	2594.381936
857.644278	2595.942173
857.957561	2595.216247
858.270802	2591.722727
858.584000	2592.010073
858.897155	2594.112234
859.210268	2593.527460
859.523339	2591.079980
859.836367	2585.786769
860.149352	2589.479414
860.462295	2587.407500
860.775195	2585.078487
861.088054	2583.213260
861.400869	2582.273084
861.713642	2583.298959
862.026373	2584.944896
862.339062	2587.432705
862.651708	2590.956472
862.964312	2591.258941
863.276873	2590.820361
863.589392	2591.180803
863.901869	2596.189190
864.214303	2597.245311
864.526696	2601.273193
864.839045	2602.672113
865.151353	2604.912906
865.463619	2601.305961
865.775842	2602.430138
866.088023	2603.070365
866.400162	2604.645725
866.712258	2601.605909
867.024313	2602.052052
867.336325	2596.978130
867.648296	2601.379057
867.960224	2601.578183
868.272110	2601.449634
868.583954	2597.484766
868.895755	2599.781012
869.207515	2604.912906
869.519233	2607.526745
869.830909	2603.208996
870.142542	2603.957608
870.454134	2598.661876
870.765684	2604.764192
871.077191	2607.831734
871.388657	2610.954729
871.700081	2608.681169
872.011463	2612.698968
872.322803	2607.524224
872.634101	2612.315841
872.945357	2616.936058
873.256571	2620.500154
873.567744	2622.829167
873.878874	2619.464197
874.189963	2618.476131
874.501010	2624.540639
874.812015	2626.173973
875.122979	2626.980557
875.433900	2619.239866
875.744780	2621.014352
876.055618	2622.554424
876.366415	2623.350927
876.677169	2627.323356
876.987882	2616.699124
877.298554	2618.266923
877.609183	2626.670526
877.919771	2629.564149
878.230317	2633.097998
878.540822	2639.936323
878.851285	2651.150369
879.161707	2665.220230
879.472087	2691.966072
879.782425	2728.335476
880.092722	2809.964360
880.402977	2957.314766
880.713191	3174.089422
881.023363	3431.853701
881.333494	3608.324333
881.643583	3740.944487
881.953631	3714.387689
882.263637	3559.878844
882.573602	3372.841954
882.883526	3261.535798
883.193408	3167.540964
883.503248	3078.957808
883.813048	2991.408089
884.122806	2909.766603
884.432522	2845.633044
884.742197	2798.404994
885.051831	2769.493977
885.361424	2743.443814
885.670975	2717.706203
885.980485	2697.299612
886.289954	2683.285205
886.599382	2676.434277
886.908768	2666.535971
887.218113	2654.981646
887.527417	2646.746922
887.836680	2638.265180
888.145901	2631.406690
888.455082	2627.749333
888.764221	2617.616614
889.073319	2615.658126
889.382376	2616.653754
889.691392	2615.098558
890.000366	2613.399689
890.309300	2615.970677
890.618193	2619.471759
890.927044	2618.178703
891.235855	2616.268105
891.544625	2617.994701
891.853353	2620.061574
892.162041	2622.393107
892.470687	2636.967083
892.779293	2644.574184
893.087858	2651.669608
893.396381	2669.850530
893.704864	2700.896476
894.013306	2752.044022
894.321707	2823.958603
894.630068	2862.548635
894.938387	2873.934081
895.246665	2860.912781
895.554903	2824.573623
895.863100	2789.835032
896.171256	2748.825246
896.479371	2709.753783
896.787446	2683.512057
897.095480	2668.088646
897.403473	2662.583706
897.711425	2654.031389
898.019336	2641.877167
898.327207	2630.625312
898.635038	2633.798718
898.942827	2627.857718
899.250576	2623.424023
899.558284	2615.998404
899.865952	2612.237703
900.173579	2607.410798
900.481165	2605.543051
900.788711	2604.305447
901.096216	2597.983840
901.403681	2597.825044
901.711105	2597.293202
902.018489	2594.507965
902.325832	2600.801845
902.633135	2600.436362
902.940397	2609.122270
903.247619	2636.052114
903.554800	2687.519774
903.861941	2784.539300
904.169041	2881.205946
904.476101	2926.828388
904.783121	2920.146339
905.090100	2872.819986
905.397039	2807.612661
905.703938	2755.066194
906.010796	2710.918289
906.317614	2674.805984
906.624391	2650.595842
906.931129	2627.870321
907.237826	2616.469752
907.544483	2605.119594
907.851099	2595.301947
908.157675	2589.867583
908.464211	2583.213260
908.770707	2573.415777
909.077163	2572.624316
909.383578	2569.110632
909.689954	2569.027453
909.996289	2566.418656
910.302584	2567.870508
910.608839	2567.424366
910.915054	2566.847154
911.221229	2569.697926
911.527363	2568.856053
911.833458	2569.614747
912.139513	2571.222875
912.445527	2570.708677
912.751502	2574.960891
913.057436	2576.763103
913.363331	2581.521952
913.669186	2586.797520
913.975000	2599.274376
914.280775	2610.526231
914.586510	2627.300671
914.892205	2652.655154
915.197859	2700.956969
915.503475	2758.985691
915.809050	2811.902683
916.114585	2824.873572
916.420081	2833.413287
916.725536	2832.876404
917.030952	2809.298927
917.336328	2776.188629
917.641665	2742.579256
917.946961	2707.218082
918.252218	2683.693538
918.557435	2664.562359
918.862612	2648.604587
919.167750	2637.574542
919.472848	2625.707666
919.777906	2611.231993
920.082925	2606.735283
920.387904	2598.659355
920.692843	2592.859507
920.997743	2590.686770
921.302603	2588.670309
921.607423	2579.437435
921.912204	2577.589853
922.216946	2576.528690
922.521647	2573.864440
922.826310	2572.117680
923.130932	2569.597103
923.435516	2566.262380
923.740059	2567.719273
924.044564	2561.725341
924.349028	2563.532595
924.653454	2555.807027
924.957840	2555.426420
925.262186	2554.176213
925.566493	2555.592778
925.870761	2552.585729
926.174989	2554.985319
926.479178	2553.064639
926.783328	2552.520194
927.087438	2551.829556
927.391509	2550.740667
927.695541	2547.085831
927.999533	2547.942827
928.303486	2546.112888
928.607400	2549.049360
928.911275	2544.555171
929.215110	2549.540873
929.518906	2546.743032
929.822663	2550.667570
930.126381	2544.890408
930.430060	2547.438711
930.733699	2546.223793
931.037299	2547.342929
931.340861	2546.191026
931.644383	2548.930893
931.947866	2546.478372
932.251309	2547.978115
932.554714	2547.751263
932.858080	2549.218239
933.161407	2548.008362
933.464694	2546.085162
933.767943	2542.858823
934.071153	2543.635161
934.374323	2545.898639
934.677455	2545.893598
934.980548	2544.774462
935.283602	2545.200439
935.586617	2543.972918
935.889593	2544.966025
936.192530	2542.558874
936.495428	2546.591797
936.798287	2545.906201
937.101108	2545.868392
937.403890	2546.606921
937.706632	2549.888712
938.009336	2553.493137
938.312002	2555.008004
938.614628	2555.247459
938.917216	2560.535629
939.219765	2560.628890
939.522275	2558.861966
939.824747	2559.484548
940.127179	2554.450956
940.429573	2552.742005
940.731929	2551.864844
941.034246	2550.596994
941.336524	2554.745864
941.638763	2552.986501
941.940964	2552.424413
942.243126	2549.558517
942.545250	2552.462221
942.847335	2550.365101
943.149381	2549.742519
943.451389	2548.119267
943.753359	2550.332334
944.055290	2547.446273
944.357182	2546.488454
944.659036	2547.428629
944.960851	2546.778320
945.262628	2543.862013
945.564367	2546.977446
945.866067	2547.920142
946.167729	2546.291849
946.469352	2546.470810
946.770937	2548.769576
947.072484	2545.263453
947.373992	2546.007024
947.675462	2544.514842
947.976893	2544.555171
948.278286	2544.091385
948.579641	2544.973587
948.880958	2545.641540
949.182236	2545.323947
949.483476	2544.797147
949.784678	2543.839328
950.085841	2544.212373
950.386967	2541.943854
950.688054	2542.755479
950.989103	2544.287990
951.290114	2545.036602
951.591087	2547.978115
951.892021	2546.644730
952.192917	2548.194884
952.493776	2548.537683
952.794596	2547.390820
953.095378	2547.494164
953.396122	2551.113713
953.696828	2546.387631
953.997496	2550.102961
954.298126	2543.514173
954.598718	2545.417209
954.899272	2542.994934
955.199788	2542.465613
955.500266	2541.248174
955.800706	2538.556198
956.101108	2536.819521
956.401472	2537.865560
956.701798	2536.897659
957.002087	2536.743903
957.302337	2538.513348
957.602550	2536.612833
957.902724	2538.127700
958.202861	2538.629295
958.502960	2534.916485
958.803022	2537.396733
959.103045	2536.486805
959.403031	2535.160981
959.702979	2537.701723
960.002889	2537.041332
960.302762	2535.987730
960.602596	2533.368851
960.902393	2533.444468
961.202153	2535.753317
961.501875	2535.594520
961.801559	2535.619726
962.101205	2532.902544
962.400814	2535.476053
962.700385	2532.302647
962.999918	2535.266845
963.299414	2534.535878
963.598873	2534.873635
963.898293	2535.395395
964.197677	2534.084695
964.497022	2533.015970
964.796331	2534.500590
965.095601	2532.784077
965.394835	2534.107380
965.694030	2533.109232
965.993189	2535.234078
966.292309	2535.375230
966.591393	2533.381454
966.890439	2534.606454
967.189447	2533.746937
967.488419	2534.740045
967.787353	2532.839530
968.086249	2531.896834
968.385108	2533.131917
968.683930	2534.261135
968.982714	2532.526978
969.281462	2533.885569
969.580172	2533.719211
969.878844	2532.138809
970.177480	2534.334232
970.476078	2530.878521
970.774639	2533.046217
971.073162	2534.437576
971.371649	2532.269879
971.670098	2530.528161
971.968510	2531.009591
972.266885	2528.733510
972.565223	2535.428162
972.863524	2534.397246
973.161788	2534.092257
973.460014	2533.651156
973.758204	2534.142668
974.056356	2533.222658
974.354471	2533.716691
974.652550	2532.408511
974.950591	2531.213758
975.248595	2533.643594
975.546563	2535.009747
975.844493	2536.433872
976.142386	2534.099818
976.440243	2534.540919
976.738062	2535.932278
977.035845	2532.577390
977.333590	2532.186700
977.631299	2533.565456
977.928971	2532.181659
978.226606	2532.935312
978.524204	2532.090918
978.821765	2532.653007
979.119290	2536.295241
979.416777	2534.223327
979.714228	2534.293903
980.011642	2532.784077
980.309020	2535.581918
980.606360	2529.915661
980.903664	2532.842050
981.200931	2530.281144
981.498162	2534.286341
981.795356	2534.659386
982.092513	2536.108718
982.389633	2538.878832
982.686717	2538.979655
982.983764	2539.995448
983.280775	2543.254554
983.577749	2538.951929
983.874686	2542.299255
984.171587	2537.578214
984.468451	2540.108874
984.765279	2535.571835
985.062070	2535.481094
985.358824	2535.702905
985.655543	2534.321629
985.952224	2534.798018
986.248869	2530.535722
986.545478	2526.880886
986.842050	2531.508665
987.138586	2526.906092
987.435086	2525.837367
987.731549	2527.294261
988.027975	2528.546987
988.324366	2528.902389
988.620719	2529.499765
988.917037	2529.792152
989.213318	2531.440610
989.509563	2529.973634
989.805772	2528.516740
990.101944	2528.947759
990.398080	2525.149250
990.694180	2529.711494
990.990244	2528.882224
991.286271	2530.792821
991.582262	2529.550177
991.878217	2528.693181
992.174136	2529.766947
992.470019	2529.310722
992.765865	2530.618902
993.061676	2529.882893
993.357450	2533.484798
993.653188	2529.363654
993.948890	2530.437420
994.244556	2532.277441
994.540186	2530.460105
994.835780	2530.003881
995.131337	2534.064530
995.426859	2530.820548
995.722345	2534.155271
996.017795	2531.561597
996.313208	2533.457071
996.608586	2532.955476
996.903928	2532.595034
997.199234	2534.470343
997.494504	2533.648635
997.789738	2531.004550
998.084936	2532.564787
998.380099	2530.152595
998.675225	2531.922040
998.970316	2529.850126
999.265371	2531.233922
999.560390	2530.013963
999.855373	2530.694519
1000.150320	2528.733510
1000.445232	2529.333407
1000.740108	2529.638397
1001.034948	2527.546318
1001.329752	2530.437420
1001.624521	2528.025228
1001.919254	2527.425331
1002.213951	2526.795186
1002.508613	2525.565145
1002.803239	2527.130423
1003.097829	2526.999353
1003.392384	2529.242667
1003.686903	2528.955321
1003.981386	2531.715352
1004.275834	2530.389529
1004.570246	2530.533202
1004.864623	2528.126051
1005.158964	2529.580424
1005.453270	2527.773170
1005.747540	2529.063706
1006.041775	2530.046731
1006.335974	2526.729651
1006.630138	2530.013963
1006.924266	2527.856349
1007.218359	2528.993129
1007.512416	2528.993129
1007.806438	2528.809127
1008.100425	2529.741741
1008.394376	2527.674868
1008.688292	2528.675537
1008.982172	2529.943387
1009.276017	2526.790145
1009.569827	2530.429858
1009.863602	2528.902389
1010.157341	2527.584127
1010.451045	2527.485824
1010.744714	2528.015146
1011.038347	2529.484642
1011.331945	2526.898530
1011.625508	2527.395084
1011.919036	2527.349713
1012.212528	2528.612522
1012.505986	2529.653521
1012.799408	2531.027235
1013.092795	2529.199817
1013.386147	2528.040351
1013.679464	2525.043385
1013.972745	2528.060516
1014.265992	2526.812830
1014.559204	2529.346010
1014.852380	2531.044879
1015.145521	2531.271731
1015.438628	2528.617563
1015.731699	2528.559590
1016.024736	2526.359127
1016.317737	2528.922553
1016.610703	2531.291896
1016.903635	2528.068078
1017.196531	2525.461801
1017.489393	2526.374250
1017.782219	2525.741585
1018.075011	2527.029600
1018.367768	2529.477080
1018.660490	2529.086391
1018.953177	2529.086391
1019.245829	2529.086391
