Dividing Wavelength (nm)	Counts (n)	Blue Motor Position (mm): 0.000000	Red Motor Position (mm): 48.100000	
326.493990	2127.215688
326.888308	2127.215688
327.282561	2127.215688
327.676750	2097.790473
328.070874	2093.997005
328.464933	2099.219641
328.858929	2103.910434
329.252859	2111.678852
329.646726	2123.933897
330.040528	2135.538633
330.434265	2156.298105
330.827938	2174.105981
331.221547	2192.022242
331.615091	2206.606300
332.008571	2228.056409
332.401986	2249.236817
332.795338	2267.450506
333.188625	2286.727878
333.581847	2303.431742
333.975006	2323.757674
334.368100	2342.112515
334.761129	2359.252438
335.154095	2376.528472
335.546996	2400.352966
335.939833	2423.655699
336.332606	2440.357042
336.725315	2451.238373
337.117960	2463.175825
337.510540	2468.335446
337.903056	2480.068731
338.295508	2484.883033
338.687896	2495.214878
339.080220	2504.641836
339.472480	2509.196518
339.864676	2516.123064
340.256807	2519.147756
340.648875	2526.313756
341.040879	2528.635207
341.432818	2526.502799
341.824694	2529.971113
342.216506	2528.282327
342.608253	2528.705784
342.999937	2529.593027
343.391557	2529.842564
343.783113	2529.146885
344.174605	2528.909950
344.566033	2523.084897
344.957397	2525.802079
345.348697	2522.845442
345.739934	2522.898374
346.131106	2518.767149
346.522215	2517.421161
346.913260	2513.781448
347.304241	2513.110974
347.695159	2510.703823
348.086012	2510.862620
348.476802	2508.158041
348.867528	2508.682321
349.258191	2504.624192
349.648789	2503.386588
350.039324	2502.842144
350.429796	2502.330467
350.820203	2500.175373
351.210548	2500.810559
351.600828	2498.284941
351.991045	2499.411639
352.381198	2497.551453
352.771288	2498.358038
353.161314	2497.430465
353.551276	2497.672441
353.941175	2496.838130
354.331010	2499.414159
354.720782	2500.550939
355.110490	2496.283603
355.500135	2496.865856
355.889717	2496.712101
356.279235	2496.618839
356.668689	2499.368789
357.058080	2497.803511
357.447408	2498.784015
357.836672	2492.505258
358.225873	2498.121103
358.615010	2494.199086
359.004084	2501.828872
359.393095	2499.212513
359.782043	2499.782163
360.170927	2502.940446
360.559748	2501.433141
360.948505	2504.972031
361.337199	2504.296517
361.725830	2506.134017
362.114398	2508.629388
362.502903	2508.803308
362.891344	2508.546209
363.279722	2505.569408
363.668037	2510.555109
364.056289	2508.657115
364.444478	2509.035201
364.832603	2510.436642
365.220665	2513.552075
365.608665	2509.766169
365.996601	2513.582322
366.384474	2511.752383
366.772284	2512.390089
367.160031	2516.289422
367.547715	2520.231604
367.935336	2519.798065
368.322893	2520.932324
368.710388	2526.255783
369.097820	2534.931609
369.485189	2535.521424
369.872495	2544.658515
370.259738	2544.333361
370.646918	2552.661347
371.034035	2562.640311
371.421090	2572.493246
371.808081	2583.646799
372.195010	2594.760022
372.581875	2606.947012
372.968678	2620.590895
373.355418	2630.048099
373.742096	2645.708444
374.128710	2660.569765
374.515262	2676.005778
374.901751	2693.387677
375.288177	2705.781354
375.674540	2726.563510
376.060841	2747.086048
376.447079	2766.219747
376.833254	2788.897378
377.219367	2796.559932
377.605417	2837.116014
377.991404	2845.307889
378.377329	2868.620705
378.763191	2884.487737
379.148991	2921.625917
379.534727	2949.110288
379.920402	2977.320585
380.306013	2987.970023
380.691563	3042.091850
381.077049	3060.103893
381.462474	3076.084351
381.847835	3114.843262
382.233134	3136.757158
382.618371	3137.137765
383.003545	3206.065461
383.388657	3212.021585
383.773706	3243.783374
384.158693	3264.499996
384.543618	3289.741053
384.928480	3325.603822
385.313280	3367.541181
385.698017	3367.117724
386.082692	3424.221394
386.467305	3427.440171
386.851856	3458.350006
387.236344	3481.158706
387.620770	3513.164992
388.005133	3538.383364
388.389435	3567.841347
388.773674	3577.280907
389.157851	3619.399747
389.541965	3634.266110
389.926018	3599.988785
390.310008	3670.688447
390.693936	3692.194009
391.077802	3733.075246
391.461606	3723.212229
391.845348	3784.580715
392.229027	3783.552320
392.612645	3796.913898
392.996200	3875.356772
393.379694	3913.939243
393.763125	3978.745797
394.146494	3946.840334
394.529801	4006.751927
394.913047	4054.438722
395.296230	4024.229607
395.679351	4076.818924
396.062410	4097.838015
396.445408	4081.227413
396.828343	4114.771251
397.211217	4137.348058
397.594028	4059.565575
397.976778	4126.025627
398.359466	4154.487981
398.742092	4179.459337
399.124656	4103.675671
399.507158	4183.401519
399.889598	4210.210375
400.271977	4269.385960
400.654294	4237.024273
401.036549	4251.719236
401.418742	4220.716140
401.800874	4323.890915
402.182944	4343.037217
402.564952	4407.813524
402.946898	4394.983787
403.328783	4389.569588
403.710606	4303.141526
404.092367	4493.402234
404.474067	4463.906443
404.855705	4470.084377
405.237282	4394.038571
405.618797	4506.753730
406.000250	4540.350500
406.381642	4621.107264
406.762972	4584.132921
407.144240	4593.398562
407.525447	4593.592646
407.906593	4651.288652
408.287677	4693.793140
408.668700	4627.065907
409.049661	4679.753527
409.430560	4716.009505
409.811399	4642.910254
410.192176	4807.181293
410.572891	4744.817179
410.953545	4846.126727
411.334138	4728.771186
411.714669	4791.578922
412.095139	4690.644940
412.475547	4829.758101
412.855894	4812.749248
413.236180	4821.021781
413.616405	4776.934370
413.996568	4861.459397
414.376670	4806.662054
414.756711	4761.576495
415.136691	4790.157317
415.516609	4868.196899
415.896466	4911.339093
416.276262	4943.448723
416.655997	4919.677162
417.035670	5105.983085
417.415283	5197.800140
417.794834	5137.137415
418.174324	5090.214355
418.553753	4997.595756
418.933121	5182.565773
419.312428	5250.525568
419.691674	5190.009037
420.070859	5315.075023
420.449983	5227.416919
420.829045	5345.747923
421.208047	5251.266618
421.586988	5321.021064
421.965867	5331.108413
422.344686	5467.698476
422.723444	5321.499973
423.102141	5138.939628
423.480777	5438.588333
423.859352	5206.501172
424.237866	5464.777127
424.616319	5455.617351
424.994712	5565.852262
425.373044	5444.748623
425.751314	5590.337146
426.129524	5386.679572
426.507673	5582.750210
426.885762	5666.811450
427.263789	5599.973312
427.641756	5480.462678
428.019662	5599.600266
428.397508	5612.107369
428.775292	5556.052259
429.153016	5656.071272
429.530679	5578.407256
429.908282	5663.711140
430.285824	5535.171800
430.663305	5812.379808
431.040726	5546.025404
431.418086	5546.620260
431.795385	5652.839892
432.172624	5669.478220
432.549802	5660.673845
432.926920	5671.333365
433.303977	5678.660682
433.680974	5714.031938
434.057910	5739.126802
434.434786	5740.014045
434.811601	5709.202513
435.188355	5946.560200
435.565050	5818.275438
435.941683	5800.525535
436.318257	6016.453278
436.694770	5995.126677
437.071222	6030.195463
437.447614	5964.572243
437.823946	5875.474890
438.200218	6034.709817
438.576429	5895.193363
438.952580	5995.598024
439.328670	6038.445312
439.704700	5949.358041
440.080670	5933.465803
440.456580	6206.577875
440.832429	6090.326346
441.208218	5929.533703
441.583947	6090.114618
441.959616	6095.473364
442.335224	6017.731210
442.710773	6160.710936
443.086261	6182.173649
443.461689	5977.714531
443.837057	6126.915041
444.212365	6285.983609
444.587612	6175.592423
444.962800	6330.048335
445.337927	6308.837680
445.712995	5919.758906
446.088002	6495.632595
446.462949	6327.013561
446.837837	6259.250371
447.212664	6430.639519
447.587431	6570.327372
447.962139	7113.867100
448.336786	8046.291518
448.711374	7787.287116
449.085901	6861.950560
449.460369	6782.927953
449.834776	6712.137550
450.209124	7103.701613
450.583412	7253.441526
450.957640	7402.899135
451.331808	7168.094792
451.705917	6716.919084
452.079965	6643.928218
452.453954	6855.659200
452.827883	6727.079530
453.201752	6822.697615
453.575562	6623.740917
453.949311	6825.308933
454.323001	6718.368416
454.696632	6790.104035
455.070202	6929.121414
455.443713	7085.112358
455.817164	7178.978643
456.190556	7261.116683
456.563888	7337.049063
456.937160	7382.936166
457.310373	7037.561675
457.683526	7065.267856
458.056619	6959.098636
458.429653	6939.730523
458.802628	6879.085442
459.175542	6985.589899
459.548398	7344.918304
459.921194	7502.923189
460.293930	7507.987028
460.666607	8030.668982
461.039224	8345.234462
461.411782	8469.950087
461.784280	8491.516143
462.156719	8378.405254
462.529099	8258.027541
462.901419	7851.198864
463.273680	7738.080413
463.645882	7756.561283
464.018024	7615.449305
464.390106	7787.881972
464.762130	8175.198863
465.134094	8644.174885
465.505999	9669.543057
465.877845	10886.273428
466.249631	11538.064374
466.621358	11154.513224
466.993026	10523.522080
467.364634	10263.738819
467.736184	9902.681298
468.107674	9573.791380
468.479105	9601.636194
468.850477	9366.426038
469.221790	9146.462851
469.593043	8816.489085
469.964238	8676.828959
470.335373	8686.432357
470.706449	8737.587466
471.077467	8723.283192
471.448425	10030.966061
471.819324	11106.884403
472.190164	11135.485389
472.560945	9887.482220
472.931667	9093.077032
473.302330	8960.809758
473.672934	8606.242723
474.043479	8963.027866
474.413965	8905.657014
474.784393	8782.332747
475.154761	8943.415257
475.525070	9031.249801
475.895321	8853.211370
476.265513	9029.727372
476.635645	9203.611892
477.005719	9203.490904
477.375734	9311.222882
477.745691	9549.767762
478.115588	9687.285397
478.485427	9928.486965
478.855207	10472.258586
479.224928	11286.125148
479.594591	11908.558934
479.964194	11725.653270
480.333739	11669.479693
480.703226	11579.225395
481.072653	11667.722851
481.442022	11901.844117
481.811333	12092.644229
482.180584	11899.116853
482.549777	11606.185486
482.918912	11435.728951
483.287988	11455.500356
483.657005	11470.044085
484.025964	11151.475929
484.394864	11286.314192
484.763706	11248.659293
485.132489	11003.245842
485.501213	10972.981274
485.869879	11046.423324
486.238487	10891.342308
486.607036	10999.172589
486.975527	10784.873139
487.343959	10970.763167
487.712333	11021.209993
488.080648	10948.340114
488.448905	10985.183387
488.817104	10931.313617
489.185244	11201.945441
489.553326	11351.027484
489.921350	11892.412119
490.289315	12953.078450
490.657222	13295.604689
491.025070	13207.170248
491.392861	13080.029827
491.760593	12700.441025
492.128267	12353.521420
492.495883	12025.596883
492.863440	11679.902278
493.230939	11345.419200
493.598380	11284.728749
493.965763	11152.524489
494.333088	11051.126721
494.700354	10976.777263
495.067563	11028.910356
495.434713	10860.356856
495.801805	10988.381999
496.168839	10906.624566
496.535815	10843.554691
496.902733	10845.248518
497.269593	10777.392067
497.636395	10883.727646
498.003139	10868.553773
498.369825	10736.404966
498.736453	10890.976825
499.103023	10820.020064
499.469535	10851.799498
499.835989	10837.533032
500.202385	10799.739502
500.568723	10650.234002
500.935003	10871.255831
501.301226	10677.398260
501.667390	10936.042220
502.033497	11031.993021
502.399546	10897.250541
502.765537	10797.226487
503.131470	10872.357323
503.497345	11051.466999
503.863163	10662.226907
504.228923	10968.837446
504.594625	11036.341017
504.960269	10786.007399
505.325856	11001.917497
505.691385	10797.360077
506.056856	10951.321957
506.422270	10978.818931
506.787625	10862.254851
507.152924	10986.567184
507.518164	10961.547938
507.883347	10880.113138
508.248472	10810.487242
508.613540	11037.233301
508.978550	10926.370766
509.343503	10885.739066
509.708398	11010.464774
510.073236	11121.591969
510.438016	11123.041301
510.802738	11075.150339
511.167403	11135.049329
511.532010	11025.807526
511.896561	11257.756055
512.261053	11330.696510
512.625488	11203.472911
512.989866	11184.157730
513.354186	11172.230360
513.718449	11072.869217
514.082655	11274.444795
514.446803	11161.260809
514.810894	11284.769078
515.174927	11159.287197
515.538904	11175.063488
515.902822	11331.568630
516.266684	11206.396780
516.630488	11160.744091
516.994235	11216.647966
517.357925	11275.697522
517.721558	11365.921573
518.085133	11374.524302
518.448651	11391.928885
518.812112	11273.358426
519.175516	11286.732608
519.538863	11408.569734
519.902152	11322.265180
520.265385	11480.990950
520.628560	11401.960782
520.991678	11373.354754
521.354739	11438.239445
521.717743	11369.901564
522.080690	11351.186280
522.443580	11488.441776
522.806413	11444.014087
523.169189	11470.991822
523.531908	11520.841272
523.894569	11341.464415
524.257174	11351.861795
524.619722	11469.590381
524.982213	11415.191290
525.344647	11466.295987
525.707025	11419.325036
526.069345	11514.255004
526.431608	11434.650144
526.793815	11545.379088
527.155964	11330.930924
527.518057	11382.723738
527.880093	11334.648775
528.242072	11404.226780
528.603995	11313.221350
528.965860	11220.708616
529.327669	11280.743717
529.689421	11226.102650
530.051117	11200.775893
530.412755	11303.948148
530.774337	11193.441014
531.135862	11168.562920
531.497331	11201.862262
531.858743	11055.373893
532.220098	11219.443286
532.581396	11086.281207
532.942638	11074.880638
533.303824	11027.312310
533.664953	11049.160671
534.026025	10960.567433
534.387040	11058.232227
534.747999	11065.932590
535.108902	11121.165992
535.469748	10878.560463
535.830537	10975.574948
536.191270	10959.970056
536.551947	10979.164250
536.912567	10983.928140
537.273131	10905.971737
537.633638	10886.223017
537.994089	10872.392611
538.354483	10831.357619
538.714821	10971.778959
539.075103	10975.615277
539.435328	10943.727459
539.795497	10767.869327
540.155609	10924.624006
540.515665	11014.394353
540.875665	10747.954249
541.235609	10823.168264
541.595496	10808.231326
541.955328	10973.543363
542.315102	10851.726401
542.674821	10806.116562
543.034483	10802.121447
543.394090	10810.310802
543.753640	10739.210368
544.113134	10970.392642
544.472571	10814.668879
544.831953	10959.816301
545.191278	10765.134501
545.550548	10790.299941
545.909761	10931.207753
546.268918	10906.410317
546.628019	10992.883750
546.987064	10849.777995
547.346053	10769.152301
547.704986	10872.342200
548.063863	10858.811743
548.422684	10851.592810
548.781449	10764.695921
549.140158	10866.940603
549.498811	10745.395863
549.857408	10603.137022
550.215949	10824.809160
550.574434	10681.632829
550.932864	10779.617736
551.291237	10835.670326
551.649555	10791.754314
552.007817	10801.108175
552.366022	10764.867320
552.724173	10761.139387
553.082267	10743.971737
553.440305	10876.284382
553.798288	10679.729793
554.156215	10827.760756
554.514086	10804.458022
554.871902	10658.330095
555.229661	10696.317710
555.587365	10672.558752
555.945014	10569.404142
556.302606	10698.944151
556.660143	10588.865516
557.017625	10742.978630
557.375050	10642.001798
557.732421	10776.333425
558.089735	10687.016781
558.446994	10682.918323
558.804197	10726.410878
559.161345	10727.643440
559.518437	10573.484956
559.875474	10664.782772
560.232455	10692.070538
560.589381	10644.603033
560.946251	10634.530808
561.303065	10747.908879
561.659825	10680.067551
562.016528	10615.253436
562.373177	10487.681997
562.729770	10606.754050
563.086307	10517.172747
563.442789	10614.882911
563.799216	10487.964301
564.155587	10541.829030
564.511904	10491.987142
564.868164	10485.461368
565.224370	10504.854687
565.580520	10428.541700
565.936615	10425.247306
566.292654	10296.982708
566.648638	10430.444736
567.004567	10387.060566
567.360441	10370.999450
567.716260	10278.872363
568.072023	10380.615451
568.427732	10324.073869
568.783385	10233.098686
569.138982	10300.864397
569.494525	10321.207973
569.850013	10200.921001
570.205445	10279.726839
570.560823	10174.459985
570.916145	10093.690618
571.271412	10161.547069
571.626625	10111.546385
571.981782	10086.880019
572.336884	10053.439525
572.691931	10066.279344
573.046923	10009.480663
573.401860	9966.711514
573.756743	9898.071163
574.111570	9947.633267
574.466342	9930.379918
574.821059	9961.037695
575.175722	9845.486888
575.530330	9857.240338
575.884882	9851.722795
576.239380	9774.245301
576.593823	9754.345347
576.948211	9775.860991
577.302544	9646.820056
577.656823	9666.780504
578.011047	9668.877624
578.365216	9641.700764
578.719330	9555.123988
579.073389	9573.287265
579.427394	9526.026448
579.781344	9503.578190
580.135239	9447.581053
580.489080	9458.699317
580.842866	9356.162248
581.196597	9362.874545
581.550273	9404.519517
581.903895	9371.754537
582.257463	9438.017984
582.610975	9312.611720
582.964434	9348.207308
583.317837	9268.093291
583.671186	9246.935568
584.024481	9238.589938
584.377721	9161.999687
584.730906	9134.422055
585.084037	9168.069237
585.437113	9099.650697
585.790135	9122.189695
586.143103	9023.919963
586.496016	8997.537084
586.848874	9052.238645
587.201679	9046.068272
587.554428	8930.872866
587.907124	8972.921130
588.259765	8945.938354
588.612352	8948.297614
588.964884	8832.469543
589.317362	8841.798198
589.669786	8844.754835
590.022155	8891.118327
590.374470	8903.300275
590.726731	8840.031273
591.078937	8694.021814
591.431090	8808.413157
591.783188	8676.710492
592.135232	8673.590017
592.487222	8673.214452
592.839157	8725.213953
593.191038	8660.712390
593.542866	8600.851209
593.894639	8503.360334
594.246358	8558.891165
594.598022	8570.148061
594.949633	8471.278431
595.301190	8442.475799
595.652692	8470.897824
596.004141	8579.728774
596.355535	8357.938169
596.706876	8339.777413
597.058162	8272.346939
597.409395	8343.913679
597.760573	8414.275584
598.111698	8321.674629
598.462768	8302.745097
598.813785	8271.643698
599.164748	8239.415601
599.515657	8231.274138
599.866511	8140.112432
600.217312	8259.960824
600.568060	8123.201882
600.918753	8226.046461
601.269392	8201.546454
601.619978	8104.544571
601.970510	8170.445055
602.320988	8167.226278
602.671412	8230.177687
603.021783	8160.755957
603.372100	8132.767471
603.722363	8137.037328
604.072572	8114.581509
604.422728	8125.009135
604.772830	8056.996408
605.122878	8060.925988
605.472872	8054.261582
605.822813	8084.080007
606.172701	8028.765947
606.522534	8104.821835
606.872314	8104.947864
607.222041	8076.006599
607.571714	8128.343859
607.921333	8086.305677
608.270899	8096.909744
608.620411	8185.928959
608.969870	8088.130574
609.319276	8082.103875
609.668627	8092.939835
610.017926	8132.167574
610.367171	8174.480499
610.716362	8161.083632
611.065500	8146.018144
611.414585	8175.748349
611.763616	8162.865680
612.112594	8139.492370
612.461518	8159.488107
612.810389	8224.156029
613.159207	8157.489290
613.507971	8106.661856
613.856682	8223.283909
614.205340	8187.300153
614.553945	8259.494517
614.902496	8154.746902
615.250994	8210.557516
615.599439	8199.497225
615.947830	8205.463430
616.296169	8182.911828
616.644454	8188.401645
616.992686	8191.219650
617.340864	8250.019668
617.688990	8152.480903
618.037063	8246.911797
618.385082	8189.089762
618.733048	8279.094523
619.080961	8219.326603
619.428821	8244.744101
619.776628	8238.019202
620.124382	8187.930297
620.472083	8173.499994
620.819731	8194.718211
621.167326	8094.464784
621.514868	8101.411494
621.862357	7992.716656
622.209793	8005.054880
622.557176	7940.036598
622.904506	7909.038543
623.251783	7844.597473
623.599007	7803.779251
623.946179	7807.340826
624.293297	7758.572703
624.640363	7681.818616
624.987376	7660.003022
625.334336	7609.997297
625.681243	7558.365799
626.028097	7544.396762
626.374899	7520.973040
626.721647	7517.257710
627.068343	7446.464787
627.414987	7420.013852
627.761577	7369.748507
628.108115	7410.251658
628.454600	7305.158724
628.801032	7355.424069
629.147412	7314.598284
629.493739	7300.742673
629.840014	7243.649085
630.186236	7297.329812
630.532405	7175.699372
630.878521	7231.522589
631.224585	7189.517175
631.570597	7110.297963
631.916556	7145.570916
632.262462	7138.636809
632.608316	7103.570543
632.954117	7074.430153
633.299866	7065.101498
633.645562	7057.194448
633.991206	6974.706048
634.336797	6919.989364
634.682336	6875.249124
635.027823	6843.265523
635.373257	6834.367887
635.718639	6766.622341
636.063968	6779.275637
636.409245	6675.301839
636.754470	6670.563154
637.099642	6633.235930
637.444762	6572.149749
637.789829	6583.870431
638.134845	6526.905393
638.479808	6509.271437
638.824719	6517.755699
639.169577	6440.671415
639.514383	6464.402647
639.859137	6390.242233
640.203839	6400.745477
640.548489	6390.867336
640.893086	6360.091092
641.237632	6337.695766
641.582125	6359.793663
641.926566	6328.440207
642.270955	6338.691393
642.615292	6336.727864
642.959576	6349.602971
643.303809	6341.968143
643.647990	6348.135995
643.992118	6337.095868
644.336195	6284.080574
644.680219	6305.724768
645.024192	6301.049098
645.368112	6393.866822
645.711981	6414.729637
646.055797	6490.707388
646.399562	6447.061078
646.743274	6577.057312
647.086935	6631.453882
647.430544	6623.413242
647.774101	6641.725233
648.117606	6653.793756
648.461059	6644.180275
648.804460	6603.563699
649.147810	6517.304515
649.491108	6483.087684
649.834354	6463.603624
650.177548	6375.368308
650.520690	6288.274814
650.863781	6265.846720
651.206820	6285.809690
651.549807	6205.373039
651.892742	6149.012939
652.235626	6154.669113
652.578458	6140.349716
652.921238	6053.049534
653.263967	6090.550678
653.606644	6029.875350
653.949269	6036.121340
654.291843	5971.939889
654.634365	6019.437641
654.976836	5972.716227
655.319255	5972.955682
655.661622	5950.005829
656.003938	5949.844512
656.346203	5908.262555
656.688416	5943.318738
657.030577	5894.134721
657.372687	5863.812181
657.714746	5848.562690
658.056753	5891.094905
658.398708	5832.965360
658.740612	5829.910421
659.082465	5874.799375
659.424266	5866.869640
659.766016	5866.330237
660.107715	5838.308983
660.449362	5854.039904
660.790958	5846.715107
661.132503	5837.915773
661.473996	5871.981370
661.815438	5858.302199
662.156829	5856.184915
662.498168	5850.851374
662.839456	5828.574515
663.180693	5863.466862
663.521879	5865.221183
663.863013	5850.193503
664.204097	5869.191092
664.545129	5908.570065
664.886110	5907.110651
665.227040	5935.119302
665.567918	5905.847842
665.908746	5931.986225
666.249522	5936.734992
666.590248	5924.220327
666.930922	5954.880625
667.271545	5966.661801
667.612118	5970.830836
667.952639	5938.711124
668.293109	5963.664835
668.633528	5920.320995
668.973896	5926.461120
669.314213	5914.324542
669.654480	5891.500718
669.994695	5891.452827
670.334859	5881.635180
670.674973	5867.603128
671.015035	5869.458273
671.355047	5870.491709
671.695008	5858.297158
672.034918	5834.439898
672.374777	5840.617832
672.714585	5829.318085
673.054342	5834.001317
673.394049	5824.849103
673.733705	5857.843454
674.073310	5842.084808
674.412864	5803.318334
674.752368	5792.182426
675.091820	5798.935051
675.431223	5735.373663
675.770574	5733.024485
676.109875	5687.815418
676.449125	5689.975552
676.788324	5660.704092
677.127473	5601.503302
677.466571	5596.903249
677.805619	5583.382874
678.144616	5568.244289
678.483562	5548.127565
678.822458	5512.151371
679.161303	5512.017780
679.500098	5503.687273
679.838842	5483.938553
680.177535	5492.758052
680.516179	5511.927039
680.854771	5518.178070
681.193314	5593.767651
681.531805	5701.628179
681.870247	5858.728177
682.208638	5958.517817
682.546978	5970.871165
682.885268	5948.727897
683.223508	5865.246389
683.561697	5809.297143
683.899836	5780.789418
684.237925	5737.140587
684.575963	5700.695566
684.913951	5655.521786
685.251889	5720.398915
685.589776	5686.020767
685.927614	5661.596376
686.265401	5732.018775
686.603137	5718.631991
686.940824	5793.251150
687.278460	5813.158667
687.616046	5826.426984
687.953582	5894.613631
688.291068	5875.389190
688.628504	5938.474190
688.965889	5901.257871
689.303224	5845.510272
689.640510	5798.993024
689.977745	5718.700047
690.314930	5622.323267
690.652065	5568.307304
690.989150	5477.954703
691.326185	5398.548969
691.663170	5347.620712
692.000105	5268.313280
692.336990	5187.443090
692.673825	5166.950799
693.010610	5099.933700
693.347345	5026.166496
693.684030	5013.740052
694.020665	4971.540553
694.357251	4878.158219
694.693786	4889.866299
695.030272	4859.989900
695.366707	4823.128983
695.703093	4787.425011
696.039429	4811.436027
696.375716	4788.592038
696.711952	4764.288636
697.048139	4755.282614
697.384276	4732.214294
697.720363	4744.789453
698.056400	4758.297224
698.392388	4703.346127
698.728326	4683.602448
699.064214	4666.954037
699.400053	4662.109488
699.735842	4627.539776
700.071581	4603.022124
700.407270	4572.825613
700.742910	4553.553282
701.078501	4502.511599
701.414042	4497.399869
701.749533	4472.098318
702.084974	4404.579624
702.420366	4463.109940
702.755709	4402.419489
703.091002	4345.857743
703.426246	4393.731061
703.761440	4353.076675
704.096584	4315.557888
704.431679	4335.977082
704.766725	4322.403775
705.101721	4306.219150
705.436668	4337.489428
705.771565	4285.769710
706.106413	4309.125376
706.441212	4345.149461
706.775961	4353.313610
707.110661	4335.926670
707.445311	4362.029765
707.779913	4384.664545
708.114465	4398.908326
708.448967	4420.391203
708.783421	4482.876305
709.117825	4525.413561
709.452180	4526.923386
709.786485	4578.764092
710.120742	4660.214015
710.454949	4643.384123
710.789107	4711.389288
711.123216	4785.925268
711.457275	4778.718939
711.791286	4850.358776
712.125247	4864.322772
712.459159	4764.986836
712.793023	4841.892158
713.126837	4804.421262
713.460602	4793.509684
713.794318	4718.446903
714.127985	4726.200198
714.461602	4637.672495
714.795171	4606.054378
715.128691	4544.297723
715.462162	4483.292200
715.795584	4437.798307
716.128957	4421.701903
716.462281	4370.072926
716.795556	4341.303061
717.128782	4304.001043
717.461960	4236.827668
717.795088	4244.253287
718.128167	4206.401784
718.461198	4143.389881
718.794180	4140.360148
719.127113	4119.635964
719.459997	4099.816668
719.792833	4056.334195
720.125619	4041.571176
720.458357	4009.509438
720.791046	4016.962784
721.123686	3988.427332
721.456278	3948.440900
721.788821	3958.671922
722.121315	3934.035803
722.453761	3912.038728
722.786158	3921.342178
723.118506	3946.701702
723.450805	3899.085483
723.783056	3922.738577
724.115259	3938.792132
724.447412	3944.607103
724.779518	3936.417748
725.111574	3939.583593
725.443582	3967.662820
725.775542	3955.057415
726.107453	4005.932739
726.439315	4004.438037
726.771129	4018.230634
727.102895	4055.603228
727.434612	4101.434878
727.766281	4115.290490
728.097901	4118.194194
728.429473	4123.724340
728.760996	4132.838746
729.092471	4124.546048
729.423897	4104.636011
729.755276	4112.588431
730.086606	4113.722691
730.417887	4153.389010
730.749120	4213.746745
731.080305	4282.218217
731.411442	4309.460612
731.742530	4277.837454
732.073570	4280.017753
732.404562	4334.293336
732.735506	4327.031554
733.066401	4293.422181
733.397249	4230.468252
733.728048	4147.069923
734.058798	4065.234352
734.389501	3997.982840
734.720156	3933.007408
735.050762	3886.510325
735.381320	3884.067886
735.711831	3829.399093
736.042293	3800.883807
736.372707	3823.659740
736.703073	3798.370791
737.033391	3787.439049
737.363661	3804.987306
737.693883	3828.242148
738.024056	3838.931915
738.354182	3831.302129
738.684260	3895.050040
739.014290	3918.380500
739.344272	3911.312802
739.674207	3955.969863
740.004093	3958.397179
740.333931	3955.803505
740.663722	3952.378041
740.993464	3952.110860
741.323159	3929.680246
741.652806	3897.560534
741.982405	3871.984240
742.311956	3838.016946
742.641460	3828.902540
742.970915	3808.221206
743.300323	3766.535905
743.629683	3730.786562
743.958996	3719.877505
744.288260	3697.409083
744.617477	3661.793331
744.946647	3649.187926
745.275768	3623.205819
745.604842	3622.633648
745.933869	3574.563725
746.262847	3567.044844
746.591778	3603.888117
746.920662	3574.180598
747.249498	3545.186401
747.578286	3586.385231
747.907027	3603.832664
748.235720	3606.683437
748.564365	3625.451653
748.892963	3630.397025
749.221514	3608.455402
749.550017	3584.507401
749.878473	3588.074017
750.206881	3558.457239
750.535242	3551.107236
750.863555	3555.374573
751.191821	3550.023388
751.520039	3530.957744
751.848210	3508.491842
752.176334	3540.641801
752.504411	3548.692524
752.832440	3510.583921
753.160421	3491.714882
753.488356	3499.082529
753.816243	3513.424611
754.144082	3471.061275
754.471875	3457.792958
754.799620	3476.112511
755.127318	3465.848722
755.454969	3465.621870
755.782572	3470.978096
756.110129	3447.052780
756.437638	3440.055658
756.765100	3449.107050
757.092515	3460.275726
757.419882	3467.905513
757.747203	3442.959363
758.074477	3443.907100
758.401703	3458.972588
758.728882	3480.004282
759.056014	3490.373935
759.383099	3487.233297
759.710138	3489.007783
760.037129	3505.986389
760.364073	3533.785832
760.690970	3519.224459
761.017820	3500.907426
761.344623	3517.021475
761.671379	3562.717014
761.998088	3614.035960
762.324751	3737.057758
762.651366	3987.058659
762.977935	4461.479127
763.304456	4903.870624
763.630931	5007.945245
763.957359	4645.824041
764.283740	4300.522647
764.610074	4106.697843
764.936362	3910.032349
765.262602	3748.924634
765.588796	3636.879948
765.914943	3548.848799
766.241044	3458.617187
766.567097	3428.140891
766.893104	3384.676063
767.219064	3346.121318
767.544978	3322.732885
767.870845	3271.240019
768.196665	3248.617841
768.522438	3258.967330
768.848165	3251.894591
769.173846	3218.948130
769.499479	3202.791232
769.825066	3180.340453
770.150607	3165.194307
770.476101	3180.567305
770.801548	3179.503622
771.126949	3132.699029
771.452303	3114.825618
771.777611	3122.430198
772.102872	3126.584109
772.428087	3102.573093
772.753256	3091.873244
773.078378	3085.448294
773.403453	3052.269940
773.728482	3035.046838
774.053465	3059.004921
774.378401	3047.707696
774.703291	3012.485154
775.028135	3016.767614
775.352932	3013.332067
775.677683	2998.488390
776.002388	2996.363544
776.327046	2998.213647
776.651658	2986.074549
776.976224	2978.792602
777.300743	2976.176243
777.625216	2963.873307
777.949643	2957.927266
778.274024	2962.766774
778.598359	2953.612038
778.922647	2958.872483
779.246889	2957.110599
779.571086	2943.441511
779.895236	2934.730397
780.219339	2946.453600
780.543397	2960.374746
780.867409	2962.522278
781.191374	2953.584312
781.515294	2950.088272
781.839167	2952.278653
782.162995	2944.974021
782.486776	2954.398458
782.810511	2949.833694
783.134201	2936.383895
783.457844	2942.087961
783.781441	2935.184101
784.104993	2914.848086
784.428498	2914.545617
784.751958	2928.103800
785.075372	2921.686411
785.398739	2906.356262
785.722061	2922.661874
786.045337	2934.306940
786.368568	2919.080135
786.691752	2911.893970
787.014891	2959.343830
787.337983	2990.372132
787.661030	3019.081503
787.984031	3082.816812
788.306987	3132.031076
788.629897	3124.852473
788.952760	3109.429063
789.275579	3092.652103
789.598351	3034.008360
789.921078	2988.290136
790.243759	2979.720174
790.566395	2962.665951
790.888984	2939.365738
791.211529	2920.385793
791.534027	2911.374731
791.856480	2901.514234
792.178888	2888.583674
792.501249	2877.104967
792.823566	2876.016078
793.145836	2874.125645
793.468062	2867.867053
793.790241	2866.334542
794.112375	2871.872249
794.434464	2885.153169
794.756507	2889.329765
795.078505	2894.202040
795.400457	2911.258784
795.722364	2946.551903
796.044226	2969.274903
796.366042	2975.170533
796.687812	2963.817854
797.009538	2979.881491
797.331218	2966.840026
797.652852	2955.729323
797.974442	2936.215017
798.295986	2931.420879
798.617484	2928.313008
798.938938	2909.741397
799.260346	2898.030797
799.581709	2894.050806
799.903026	2883.267778
800.224299	2880.520349
800.545526	2866.579038
800.866708	2854.742409
801.187845	2844.304700
801.508936	2845.373424
801.829983	2853.572861
802.150984	2838.393947
802.471940	2828.326762
802.792851	2828.193172
803.113717	2825.980105
803.434538	2830.088646
803.755314	2825.914570
804.076045	2821.044816
804.396731	2817.669763
804.717372	2818.546924
805.037967	2816.059115
805.358518	2821.261585
805.679024	2833.251970
805.999485	2828.503203
806.319901	2832.783142
806.640272	2823.164621
806.960598	2828.034376
807.280879	2839.618947
807.601115	2847.034484
807.921306	2832.304233
808.241453	2830.607885
808.561554	2834.542505
808.881611	2835.371775
809.201623	2832.344562
809.521590	2828.851042
809.841513	2823.507419
810.161390	2828.609067
810.481223	2825.796103
810.801011	2817.934424
811.120755	2808.820018
811.440453	2813.626758
811.760107	2811.489309
812.079716	2812.827735
812.399281	2802.223668
812.718801	2795.954993
813.038276	2788.920063
813.357707	2794.939201
813.677093	2801.313740
813.996434	2795.203861
814.315731	2794.074643
814.634983	2786.880916
814.954191	2790.142543
815.273354	2805.172743
815.592473	2812.636171
815.911547	2811.902683
816.230577	2822.347954
816.549562	2831.737103
816.868502	2832.939418
817.187399	2840.009637
817.506250	2857.356247
817.825058	2850.850638
818.143821	2863.256917
818.462539	2877.500698
818.781213	2906.499935
819.099843	2939.703495
819.418429	2999.073164
819.736970	3064.635890
820.055466	3136.512662
820.373919	3243.750607
820.692327	3384.776886
821.010691	3553.501784
821.329011	4000.148015
821.647286	4908.838681
821.965517	6303.831815
822.283704	7073.235400
822.601847	7054.197482
822.919945	6412.445995
823.237999	5896.778806
823.556010	5307.225946
823.873976	4746.755503
824.191897	4326.623221
824.509775	4032.066081
824.827609	3756.869492
825.145398	3632.657982
825.463144	3620.082824
825.780845	3709.810321
826.098502	3815.485509
826.416116	4101.936473
826.733685	4425.482768
827.051210	4492.386441
827.368692	4374.420921
827.686129	4101.364302
828.003522	3777.765075
828.320872	3514.765558
828.638177	3315.370280
828.955439	3176.060514
829.272656	3090.479365
829.589830	3024.495703
829.906960	2972.932261
830.224046	2927.733275
830.541088	2894.262534
830.858086	2879.459186
831.175041	2859.954962
831.491952	2862.780528
831.808819	2873.891232
832.125642	2897.236815
832.442421	2942.571912
832.759157	3024.359592
833.075849	3202.634956
833.392497	3484.712720
833.709101	3696.446222
834.025662	3648.419150
834.342179	3487.077021
834.658653	3307.921975
834.975083	3154.353305
835.291469	3060.270251
835.607811	2972.670121
835.924110	2911.132756
836.240366	2860.015456
836.556578	2816.739670
836.872746	2793.923408
837.188871	2770.222423
837.504952	2753.125350
837.820990	2747.912797
838.136984	2733.782443
838.452935	2725.454457
838.768842	2721.560165
839.084706	2739.547002
839.400526	2820.696976
839.716303	2954.005248
840.032037	3033.968031
840.347727	3022.408665
840.663373	2959.505147
840.978977	2883.454300
841.294537	2810.876808
841.610054	2763.265631
841.925527	2740.020871
842.240957	2718.782489
842.556344	2696.200641
842.871687	2680.053825
843.186987	2670.581497
843.502244	2665.532781
843.817458	2661.620846
844.132629	2649.065852
844.447756	2641.468833
844.762840	2632.122534
845.077881	2633.823924
845.392879	2634.365848
845.707833	2632.427524
846.022745	2621.347068
846.337613	2626.113479
846.652438	2623.771863
846.967221	2623.413941
847.281960	2622.700618
847.596656	2621.263889
847.911309	2621.203395
848.225919	2617.301542
848.540485	2614.889350
848.855009	2611.481530
849.169490	2613.755090
849.483928	2614.607045
849.798323	2614.465893
850.112675	2610.594287
850.426984	2610.906838
850.741251	2613.311469
851.055474	2609.754935
851.369654	2615.322889
851.683792	2612.943464
851.997887	2612.434308
852.311938	2609.694441
852.625947	2612.560337
852.939914	2615.592591
853.253837	2614.372632
853.567718	2613.082096
853.881555	2612.194853
854.195350	2614.549072
854.509103	2614.491099
854.822812	2609.686879
855.136479	2611.892384
855.450103	2613.896242
855.763685	2613.412292
856.077224	2612.474637
856.390720	2608.595469
856.704173	2612.426746
857.017584	2615.930348
857.330953	2618.052674
857.644278	2620.079218
857.957561	2617.929166
858.270802	2613.031685
858.584000	2613.757611
858.897155	2619.920421
859.210268	2615.574947
859.523339	2614.367590
859.836367	2609.066817
860.149352	2607.930037
860.462295	2611.552106
860.775195	2607.451127
861.088054	2606.639502
861.400869	2606.989862
861.713642	2605.966507
862.026373	2607.446086
862.339062	2609.170161
862.651708	2615.264916
862.964312	2616.250461
863.276873	2612.363732
863.589392	2615.479165
863.901869	2620.192644
864.214303	2627.323356
864.526696	2629.370064
864.839045	2629.417955
865.151353	2634.426342
865.463619	2632.944242
865.775842	2631.618419
866.088023	2633.450878
866.400162	2632.334263
866.712258	2633.100518
867.024313	2635.684109
867.336325	2628.727317
867.648296	2628.999539
867.960224	2635.837865
868.272110	2632.863584
868.583954	2627.073819
868.895755	2627.514920
869.207515	2633.602113
869.519233	2637.418266
869.830909	2634.963224
870.142542	2631.540281
870.454134	2633.067751
870.765684	2637.829120
871.077191	2640.241312
871.388657	2646.724236
871.700081	2641.070582
872.011463	2642.461941
872.322803	2640.697537
872.634101	2646.875471
872.945357	2653.318066
873.256571	2659.047337
873.567744	2657.469456
873.878874	2653.370998
874.189963	2658.263437
874.501010	2664.227122
874.812015	2666.541012
875.122979	2667.135868
875.433900	2658.432316
875.744780	2656.012562
876.055618	2665.038748
876.366415	2667.914727
876.677169	2668.592762
876.987882	2661.628408
877.298554	2660.519354
877.609183	2671.924964
877.919771	2680.431912
878.230317	2685.825946
878.540822	2696.271217
878.851285	2711.815615
879.161707	2734.198338
879.472087	2774.880449
879.782425	2826.637976
880.092722	2938.649894
880.402977	3134.042496
880.713191	3402.211716
881.023363	3701.177345
881.333494	3901.306112
881.643583	4074.595775
881.953631	4072.939756
882.263637	3894.823188
882.573602	3671.666431
882.883526	3536.122407
883.193408	3416.112698
883.503248	3311.808704
883.813048	3192.182124
884.122806	3078.405802
884.432522	2990.009169
884.742197	2924.978285
885.051831	2881.629403
885.361424	2847.941892
885.670975	2810.561736
885.980485	2778.711726
886.289954	2759.444436
886.599382	2745.775348
886.908768	2732.897720
887.218113	2714.666387
887.527417	2699.401773
887.836680	2691.293077
888.145901	2688.674198
888.455082	2677.039215
888.764221	2665.603357
889.073319	2660.055568
889.382376	2657.146822
889.691392	2660.690753
890.000366	2659.196051
890.309300	2658.150012
890.618193	2658.298726
890.927044	2660.927687
891.235855	2660.431134
891.544625	2662.931546
891.853353	2661.850218
892.162041	2673.134841
892.470687	2690.148736
892.779293	2700.417566
893.087858	2711.470296
893.396381	2735.519120
893.704864	2774.726694
894.013306	2850.054136
894.321707	2947.512242
894.630068	2998.281703
894.938387	3018.204343
895.246665	3014.857017
895.554903	2968.569142
895.863100	2920.118612
896.171256	2865.538040
896.479371	2800.625622
896.787446	2761.365116
897.095480	2742.090264
897.403473	2732.595251
897.711425	2717.517160
898.019336	2697.604602
898.327207	2685.921728
898.635038	2683.491892
898.942827	2680.421829
899.250576	2669.774912
899.558284	2658.797800
899.865952	2654.235556
900.173579	2654.616163
900.481165	2651.089876
900.788711	2643.543268
901.096216	2634.060858
901.403681	2632.384674
901.711105	2634.988430
902.018489	2630.307719
902.325832	2634.607823
902.633135	2636.029428
902.940397	2652.140956
903.247619	2689.579085
903.554800	2762.171701
903.861941	2890.673233
904.169041	3027.051568
904.476101	3091.124633
904.783121	3081.816142
905.090100	3025.521578
905.397039	2946.451079
905.703938	2869.150026
906.010796	2803.587300
906.317614	2751.812129
906.624391	2714.346274
906.931129	2686.980370
907.237826	2660.892399
907.544483	2643.450007
907.851099	2629.186062
908.157675	2617.299021
908.464211	2610.193515
908.770707	2600.643049
909.077163	2594.112234
909.383578	2592.209199
909.689954	2593.819847
909.996289	2590.953951
910.302584	2588.085535
910.608839	2586.742067
910.915054	2587.415061
911.221229	2588.534197
911.527363	2593.247676
911.833458	2592.183993
912.139513	2587.868765
912.445527	2590.860690
912.751502	2596.766402
913.057436	2603.680344
913.363331	2610.702672
913.669186	2622.892182
913.975000	2635.371558
914.280775	2653.615494
914.586510	2673.386899
914.892205	2708.034749
915.197859	2779.878753
915.503475	2865.149871
915.809050	2937.427414
916.114585	2955.000876
916.420081	2967.563432
916.725536	2977.076089
917.030952	2949.906790
917.336328	2901.486508
917.641665	2850.429702
917.946961	2798.863739
918.252218	2763.366454
918.557435	2735.652711
918.862612	2709.952908
919.167750	2693.803572
919.472848	2676.086437
919.777906	2659.473314
920.082925	2648.264309
920.387904	2635.300982
920.692843	2629.428037
920.997743	2627.013325
921.302603	2617.863631
921.607423	2611.307610
921.912204	2603.904676
922.216946	2604.222268
922.521647	2599.607092
922.826310	2595.122986
923.130932	2591.876482
923.435516	2588.007397
923.740059	2583.170410
924.044564	2584.274422
924.349028	2582.202508
924.653454	2569.823955
924.957840	2573.572053
925.262186	2568.150292
925.566493	2566.819427
925.870761	2562.292471
926.174989	2566.592575
926.479178	2562.224416
926.783328	2563.323387
927.087438	2558.907336
927.391509	2559.287943
927.695541	2558.952707
927.999533	2554.927345
928.303486	2556.679146
928.607400	2554.871893
928.911275	2554.050185
929.215110	2554.816440
929.518906	2553.687222
929.822663	2554.287119
930.126381	2553.072201
930.430060	2556.217881
930.733699	2557.775597
931.037299	2555.968344
931.340861	2557.183262
931.644383	2555.794424
931.947866	2555.393652
932.251309	2553.767880
932.554714	2555.872562
932.858080	2554.045143
933.161407	2553.104968
933.464694	2553.931717
933.767943	2555.852397
934.071153	2552.747046
934.374323	2551.307797
934.677455	2552.258054
934.980548	2551.612787
935.283602	2548.754453
935.586617	2551.645554
935.889593	2553.331820
936.192530	2552.058929
936.495428	2551.640513
936.798287	2554.508930
937.101108	2554.791234
937.403890	2554.766028
937.706632	2558.987995
938.009336	2563.535116
938.312002	2568.548543
938.614628	2568.966959
938.917216	2577.433577
939.219765	2573.108267
939.522275	2576.909297
939.824747	2576.611869
940.127179	2570.620457
940.429573	2565.879252
940.731929	2567.777247
941.034246	2566.317833
941.336524	2565.196176
941.638763	2565.317163
941.940964	2564.694581
942.243126	2563.887996
942.545250	2559.978582
942.847335	2561.054868
943.149381	2557.553787
943.451389	2558.156204
943.753359	2558.526729
944.055290	2555.582695
944.357182	2557.954558
944.659036	2553.014227
944.960851	2554.564382
945.262628	2554.375339
945.564367	2556.268292
945.866067	2556.356512
946.167729	2560.349106
946.469352	2556.490103
946.770937	2556.522871
947.072484	2553.490617
947.373992	2557.057233
947.675462	2552.268137
947.976893	2553.241079
948.278286	2550.617159
948.579641	2554.559341
948.880958	2552.782334
949.182236	2551.005328
949.483476	2550.914587
949.784678	2553.649413
950.085841	2551.441387
950.386967	2549.510626
950.688054	2552.779814
950.989103	2551.837118
951.290114	2555.554969
951.591087	2554.897098
951.892021	2555.784342
952.192917	2556.553117
952.493776	2559.008159
952.794596	2559.287943
953.095378	2558.451112
953.396122	2561.178376
953.696828	2558.872048
953.997496	2556.623694
954.298126	2552.986501
954.598718	2557.117727
954.899272	2555.000442
955.199788	2551.491799
955.500266	2551.080945
955.800706	2547.617672
956.101108	2542.914276
956.401472	2545.470141
956.701798	2542.241282
957.002087	2542.483257
957.302337	2542.553833
957.602550	2543.405788
957.902724	2542.223638
958.202861	2539.733308
958.502960	2541.785057
958.803022	2539.229192
959.103045	2538.868750
959.403031	2539.294727
959.702979	2538.072248
960.002889	2538.672145
960.302762	2537.406815
960.602596	2537.885725
960.902393	2539.425797
961.202153	2538.493184
961.501875	2535.670138
961.801559	2535.813811
962.101205	2537.638708
962.400814	2537.386651
962.700385	2538.606610
962.999918	2538.810777
963.299414	2536.514531
963.598873	2540.209697
963.898293	2537.507638
964.197677	2537.852957
964.497022	2536.378420
964.796331	2537.240457
965.095601	2535.128214
965.394835	2535.821372
965.694030	2534.608975
965.993189	2536.264994
966.292309	2536.877494
966.591393	2532.539581
966.890439	2533.726773
967.189447	2535.065199
967.488419	2535.042514
967.787353	2535.430683
968.086249	2536.494366
968.385108	2534.770292
968.683930	2537.401774
968.982714	2536.822041
969.281462	2535.685261
969.580172	2537.185004
969.878844	2535.448327
970.177480	2537.666435
970.476078	2534.755168
970.774639	2538.651980
971.073162	2535.776002
971.371649	2532.973120
971.670098	2535.899510
971.968510	2536.832124
972.266885	2534.112421
972.565223	2535.234078
972.863524	2538.026877
973.161788	2538.425128
973.460014	2539.075437
973.758204	2535.758358
974.056356	2536.801877
974.354471	2534.419932
974.652550	2537.426980
974.950591	2535.619726
975.248595	2536.214582
975.546563	2537.484953
975.844493	2535.642411
976.142386	2535.826413
976.440243	2535.324819
976.738062	2533.502442
977.035845	2537.202648
977.333590	2534.659386
977.631299	2532.131248
977.928971	2535.077802
978.226606	2533.038655
978.524204	2535.934798
978.821765	2535.281969
979.119290	2533.915816
979.416777	2533.673841
979.714228	2532.360620
980.011642	2537.752134
980.309020	2537.585776
980.606360	2534.737524
980.903664	2537.467309
981.200931	2536.930426
981.498162	2534.785415
981.795356	2537.348842
982.092513	2541.263298
982.389633	2542.291693
982.686717	2548.565409
982.983764	2548.270502
983.280775	2553.251162
983.577749	2553.732592
983.874686	2550.274360
984.171587	2545.923845
984.468451	2544.414019
984.765279	2542.437887
985.062070	2539.866898
985.358824	2539.014943
985.655543	2537.358924
985.952224	2536.353214
986.248869	2533.152081
986.545478	2531.566638
986.842050	2531.007070
987.138586	2529.401463
987.435086	2532.617719
987.731549	2527.301822
988.027975	2534.215765
988.324366	2530.797863
988.620719	2534.024201
988.917037	2530.775177
989.213318	2532.892462
989.509563	2530.044210
989.805772	2532.902544
990.101944	2531.833820
990.398080	2530.661751
990.694180	2533.131917
990.990244	2531.301978
991.286271	2532.335414
991.582262	2529.976154
991.878217	2531.052441
992.174136	2529.411545
992.470019	2532.010260
992.765865	2532.146371
993.061676	2531.667462
993.357450	2532.713501
993.653188	2529.837523
993.948890	2532.315250
994.244556	2530.976823
994.540186	2534.359438
994.835780	2531.057482
995.131337	2532.426155
995.426859	2533.696526
995.722345	2534.069571
996.017795	2537.825231
996.313208	2538.266332
996.608586	2534.233409
996.903928	2536.872453
997.199234	2537.527803
997.494504	2535.284489
997.789738	2536.325488
998.084936	2531.995137
998.380099	2534.755168
998.675225	2532.337935
998.970316	2536.837165
999.265371	2533.900693
999.560390	2531.947246
999.855373	2531.801052
1000.150320	2532.373223
1000.445232	2529.729138
1000.740108	2532.421114
1001.034948	2532.887421
1001.329752	2531.614529
1001.624521	2530.676875
1001.919254	2525.620597
1002.213951	2528.736031
1002.508613	2527.382481
1002.803239	2530.182842
1003.097829	2523.493231
1003.392384	2532.363141
1003.686903	2530.344159
1003.981386	2529.093952
1004.275834	2528.655372
1004.570246	2530.192924
1004.864623	2528.799045
1005.158964	2530.170239
1005.453270	2532.854653
1005.747540	2533.318439
1006.041775	2529.809796
1006.335974	2529.928263
1006.630138	2527.674868
1006.924266	2530.381967
1007.218359	2528.289888
1007.512416	2527.206040
1007.806438	2530.739889
1008.100425	2530.568490
1008.394376	2530.681916
1008.688292	2530.790301
1008.982172	2528.403314
1009.276017	2528.340300
1009.569827	2528.385670
1009.863602	2529.706453
1010.157341	2527.427851
1010.451045	2528.244518
1010.744714	2531.433048
1011.038347	2529.257790
1011.331945	2528.962882
1011.625508	2533.494880
1011.919036	2526.344003
1012.212528	2530.142512
1012.505986	2529.083870
1012.799408	2530.475229
1013.092795	2529.104035
1013.386147	2528.539426
1013.679464	2529.983716
1013.972745	2528.501617
1014.265992	2529.610671
1014.559204	2530.558408
1014.852380	2527.551359
1015.145521	2528.390712
1015.438628	2528.836854
1015.731699	2529.230064
1016.024736	2529.449354
1016.317737	2530.308871
1016.610703	2530.891124
1016.903635	2528.234436
1017.196531	2524.062881
1017.489393	2525.865093
1017.782219	2523.644465
1018.075011	2527.251411
1018.367768	2526.011287
1018.660490	2528.909950
1018.953177	2528.909950
1019.245829	2528.909950
