Dividing Wavelength (nm)	Counts (n)	Blue Motor Position (mm): 0.000000	Red Motor Position (mm): 46.900000	
326.493990	2128.440689
326.888308	2128.440689
327.282561	2128.440689
327.676750	2093.361820
328.070874	2098.907089
328.464933	2100.479929
328.858929	2103.895311
329.252859	2114.980808
329.646726	2126.104114
330.040528	2138.137348
330.434265	2157.230718
330.827938	2171.814777
331.221547	2190.484690
331.615091	2209.058821
332.008571	2229.369630
332.401986	2250.071128
332.795338	2266.981679
333.188625	2289.515637
333.581847	2306.332926
333.975006	2325.819506
334.368100	2344.123936
334.761129	2358.695391
335.154095	2378.963350
335.546996	2399.841288
335.939833	2423.259969
336.332606	2440.218410
336.725315	2454.600822
337.117960	2459.556276
337.510540	2469.043728
337.903056	2481.041674
338.295508	2488.394197
338.687896	2497.843840
339.080220	2504.793070
339.472480	2512.165758
339.864676	2516.619617
340.256807	2520.587005
340.648875	2522.517767
341.040879	2523.500792
341.432818	2526.717048
341.824694	2530.260980
342.216506	2529.260311
342.608253	2530.157636
342.999937	2530.248377
343.391557	2531.339787
343.783113	2528.869621
344.174605	2524.466173
344.566033	2527.122861
344.957397	2524.297295
345.348697	2521.522139
345.739934	2520.818898
346.131106	2518.928466
346.522215	2517.748836
346.913260	2514.807323
347.304241	2515.923938
347.695159	2508.833555
348.086012	2509.549399
348.476802	2509.776251
348.867528	2507.600993
349.258191	2505.728204
349.648789	2504.823317
350.039324	2500.498007
350.429796	2502.060765
350.820203	2499.719149
351.210548	2501.155878
351.600828	2498.655466
351.991045	2502.718636
352.381198	2498.453819
352.771288	2497.518685
353.161314	2496.331494
353.551276	2500.256032
353.941175	2493.374857
354.331010	2498.947853
354.720782	2498.451299
355.110490	2499.149499
355.500135	2497.884169
355.889717	2498.657986
356.279235	2495.958448
356.668689	2499.207472
357.058080	2500.132524
357.447408	2496.719663
357.836672	2494.705722
358.225873	2496.684374
358.615010	2494.730927
359.004084	2502.582524
359.393095	2500.077071
359.782043	2500.495487
360.170927	2502.794253
360.559748	2503.794922
360.948505	2504.515807
361.337199	2505.466064
361.725830	2506.925478
362.114398	2506.302896
362.502903	2506.723832
362.891344	2509.400685
363.279722	2507.469923
363.668037	2510.880264
364.056289	2511.195336
364.444478	2510.177023
364.832603	2507.989162
365.220665	2510.310613
365.608665	2513.244565
365.996601	2510.771879
366.384474	2514.245234
366.772284	2516.982580
367.160031	2517.620286
367.547715	2518.517612
367.935336	2520.511388
368.322893	2523.377284
368.710388	2529.892975
369.097820	2534.669469
369.485189	2535.808769
369.872495	2543.796478
370.259738	2548.283105
370.646918	2557.652089
371.034035	2563.116700
371.421090	2574.638257
371.808081	2583.861048
372.195010	2595.102821
372.581875	2606.604213
372.968678	2618.617283
373.355418	2630.380816
373.742096	2647.278763
374.128710	2662.452636
374.515262	2678.334792
374.901751	2691.272913
375.288177	2707.157589
375.674540	2727.226422
376.060841	2746.402971
376.447079	2765.556835
376.833254	2787.077521
377.219367	2798.079839
377.605417	2839.245902
377.991404	2843.538444
378.377329	2871.703371
378.763191	2884.349105
379.148991	2924.726227
379.534727	2945.452931
379.920402	2974.951243
380.306013	2986.460197
380.691563	3038.767209
381.077049	3057.923594
381.462474	3075.892787
381.847835	3114.450052
382.233134	3140.696819
382.618371	3137.813279
383.003545	3204.391798
383.388657	3210.433621
383.773706	3247.591966
384.158693	3261.190479
384.543618	3290.068728
384.928480	3322.536280
385.313280	3368.582179
385.698017	3370.601161
386.082692	3421.065632
386.467305	3426.633586
386.851856	3461.914101
387.236344	3481.985455
387.620770	3513.316227
388.005133	3541.534085
388.389435	3567.843867
388.773674	3578.442893
389.157851	3622.454687
389.541965	3637.721821
389.926018	3600.087087
390.310008	3672.581400
390.693936	3689.350798
391.077802	3730.131212
391.461606	3719.406157
391.845348	3783.625416
392.229027	3782.702885
392.612645	3792.601191
392.996200	3874.464488
393.379694	3911.897576
393.763125	3978.695385
394.146494	3945.454017
394.529801	4005.121113
394.913047	4057.017272
395.296230	4018.699461
395.679351	4075.210796
396.062410	4100.600567
396.445408	4081.761775
396.828343	4115.111529
397.211217	4138.595744
397.594028	4058.476686
397.976778	4123.928507
398.359466	4150.399606
398.742092	4177.284079
399.124656	4099.741051
399.507158	4183.761962
399.889598	4209.426476
400.271977	4270.250518
400.654294	4239.481835
401.036549	4243.550046
401.418742	4215.173391
401.800874	4320.783044
402.182944	4340.942618
402.564952	4405.998708
402.946898	4392.521184
403.328783	4391.034043
403.710606	4300.005928
404.092367	4492.784693
404.474067	4457.728509
404.855705	4466.575734
405.237282	4396.818767
405.618797	4505.092670
406.000250	4539.438051
406.381642	4618.982417
406.762972	4581.982869
407.144240	4592.503757
407.525447	4592.002162
407.906593	4652.652284
408.287677	4694.206515
408.668700	4621.964260
409.049661	4673.618443
409.430560	4715.328950
409.811399	4641.539060
410.192176	4807.529133
410.572891	4740.940532
410.953545	4847.036656
411.334138	4727.465527
411.714669	4793.912976
412.095139	4690.402964
412.475547	4832.520653
412.855894	4810.788239
413.236180	4819.741328
413.616405	4773.637456
413.996568	4859.145507
414.376670	4803.067712
414.756711	4758.864354
415.136691	4788.019867
415.516609	4866.228328
415.896466	4904.715017
416.276262	4940.802117
416.655997	4918.152213
417.035670	5097.778607
417.415283	5192.191857
417.794834	5134.838649
418.174324	5088.379375
418.553753	4999.818905
418.933121	5179.435217
419.312428	5246.938787
419.691674	5191.556671
420.070859	5316.108459
420.449983	5224.571188
420.829045	5339.416234
421.208047	5249.376185
421.586988	5318.576104
421.965867	5328.839893
422.344686	5459.708247
422.723444	5317.799766
423.102141	5137.023989
423.480777	5438.018683
423.859352	5206.216347
424.237866	5465.835770
424.616319	5455.415705
424.994712	5564.672632
425.373044	5441.978509
425.751314	5583.135858
426.129524	5384.277462
426.507673	5581.507565
426.885762	5666.269526
427.263789	5590.264049
427.641756	5473.987315
428.019662	5601.097489
428.397508	5605.594198
428.775292	5553.037649
429.153016	5654.095139
429.530679	5580.080919
429.908282	5667.555020
430.285824	5532.016037
430.663305	5810.433923
431.040726	5546.615219
431.418086	5548.682092
431.795385	5647.092977
432.172624	5661.717364
432.549802	5655.289893
432.926920	5670.657850
433.303977	5679.348800
433.680974	5717.331373
434.057910	5734.652778
434.434786	5740.283747
434.811601	5705.154466
435.188355	5941.453512
435.565050	5816.901723
435.941683	5802.970495
436.318257	6011.898595
436.694770	5997.369990
437.071222	6028.383168
437.447614	5959.894052
437.823946	5874.819540
438.200218	6029.580442
438.576429	5891.115070
438.952580	5993.410164
439.328670	6035.861720
439.704700	5944.508451
440.080670	5929.871461
440.456580	6202.733995
440.832429	6081.837043
441.208218	5933.455721
441.583947	6085.945584
441.959616	6087.984730
442.335224	6017.310274
442.710773	6155.639536
443.086261	6182.655079
443.461689	5976.305529
443.837057	6122.806501
444.212365	6279.062105
444.587612	6164.751421
444.962800	6325.554147
445.337927	6305.412216
445.712995	5914.120375
446.088002	6493.379199
446.462949	6321.029711
446.837837	6251.476911
447.212664	6426.717501
447.587431	6572.666467
447.962139	7112.218642
448.336786	8035.442955
448.711374	7780.930221
449.085901	6853.299940
449.460369	6774.378156
449.834776	6707.451797
450.209124	7094.902279
450.583412	7247.066987
450.957640	7395.211375
451.331808	7160.301168
451.705917	6712.417334
452.079965	6636.517722
452.453954	6852.112748
452.827883	6724.180866
453.201752	6818.626884
453.575562	6613.136850
453.949311	6819.960269
454.323001	6710.652930
454.696632	6781.158508
455.070202	6921.834426
455.443713	7076.910401
455.817164	7176.447984
456.190556	7261.509893
456.563888	7334.382292
456.937160	7378.071452
457.310373	7038.408588
457.683526	7061.890283
458.056619	6949.003725
458.429653	6936.451252
458.802628	6869.247630
459.175542	6982.663509
459.548398	7336.774320
459.921194	7498.857498
460.293930	7496.367168
460.666607	8030.419445
461.039224	8336.563677
461.411782	8465.173594
461.784280	8481.630441
462.156719	8369.789922
462.529099	8253.238445
462.901419	7836.897111
463.273680	7734.659990
463.645882	7749.349913
464.018024	7613.621886
464.390106	7783.034902
464.762130	8168.665528
465.134094	8642.188670
465.505999	9660.489144
465.877845	10883.132789
466.249631	11527.596418
466.621358	11148.884776
466.993026	10518.201142
467.364634	10255.073076
467.736184	9897.136029
468.107674	9569.536647
468.479105	9598.785421
468.850477	9364.495276
469.221790	9135.319381
469.593043	8802.804873
469.964238	8667.026435
470.335373	8675.881222
470.706449	8738.285665
471.077467	8713.422695
471.448425	10028.054795
471.819324	11103.065729
472.190164	11126.650767
472.560945	9874.102997
472.931667	9086.521011
473.302330	8951.294580
473.672934	8597.831558
474.043479	8954.795661
474.413965	8890.858707
474.784393	8776.452241
475.154761	8934.121889
475.525070	9022.349643
475.895321	8849.342285
476.265513	9023.186475
476.635645	9191.465232
477.005719	9192.899440
477.375734	9308.604003
477.745691	9543.315085
478.115588	9674.518675
478.485427	9926.750288
478.855207	10459.086051
479.224928	11280.441247
479.594591	11910.008266
479.964194	11713.972917
480.333739	11654.141982
480.703226	11572.669374
481.072653	11658.003506
481.442022	11898.910166
481.811333	12084.222981
482.180584	11894.647870
482.549777	11607.995260
482.918912	11427.103536
483.287988	11445.239087
483.657005	11460.607045
484.025964	11143.677264
484.394864	11273.897830
484.763706	11239.257541
485.132489	10999.815336
485.501213	10964.486930
485.869879	11033.888495
486.238487	10882.749662
486.607036	10985.158182
486.975527	10768.736406
487.343959	10957.545261
487.712333	11005.718528
488.080648	10939.069433
488.448905	10981.841102
488.817104	10915.721328
489.185244	11185.375168
489.553326	11341.149343
489.921350	11877.223122
490.289315	12943.472531
490.657222	13288.753761
491.025070	13191.197352
491.392861	13064.598855
491.760593	12690.207482
492.128267	12331.668018
492.495883	12001.961433
492.863440	11667.037254
493.230939	11334.709269
493.598380	11269.217118
493.965763	11133.778959
494.333088	11039.970647
494.700354	10963.660181
495.067563	11022.984479
495.434713	10849.339415
495.801805	10983.890331
496.168839	10897.777341
496.535815	10841.477735
496.902733	10840.056130
497.269593	10768.212126
497.636395	10873.567200
498.003139	10854.604900
498.369825	10729.228883
498.736453	10878.089115
499.103023	10811.377006
499.469535	10839.239463
499.835989	10823.755559
500.202385	10784.845413
500.568723	10636.126333
500.935003	10859.293173
501.301226	10671.815182
501.667390	10925.312124
502.033497	11017.618171
502.399546	10881.171781
502.765537	10787.728953
503.131470	10863.505057
503.497345	11045.405011
503.863163	10649.644187
504.228923	10964.192023
504.594625	11027.702999
504.960269	10774.286716
505.325856	10993.836528
505.691385	10790.708275
506.056856	10936.788310
506.422270	10966.616818
506.787625	10857.087668
507.152924	10975.499331
507.518164	10957.686414
507.883347	10873.199196
508.248472	10799.124481
508.613540	11028.764162
508.978550	10909.422407
509.343503	10882.477439
509.708398	11003.205512
510.073236	11122.002823
510.438016	11121.377720
510.802738	11073.363250
511.167403	11124.213369
511.532010	11021.094047
511.896561	11247.023439
512.261053	11320.490694
512.625488	11191.999244
512.989866	11172.633652
513.354186	11167.887406
513.718449	11068.896788
514.082655	11255.459810
514.446803	11156.953143
514.810894	11276.156267
515.174927	11145.466874
515.538904	11162.901704
515.902822	11319.532875
516.266684	11201.322858
516.630488	11146.245732
516.994235	11205.060874
517.357925	11269.622931
517.721558	11353.953873
518.085133	11367.096162
518.448651	11383.142154
518.812112	11263.339133
519.175516	11278.863366
519.538863	11404.284753
519.902152	11312.064406
520.265385	11472.587347
520.628560	11383.379088
520.991678	11367.033147
521.354739	11421.951477
521.717743	11363.872344
522.080690	11338.583395
522.443580	11466.462345
522.806413	11426.967425
523.169189	11451.752258
523.531908	11520.841272
523.894569	11337.199599
524.257174	11339.752943
524.619722	11456.339708
524.982213	11405.114023
525.344647	11463.319186
525.707025	11410.966803
526.069345	11503.199754
526.431608	11417.908472
526.793815	11528.105574
527.155964	11320.941877
527.518057	11373.115299
527.880093	11323.245685
528.242072	11392.838814
528.603995	11293.238217
528.965860	11221.124511
529.327669	11265.393403
529.689421	11221.318595
530.051117	11193.259533
530.412755	11292.998762
530.774337	11194.376148
531.135862	11160.368525
531.497331	11187.883142
531.858743	11040.031141
532.220098	11207.447860
532.581396	11075.304095
532.942638	11061.471168
533.303824	11029.356498
533.664953	11036.146932
534.026025	10952.239447
534.387040	11051.262832
534.747999	11050.362986
535.108902	11115.335897
535.469748	10858.163954
535.830537	10969.074380
536.191270	10948.488828
536.551947	10975.821965
536.912567	10969.245779
537.273131	10892.315251
537.633638	10873.700791
537.994089	10863.956240
538.354483	10813.123765
538.714821	10960.640530
539.075103	10969.139915
539.435328	10936.866448
539.795497	10760.599983
540.155609	10922.607545
540.515665	11004.470842
540.875665	10741.408311
541.235609	10804.445419
541.595496	10803.734616
541.955328	10954.886053
542.315102	10845.092243
542.674821	10795.812443
543.034483	10791.275405
543.394090	10800.946858
543.753640	10721.289066
544.113134	10954.795312
544.472571	10802.771756
544.831953	10945.272572
545.191278	10753.688562
545.550548	10775.226891
545.909761	10921.921948
546.268918	10894.629141
546.628019	10976.890689
546.987064	10842.675009
547.346053	10766.097362
547.704986	10862.398524
548.063863	10849.720022
548.422684	10837.399442
548.781449	10755.331978
549.140158	10859.525066
549.498811	10732.084697
549.857408	10588.958777
550.215949	10818.210290
550.574434	10667.220170
550.932864	10771.821592
551.291237	10832.073463
551.649555	10778.591862
552.007817	10786.083016
552.366022	10748.072716
552.724173	10745.254711
553.082267	10731.855324
553.440305	10866.469255
553.798288	10666.456435
554.156215	10822.056690
554.514086	10796.263626
554.871902	10645.172684
555.229661	10685.075937
555.587365	10662.179016
555.945014	10556.032481
556.302606	10681.327839
556.660143	10573.222816
557.017625	10730.206867
557.375050	10629.832453
557.732421	10764.471590
558.089735	10674.731489
558.446994	10678.469505
558.804197	10716.187418
559.161345	10719.494415
559.518437	10567.299460
559.875474	10652.255505
560.232455	10680.390185
560.589381	10632.297577
560.946251	10631.138112
561.303065	10734.844728
561.659825	10667.923411
562.016528	10603.729358
562.373177	10483.500359
562.729770	10591.126473
563.086307	10504.143884
563.442789	10603.386560
563.799216	10480.112704
564.155587	10526.551813
564.511904	10481.163785
564.868164	10469.385129
565.224370	10487.132511
565.580520	10412.536037
565.936615	10418.938302
566.292654	10290.527511
566.648638	10415.538044
567.004567	10377.368947
567.360441	10351.291059
567.716260	10271.063616
568.072023	10365.892761
568.427732	10323.398354
568.783385	10226.691380
569.138982	10291.248396
569.494525	10310.883690
569.850013	10186.407519
570.205445	10275.653586
570.560823	10167.735085
570.916145	10080.571015
571.271412	10151.847889
571.626625	10093.415875
571.981782	10073.652031
572.336884	10047.367455
572.691931	10058.881450
573.046923	9997.744857
573.401860	9958.766656
573.756743	9895.079238
574.111570	9935.589951
574.466342	9921.583105
574.821059	9947.996230
575.175722	9842.487401
575.530330	9854.870995
575.884882	9844.473616
576.239380	9766.106358
576.593823	9748.588349
576.948211	9763.091748
577.302544	9642.933326
577.656823	9661.532663
578.011047	9661.772118
578.365216	9629.738106
578.719330	9553.694821
579.073389	9568.004136
579.427394	9511.530610
579.781344	9491.204678
580.135239	9440.183159
580.489080	9454.374008
580.842866	9354.468421
581.196597	9356.641158
581.550273	9393.847394
581.903895	9362.821612
582.257463	9433.415410
582.610975	9306.801790
582.964434	9336.496707
583.317837	9252.198532
583.671186	9236.228157
584.024481	9231.368485
584.377721	9156.414089
584.730906	9131.382239
585.084037	9168.202827
585.437113	9101.722611
585.790135	9113.672666
586.143103	9016.267491
586.496016	8993.627669
586.848874	9041.896718
587.201679	9038.645173
587.554428	8922.701155
587.907124	8973.977252
588.259765	8939.498280
588.612352	8943.309392
588.964884	8824.428902
589.317362	8833.354265
589.669786	8838.544133
590.022155	8880.993169
590.374470	8903.242302
590.726731	8842.153599
591.078937	8692.196916
591.431090	8798.998802
591.783188	8677.806943
592.135232	8664.611723
592.487222	8665.385540
592.839157	8723.867965
593.191038	8656.936566
593.542866	8595.575641
593.894639	8492.841967
594.246358	8542.882981
594.598022	8566.795694
594.949633	8466.587638
595.301190	8442.059904
595.652692	8470.686096
596.004141	8571.884739
596.355535	8354.295936
596.706876	8330.378181
597.058162	8268.452648
597.409395	8340.583997
597.760573	8404.967094
598.111698	8316.439391
598.462768	8297.219992
598.813785	8266.529447
599.164748	8234.445024
599.515657	8224.808858
599.866511	8133.427862
600.217312	8256.449660
600.568060	8117.034030
600.918753	8221.106131
601.269392	8191.683436
601.619978	8106.916434
601.970510	8168.174015
602.320988	8167.188470
602.671412	8225.554949
603.021783	8158.931060
603.372100	8127.968293
603.722363	8134.196638
604.072572	8106.732432
604.422728	8119.148794
604.772830	8051.625059
605.122878	8053.772590
605.472872	8056.308291
605.822813	8085.173938
606.172701	8023.571038
606.522534	8100.546936
606.872314	8102.379396
607.222041	8069.223727
607.571714	8127.403683
607.921333	8086.202333
608.270899	8089.640400
608.620411	8183.408382
608.969870	8083.528001
609.319276	8079.064059
609.668627	8098.795135
610.017926	8131.532388
610.367171	8175.536620
610.716362	8148.992425
611.065500	8140.692165
611.414585	8172.721136
611.763616	8160.546749
612.112594	8138.002709
612.461518	8153.534504
612.810389	8220.823826
613.159207	8157.748909
613.507971	8106.961805
613.856682	8221.476655
614.205340	8174.102412
614.553945	8258.332531
614.902496	8157.559866
615.250994	8208.493164
615.599439	8191.930453
615.947830	8207.709264
616.296169	8178.145418
616.644454	8185.203033
616.992686	8186.753188
617.340864	8245.071776
617.688990	8148.064852
618.037063	8245.341478
618.385082	8191.958179
618.733048	8275.301055
619.080961	8210.121456
619.428821	8228.287254
619.776628	8233.527534
620.124382	8188.315945
620.472083	8172.849685
620.819731	8198.700722
621.167326	8092.153415
621.514868	8105.068851
621.862357	7989.432344
622.209793	8001.707553
622.557176	7940.744880
622.904506	7911.188595
623.251783	7841.182092
623.599007	7800.590721
623.946179	7805.979714
624.293297	7761.413394
624.640363	7681.165786
624.987376	7659.337590
625.334336	7606.168540
625.681243	7558.302785
626.028097	7544.217801
626.374899	7522.659306
626.721647	7512.466093
627.068343	7447.273892
627.414987	7415.867503
627.761577	7371.142386
628.108115	7407.279898
628.454600	7301.302241
628.801032	7356.064295
629.147412	7309.499157
629.493739	7302.403733
629.840014	7239.714464
630.186236	7294.602547
630.532405	7176.359763
630.878521	7234.882518
631.224585	7186.764705
631.570597	7112.725278
631.916556	7143.584702
632.262462	7139.040102
632.608316	7103.605831
632.954117	7081.119764
633.299866	7061.164357
633.645562	7052.765795
633.991206	6974.857283
634.336797	6920.775784
634.682336	6877.477314
635.027823	6841.622107
635.373257	6832.472413
635.718639	6764.464727
636.063968	6777.740605
636.409245	6674.689338
636.754470	6668.440828
637.099642	6628.136803
637.444762	6574.380459
637.789829	6580.424803
638.134845	6522.461616
638.479808	6509.352095
638.824719	6517.170925
639.169577	6442.307270
639.514383	6466.386341
639.859137	6392.893880
640.203839	6403.500467
640.548489	6385.503548
640.893086	6364.068562
641.237632	6332.853737
641.582125	6359.531523
641.926566	6328.793088
642.270955	6340.649882
642.615292	6336.057391
642.959576	6348.090625
643.303809	6338.449418
643.647990	6343.460325
643.992118	6337.456311
644.336195	6283.858763
644.680219	6309.959337
645.024192	6295.866792
645.368112	6396.848665
645.711981	6413.328197
646.055797	6491.768551
646.399562	6447.214833
646.743274	6580.576037
647.086935	6628.305682
647.430544	6624.129086
647.774101	6644.245810
648.117606	6654.411297
648.461059	6645.092724
648.804460	6610.868331
649.147810	6514.395770
649.491108	6482.991902
649.834354	6460.049611
650.177548	6374.491147
650.520690	6290.049300
650.863781	6268.188336
651.206820	6285.555111
651.549807	6208.304470
651.892742	6148.408000
652.235626	6157.318240
652.578458	6143.865921
652.921238	6054.241767
653.263967	6089.164360
653.606644	6025.492067
653.949269	6031.493560
654.291843	5970.024251
654.634365	6022.235481
654.976836	5973.394262
655.319255	5977.749819
655.661622	5950.469615
656.003938	5943.215395
656.346203	5908.534777
656.688416	5937.786072
657.030577	5893.227313
657.372687	5861.503332
657.714746	5851.335325
658.056753	5899.150669
658.398708	5833.255227
658.740612	5823.435059
659.082465	5872.235949
659.424266	5867.245206
659.766016	5859.791860
660.107715	5839.619683
660.449362	5854.506211
660.790958	5848.855077
661.132503	5834.291184
661.473996	5868.066914
661.815438	5859.290266
662.156829	5856.913362
662.498168	5850.349779
662.839456	5825.832128
663.180693	5858.571901
663.521879	5863.519794
663.863013	5852.346076
664.204097	5872.450198
664.545129	5912.461836
664.886110	5907.881948
665.227040	5941.277071
665.567918	5905.081587
665.908746	5934.000166
666.249522	5939.046361
666.590248	5924.021202
666.930922	5951.417352
667.271545	5966.266071
667.612118	5968.741277
667.952639	5941.251865
668.293109	5963.823632
668.633528	5923.048259
668.973896	5924.157313
669.314213	5915.955355
669.654480	5897.471965
669.994695	5889.733794
670.334859	5876.941866
670.674973	5871.462132
671.015035	5868.969281
671.355047	5873.501278
671.695008	5857.709864
672.034918	5831.508467
672.374777	5843.592113
672.714585	5828.556871
673.054342	5829.867571
673.394049	5825.365821
673.733705	5854.909503
674.073310	5839.798644
674.412864	5803.956040
674.752368	5793.725019
675.091820	5795.542355
675.431223	5732.706892
675.770574	5732.127160
676.109875	5685.559501
676.449125	5692.052507
676.788324	5655.708309
677.127473	5600.996666
677.466571	5593.021561
677.805619	5582.432617
678.144616	5565.093568
678.483562	5547.961207
678.822458	5517.822669
679.161303	5508.236915
679.500098	5499.671994
679.838842	5480.641638
680.177535	5487.452237
680.516179	5499.442622
680.854771	5516.501886
681.193314	5596.263022
681.531805	5703.606832
681.870247	5854.826324
682.208638	5962.928827
682.546978	5972.643130
682.885268	5950.051199
683.223508	5863.678590
683.561697	5808.281350
683.899836	5777.905878
684.237925	5732.623713
684.575963	5696.657601
684.913951	5656.600593
685.251889	5716.615529
685.589776	5688.639646
685.927614	5654.765613
686.265401	5729.203291
686.603137	5711.332400
686.940824	5788.393998
687.278460	5812.916691
687.616046	5819.694523
687.953582	5889.819493
688.291068	5869.871648
688.628504	5934.519404
688.965889	5895.193363
689.303224	5839.236556
689.640510	5794.556809
689.977745	5717.117124
690.314930	5617.476198
690.652065	5557.534358
690.989150	5468.794927
691.326185	5391.181322
691.663170	5336.751984
692.000105	5258.414974
692.336990	5179.967058
692.673825	5159.003420
693.010610	5090.050518
693.347345	5019.335732
693.684030	5011.174104
694.020665	4966.779183
694.357251	4875.851891
694.693786	4884.474785
695.030272	4850.015977
695.366707	4815.438703
695.703093	4781.746152
696.039429	4804.393535
696.375716	4788.576915
696.711952	4764.394500
697.048139	4748.852623
697.384276	4727.289087
697.720363	4741.810131
698.056400	4750.150720
698.392388	4699.167010
698.728326	4678.712529
699.064214	4655.903828
699.400053	4652.690092
699.735842	4615.861943
700.071581	4598.674129
700.407270	4564.694232
700.742910	4547.458527
701.078501	4494.004652
701.414042	4490.987521
701.749533	4463.566165
702.084974	4401.426382
702.420366	4454.459320
702.755709	4398.290784
703.091002	4338.729552
703.426246	4388.178230
703.761440	4348.607693
704.096584	4307.509686
704.431679	4328.306966
704.766725	4315.774658
705.101721	4302.564314
705.436668	4329.476514
705.771565	4279.422897
706.106413	4306.256959
706.441212	4339.740303
706.775961	4346.797918
707.110661	4324.712623
707.445311	4354.798229
707.779913	4380.024163
708.114465	4391.076893
708.448967	4415.874329
708.783421	4472.425993
709.117825	4511.699102
709.452180	4518.343342
709.786485	4562.198860
710.120742	4646.786901
710.454949	4634.494048
710.789107	4698.032751
711.123216	4774.665851
711.457275	4766.330303
711.791286	4835.900747
712.125247	4851.082182
712.459159	4757.009210
712.793023	4834.436292
713.126837	4788.576915
713.460602	4778.814721
713.794318	4701.359912
714.127985	4710.418866
714.461602	4626.297132
714.795171	4595.319241
715.128691	4526.290722
715.462162	4473.376250
715.795584	4421.054114
716.128957	4404.241866
716.462281	4357.263354
716.795556	4325.327644
717.128782	4289.437149
717.461960	4221.235379
717.795088	4230.775763
718.128167	4193.004917
718.461198	4131.402017
718.794180	4128.347078
719.127113	4105.210703
719.459997	4086.296293
719.792833	4042.718039
720.125619	4035.521792
720.458357	3998.607943
720.791046	4003.581041
721.123686	3975.343018
721.456278	3936.400104
721.788821	3951.344605
722.121315	3923.615738
722.453761	3895.818816
722.786158	3911.030497
723.118506	3934.340793
723.450805	3886.969070
723.783056	3906.541350
724.115259	3923.172117
724.447412	3930.237294
724.779518	3925.619597
725.111574	3927.447015
725.443582	3954.583546
725.775542	3940.629632
726.107453	3990.766428
726.439315	3992.566120
726.771129	4003.606247
727.102895	4040.706618
727.434612	4086.596242
727.766281	4097.013786
728.097901	4097.210391
728.429473	4107.393522
728.760996	4108.646249
729.092471	4102.480918
729.423897	4089.469700
729.755276	4096.865072
730.086606	4092.509515
730.417887	4131.732213
730.749120	4196.576575
731.080305	4255.427005
731.411442	4282.210655
731.742530	4253.992797
732.073570	4256.838528
732.404562	4310.231909
732.735506	4300.847801
733.066401	4270.137092
733.397249	4204.440775
733.728048	4121.443218
734.058798	4044.288358
734.389501	3976.792349
734.720156	3910.919592
735.050762	3867.306050
735.381320	3861.218856
735.711831	3814.804953
736.042293	3777.853295
736.372707	3804.238694
736.703073	3773.144857
737.033391	3765.610853
737.363661	3781.929068
737.693883	3806.255156
738.024056	3817.990962
738.354182	3813.595076
738.684260	3872.392574
739.014290	3896.355699
739.344272	3889.673649
739.674207	3933.871966
740.004093	3936.604271
740.333931	3929.927263
740.663722	3931.432047
740.993464	3927.507509
741.323159	3905.699477
741.652806	3872.412738
741.982405	3847.101105
742.311956	3814.507525
742.641460	3806.605516
742.970915	3782.700365
743.300323	3742.681165
743.629683	3711.599931
743.958996	3699.944783
744.288260	3675.840506
744.617477	3644.151813
744.946647	3624.947537
745.275768	3601.443157
745.604842	3598.695729
745.933869	3555.800551
746.262847	3545.176319
746.591778	3578.168150
746.920662	3552.836352
747.249498	3522.501209
747.578286	3563.944535
747.907027	3581.492791
748.235720	3581.308789
748.564365	3605.932305
748.892963	3608.914147
749.221514	3589.452773
749.550017	3563.594174
749.878473	3562.396900
750.206881	3534.579813
750.535242	3529.296684
750.863555	3533.173332
751.191821	3526.675284
751.520039	3509.111904
751.848210	3487.543328
752.176334	3519.012730
752.504411	3523.091024
752.832440	3486.154490
753.160421	3469.470791
753.488356	3475.086636
753.816243	3488.670025
754.144082	3446.536062
754.471875	3435.354782
754.799620	3448.837348
755.127318	3441.583128
755.454969	3443.377779
755.782572	3446.057152
756.110129	3423.092176
756.437638	3414.214704
756.765100	3428.123247
757.092515	3437.530040
757.419882	3442.891307
757.747203	3415.686721
758.074477	3417.922472
758.401703	3431.352106
758.728882	3456.920838
759.056014	3461.203299
759.383099	3464.366623
759.710138	3460.308494
760.037129	3479.366576
760.364073	3507.919671
760.690970	3495.886437
761.017820	3472.659321
761.344623	3488.254130
761.671379	3532.762478
761.998088	3585.503029
762.324751	3707.503993
762.651366	3949.464254
762.977935	4407.211106
763.304456	4842.542467
763.630931	4929.194860
763.957359	4580.142848
764.283740	4244.545674
764.610074	4054.259761
764.936362	3862.027962
765.262602	3708.053479
765.588796	3598.773867
765.914943	3511.317409
766.241044	3427.896395
766.567097	3399.673495
766.893104	3356.102803
767.219064	3323.380673
767.544978	3297.184317
767.870845	3247.392841
768.196665	3226.688822
768.522438	3234.777353
768.848165	3228.536405
769.173846	3194.758153
769.499479	3179.748118
769.825066	3161.408400
770.150607	3144.485247
770.476101	3157.352792
770.801548	3155.361536
771.126949	3112.297479
771.452303	3092.763008
771.777611	3101.784153
772.102872	3106.079216
772.428087	3081.407809
772.753256	3069.455233
773.078378	3063.541960
773.403453	3035.208155
773.728482	3022.645599
774.053465	3039.026829
774.378401	3028.521064
774.703291	2996.822289
775.028135	2997.457474
775.352932	2994.921774
775.677683	2983.463231
776.002388	2981.598004
776.327046	2980.935092
776.651658	2972.813793
776.976224	2957.634879
777.300743	2961.332566
777.625216	2953.135649
777.949643	2946.773713
778.274024	2945.178188
778.598359	2934.095211
778.922647	2942.007302
779.246889	2940.623506
779.571086	2926.336876
779.895236	2917.179620
780.219339	2931.572114
780.543397	2940.109308
780.867409	2942.035029
781.191374	2936.431786
781.515294	2937.573608
781.839167	2936.651076
782.162995	2926.505754
782.486776	2935.252156
782.810511	2931.133533
783.134201	2916.070566
783.457844	2922.722368
783.781441	2915.422778
784.104993	2895.853018
784.428498	2898.665982
784.751958	2911.828435
785.075372	2909.171747
785.398739	2890.494272
785.722061	2907.248547
786.045337	2915.805905
786.368568	2900.798390
786.691752	2895.079201
787.014891	2939.738783
787.337983	2970.603248
787.661030	2997.954028
787.984031	3060.623132
788.306987	3107.508383
788.629897	3098.993874
788.952760	3083.210022
789.275579	3067.285017
789.598351	3009.798219
789.921078	2967.134934
790.243759	2957.206381
790.566395	2939.302723
790.888984	2919.385124
791.211529	2902.386354
791.534027	2893.803789
791.856480	2883.232490
792.178888	2870.382588
792.501249	2864.489480
792.823566	2858.966896
793.145836	2856.539580
793.468062	2851.669825
793.790241	2850.071780
794.112375	2854.828108
794.434464	2866.364789
794.756507	2873.296375
795.078505	2877.548589
795.400457	2892.142729
795.722364	2927.004828
796.044226	2949.763118
796.366042	2950.093313
796.687812	2942.745831
797.009538	2959.734520
797.331218	2947.915535
797.652852	2929.716969
797.974442	2915.662232
798.295986	2911.717529
798.617484	2909.227199
798.938938	2893.181207
799.260346	2876.424411
799.581709	2873.906355
799.903026	2866.266486
800.224299	2862.740199
800.545526	2853.167048
800.866708	2836.790860
801.187845	2830.055878
801.508936	2830.859942
801.829983	2836.768175
802.150984	2824.135043
802.471940	2812.336222
802.792851	2812.419402
803.113717	2811.073413
803.434538	2816.651450
803.755314	2808.651139
804.076045	2803.844399
804.396731	2801.359110
804.717372	2802.390026
805.037967	2800.378606
805.358518	2804.986220
805.679024	2814.846717
805.999485	2812.487457
806.319901	2817.616831
806.640272	2807.728608
806.960598	2813.503250
807.280879	2823.204950
807.601115	2827.729386
807.921306	2816.553148
808.241453	2813.107519
808.561554	2817.082469
808.881611	2820.099599
809.201623	2813.783034
809.521590	2814.730771
809.841513	2811.108702
810.161390	2814.350163
810.481223	2809.097281
810.801011	2799.234264
811.120755	2794.417441
811.440453	2796.426341
811.760107	2796.116310
812.079716	2796.350724
812.399281	2783.455452
812.718801	2782.837911
813.038276	2774.585542
813.357707	2780.415636
813.677093	2788.121040
813.996434	2780.924793
814.315731	2777.814401
814.634983	2775.440017
814.954191	2773.587393
815.273354	2785.817233
815.592473	2795.269396
815.911547	2796.501958
816.230577	2803.788946
816.549562	2810.163485
816.868502	2811.519556
817.187399	2823.114209
817.506250	2836.201045
817.825058	2829.738286
818.143821	2842.560460
818.462539	2855.090248
818.781213	2880.779968
819.099843	2916.148704
819.418429	2969.350521
819.736970	3027.757329
820.055466	3098.895572
820.373919	3198.576827
820.692327	3331.421313
821.010691	3488.642299
821.329011	3917.006785
821.647286	4779.303712
821.965517	6120.845492
822.283704	6859.969386
822.601847	6835.519790
822.919945	6186.808990
823.237999	5678.012894
823.556010	5128.368328
823.873976	4592.617183
824.191897	4201.647976
824.509775	3918.015016
824.827609	3667.681398
825.145398	3552.382648
825.463144	3537.155843
825.780845	3623.662043
826.098502	3725.485789
826.416116	3995.772294
826.733685	4301.230929
827.051210	4357.094475
827.368692	4249.904421
827.686129	3987.164523
828.003522	3680.012061
828.320872	3437.628343
828.638177	3250.568767
828.955439	3125.046557
829.272656	3047.727860
829.589830	2986.566061
829.906960	2938.982610
830.224046	2894.829664
830.541088	2863.123327
830.858086	2849.222345
831.175041	2833.761126
831.491952	2836.962259
831.808819	2844.551716
832.125642	2872.908207
832.442421	2910.832807
832.759157	2986.792913
833.075849	3152.803150
833.392497	3416.689910
833.709101	3615.175261
834.025662	3562.575861
834.342179	3412.490629
834.658653	3244.534506
834.975083	3105.426387
835.291469	3013.944568
835.607811	2935.042948
835.924110	2878.519011
836.240366	2832.339521
836.556578	2792.484159
836.872746	2773.214348
837.188871	2750.176275
837.504952	2738.138000
837.820990	2731.012329
838.136984	2715.921635
838.452935	2708.478371
838.768842	2707.117259
839.084706	2723.934549
839.400526	2797.202679
839.716303	2926.001639
840.032037	2999.612567
840.347727	2985.782162
840.663373	2926.256217
840.978977	2853.250227
841.294537	2786.749846
841.610054	2742.065058
841.925527	2721.146791
842.240957	2700.714994
842.556344	2682.241686
842.871687	2668.887669
843.186987	2655.586585
843.502244	2653.073570
843.817458	2649.585091
844.132629	2640.478247
844.447756	2631.499952
844.762840	2623.545011
845.077881	2626.662965
845.392879	2625.455608
845.707833	2622.438478
846.022745	2613.825666
846.337613	2618.410596
846.652438	2615.499329
846.967221	2613.745008
847.281960	2614.584360
847.596656	2612.232662
847.911309	2614.899432
848.225919	2611.214349
848.540485	2609.233175
848.855009	2609.543206
849.169490	2608.406426
849.483928	2610.511108
849.798323	2606.894080
850.112675	2603.972731
850.426984	2605.842999
850.741251	2603.463575
851.055474	2603.761003
851.369654	2608.335850
851.683792	2606.974738
851.997887	2604.862495
852.311938	2602.551126
852.625947	2605.336363
852.939914	2610.064966
853.253837	2607.740994
853.567718	2604.292844
853.881555	2603.861826
854.195350	2604.507093
854.509103	2607.032712
854.822812	2601.552977
855.136479	2602.775457
855.450103	2603.231682
855.763685	2609.303751
856.077224	2604.098760
856.390720	2601.137082
856.704173	2606.112701
857.017584	2609.344081
857.330953	2608.509770
857.644278	2609.616303
857.957561	2611.292487
858.270802	2608.759307
858.584000	2606.647063
858.897155	2611.184102
859.210268	2608.865171
859.523339	2607.078082
859.836367	2603.120776
860.149352	2604.237392
860.462295	2605.379213
860.775195	2602.896445
861.088054	2599.564242
861.400869	2598.767740
861.713642	2596.663058
862.026373	2600.149016
862.339062	2601.230343
862.651708	2605.563215
862.964312	2607.554471
863.276873	2603.360231
863.589392	2606.508432
863.901869	2612.711571
864.214303	2617.208281
864.526696	2618.430760
864.839045	2618.907149
865.151353	2625.747995
865.463619	2621.556276
865.775842	2621.967130
866.088023	2621.309259
866.400162	2621.357150
866.712258	2621.684825
867.024313	2619.454115
867.336325	2617.130143
867.648296	2617.969495
867.960224	2624.212964
868.272110	2621.185751
868.583954	2614.843979
868.895755	2617.689711
869.207515	2620.585854
869.519233	2627.547687
869.830909	2624.505351
870.142542	2621.619290
870.454134	2622.259517
870.765684	2624.782614
871.077191	2630.121196
871.388657	2634.567494
871.700081	2628.266052
872.011463	2630.559777
872.322803	2632.440127
872.634101	2637.304840
872.945357	2643.840696
873.256571	2648.740698
873.567744	2641.514204
873.878874	2638.776857
874.189963	2642.792136
874.501010	2646.162148
874.812015	2652.246820
875.122979	2649.078455
875.433900	2645.466468
875.744780	2643.283649
876.055618	2649.065852
876.366415	2651.551141
876.677169	2653.527273
876.987882	2646.363794
877.298554	2645.184164
877.609183	2654.843015
877.919771	2659.644714
878.230317	2666.873728
878.540822	2673.782630
878.851285	2686.950123
879.161707	2709.166488
879.472087	2740.426683
879.782425	2785.718930
880.092722	2890.141391
880.402977	3065.984399
880.713191	3319.209118
881.023363	3599.918208
881.333494	3786.138432
881.643583	3951.795788
881.953631	3941.925209
882.263637	3766.614043
882.573602	3555.485478
882.883526	3427.356992
883.193408	3318.294149
883.503248	3221.055332
883.813048	3114.666822
884.122806	3009.261336
884.432522	2932.202258
884.742197	2869.896117
885.051831	2836.805983
885.361424	2806.294400
885.670975	2771.381889
885.980485	2748.490009
886.289954	2726.946638
886.599382	2718.071687
886.908768	2707.671786
887.218113	2690.978005
887.527417	2680.714216
887.836680	2672.514779
888.145901	2666.916578
888.455082	2658.318890
888.764221	2648.586943
889.073319	2644.024698
889.382376	2642.013278
889.691392	2640.831127
890.000366	2641.675521
890.309300	2642.431694
890.618193	2642.661066
890.927044	2646.585605
891.235855	2642.053607
891.544625	2647.475368
891.853353	2643.951602
892.162041	2652.448467
892.470687	2669.507731
892.779293	2679.453928
893.087858	2690.287367
893.396381	2710.235213
893.704864	2749.243662
894.013306	2812.842858
894.321707	2898.686147
894.630068	2946.383024
894.938387	2963.654017
895.246665	2952.994497
895.554903	2911.667118
895.863100	2869.621374
896.171256	2817.926862
896.479371	2763.598347
896.787446	2729.568038
897.095480	2711.369473
897.403473	2706.857640
897.711425	2692.071936
898.019336	2674.715243
898.327207	2663.130672
898.635038	2662.518171
898.942827	2658.941473
899.250576	2653.938127
899.558284	2640.543782
899.865952	2638.676034
900.173579	2635.898358
900.481165	2632.939201
900.788711	2625.115330
901.096216	2622.440998
901.403681	2617.276336
901.711105	2618.597118
902.018489	2616.051336
902.325832	2619.350771
902.633135	2624.086935
902.940397	2633.846609
903.247619	2669.290962
903.554800	2731.216495
903.861941	2850.280987
904.169041	2970.210038
904.476101	3026.038296
904.783121	3018.612676
905.090100	2964.082515
905.397039	2889.969992
905.703938	2821.301915
906.010796	2767.419542
906.317614	2720.740978
906.624391	2685.659588
906.931129	2662.931546
907.237826	2642.459420
907.544483	2628.931484
907.851099	2614.738115
908.157675	2606.594131
908.464211	2600.685899
908.770707	2589.996132
909.077163	2587.243662
909.383578	2583.051943
909.689954	2582.699062
909.996289	2579.172775
910.302584	2581.640420
910.608839	2582.187385
910.915054	2579.384503
911.221229	2580.238979
911.527363	2583.089751
911.833458	2581.894998
912.139513	2579.737384
912.445527	2584.352560
912.751502	2590.071749
913.057436	2593.963520
913.363331	2601.648759
913.669186	2608.524893
913.975000	2620.893364
914.280775	2635.248050
914.586510	2656.239414
914.892205	2688.212932
915.197859	2748.527818
915.503475	2825.934735
915.809050	2887.267933
916.114585	2904.939698
916.420081	2916.602408
916.725536	2921.600712
917.030952	2894.801938
917.336328	2851.838704
917.641665	2808.013433
917.946961	2761.977616
918.252218	2730.540981
918.557435	2707.185315
918.862612	2685.813343
919.167750	2673.936385
919.472848	2654.076759
919.777906	2639.986734
920.082925	2631.588172
920.387904	2619.970833
920.692843	2615.567385
920.997743	2615.395986
921.302603	2604.844851
921.607423	2598.906372
921.912204	2595.160794
922.216946	2594.016452
922.521647	2590.790114
922.826310	2588.813982
923.130932	2586.921028
923.435516	2581.103537
923.740059	2576.690007
924.044564	2576.715212
924.349028	2575.843093
924.653454	2566.703481
924.957840	2563.499827
925.262186	2564.147616
925.566493	2564.911351
925.870761	2561.064950
926.174989	2559.731565
926.479178	2558.715773
926.783328	2558.297357
927.087438	2557.299208
927.391509	2559.580330
927.695541	2553.914073
927.999533	2555.665874
928.303486	2552.492468
928.607400	2555.486913
928.911275	2553.152859
929.215110	2553.167983
929.518906	2554.574465
929.822663	2552.878116
930.126381	2553.367108
930.430060	2552.542880
930.733699	2555.600339
931.037299	2551.587581
931.340861	2553.732592
931.644383	2554.657644
931.947866	2552.144628
932.251309	2552.333672
932.554714	2550.118085
932.858080	2555.557490
933.161407	2550.405430
933.464694	2552.255534
933.767943	2552.570606
934.071153	2547.726057
934.374323	2548.285625
934.677455	2552.658826
934.980548	2552.331151
935.283602	2552.875596
935.586617	2547.746222
935.889593	2550.007179
936.192530	2548.898125
936.495428	2549.550955
936.798287	2550.705379
937.101108	2551.902653
937.403890	2555.381049
937.706632	2558.511606
938.009336	2560.215516
938.312002	2564.082081
938.614628	2565.949828
938.917216	2570.501990
939.219765	2568.969479
939.522275	2569.733214
939.824747	2571.389233
940.127179	2565.397822
940.429573	2560.162584
940.731929	2560.767522
941.034246	2560.903633
941.336524	2560.898592
941.638763	2563.358675
941.940964	2561.125444
942.243126	2559.411452
942.545250	2560.276010
942.847335	2558.859445
943.149381	2558.062943
943.451389	2556.250648
943.753359	2554.529094
944.055290	2554.309804
944.357182	2553.593960
944.659036	2553.737633
944.960851	2555.164280
945.262628	2552.258054
945.564367	2551.285112
945.866067	2553.840977
946.167729	2554.163611
946.469352	2553.762839
946.770937	2553.624207
947.072484	2550.065152
947.373992	2555.517160
947.675462	2552.207643
947.976893	2550.707900
948.278286	2551.549772
948.579641	2551.973229
948.880958	2549.719833
949.182236	2551.063301
949.483476	2546.758156
949.784678	2549.424926
950.085841	2549.319062
950.386967	2549.145142
950.688054	2550.549103
950.989103	2548.560368
951.290114	2547.869730
951.591087	2554.435833
951.892021	2552.799978
952.192917	2556.679146
952.493776	2554.728220
952.794596	2556.787531
953.095378	2559.058571
953.396122	2558.113355
953.696828	2556.227963
953.997496	2553.672098
954.298126	2553.783003
954.598718	2551.456511
954.899272	2552.144628
955.199788	2549.616490
955.500266	2549.734957
955.800706	2543.592311
956.101108	2541.333874
956.401472	2544.172044
956.701798	2542.374872
957.002087	2539.614841
957.302337	2538.583925
957.602550	2542.362269
957.902724	2539.057793
958.202861	2542.037115
958.502960	2540.610468
958.803022	2542.276570
959.103045	2537.041332
959.403031	2539.506456
959.702979	2538.407484
960.002889	2539.125849
960.302762	2539.254398
960.602596	2539.549306
960.902393	2535.463450
961.202153	2537.663914
961.501875	2538.296579
961.801559	2539.211548
962.101205	2536.600231
962.400814	2537.159799
962.700385	2536.209541
962.999918	2536.852288
963.299414	2534.397246
963.598873	2537.681558
963.898293	2537.507638
964.197677	2535.627288
964.497022	2537.240457
964.796331	2538.094933
965.095601	2536.030580
965.394835	2536.297761
965.694030	2536.108718
965.993189	2537.989068
966.292309	2532.365661
966.591393	2535.919675
966.890439	2534.742565
967.189447	2534.982020
967.488419	2535.329860
967.787353	2533.741896
968.086249	2537.371527
968.385108	2536.166691
968.683930	2536.839685
968.982714	2534.493028
969.281462	2535.687782
969.580172	2538.866229
969.878844	2535.644932
970.177480	2536.713657
970.476078	2537.671476
970.774639	2537.928575
971.073162	2535.808769
971.371649	2534.346835
971.670098	2532.685775
971.968510	2535.604603
972.266885	2530.996988
972.565223	2537.159799
972.863524	2537.379089
973.161788	2537.779861
973.460014	2537.384130
973.758204	2537.343801
974.056356	2536.935467
974.354471	2534.503111
974.652550	2535.483615
974.950591	2534.475384
975.248595	2533.676361
975.546563	2534.939170
975.844493	2535.695343
976.142386	2537.001002
976.440243	2538.339429
976.738062	2537.139634
977.035845	2534.450178
977.333590	2532.746268
977.631299	2535.450848
977.928971	2534.639222
978.226606	2535.029911
978.524204	2536.620395
978.821765	2534.331711
979.119290	2531.554036
979.416777	2535.034952
979.714228	2535.077802
980.011642	2534.205683
980.309020	2538.508307
980.606360	2534.931609
980.903664	2535.350024
981.200931	2535.700385
981.498162	2535.453368
981.795356	2539.965201
982.092513	2539.445962
982.389633	2541.598535
982.686717	2546.037271
982.983764	2545.457538
983.280775	2551.890050
983.577749	2546.841335
983.874686	2548.557848
984.171587	2543.095757
984.468451	2544.802188
984.765279	2539.924872
985.062070	2542.102650
985.358824	2537.147196
985.655543	2537.245498
985.952224	2536.015457
986.248869	2534.858512
986.545478	2531.990095
986.842050	2530.623943
987.138586	2529.313243
987.435086	2533.099149
987.731549	2529.953469
988.027975	2533.197452
988.324366	2531.488501
988.620719	2534.530837
988.917037	2531.551515
989.213318	2532.285003
989.509563	2532.673172
989.805772	2534.654345
990.101944	2532.612678
990.398080	2535.085364
990.694180	2529.759385
990.990244	2532.592513
991.286271	2531.352389
991.582262	2533.411701
991.878217	2531.044879
992.174136	2534.573687
992.470019	2530.671834
992.765865	2534.838347
993.061676	2531.433048
993.357450	2530.510517
993.653188	2530.366844
993.948890	2533.517565
994.244556	2534.409849
994.540186	2535.032432
994.835780	2533.504962
995.131337	2536.910262
995.426859	2533.953625
995.722345	2532.695857
996.017795	2536.106197
996.313208	2537.215251
996.608586	2538.689789
996.903928	2535.778523
997.199234	2534.606454
997.494504	2534.979500
997.789738	2536.625436
998.084936	2534.427493
998.380099	2532.469005
998.675225	2535.539068
998.970316	2531.861546
999.265371	2534.119983
999.560390	2532.947915
999.855373	2534.939170
1000.150320	2534.309026
1000.445232	2532.905065
1000.740108	2532.400949
1001.034948	2536.201979
1001.329752	2533.625950
1001.624521	2532.101001
1001.919254	2526.096987
1002.213951	2529.613191
1002.508613	2529.779549
1002.803239	2528.178983
1003.097829	2526.570855
1003.392384	2534.263656
1003.686903	2529.587986
1003.981386	2531.612009
1004.275834	2531.450692
1004.570246	2531.629653
1004.864623	2532.922709
1005.158964	2532.239632
1005.453270	2530.336597
1005.747540	2533.283151
1006.041775	2529.514889
1006.335974	2531.317101
1006.630138	2530.959179
1006.924266	2531.589324
1007.218359	2529.845084
1007.512416	2532.123686
1007.806438	2532.292565
1008.100425	2529.996319
1008.394376	2529.088911
1008.688292	2530.659231
1008.982172	2530.112266
1009.276017	2530.644107
1009.569827	2529.517409
1009.863602	2533.177287
1010.157341	2529.225023
1010.451045	2530.487832
1010.744714	2528.562111
1011.038347	2533.885569
1011.331945	2529.923222
1011.625508	2530.076978
1011.919036	2528.554549
1012.212528	2530.520599
1012.505986	2528.599919
1012.799408	2530.076978
1013.092795	2530.170239
1013.386147	2531.982534
1013.679464	2530.543284
1013.972745	2532.463964
1014.265992	2529.593027
1014.559204	2531.516227
1014.852380	2529.277955
1015.145521	2532.201824
1015.438628	2529.882893
1015.731699	2530.187883
1016.024736	2530.031607
1016.317737	2531.596885
1016.610703	2532.350538
1016.903635	2528.851977
1017.196531	2526.311236
1017.489393	2528.247039
1017.782219	2522.905936
1018.075011	2528.993129
1018.367768	2531.498583
1018.660490	2530.495393
1018.953177	2530.495393
1019.245829	2530.495393
