Dividing Wavelength (nm)	Counts (n)	Blue Motor Position (mm): 0.000000	Red Motor Position (mm): 19.800000	
326.493990	2128.236522
326.888308	2128.236522
327.282561	2128.236522
327.676750	2094.286872
328.070874	2091.415934
328.464933	2096.545308
328.858929	2103.602924
329.252859	2112.576178
329.646726	2127.404732
330.040528	2135.745321
330.434265	2152.436581
330.827938	2172.449962
331.221547	2190.325893
331.615091	2208.413553
332.008571	2228.724362
332.401986	2247.290932
332.795338	2267.258942
333.188625	2287.345420
333.581847	2305.911989
333.975006	2323.694660
334.368100	2341.373986
334.761129	2360.449712
335.154095	2377.115767
335.546996	2393.509599
335.939833	2406.954357
336.332606	2424.263158
336.725315	2435.111721
337.117960	2446.466920
337.510540	2455.172993
337.903056	2465.560291
338.295508	2472.078503
338.687896	2479.859523
339.080220	2489.281440
339.472480	2495.358551
339.864676	2500.664365
340.256807	2506.738956
340.648875	2505.231651
341.040879	2511.391941
341.432818	2513.852024
341.824694	2513.259688
342.216506	2515.462673
342.608253	2515.455111
342.999937	2513.128618
343.391557	2513.521828
343.783113	2512.017044
344.174605	2515.182888
344.566033	2509.234327
344.957397	2507.391785
345.348697	2506.686024
345.739934	2504.903976
346.131106	2501.876763
346.522215	2504.364572
346.913260	2500.329129
347.304241	2499.898110
347.695159	2497.349807
348.086012	2497.352327
348.476802	2492.381750
348.867528	2493.647079
349.258191	2487.806902
349.648789	2492.124651
350.039324	2486.453353
350.429796	2488.673981
350.820203	2487.842191
351.210548	2484.396562
351.600828	2482.743063
351.991045	2486.256748
352.381198	2481.664257
352.771288	2481.999493
353.161314	2480.184678
353.551276	2483.910091
353.941175	2482.438074
354.331010	2482.995121
354.720782	2484.870430
355.110490	2481.389514
355.500135	2482.604432
355.889717	2485.669453
356.279235	2481.510501
356.668689	2483.582416
357.058080	2485.303970
357.447408	2482.483444
357.836672	2481.707106
358.225873	2484.290698
358.615010	2480.177116
359.004084	2488.192551
359.393095	2487.091059
359.782043	2487.547283
360.170927	2486.939824
360.559748	2487.464104
360.948505	2490.793786
361.337199	2489.576348
361.725830	2490.977788
362.114398	2491.885196
362.502903	2489.699856
362.891344	2494.914929
363.279722	2491.370998
363.668037	2493.546256
364.056289	2492.555669
364.444478	2495.650938
364.832603	2497.513644
365.220665	2497.705208
365.608665	2496.260917
365.996601	2499.877945
366.384474	2498.531957
366.772284	2501.486073
367.160031	2502.486743
367.547715	2503.232833
367.935336	2503.394150
368.322893	2506.905314
368.710388	2510.053514
369.097820	2518.484844
369.485189	2520.939886
369.872495	2526.747295
370.259738	2536.688451
370.646918	2539.508976
371.034035	2545.230686
371.421090	2556.621173
371.808081	2568.372103
372.195010	2577.299986
372.581875	2590.764908
372.968678	2601.507607
373.355418	2613.313989
373.742096	2634.388533
374.128710	2644.493526
374.515262	2659.954745
374.901751	2677.896211
375.288177	2691.600588
375.674540	2712.889381
376.060841	2730.140209
376.447079	2750.022520
376.833254	2771.749893
377.219367	2782.661470
377.605417	2821.203612
377.991404	2829.322390
378.377329	2852.675536
378.763191	2870.871580
379.148991	2908.203845
379.534727	2930.752926
379.920402	2959.641258
380.306013	2971.671972
380.691563	3022.648120
381.077049	3044.196532
381.462474	3063.055488
381.847835	3100.733072
382.233134	3121.046402
382.618371	3120.771659
383.003545	3186.830939
383.388657	3198.307126
383.773706	3229.567321
384.158693	3246.253540
384.543618	3275.235133
384.928480	3311.009682
385.313280	3352.831094
385.698017	3352.818491
386.082692	3403.560225
386.467305	3413.261926
386.851856	3443.085392
387.236344	3465.775625
387.620770	3496.017507
388.005133	3521.941641
388.389435	3549.970456
388.773674	3561.701221
389.157851	3606.209568
389.541965	3619.765231
389.926018	3583.935230
390.310008	3652.646157
390.693936	3671.847912
391.077802	3713.051783
391.461606	3704.144064
391.845348	3763.992643
392.229027	3768.310391
392.612645	3776.371196
392.996200	3856.054194
393.379694	3894.530801
393.763125	3959.213846
394.146494	3926.796706
394.529801	3987.673680
394.913047	4038.566649
395.296230	4005.393336
395.679351	4056.316551
396.062410	4079.286569
396.445408	4063.943817
396.828343	4092.451542
397.211217	4118.216879
397.594028	4039.012791
397.976778	4103.121144
398.359466	4128.410092
398.742092	4158.762880
399.124656	4081.245057
399.507158	4161.137263
399.889598	4186.469061
400.271977	4250.889966
400.654294	4219.992734
401.036549	4229.858273
401.418742	4199.230742
401.800874	4300.341165
402.182944	4318.257426
402.564952	4383.237899
402.946898	4371.696177
403.328783	4364.893140
403.710606	4279.511117
404.092367	4469.761743
404.474067	4430.617183
404.855705	4445.952373
405.237282	4371.103842
405.618797	4479.425635
406.000250	4513.287065
406.381642	4593.068366
406.762972	4554.853899
407.144240	4567.630704
407.525447	4565.226073
407.906593	4624.784785
408.287677	4660.808871
408.668700	4590.600721
409.049661	4642.620388
409.430560	4677.021222
409.811399	4603.871559
410.192176	4758.145990
410.572891	4689.853479
410.953545	4789.907780
411.334138	4669.910674
411.714669	4728.183892
412.095139	4620.514928
412.475547	4747.577211
412.855894	4720.866657
413.236180	4720.675093
413.616405	4665.555117
413.996568	4739.798710
414.376670	4669.913195
414.756711	4618.732880
415.136691	4633.871465
415.516609	4691.529662
415.896466	4714.345925
416.276262	4726.752204
416.655997	4691.128891
417.035670	4842.469370
417.415283	4902.043206
417.794834	4828.462524
418.174324	4763.565230
418.553753	4662.152338
418.933121	4804.257424
419.312428	4832.921425
419.691674	4750.370010
420.070859	4827.361032
420.449983	4724.090475
420.829045	4788.095485
421.208047	4683.541954
421.586988	4703.444429
421.965867	4675.778577
422.344686	4738.172938
422.723444	4597.867544
423.102141	4425.069393
423.480777	4603.911888
423.859352	4396.274323
424.237866	4535.548801
424.616319	4487.955267
424.994712	4519.149927
425.373044	4392.309455
425.751314	4435.938121
426.129524	4262.958489
426.507673	4337.519675
426.885762	4342.739789
427.263789	4241.281527
427.641756	4138.913337
428.019662	4149.088906
428.397508	4108.777319
428.775292	4023.695245
429.153016	4023.322199
429.530679	3942.646094
429.908282	3927.767128
430.285824	3828.897498
430.663305	3892.511819
431.040726	3732.203127
431.418086	3685.459028
431.795385	3680.748069
432.172624	3638.788025
432.549802	3587.963112
432.926920	3548.851320
433.303977	3506.603930
433.680974	3471.262921
434.057910	3433.602981
434.434786	3389.954151
434.811601	3341.249043
435.188355	3362.704194
435.565050	3289.035292
435.941683	3248.494333
436.318257	3252.411309
436.694770	3206.191490
437.071222	3175.304341
437.447614	3124.421454
437.823946	3076.797674
438.200218	3067.688309
438.576429	3018.146369
438.952580	2998.105262
439.328670	2974.822693
439.704700	2935.184101
440.080670	2906.759555
440.456580	2909.040677
440.832429	2867.645242
441.208218	2832.246260
441.583947	2823.041113
441.959616	2802.258956
442.335224	2775.918927
442.710773	2766.527257
443.086261	2747.980852
443.461689	2721.461863
443.837057	2711.924000
444.212365	2705.418391
444.587612	2688.515402
444.962800	2680.575584
445.337927	2666.772905
445.712995	2641.917496
446.088002	2651.049546
446.462949	2637.887094
446.837837	2625.924436
447.212664	2620.790020
447.587431	2618.907149
447.962139	2622.090638
448.336786	2634.804428
448.711374	2620.669033
449.085901	2602.921651
449.460369	2591.016966
449.834776	2589.875144
450.209124	2587.546131
450.583412	2585.489341
450.957640	2587.374732
451.331808	2579.230748
451.705917	2573.385530
452.079965	2569.992834
452.453954	2569.864284
452.827883	2566.448902
453.201752	2566.872359
453.575562	2560.613767
453.949311	2565.138203
454.323001	2557.437840
454.696632	2560.694425
455.070202	2562.607543
455.443713	2558.625032
455.817164	2558.541853
456.190556	2555.635628
456.563888	2557.689898
456.937160	2556.144784
457.310373	2559.008159
457.683526	2555.653272
458.056619	2552.268137
458.429653	2554.493806
458.802628	2557.082439
459.175542	2553.793086
459.548398	2555.292829
459.921194	2556.177552
460.293930	2557.836091
460.666607	2559.035886
461.039224	2560.331462
461.411782	2561.168294
461.784280	2560.865825
462.156719	2560.951524
462.529099	2559.804662
462.901419	2558.249466
463.273680	2554.287119
463.645882	2558.050340
464.018024	2557.967161
464.390106	2558.622511
464.762130	2559.204764
465.134094	2563.767009
465.505999	2569.450910
465.877845	2574.300500
466.249631	2576.049780
466.621358	2573.662794
466.993026	2573.299831
467.364634	2574.368555
467.736184	2566.025446
468.107674	2567.825137
468.479105	2567.081567
468.850477	2565.259190
469.221790	2567.363872
469.593043	2563.482183
469.964238	2562.852039
470.335373	2564.757595
470.706449	2568.636763
471.077467	2561.027142
471.448425	2569.576938
471.819324	2576.115315
472.190164	2578.091447
472.560945	2571.003585
472.931667	2567.434448
473.302330	2565.889334
473.672934	2565.967472
474.043479	2565.692729
474.413965	2565.712894
474.784393	2561.851370
475.154761	2561.518654
475.525070	2564.402194
475.895321	2563.537636
476.265513	2563.986299
476.635645	2568.525858
477.005719	2566.390929
477.375734	2568.430076
477.745691	2570.317988
478.115588	2572.044583
478.485427	2572.616754
478.855207	2574.907959
479.224928	2579.906263
479.594591	2582.502457
479.964194	2581.733681
480.333739	2581.862230
480.703226	2581.958012
481.072653	2583.450194
481.442022	2584.571851
481.811333	2584.902046
482.180584	2584.869279
482.549777	2579.674370
482.918912	2580.533886
483.287988	2580.843917
483.657005	2582.189905
484.025964	2579.369380
484.394864	2579.404668
484.763706	2579.679411
485.132489	2577.068093
485.501213	2578.023392
485.869879	2579.460121
486.238487	2576.425346
486.607036	2579.087075
486.975527	2579.409709
487.343959	2576.753021
487.712333	2579.664287
488.080648	2577.355439
488.448905	2578.484657
488.817104	2576.937023
489.185244	2578.446849
489.553326	2579.485326
489.921350	2582.830132
490.289315	2585.383476
490.657222	2589.592840
491.025070	2587.692325
491.392861	2585.781727
491.760593	2584.246696
492.128267	2583.757704
492.495883	2580.952302
492.863440	2577.219328
493.230939	2576.001889
493.598380	2574.844944
493.965763	2569.599624
494.333088	2574.494584
494.700354	2572.016857
495.067563	2574.562640
495.434713	2569.455951
495.801805	2572.402505
496.168839	2576.526169
496.535815	2573.950139
496.902733	2573.135993
497.269593	2575.578432
497.636395	2573.088102
498.003139	2572.062227
498.369825	2572.001733
498.736453	2572.566343
499.103023	2573.798905
499.469535	2574.209759
499.835989	2572.331929
500.202385	2573.193966
500.568723	2572.495767
500.935003	2572.899059
501.301226	2571.747155
501.667390	2571.706826
502.033497	2572.896538
502.399546	2569.637432
502.765537	2573.635067
503.131470	2576.541292
503.497345	2574.131621
503.863163	2571.162381
504.228923	2575.129769
504.594625	2573.864440
504.960269	2573.687999
505.325856	2573.826631
505.691385	2571.416960
506.056856	2577.113463
506.422270	2575.467527
506.787625	2576.596745
507.152924	2574.988617
507.518164	2573.877043
507.883347	2573.738411
508.248472	2574.134142
508.613540	2573.453586
508.978550	2574.348391
509.343503	2574.759245
509.708398	2575.144893
510.073236	2575.064234
510.438016	2576.495922
510.802738	2577.418453
511.167403	2577.894842
511.532010	2576.863926
511.896561	2576.874009
512.261053	2580.783423
512.625488	2576.085068
512.989866	2571.386713
513.354186	2576.158165
513.718449	2572.155489
514.082655	2576.919379
514.446803	2575.860737
514.810894	2577.756211
515.174927	2575.588514
515.538904	2579.233269
515.902822	2577.849472
516.266684	2578.099009
516.630488	2580.087744
516.994235	2578.973649
517.357925	2578.913155
517.721558	2577.801581
518.085133	2578.267888
518.448651	2575.265881
518.812112	2578.509863
519.175516	2577.347877
519.538863	2576.402661
519.902152	2579.573547
520.265385	2577.148752
520.628560	2580.801067
520.991678	2578.507343
521.354739	2578.255285
521.717743	2578.300655
522.080690	2577.615058
522.443580	2580.445666
522.806413	2580.874164
523.169189	2579.205542
523.531908	2579.402147
523.894569	2578.860223
524.257174	2580.435584
524.619722	2580.201170
524.982213	2579.830645
525.344647	2578.204873
525.707025	2579.974318
526.069345	2580.838876
526.431608	2578.346026
526.793815	2579.999524
527.155964	2580.876685
527.518057	2581.285018
527.880093	2580.944740
528.242072	2580.397775
528.603995	2581.804257
528.965860	2579.802919
529.327669	2578.567836
529.689421	2580.072621
530.051117	2577.441138
530.412755	2579.016499
530.774337	2581.103537
531.135862	2578.638412
531.497331	2576.967270
531.858743	2575.306210
532.220098	2579.079513
532.581396	2576.551375
532.942638	2577.398289
533.303824	2578.194791
533.664953	2577.526838
534.026025	2581.166551
534.387040	2579.986921
534.747999	2578.076324
535.108902	2576.526169
535.469748	2580.259143
535.830537	2576.813515
536.191270	2576.800912
536.551947	2576.775706
536.912567	2579.747466
537.273131	2577.547003
537.633638	2578.542631
537.994089	2578.719071
538.354483	2575.903587
538.714821	2577.272260
539.075103	2581.859710
539.435328	2578.517425
539.795497	2578.761921
540.155609	2580.881726
540.515665	2578.053639
540.875665	2577.047928
541.235609	2575.896025
541.595496	2579.071952
541.955328	2579.092116
542.315102	2580.221335
542.674821	2579.029102
543.034483	2580.659915
543.394090	2579.472723
543.753640	2575.926272
544.113134	2580.685121
544.472571	2578.313258
544.831953	2580.455748
545.191278	2577.567167
545.550548	2578.577919
545.909761	2579.513053
546.268918	2578.570357
546.628019	2580.354925
546.987064	2576.750500
547.346053	2578.497260
547.704986	2578.492219
548.063863	2580.007086
548.422684	2579.427353
548.781449	2579.870975
549.140158	2578.963567
549.498811	2580.173444
549.857408	2575.427198
550.215949	2576.805953
550.574434	2575.180181
550.932864	2575.117167
551.291237	2572.916703
551.649555	2579.631520
552.007817	2578.046077
552.366022	2577.194122
552.724173	2578.567836
553.082267	2579.893660
553.440305	2577.025243
553.798288	2579.099678
554.156215	2578.973649
554.514086	2579.571026
554.871902	2575.344018
555.229661	2577.010120
555.587365	2578.703947
555.945014	2578.439287
556.302606	2573.592217
556.660143	2579.621437
557.017625	2579.250913
557.375050	2578.076324
557.732421	2577.851993
558.089735	2577.204204
558.446994	2579.853331
558.804197	2579.959195
559.161345	2579.031622
559.518437	2578.696386
559.875474	2581.307703
560.232455	2578.285532
560.589381	2577.063052
560.946251	2578.789647
561.303065	2578.346026
561.659825	2577.615058
562.016528	2577.292424
562.373177	2576.014492
562.729770	2578.499781
563.086307	2579.450038
563.442789	2576.503484
563.799216	2578.610686
564.155587	2578.943402
564.511904	2578.908114
564.868164	2578.424163
565.224370	2577.952816
565.580520	2578.696386
565.936615	2578.041036
566.292654	2579.732343
566.648638	2575.041549
567.004567	2575.638926
567.360441	2574.867629
567.716260	2576.858885
568.072023	2576.619430
568.427732	2573.020047
568.783385	2573.864440
569.138982	2572.571384
569.494525	2574.918041
569.850013	2572.662125
570.205445	2578.477096
570.560823	2575.457444
570.916145	2577.194122
571.271412	2574.340829
571.626625	2577.990624
571.981782	2575.044070
572.336884	2575.747311
572.691931	2574.582804
573.046923	2575.517938
573.401860	2576.226220
573.756743	2578.872826
574.111570	2575.812846
574.466342	2575.399471
574.821059	2574.660942
575.175722	2572.878894
575.530330	2575.235634
575.884882	2575.321333
576.239380	2574.459296
576.593823	2575.515418
576.948211	2574.870150
577.302544	2575.487691
577.656823	2574.464337
578.011047	2573.869481
578.365216	2572.077351
578.719330	2572.833524
579.073389	2572.745304
579.427394	2575.623802
579.781344	2573.758576
580.135239	2570.514593
580.489080	2571.376630
580.842866	2573.786302
581.196597	2576.982393
581.550273	2571.326219
581.903895	2573.985427
582.257463	2571.573235
582.610975	2569.014850
582.964434	2570.212124
583.317837	2570.975859
583.671186	2572.586507
584.024481	2571.419480
584.377721	2572.735221
584.730906	2571.943760
585.084037	2570.101218
585.437113	2571.429562
585.790135	2570.975859
586.143103	2569.836558
586.496016	2572.674727
586.848874	2566.118707
587.201679	2570.184398
587.554428	2566.040569
587.907124	2567.991496
588.259765	2567.411763
588.612352	2571.540468
588.964884	2568.104922
589.317362	2568.477967
589.669786	2568.767833
590.022155	2571.553071
590.374470	2568.399829
590.726731	2572.155489
591.078937	2566.625343
591.431090	2567.920919
591.783188	2568.213306
592.135232	2567.550395
592.487222	2567.447051
592.839157	2567.936043
593.191038	2566.884962
593.542866	2566.990827
593.894639	2565.702812
594.246358	2569.103070
594.598022	2566.660631
594.949633	2567.121897
595.301190	2568.916547
595.652692	2567.089129
596.004141	2568.069633
596.355535	2570.474264
596.706876	2569.826476
597.058162	2566.393450
597.409395	2567.842782
597.760573	2568.140210
598.111698	2564.871021
598.462768	2569.491239
598.813785	2568.127607
599.164748	2565.503686
599.515657	2565.942267
599.866511	2564.190466
600.217312	2566.083419
600.568060	2565.962431
600.918753	2566.285065
601.269392	2565.450754
601.619978	2563.557801
601.970510	2565.236505
602.320988	2565.586865
602.671412	2566.156516
603.021783	2564.697102
603.372100	2567.373954
603.722363	2566.602658
604.072572	2565.982596
604.422728	2565.881773
604.772830	2564.503017
605.122878	2560.477656
605.472872	2564.140054
605.822813	2561.616957
606.172701	2561.354817
606.522534	2563.953531
606.872314	2564.553429
607.222041	2565.614592
607.571714	2564.192986
607.921333	2564.913871
608.270899	2565.196176
608.620411	2567.265569
608.969870	2565.818758
609.319276	2570.060889
609.668627	2568.674572
610.017926	2570.010478
610.367171	2573.985427
610.716362	2570.655745
611.065500	2570.688513
611.414585	2570.325550
611.763616	2568.225909
612.112594	2569.748338
612.461518	2570.522155
612.810389	2568.518296
613.159207	2571.127093
613.507971	2567.416804
613.856682	2563.325908
614.205340	2566.103583
614.553945	2565.400342
614.902496	2567.096691
615.250994	2567.759603
615.599439	2565.707853
615.947830	2567.187432
616.296169	2564.210630
616.644454	2563.933367
616.992686	2564.959242
617.340864	2565.672565
617.688990	2564.719787
618.037063	2564.503017
618.385082	2566.300188
618.733048	2566.756413
619.080961	2566.063254
619.428821	2565.206258
619.776628	2565.087791
620.124382	2564.641649
620.472083	2564.192986
620.819731	2565.460836
621.167326	2564.697102
621.514868	2564.555949
621.862357	2562.083263
622.209793	2563.935887
622.557176	2565.312122
622.904506	2563.192317
623.251783	2560.371792
623.599007	2558.960268
623.946179	2561.783315
624.293297	2559.076215
624.640363	2561.380022
624.987376	2561.652245
625.334336	2560.850701
625.681243	2564.331618
626.028097	2561.821123
626.374899	2563.709035
626.721647	2559.638304
627.068343	2560.603685
627.414987	2560.155022
627.761577	2560.079405
628.108115	2561.102759
628.454600	2561.929508
628.801032	2561.677450
629.147412	2561.349775
629.493739	2558.562017
629.840014	2563.174673
630.186236	2560.941442
630.532405	2559.318190
630.878521	2559.096380
631.224585	2562.821792
631.570597	2563.514951
631.916556	2559.933211
632.262462	2556.757284
632.608316	2559.066133
632.954117	2557.221070
633.299866	2561.241391
633.645562	2560.142419
633.991206	2560.810372
634.336797	2559.267779
634.682336	2557.213509
635.027823	2558.728375
635.373257	2560.893551
635.718639	2555.784342
636.063968	2557.115206
636.409245	2555.229815
636.754470	2559.827347
637.099642	2555.643189
637.444762	2555.113868
637.789829	2554.937428
638.134845	2557.815927
638.479808	2557.442881
638.824719	2557.705021
639.169577	2554.788714
639.514383	2555.118909
639.859137	2554.569423
640.203839	2559.093859
640.548489	2557.095042
640.893086	2552.933569
641.237632	2552.439536
641.582125	2549.871068
641.926566	2551.012889
642.270955	2557.074877
642.615292	2556.550597
642.959576	2556.003632
643.303809	2557.082439
643.647990	2555.723848
643.992118	2555.091183
644.336195	2556.313663
644.680219	2557.437840
645.024192	2555.708724
645.368112	2557.246276
645.711981	2556.056564
646.055797	2553.813250
646.399562	2558.234342
646.743274	2557.883982
647.086935	2556.202757
647.430544	2556.112017
647.774101	2556.449774
648.117606	2560.286092
648.461059	2556.643858
648.804460	2558.909857
649.147810	2555.814588
649.491108	2554.897098
649.834354	2557.470608
650.177548	2555.527243
650.520690	2555.391132
650.863781	2555.030689
651.206820	2557.442881
651.549807	2554.725699
651.892742	2555.696121
652.235626	2553.530946
652.578458	2555.917932
652.921238	2555.270144
653.263967	2553.183106
653.606644	2553.656975
653.949269	2555.018086
654.291843	2554.203940
654.634365	2552.426933
654.976836	2554.095555
655.319255	2555.287788
655.661622	2554.725699
656.003938	2555.388611
656.346203	2554.564382
656.688416	2552.200081
657.030577	2555.186965
657.372687	2554.188816
657.714746	2551.806871
658.056753	2552.719320
658.398708	2549.639175
658.740612	2549.074566
659.082465	2549.230842
659.424266	2550.168496
659.766016	2548.076417
660.107715	2552.510112
660.449362	2554.027499
660.790958	2553.117571
661.132503	2555.242418
661.473996	2553.989691
661.815438	2551.864844
662.156829	2550.985163
662.498168	2551.373332
662.839456	2553.273847
663.180693	2550.183620
663.521879	2553.649413
663.863013	2552.046326
664.204097	2549.059442
664.545129	2552.905843
664.886110	2550.977601
665.227040	2553.757798
665.567918	2553.588919
665.908746	2552.137067
666.249522	2551.136398
666.590248	2553.924156
666.930922	2551.963147
667.271545	2550.536500
667.612118	2554.335010
667.952639	2550.070194
668.293109	2554.035061
668.633528	2553.425082
668.973896	2552.111861
669.314213	2554.934907
669.654480	2552.560524
669.994695	2552.159752
670.334859	2552.298384
670.674973	2551.247303
671.015035	2551.380894
671.355047	2553.412479
671.695008	2553.682180
672.034918	2550.453321
672.374777	2553.530946
672.714585	2551.756460
673.054342	2551.824515
673.394049	2551.801830
673.733705	2553.687222
674.073310	2554.950031
674.412864	2552.832746
674.752368	2549.240924
675.091820	2553.674619
675.431223	2550.932231
675.770574	2550.571788
676.109875	2548.325954
676.449125	2548.439380
676.788324	2549.303938
677.127473	2548.280584
677.466571	2547.025337
677.805619	2550.203784
678.144616	2551.249824
678.483562	2551.264947
678.822458	2550.758311
679.161303	2549.765204
679.500098	2549.966850
679.838842	2552.283260
680.177535	2552.915925
680.516179	2551.650595
680.854771	2552.210163
681.193314	2548.893084
681.531805	2551.690925
681.870247	2551.058260
682.208638	2552.638662
682.546978	2554.120761
682.885268	2555.290308
683.223508	2551.242262
683.561697	2549.881150
683.899836	2553.866183
684.237925	2549.974412
684.575963	2552.915925
684.913951	2552.242931
685.251889	2552.459701
685.589776	2550.778476
685.927614	2552.240410
686.265401	2552.426933
686.603137	2550.660009
686.940824	2551.511964
687.278460	2556.144784
687.616046	2552.381563
687.953582	2553.823333
688.291068	2554.950031
688.628504	2552.900802
688.965889	2552.114382
689.303224	2554.012376
689.640510	2552.159752
689.977745	2553.167983
690.314930	2550.654968
690.652065	2552.018600
690.989150	2550.284443
691.326185	2551.401058
691.663170	2550.715461
692.000105	2549.356870
692.336990	2550.561706
692.673825	2550.783517
693.010610	2549.190512
693.347345	2548.330996
693.684030	2543.879657
694.020665	2547.685728
694.357251	2541.948895
694.693786	2547.665563
695.030272	2549.198074
695.366707	2547.105995
695.703093	2546.543907
696.039429	2549.074566
696.375716	2547.042981
696.711952	2543.851930
697.048139	2547.340409
697.384276	2549.644216
697.720363	2546.972405
698.056400	2548.010882
698.392388	2544.648433
698.728326	2547.169010
699.064214	2547.635316
699.400053	2546.306972
699.735842	2548.154555
700.071581	2546.385110
700.407270	2546.049873
700.742910	2547.186654
701.078501	2545.462579
701.414042	2545.855789
701.749533	2546.347302
702.084974	2547.945347
702.420366	2546.831252
702.755709	2548.237734
703.091002	2544.333361
703.426246	2545.346632
703.761440	2546.163299
704.096584	2546.095244
704.431679	2544.754297
704.766725	2547.456355
705.101721	2546.604400
705.436668	2546.916952
705.771565	2543.554502
706.106413	2547.688248
706.441212	2544.529966
706.775961	2547.053063
707.110661	2545.548279
707.445311	2547.229503
707.779913	2544.083823
708.114465	2547.632796
708.448967	2542.843700
708.783421	2546.243958
709.117825	2544.666077
709.452180	2545.956612
709.786485	2544.383772
710.120742	2548.570450
710.454949	2549.984494
710.789107	2545.361756
711.123216	2546.501057
711.457275	2546.148176
711.791286	2543.834286
712.125247	2543.496529
712.459159	2547.426108
712.793023	2550.723023
713.126837	2545.263453
713.460602	2548.535162
713.794318	2548.598177
714.127985	2549.765204
714.461602	2547.211859
714.795171	2547.191695
715.128691	2544.960984
715.462162	2546.420398
715.795584	2543.413350
716.128957	2544.509801
716.462281	2545.639019
716.795556	2545.760007
717.128782	2546.463248
717.461960	2546.581715
717.795088	2546.054915
718.128167	2544.648433
718.461198	2544.474513
718.794180	2547.048022
719.127113	2543.292362
719.459997	2545.218083
719.792833	2541.253216
720.125619	2544.585418
720.458357	2542.785726
720.791046	2541.946374
721.123686	2546.460727
721.456278	2543.741025
721.788821	2543.713299
722.121315	2544.391334
722.453761	2542.813453
722.786158	2543.730943
723.118506	2543.768751
723.450805	2541.540561
723.783056	2542.112732
724.115259	2541.964018
724.447412	2546.894267
724.779518	2542.042156
725.111574	2542.594162
725.443582	2543.917465
725.775542	2541.321271
726.107453	2542.979811
726.439315	2544.461910
726.771129	2549.182951
727.102895	2544.701365
727.434612	2544.908052
727.766281	2542.503422
728.097901	2542.664739
728.429473	2538.573842
728.760996	2542.624409
729.092471	2540.325643
729.423897	2546.208670
729.755276	2543.015099
730.086606	2548.462066
730.417887	2544.408978
730.749120	2547.635316
731.080305	2542.279090
731.411442	2546.397713
731.742530	2545.177754
732.073570	2545.979297
732.404562	2543.373021
732.735506	2544.761859
733.066401	2548.288146
733.397249	2541.913607
733.728048	2545.228165
734.058798	2543.264636
734.389501	2542.967208
734.720156	2542.599204
735.050762	2541.926210
735.381320	2542.662218
735.711831	2541.727084
736.042293	2540.035777
736.372707	2542.576518
736.703073	2543.234389
737.033391	2542.876467
737.363661	2542.979811
737.693883	2542.934440
738.024056	2545.694472
738.354182	2542.029553
738.684260	2544.998793
739.014290	2540.517207
739.344272	2543.614996
739.674207	2543.362938
740.004093	2543.183977
740.333931	2543.297403
740.663722	2544.509801
740.993464	2546.072559
741.323159	2544.020809
741.652806	2543.277239
741.982405	2541.217927
742.311956	2542.342105
742.641460	2541.656508
742.970915	2540.141641
743.300323	2542.742877
743.629683	2541.628782
743.958996	2544.855120
744.288260	2540.794471
744.617477	2539.244316
744.946647	2533.227699
745.275768	2539.819007
745.604842	2536.988399
745.933869	2537.608461
746.262847	2538.735159
746.591778	2540.754141
746.920662	2539.836651
747.249498	2542.092568
747.578286	2542.702547
747.907027	2541.485109
748.235720	2541.704399
748.564365	2540.819676
748.892963	2541.853113
749.221514	2542.878988
749.550017	2541.588452
749.878473	2542.483257
750.206881	2539.750952
750.535242	2540.602907
750.863555	2540.607948
751.191821	2543.131045
751.520039	2542.326981
751.848210	2542.642053
752.176334	2539.745911
752.504411	2540.073586
752.832440	2543.330171
753.160421	2540.716333
753.488356	2541.835469
753.816243	2542.712630
754.144082	2540.565098
754.471875	2541.164995
754.799620	2540.567619
755.127318	2541.437218
755.454969	2539.577032
755.782572	2542.069883
756.110129	2538.105015
756.437638	2544.088865
756.765100	2538.878832
757.092515	2539.970242
757.419882	2540.577701
757.747203	2539.201466
758.074477	2541.659028
758.401703	2540.134079
758.728882	2541.780016
759.056014	2538.621733
759.383099	2540.411343
759.710138	2541.376724
760.037129	2541.308668
760.364073	2543.219266
760.690970	2538.631816
761.017820	2541.964018
761.344623	2540.287835
761.671379	2540.706250
761.998088	2536.585107
762.324751	2540.020653
762.651366	2540.615510
762.977935	2547.632796
763.304456	2549.598846
763.630931	2552.411810
763.957359	2550.778476
764.283740	2548.767055
764.610074	2546.339740
764.936362	2542.415202
765.262602	2542.667259
765.588796	2542.435366
765.914943	2542.291693
766.241044	2540.885211
766.567097	2539.803884
766.893104	2539.859337
767.219064	2539.178781
767.544978	2539.496373
767.870845	2542.009389
768.196665	2541.296065
768.522438	2537.285828
768.848165	2538.475540
769.173846	2538.226003
769.499479	2539.395550
769.825066	2539.879501
770.150607	2540.255067
770.476101	2540.726415
770.801548	2540.726415
771.126949	2540.635674
771.452303	2542.359749
771.777611	2538.273894
772.102872	2538.135262
772.428087	2539.158616
772.753256	2537.689120
773.078378	2539.846734
773.403453	2536.927906
773.728482	2536.668286
774.053465	2537.386651
774.378401	2538.364634
774.703291	2538.911600
775.028135	2541.233051
775.352932	2538.694830
775.677683	2537.578214
776.002388	2537.857998
776.327046	2536.839685
776.651658	2537.558050
776.976224	2535.773481
777.300743	2536.721218
777.625216	2537.852957
777.949643	2536.632998
778.274024	2538.127700
778.598359	2536.118800
778.922647	2533.207534
779.246889	2535.942360
779.571086	2531.566638
779.895236	2538.195756
780.219339	2539.478729
780.543397	2535.995292
780.867409	2538.026877
781.191374	2538.135262
781.515294	2537.071578
781.839167	2538.462937
782.162995	2539.556867
782.486776	2535.274407
782.810511	2535.884387
783.134201	2536.569984
783.457844	2534.959335
783.781441	2536.078471
784.104993	2537.356404
784.428498	2537.623585
784.751958	2538.692309
785.075372	2539.110725
785.398739	2536.012936
785.722061	2536.617875
786.045337	2537.774819
786.368568	2538.399922
786.691752	2534.934129
787.014891	2537.442103
787.337983	2537.018646
787.661030	2538.430169
787.984031	2538.934285
788.306987	2537.109387
788.629897	2538.460416
788.952760	2538.435211
789.275579	2538.785571
789.598351	2537.401774
789.921078	2537.421939
790.243759	2538.107536
790.566395	2535.612164
790.888984	2537.754655
791.211529	2537.580735
791.534027	2536.554860
791.856480	2538.470499
792.178888	2538.503266
792.501249	2535.642411
792.823566	2538.263811
793.145836	2539.723225
793.468062	2536.605272
793.790241	2535.816331
794.112375	2538.704912
794.434464	2534.177956
794.756507	2537.043852
795.078505	2536.592669
795.400457	2535.004705
795.722364	2531.082688
796.044226	2537.857998
796.366042	2534.447658
796.687812	2536.718698
797.009538	2536.305323
797.331218	2537.673996
797.652852	2536.658204
797.974442	2537.847916
798.295986	2538.238606
798.617484	2536.955632
798.938938	2535.387833
799.260346	2538.982176
799.581709	2537.958822
799.903026	2539.082999
800.224299	2535.896990
800.545526	2538.281455
800.866708	2538.823379
801.187845	2538.916641
801.508936	2536.887576
801.829983	2535.682741
802.150984	2535.105528
802.471940	2538.478060
802.792851	2534.634181
803.113717	2537.469830
803.434538	2535.773481
803.755314	2535.322298
804.076045	2535.407998
804.396731	2535.110570
804.717372	2536.345652
805.037967	2534.319108
805.358518	2536.668286
805.679024	2534.218285
805.999485	2538.735159
806.319901	2537.951260
806.640272	2536.617875
806.960598	2535.917154
807.280879	2533.517565
807.601115	2537.374048
807.921306	2534.372041
808.241453	2534.833306
808.561554	2533.847761
808.881611	2533.996475
809.201623	2537.248019
809.521590	2538.087371
809.841513	2536.033101
810.161390	2537.414377
810.481223	2537.230375
810.801011	2536.469161
811.120755	2535.418080
811.440453	2538.102494
811.760107	2537.248019
812.079716	2534.389685
812.399281	2532.650487
812.718801	2531.601927
813.038276	2530.044210
813.357707	2533.373892
813.677093	2535.256763
813.996434	2535.145858
814.315731	2535.012267
814.634983	2535.765920
814.954191	2533.021011
815.273354	2534.303985
815.592473	2533.404139
815.911547	2536.605272
816.230577	2537.439583
816.549562	2539.027546
816.868502	2537.726928
817.187399	2534.031763
817.506250	2537.147196
817.825058	2538.329346
818.143821	2537.918492
818.462539	2537.459747
818.781213	2537.351363
819.099843	2533.114273
819.418429	2539.332536
819.736970	2540.817156
820.055466	2540.580222
820.373919	2542.029553
820.692327	2541.931251
821.010691	2549.679504
821.329011	2554.695452
821.647286	2571.079202
821.965517	2586.815164
822.283704	2594.381936
822.601847	2599.322267
822.919945	2590.800196
823.237999	2578.993814
823.556010	2571.197669
823.873976	2563.404046
824.191897	2557.115206
824.509775	2552.013558
824.827609	2550.876778
825.145398	2547.758825
825.463144	2550.173537
825.780845	2548.666232
826.098502	2549.729916
826.416116	2555.675957
826.733685	2560.807851
827.051210	2559.933211
827.368692	2561.269117
827.686129	2554.231666
828.003522	2550.284443
828.320872	2543.703216
828.638177	2544.759338
828.955439	2537.159799
829.272656	2538.954449
829.589830	2534.306506
829.906960	2536.484284
830.224046	2537.860519
830.541088	2539.617361
830.858086	2536.761548
831.175041	2537.137113
831.491952	2538.430169
831.808819	2536.249870
832.125642	2536.819521
832.442421	2537.016126
832.759157	2539.967721
833.075849	2540.716333
833.392497	2544.857641
833.709101	2549.389638
834.025662	2549.306459
834.342179	2547.610111
834.658653	2543.430994
834.975083	2541.906045
835.291469	2544.802188
835.607811	2541.669111
835.924110	2540.063503
836.240366	2536.552340
836.556578	2538.092412
836.872746	2537.288348
837.188871	2536.658204
837.504952	2535.773481
837.820990	2536.103677
838.136984	2533.378933
838.452935	2534.331711
838.768842	2534.024201
839.084706	2535.655014
839.400526	2534.462781
839.716303	2538.505787
840.032037	2539.677855
840.347727	2539.907227
840.663373	2538.785571
840.978977	2537.938657
841.294537	2534.682072
841.610054	2534.626619
841.925527	2535.307175
842.240957	2535.070240
842.556344	2534.160312
842.871687	2533.540250
843.186987	2533.363810
843.502244	2533.751979
843.817458	2533.993954
844.132629	2535.090405
844.447756	2533.840199
844.762840	2530.069416
845.077881	2532.148892
845.392879	2528.148736
845.707833	2530.903727
846.022745	2527.899199
846.337613	2534.757689
846.652438	2530.260980
846.967221	2535.191228
847.281960	2530.639066
847.596656	2531.750641
847.911309	2532.121165
848.225919	2533.409180
848.540485	2532.458923
848.855009	2531.395239
849.169490	2532.166536
849.483928	2532.844571
849.798323	2531.982534
850.112675	2533.136958
850.426984	2533.230219
850.741251	2533.976310
851.055474	2532.567308
851.369654	2531.886752
851.683792	2531.654859
851.997887	2532.274921
852.311938	2532.902544
852.625947	2533.459592
852.939914	2531.536392
853.253837	2534.278779
853.567718	2533.767102
853.881555	2533.676361
854.195350	2529.746782
854.509103	2533.116793
854.822812	2530.981865
855.136479	2534.699716
855.450103	2533.247863
855.763685	2531.465815
856.077224	2531.806093
856.390720	2534.291382
856.704173	2533.172246
857.017584	2534.331711
857.330953	2532.405991
857.644278	2532.758871
857.957561	2535.438245
858.270802	2534.644263
858.584000	2534.392205
858.897155	2533.063861
859.210268	2531.281813
859.523339	2532.791639
859.836367	2533.172246
860.149352	2533.941022
860.462295	2531.606968
860.775195	2531.397760
861.088054	2527.024559
861.400869	2530.518078
861.713642	2524.879548
862.026373	2531.664941
862.339062	2533.583100
862.651708	2531.092770
862.964312	2533.809952
863.276873	2533.280631
863.589392	2531.755682
863.901869	2532.595034
864.214303	2533.341125
864.526696	2533.809952
864.839045	2533.368851
865.151353	2533.144520
865.463619	2530.830630
865.775842	2533.774664
866.088023	2533.018491
866.400162	2529.900537
866.712258	2531.690147
867.024313	2534.462781
867.336325	2532.892462
867.648296	2532.388347
867.960224	2534.893800
868.272110	2534.263656
868.583954	2534.813142
868.895755	2533.883049
869.207515	2534.067051
869.519233	2530.480270
869.830909	2531.463295
870.142542	2532.957997
870.454134	2533.399098
870.765684	2532.741227
871.077191	2532.791639
871.388657	2535.561753
871.700081	2530.964221
872.011463	2533.865405
872.322803	2533.694005
872.634101	2534.649304
872.945357	2532.801721
873.256571	2532.501773
873.567744	2534.644263
873.878874	2532.925229
874.189963	2533.656197
874.501010	2535.289531
874.812015	2533.121834
875.122979	2534.293903
875.433900	2535.155940
875.744780	2537.492515
876.055618	2533.784746
876.366415	2533.237781
876.677169	2535.604603
876.987882	2530.956659
877.298554	2529.368695
877.609183	2531.710311
877.919771	2530.457585
878.230317	2531.148223
878.540822	2536.504449
878.851285	2535.443286
879.161707	2533.822555
879.472087	2537.520241
879.782425	2537.984027
880.092722	2541.848072
880.402977	2547.738660
880.713191	2552.973898
881.023363	2563.406566
881.333494	2570.529717
881.643583	2570.096177
881.953631	2568.278841
882.263637	2565.657441
882.573602	2568.735066
882.883526	2562.201730
883.193408	2557.561348
883.503248	2548.729247
883.813048	2548.736808
884.122806	2546.894267
884.432522	2548.053732
884.742197	2540.701209
885.051831	2543.519214
885.361424	2537.076620
885.670975	2539.284645
885.980485	2535.869263
886.289954	2537.104346
886.599382	2537.968904
886.908768	2536.254912
887.218113	2536.784233
887.527417	2537.341280
887.836680	2534.306506
888.145901	2531.687626
888.455082	2534.916485
888.764221	2534.457740
889.073319	2532.743748
889.382376	2534.006557
889.691392	2532.723583
890.000366	2533.774664
890.309300	2532.592513
890.618193	2535.392874
890.927044	2534.551002
891.235855	2535.791125
891.544625	2533.769623
891.853353	2535.067720
892.162041	2532.834489
892.470687	2535.019829
892.779293	2532.622760
893.087858	2532.320291
893.396381	2531.264169
893.704864	2534.185518
894.013306	2537.260622
894.321707	2544.615665
894.630068	2546.843855
894.938387	2545.969215
895.246665	2545.465100
895.554903	2543.947712
895.863100	2541.162475
896.171256	2542.145500
896.479371	2540.161806
896.787446	2538.914120
897.095480	2536.595189
897.403473	2536.892618
897.711425	2535.776002
898.019336	2532.839530
898.327207	2535.372710
898.635038	2535.647453
898.942827	2535.168543
899.250576	2535.866743
899.558284	2535.105528
899.865952	2534.470343
900.173579	2533.779705
900.481165	2533.794828
900.788711	2532.141330
901.096216	2534.104859
901.403681	2534.127545
901.711105	2537.099305
902.018489	2534.160312
902.325832	2533.963707
902.633135	2535.541588
902.940397	2535.440765
903.247619	2535.942360
903.554800	2536.038142
903.861941	2540.439069
904.169041	2548.325954
904.476101	2548.608259
904.783121	2552.139587
905.090100	2546.758156
905.397039	2543.995603
905.703938	2540.902855
906.010796	2537.807587
906.317614	2536.968235
906.624391	2536.968235
906.931129	2535.453368
907.237826	2533.265507
907.544483	2534.591331
907.851099	2533.504962
908.157675	2533.048738
908.464211	2533.000847
908.770707	2530.104704
909.077163	2532.577390
909.383578	2528.622605
909.689954	2531.238963
909.996289	2523.523478
910.302584	2532.083357
910.608839	2532.501773
910.915054	2533.746938
911.221229	2531.473377
911.527363	2532.665610
911.833458	2531.213758
912.139513	2530.699560
912.445527	2529.267872
912.751502	2532.874818
913.057436	2532.857174
913.363331	2533.872966
913.669186	2535.251722
913.975000	2534.119983
914.280775	2532.844571
914.586510	2534.951773
914.892205	2540.005530
915.197859	2541.928730
915.503475	2538.732639
915.809050	2547.030378
916.114585	2549.107333
916.420081	2548.872920
916.725536	2548.646068
917.030952	2545.865871
917.336328	2544.111550
917.641665	2543.594832
917.946961	2542.173226
918.252218	2538.510828
918.557435	2538.162988
918.862612	2539.120807
919.167750	2536.673327
919.472848	2535.511341
919.777906	2535.433203
920.082925	2532.526978
920.387904	2532.557225
920.692843	2533.998995
920.997743	2531.642256
921.302603	2535.788605
921.607423	2530.797862
921.912204	2532.630322
922.216946	2529.459436
922.521647	2533.918337
922.826310	2531.375075
923.130932	2530.218130
923.435516	2533.026053
923.740059	2530.558408
924.044564	2528.882224
924.349028	2528.541946
924.653454	2527.823582
924.957840	2527.684950
925.262186	2528.635208
925.566493	2530.233253
925.870761	2527.727800
926.174989	2529.444313
926.479178	2528.489014
926.783328	2531.543953
927.087438	2530.245856
927.391509	2530.213089
927.695541	2529.426669
927.999533	2529.842564
928.303486	2529.726617
928.607400	2530.755013
928.911275	2529.981196
929.215110	2531.521268
929.518906	2529.923222
929.822663	2532.809283
930.126381	2530.276103
930.430060	2530.250897
930.733699	2528.995650
931.037299	2530.616381
931.340861	2527.868952
931.644383	2528.645290
931.947866	2528.463808
932.251309	2529.056144
932.554714	2528.877183
932.858080	2533.978831
933.161407	2529.630835
933.464694	2532.801721
933.767943	2528.133613
934.071153	2529.262831
934.374323	2527.216123
934.677455	2529.348531
934.980548	2527.390042
935.283602	2530.863397
935.586617	2527.148067
935.889593	2528.279806
936.192530	2530.588655
936.495428	2529.101514
936.798287	2530.059333
937.101108	2526.641431
937.403890	2529.809796
937.706632	2530.218130
938.009336	2526.764939
938.312002	2533.862884
938.614628	2531.591844
938.917216	2530.989426
939.219765	2531.763243
939.522275	2530.417255
939.824747	2532.353058
940.127179	2526.815351
940.429573	2525.106400
940.731929	2529.368695
941.034246	2526.691843
941.336524	2529.903058
941.638763	2533.394057
941.940964	2530.944056
942.243126	2531.906916
942.545250	2530.087060
942.847335	2532.915147
943.149381	2529.406504
943.451389	2529.827440
943.753359	2529.550177
944.055290	2529.708973
944.357182	2530.112266
944.659036	2530.782739
944.960851	2527.967255
945.262628	2529.214940
945.564367	2528.133613
945.866067	2528.398273
946.167729	2529.403983
946.469352	2527.596730
946.770937	2530.132430
947.072484	2530.389529
947.373992	2531.007070
947.675462	2527.642100
947.976893	2534.518234
948.278286	2529.875331
948.579641	2531.826258
948.880958	2529.164529
949.182236	2530.689478
949.483476	2524.473735
949.784678	2529.610671
950.085841	2529.043541
950.386967	2530.465146
950.688054	2526.550690
950.989103	2528.816689
951.290114	2527.611853
951.591087	2532.264838
951.892021	2530.195445
952.192917	2528.438603
952.493776	2530.006401
952.794596	2527.818541
953.095378	2531.513706
953.396122	2531.364992
953.696828	2529.144364
953.997496	2530.944056
954.298126	2528.536905
954.598718	2532.539581
954.899272	2529.955990
955.199788	2529.363654
955.500266	2531.859025
955.800706	2526.951462
956.101108	2523.896523
956.401472	2527.611853
956.701798	2525.751668
957.002087	2526.775022
957.302337	2531.551515
957.602550	2528.723428
957.902724	2527.695032
958.202861	2528.902389
958.502960	2528.100845
958.803022	2529.454395
959.103045	2529.106555
959.403031	2529.073788
959.702979	2526.656555
960.002889	2527.470701
960.302762	2528.864580
960.602596	2530.336597
960.902393	2525.860052
961.202153	2528.211751
961.501875	2527.947090
961.801559	2528.098325
962.101205	2527.584127
962.400814	2528.436082
962.700385	2526.921215
962.999918	2528.700743
963.299414	2527.442975
963.598873	2528.874662
963.898293	2529.078829
964.197677	2526.648993
964.497022	2527.490866
964.796331	2527.798376
965.095601	2526.719569
965.394835	2526.822913
965.694030	2526.669158
965.993189	2528.420958
966.292309	2528.436082
966.591393	2525.615556
966.890439	2527.949611
967.189447	2529.887934
967.488419	2523.684794
967.787353	2529.461957
968.086249	2527.674868
968.385108	2529.600588
968.683930	2526.956503
968.982714	2527.846267
969.281462	2526.890968
969.580172	2526.154960
969.878844	2528.426000
970.177480	2529.487162
970.476078	2528.420958
970.774639	2528.594878
971.073162	2526.885927
971.371649	2525.814682
971.670098	2525.643283
971.968510	2525.333252
972.266885	2524.584640
972.565223	2526.815351
972.863524	2528.965403
973.161788	2526.943900
973.460014	2529.335928
973.758204	2529.343490
974.056356	2525.774353
974.354471	2530.649148
974.652550	2526.076822
974.950591	2527.173273
975.248595	2526.515402
975.546563	2527.085053
975.844493	2529.119158
976.142386	2527.206040
976.440243	2526.701925
976.738062	2526.071781
977.035845	2527.490866
977.333590	2527.364837
977.631299	2525.713859
977.928971	2527.155629
978.226606	2527.269055
978.524204	2527.508510
978.821765	2528.673016
979.119290	2525.640762
979.416777	2526.608664
979.714228	2527.498427
980.011642	2528.158818
980.309020	2529.782070
980.606360	2528.683098
980.903664	2526.240659
981.200931	2526.999353
981.498162	2525.691174
981.795356	2526.480114
982.092513	2528.153777
982.389633	2527.695032
982.686717	2529.898017
982.983764	2527.241328
983.280775	2526.553211
983.577749	2529.708973
983.874686	2528.090763
984.171587	2527.120341
984.468451	2527.001874
984.765279	2526.167563
985.062070	2527.891637
985.358824	2528.269724
985.655543	2527.881555
985.952224	2528.892306
986.248869	2529.439272
986.545478	2522.429547
986.842050	2525.217305
987.138586	2522.542973
987.435086	2524.259486
987.731549	2520.425688
988.027975	2527.994981
988.324366	2526.316277
988.620719	2527.760567
988.917037	2525.267717
989.213318	2527.316946
989.509563	2526.298633
989.805772	2527.556401
990.101944	2525.121523
990.398080	2526.986750
990.694180	2526.654034
990.990244	2525.779394
991.286271	2526.386853
991.582262	2526.752337
991.878217	2525.459281
992.174136	2528.305012
992.470019	2527.243849
992.765865	2527.710156
993.061676	2526.185207
993.357450	2525.940711
993.653188	2526.797707
993.948890	2527.513551
994.244556	2525.544980
994.540186	2528.146216
994.835780	2525.607995
995.131337	2527.755526
995.426859	2526.429703
995.722345	2525.731503
996.017795	2528.894827
996.313208	2527.463139
996.608586	2524.370391
996.903928	2525.902902
997.199234	2526.868283
997.494504	2525.998684
997.789738	2526.863242
998.084936	2527.758047
998.380099	2524.546832
998.675225	2527.047244
998.970316	2526.069260
999.265371	2525.343334
999.560390	2527.485824
999.855373	2526.991791
1000.150320	2526.636390
1000.445232	2526.608664
1000.740108	2525.010618
1001.034948	2526.568334
1001.329752	2528.022707
1001.624521	2529.850126
1001.919254	2521.239835
1002.213951	2524.808972
1002.508613	2522.487520
1002.803239	2525.935670
1003.097829	2522.845442
1003.392384	2526.467511
1003.686903	2523.127747
1003.981386	2527.291740
1004.275834	2524.904754
1004.570246	2526.553211
1004.864623	2525.698735
1005.158964	2528.302491
1005.453270	2524.246883
1005.747540	2527.392563
1006.041775	2524.695546
1006.335974	2527.145547
1006.630138	2527.768129
1006.924266	2526.878365
1007.218359	2525.113962
1007.512416	2525.625639
1007.806438	2526.986750
1008.100425	2526.938859
1008.394376	2527.644621
1008.688292	2524.940042
1008.982172	2525.595392
1009.276017	2527.632018
1009.569827	2525.247552
1009.863602	2529.340969
1010.157341	2527.417769
1010.451045	2526.102028
1010.744714	2525.890299
1011.038347	2526.724610
1011.331945	2526.591020
1011.625508	2524.897192
1011.919036	2526.457429
1012.212528	2528.294930
1012.505986	2524.950124
1012.799408	2525.103879
1013.092795	2523.624301
1013.386147	2523.899043
1013.679464	2525.975999
1013.972745	2527.770650
1014.265992	2525.993643
1014.559204	2526.313756
1014.852380	2525.212264
1015.145521	2528.274765
1015.438628	2524.713190
1015.731699	2528.393232
1016.024736	2525.970958
1016.317737	2522.900895
1016.610703	2526.593540
1016.903635	2525.938190
1017.196531	2520.876872
1017.489393	2525.151770
1017.782219	2521.232273
1018.075011	2525.113962
1018.367768	2526.459950
1018.660490	2526.434744
1018.953177	2526.434744
1019.245829	2526.434744
