Dividing Wavelength (nm)	Counts (n)	Blue Motor Position (mm): 0.000000	Red Motor Position (mm): 29.900000	
326.493990	2126.900616
326.888308	2126.900616
327.282561	2126.900616
327.676750	2096.391553
328.070874	2093.064392
328.464933	2096.497418
328.858929	2102.922368
329.252859	2111.290683
329.646726	2126.280554
330.040528	2135.372275
330.434265	2152.905408
330.827938	2171.587925
331.221547	2190.961079
331.615091	2207.289376
332.008571	2226.186141
332.401986	2247.575757
332.795338	2267.372368
333.188625	2285.044133
333.581847	2307.343677
333.975006	2323.034268
334.368100	2340.912721
334.761129	2358.972654
335.154095	2375.074100
335.546996	2391.964486
335.939833	2413.558268
336.332606	2425.657037
336.725315	2439.222782
337.117960	2447.160079
337.510540	2457.837243
337.903056	2467.370065
338.295508	2476.829790
338.687896	2484.799854
339.080220	2494.131030
339.472480	2499.946001
339.864676	2502.116218
340.256807	2507.938750
340.648875	2507.669049
341.040879	2513.668022
341.432818	2513.668022
341.824694	2515.780265
342.216506	2514.719102
342.608253	2514.056191
342.999937	2515.850841
343.391557	2514.862775
343.783113	2516.871675
344.174605	2512.758093
344.566033	2514.703979
344.957397	2512.611900
345.348697	2509.498988
345.739934	2508.692403
346.131106	2503.913389
346.522215	2503.061434
346.913260	2503.550426
347.304241	2501.786022
347.695159	2497.984992
348.086012	2499.094046
348.476802	2498.254694
348.867528	2492.366626
349.258191	2490.501399
349.648789	2492.974085
350.039324	2488.961327
350.429796	2488.288333
350.820203	2489.803199
351.210548	2487.940493
351.600828	2487.799341
351.991045	2486.899495
352.381198	2486.924701
352.771288	2486.768425
353.161314	2485.437560
353.551276	2483.610142
353.941175	2485.487972
354.331010	2485.014103
354.720782	2484.807416
355.110490	2486.140801
355.500135	2483.831953
355.889717	2486.367653
356.279235	2486.589464
356.668689	2487.007880
357.058080	2486.773466
357.447408	2480.719040
357.836672	2483.950420
358.225873	2485.997128
358.615010	2484.005873
359.004084	2487.355719
359.393095	2489.755308
359.782043	2491.739002
360.170927	2488.197592
360.559748	2493.546256
360.948505	2492.686739
361.337199	2492.475011
361.725830	2491.731441
362.114398	2496.008860
362.502903	2490.874445
362.891344	2495.023314
363.279722	2493.972234
363.668037	2495.590444
364.056289	2495.676144
364.444478	2495.272851
364.832603	2495.890393
365.220665	2498.093377
365.608665	2499.265445
365.996601	2500.107318
366.384474	2500.465240
366.772284	2501.899448
367.160031	2503.910868
367.547715	2505.592093
367.935336	2509.085613
368.322893	2511.901097
368.710388	2511.775068
369.097820	2521.075997
369.485189	2521.378467
369.872495	2529.356092
370.259738	2536.733821
370.646918	2541.835469
371.034035	2551.446429
371.421090	2561.440516
371.808081	2570.776733
372.195010	2580.140676
372.581875	2593.086359
372.968678	2608.308123
373.355418	2618.564351
373.742096	2633.914664
374.128710	2651.490647
374.515262	2663.879283
374.901751	2682.844104
375.288177	2694.806762
375.674540	2715.586398
376.060841	2736.050962
376.447079	2753.299270
376.833254	2773.899945
377.219367	2786.565844
377.605417	2823.532625
377.991404	2833.118379
378.377329	2853.436750
378.763191	2874.239071
379.148991	2910.021181
379.534727	2933.880962
379.920402	2961.904737
380.306013	2973.983341
380.691563	3024.435209
381.077049	3047.954712
381.462474	3063.483987
381.847835	3103.742641
382.233134	3126.589150
382.618371	3122.208388
383.003545	3192.955941
383.388657	3201.193186
383.773706	3232.889441
384.158693	3249.139600
384.543618	3276.046759
384.928480	3309.693940
385.313280	3357.758822
385.698017	3356.775797
386.082692	3412.805701
386.467305	3414.494488
386.851856	3448.124025
387.236344	3468.008856
387.620770	3502.755009
388.005133	3526.455994
388.389435	3555.596384
388.773674	3564.988053
389.157851	3611.028912
389.541965	3627.601705
389.926018	3589.563678
390.310008	3659.907939
390.693936	3676.102646
391.077802	3718.203842
391.461606	3706.644477
391.845348	3773.490177
392.229027	3768.869959
392.612645	3784.036270
392.996200	3859.842621
393.379694	3899.546749
393.763125	3962.183086
394.146494	3933.682922
394.529801	3995.673991
394.913047	4047.454203
395.296230	4007.820651
395.679351	4061.488775
396.062410	4090.709823
396.445408	4067.462542
396.828343	4102.337245
397.211217	4125.493785
397.594028	4044.656362
397.976778	4113.155561
398.359466	4138.878048
398.742092	4168.872914
399.124656	4090.558589
399.507158	4170.778470
399.889598	4194.572716
400.271977	4253.753342
400.654294	4227.176379
401.036549	4236.061412
401.418742	4205.297771
401.800874	4305.780570
402.182944	4327.051719
402.564952	4394.673756
402.946898	4381.980131
403.328783	4374.199110
403.710606	4293.054177
404.092367	4480.801870
404.474067	4442.705870
404.855705	4454.524855
405.237282	4383.666397
405.618797	4493.225793
406.000250	4525.242162
406.381642	4604.151343
406.762972	4570.773863
407.144240	4579.905913
407.525447	4577.798711
407.906593	4638.209378
408.287677	4681.371737
408.668700	4609.976396
409.049661	4660.357688
409.430560	4703.961148
409.811399	4629.634375
410.192176	4792.178819
410.572891	4730.147421
410.953545	4832.263554
411.334138	4716.198549
411.714669	4782.782109
412.095139	4675.801262
412.475547	4818.057583
412.855894	4799.705262
413.236180	4803.889420
413.616405	4760.510291
413.996568	4847.671841
414.376670	4792.453562
414.756711	4746.931943
415.136691	4778.676089
415.516609	4852.793653
415.896466	4888.858068
416.276262	4923.780661
416.655997	4905.483793
417.035670	5086.791412
417.415283	5176.496224
417.794834	5123.546465
418.174324	5078.319753
418.553753	4982.278210
418.933121	5167.376777
419.312428	5237.678188
419.691674	5173.348023
420.070859	5296.150531
420.449983	5213.974682
420.829045	5326.238658
421.208047	5236.211212
421.586988	5306.386594
421.965867	5316.504190
422.344686	5450.293892
422.723444	5306.850380
423.102141	5122.792812
423.480777	5424.520993
423.859352	5190.777813
424.237866	5449.021001
424.616319	5442.117141
424.994712	5553.521600
425.373044	5429.662970
425.751314	5570.553138
426.129524	5374.114496
426.507673	5568.289660
426.885762	5651.307381
427.263789	5582.919088
427.641756	5467.794258
428.019662	5586.389923
428.397508	5591.781437
428.775292	5539.608015
429.153016	5639.294312
429.530679	5562.615841
429.908282	5649.542977
430.285824	5521.011198
430.663305	5797.130318
431.040726	5526.793402
431.418086	5528.905645
431.795385	5632.317355
432.172624	5646.591382
432.549802	5639.201050
432.926920	5649.225385
433.303977	5661.712323
433.680974	5697.809505
434.057910	5716.973451
434.434786	5725.392178
434.811601	5694.361356
435.188355	5930.645278
435.565050	5802.388242
435.941683	5781.618688
436.318257	5994.655329
436.694770	5977.245704
437.071222	6016.276837
437.447614	5951.417352
437.823946	5864.129773
438.200218	6015.994533
438.576429	5876.641917
438.952580	5978.692515
439.328670	6019.891345
439.704700	5931.492192
440.080670	5910.170631
440.456580	6186.564494
440.832429	6069.987811
441.208218	5915.395787
441.583947	6071.835394
441.959616	6072.210960
442.335224	6003.056412
442.710773	6138.411392
443.086261	6165.648747
443.461689	5956.473629
443.837057	6106.009376
444.212365	6265.801350
444.587612	6156.289844
444.962800	6312.215253
445.337927	6289.845133
445.712995	5902.480351
446.088002	6475.677187
446.462949	6306.120498
446.837837	6240.535087
447.212664	6409.340644
447.587431	6552.602675
447.962139	7095.628205
448.336786	8022.126747
448.711374	7761.589834
449.085901	6838.632703
449.460369	6759.993223
449.834776	6693.747421
450.209124	7080.290495
450.583412	7227.451858
450.957640	7381.184365
451.331808	7146.737943
451.705917	6694.589293
452.079965	6622.566328
452.453954	6831.131466
452.827883	6709.145625
453.201752	6802.308669
453.575562	6599.009016
453.949311	6802.732126
454.323001	6693.752462
454.696632	6765.820797
455.070202	6902.615027
455.443713	7061.819707
455.817164	7153.861094
456.190556	7234.864874
456.563888	7314.764642
456.937160	7359.467074
457.310373	7006.737539
457.683526	7040.404885
458.056619	6929.076044
458.429653	6914.265134
458.802628	6847.028744
459.175542	6957.649304
459.548398	7312.082748
459.921194	7466.939433
460.293930	7469.613765
460.666607	7994.765885
461.039224	8303.599572
461.411782	8419.261285
461.784280	8438.904141
462.156719	8331.613264
462.529099	8205.607103
462.901419	7795.912530
463.273680	7683.819954
463.645882	7691.618619
464.018024	7556.253556
464.390106	7718.961837
464.762130	8097.272707
465.134094	8550.328765
465.505999	9545.248367
465.877845	10742.537529
466.249631	11382.338090
466.621358	10990.685807
466.993026	10366.348985
467.364634	10113.250295
467.736184	9740.819931
468.107674	9404.953056
468.479105	9423.227238
468.850477	9186.761835
469.221790	8950.951782
469.593043	8627.057647
469.964238	8471.928740
470.335373	8476.417888
470.706449	8518.113271
471.077467	8486.739650
471.448425	9723.564061
471.819324	10730.804244
472.190164	10744.717828
472.560945	9535.796204
472.931667	8760.590251
473.302330	8615.442828
473.672934	8261.107686
474.043479	8584.222963
474.413965	8506.493412
474.784393	8368.277576
475.154761	8493.257862
475.525070	8554.044095
475.895321	8369.905869
476.265513	8506.168257
476.635645	8638.001992
477.005719	8609.045604
477.375734	8682.777520
477.745691	8866.431796
478.115588	8955.052760
478.485427	9131.677147
478.855207	9563.275533
479.224928	10215.368948
479.594591	10734.264996
479.964194	10529.082472
480.333739	10442.543505
480.703226	10313.011057
481.072653	10337.163225
481.442022	10464.268358
481.811333	10565.076311
482.180584	10355.465134
482.549777	10047.559019
482.918912	9841.945477
483.287988	9798.684815
483.657005	9752.240665
484.025964	9433.934649
484.394864	9478.604313
484.763706	9384.397751
485.132489	9137.446748
485.501213	9044.205566
485.869879	9044.283704
486.238487	8841.778033
486.607036	8880.466368
486.975527	8627.526474
487.343959	8708.510090
487.712333	8662.688522
488.080648	8559.901916
488.448905	8503.549378
488.817104	8391.101400
489.185244	8506.808484
489.553326	8522.587295
489.921350	8799.568452
490.289315	9390.915963
490.657222	9530.737406
491.025070	9368.911326
491.392861	9209.966266
491.760593	8891.463646
492.128267	8589.349816
492.495883	8305.081671
492.863440	8010.151486
493.230939	7721.926036
493.598380	7598.800894
493.965763	7424.770181
494.333088	7304.420195
494.700354	7164.495408
495.067563	7134.997096
495.434713	6952.497245
495.801805	6946.427695
496.168839	6828.784809
496.535815	6708.840635
496.902733	6641.311859
497.269593	6516.760071
497.636395	6501.220714
498.003139	6400.261526
498.369825	6276.307115
498.736453	6261.970073
499.103023	6159.977448
499.469535	6087.901551
499.835989	6012.443040
500.202385	5911.168780
500.568723	5781.873266
500.935003	5803.696421
501.301226	5628.783506
501.667390	5677.755795
502.033497	5630.966326
502.399546	5513.023490
502.765537	5407.222274
503.131470	5354.998441
503.497345	5341.974620
503.863163	5157.233975
504.228923	5172.332231
504.594625	5135.441067
504.960269	4993.051156
505.325856	4986.565712
505.691385	4860.035271
506.056856	4841.486345
506.422270	4780.949649
506.787625	4702.274882
507.152924	4660.917256
507.518164	4601.769397
507.883347	4519.868292
508.248472	4447.328608
508.613540	4439.734110
508.978550	4353.537941
509.343503	4296.827481
509.708398	4266.295733
510.073236	4231.000094
510.438016	4176.585879
510.802738	4113.647073
511.167403	4077.733893
511.532010	4001.529291
511.896561	4001.539374
512.261053	3960.007828
512.625488	3888.325141
512.989866	3836.340762
513.354186	3792.959113
513.718449	3730.844536
514.082655	3719.753997
514.446803	3664.558404
514.810894	3638.541009
515.174927	3584.250302
515.538904	3551.606311
515.902822	3525.896426
516.266684	3477.266935
516.630488	3433.809669
516.994235	3412.767893
517.357925	3380.186915
517.721558	3357.975591
518.085133	3324.562824
518.448651	3297.050727
518.812112	3263.055706
519.175516	3228.485993
519.538863	3208.878425
519.902152	3181.076462
520.265385	3158.575272
520.628560	3134.534009
520.991678	3106.384206
521.354739	3088.815785
521.717743	3062.087587
522.080690	3039.795605
522.443580	3023.192564
522.806413	3000.222547
523.169189	2983.523725
523.531908	2967.812969
523.894569	2940.847837
524.257174	2925.038778
524.619722	2909.179308
524.982213	2899.273441
525.344647	2882.332644
525.707025	2865.648945
526.069345	2856.403469
526.431608	2840.546519
526.793815	2831.797597
527.155964	2811.338074
527.518057	2805.591159
527.880093	2793.242852
528.242072	2785.363529
528.603995	2774.613268
528.965860	2767.167484
529.327669	2757.122985
529.689421	2748.129567
530.051117	2741.576067
530.412755	2734.173132
530.774337	2728.020404
531.135862	2720.738457
531.497331	2713.111191
531.858743	2701.292206
532.220098	2702.706250
532.581396	2694.053109
532.942638	2689.385001
533.303824	2686.932479
533.664953	2682.584484
534.026025	2675.022753
534.387040	2677.195491
534.747999	2671.907320
535.108902	2672.635767
535.469748	2665.379026
535.830537	2665.126968
536.191270	2659.261586
536.551947	2658.286123
536.912567	2655.057264
537.273131	2653.854948
537.633638	2650.414361
537.994089	2653.207160
538.354483	2647.031747
538.714821	2648.385297
539.075103	2647.303969
539.435328	2644.790954
539.795497	2639.159985
540.155609	2639.885911
540.515665	2640.357259
540.875665	2637.153606
541.235609	2634.411218
541.595496	2634.370889
541.955328	2635.868112
542.315102	2633.763430
542.674821	2632.183028
543.034483	2630.884931
543.394090	2628.976854
543.753640	2629.274282
544.113134	2630.615229
544.472571	2627.887965
544.831953	2628.318984
545.191278	2623.217336
545.550548	2625.228756
545.909761	2622.715741
546.268918	2623.207254
546.628019	2625.057357
546.987064	2622.302367
547.346053	2621.291615
547.704986	2625.014507
548.063863	2622.405710
548.422684	2622.829167
548.781449	2617.442694
549.140158	2617.876233
549.498811	2618.972684
549.857408	2617.326748
550.215949	2618.730709
550.574434	2614.670060
550.932864	2615.398506
551.291237	2613.003958
551.649555	2613.833228
552.007817	2617.011676
552.366022	2616.913373
552.724173	2616.361367
553.082267	2614.864144
553.440305	2615.912704
553.798288	2612.575460
554.156215	2612.583022
554.514086	2614.796088
554.871902	2610.833742
555.229661	2616.772221
555.587365	2611.521859
555.945014	2613.583691
556.302606	2613.692076
556.660143	2612.330964
557.017625	2610.806015
557.375050	2610.490943
557.732421	2613.752570
558.089735	2613.261057
558.446994	2612.318361
558.804197	2614.339864
559.161345	2613.782817
559.518437	2614.468413
559.875474	2614.589401
560.232455	2612.908176
560.589381	2609.253340
560.946251	2610.798453
561.303065	2611.708382
561.659825	2612.451952
562.016528	2610.932044
562.373177	2611.168978
562.729770	2609.525562
563.086307	2611.347939
563.442789	2608.411467
563.799216	2610.286776
564.155587	2607.919955
564.511904	2609.903649
564.868164	2610.788371
565.224370	2610.662342
565.580520	2608.545058
565.936615	2608.111518
566.292654	2607.458689
566.648638	2606.894080
567.004567	2606.737804
567.360441	2607.468771
567.716260	2607.357866
568.072023	2610.584204
568.427732	2604.786877
568.783385	2602.904007
569.138982	2602.752772
569.494525	2606.158071
569.850013	2605.391816
570.205445	2608.101436
570.560823	2605.482557
570.916145	2604.670931
571.271412	2607.839296
571.626625	2607.486415
571.981782	2604.738987
572.336884	2604.174377
572.691931	2605.543051
573.046923	2603.992896
573.401860	2603.556836
573.756743	2604.834768
574.111570	2605.684203
574.466342	2605.563215
574.821059	2600.653131
575.175722	2602.777978
575.530330	2604.955756
575.884882	2604.113883
576.239380	2602.914089
576.593823	2602.982144
576.948211	2602.901486
577.302544	2601.794953
577.656823	2602.634305
578.011047	2602.762854
578.365216	2599.370158
578.719330	2598.689602
579.073389	2600.771598
579.427394	2599.337390
579.781344	2599.730600
580.135239	2600.776640
580.489080	2599.786053
580.842866	2597.399067
581.196597	2598.893769
581.550273	2600.184304
581.903895	2599.705394
582.257463	2599.712956
582.610975	2598.324118
582.964434	2599.176073
583.317837	2599.841506
583.671186	2599.841506
584.024481	2599.849067
584.377721	2598.898810
584.730906	2597.225147
585.084037	2600.287648
585.437113	2599.788573
585.790135	2598.611464
586.143103	2594.777667
586.496016	2597.683892
586.848874	2590.971595
587.201679	2593.706421
587.554428	2593.247676
587.907124	2594.238263
588.259765	2592.564600
588.612352	2594.749940
588.964884	2594.664241
589.317362	2594.359251
589.669786	2594.351689
590.022155	2596.221957
590.374470	2595.710280
590.726731	2595.947214
591.078937	2598.329159
591.431090	2596.174066
591.783188	2594.563418
592.135232	2597.101638
592.487222	2595.639704
592.839157	2596.315218
593.191038	2593.716504
593.542866	2595.861515
593.894639	2592.035279
594.246358	2591.140474
594.598022	2594.865887
594.949633	2591.039651
595.301190	2592.181472
595.652692	2591.566452
596.004141	2592.254569
596.355535	2591.863880
596.706876	2591.836153
597.058162	2590.699373
597.409395	2592.589806
597.760573	2593.961000
598.111698	2589.116451
598.462768	2590.974116
598.813785	2590.180134
599.164748	2588.919846
599.515657	2590.948910
599.866511	2589.497058
600.217312	2591.682398
600.568060	2590.570824
600.918753	2591.493355
601.269392	2589.726430
601.619978	2591.359764
601.970510	2589.151739
602.320988	2588.750967
602.671412	2591.740371
603.021783	2590.152408
603.372100	2590.722058
603.722363	2590.190217
604.072572	2589.610484
604.422728	2590.550659
604.772830	2587.218456
605.122878	2584.201326
605.472872	2586.346337
605.822813	2585.512026
606.172701	2585.443970
606.522534	2588.884558
606.872314	2589.242480
607.222041	2589.197109
607.571714	2589.915474
607.921333	2590.170052
608.270899	2587.478076
608.620411	2591.788262
608.969870	2590.976637
609.319276	2592.189034
609.668627	2592.859507
610.017926	2596.468974
610.367171	2599.745724
610.716362	2597.729262
611.065500	2595.065012
611.414585	2596.363109
611.763616	2594.008891
612.112594	2591.637028
612.461518	2591.962182
612.810389	2591.032089
613.159207	2590.351533
613.507971	2590.621235
613.856682	2592.027717
614.205340	2591.921853
614.553945	2594.913778
614.902496	2592.259610
615.250994	2592.773808
615.599439	2590.129723
615.947830	2592.609970
616.296169	2592.340269
616.644454	2591.556369
616.992686	2593.358582
617.340864	2589.199630
617.688990	2586.426995
618.037063	2593.567790
618.385082	2590.487645
618.733048	2590.782552
619.080961	2590.946390
619.428821	2591.798345
619.776628	2589.721389
620.124382	2590.099476
620.472083	2589.239959
620.819731	2589.091245
621.167326	2590.538056
621.514868	2589.431523
621.862357	2591.861359
622.209793	2592.022676
622.557176	2588.385483
622.904506	2585.254927
623.251783	2581.716037
623.599007	2583.140163
623.946179	2586.298446
624.293297	2583.218301
624.640363	2583.810636
624.987376	2584.629824
625.334336	2586.406831
625.681243	2582.363825
626.028097	2583.956830
626.374899	2586.197623
626.721647	2583.324165
627.068343	2583.263671
627.414987	2584.536562
627.761577	2585.149063
628.108115	2580.987590
628.454600	2583.677046
628.801032	2584.453383
629.147412	2582.976325
629.493739	2582.540266
629.840014	2581.088413
630.186236	2585.529670
630.532405	2585.166707
630.878521	2580.942220
631.224585	2581.824422
631.570597	2580.289390
631.916556	2583.208218
632.262462	2583.414906
632.608316	2579.059349
632.954117	2579.208063
633.299866	2582.900708
633.645562	2581.879874
633.991206	2582.167220
634.336797	2575.079358
634.682336	2580.564133
635.027823	2577.645305
635.373257	2577.027764
635.718639	2578.482137
636.063968	2577.836869
636.409245	2579.729822
636.754470	2575.936354
637.099642	2577.640264
637.444762	2577.398289
637.789829	2575.679255
638.134845	2578.293093
638.479808	2574.744121
638.824719	2575.868298
639.169577	2574.242526
639.514383	2576.390058
639.859137	2573.834193
640.203839	2575.097002
640.548489	2573.072979
640.893086	2575.248237
641.237632	2570.461661
641.582125	2571.583318
641.926566	2567.663821
642.270955	2574.048442
642.615292	2575.817887
642.959576	2573.224213
643.303809	2572.102557
643.647990	2575.228072
643.992118	2572.057186
644.336195	2576.256467
644.680219	2573.130952
645.024192	2575.780078
645.368112	2576.528690
645.711981	2575.649008
646.055797	2573.995510
646.399562	2576.884091
646.743274	2575.573391
647.086935	2577.574729
647.430544	2577.776375
647.774101	2577.650346
648.117606	2575.147413
648.461059	2577.242013
648.804460	2578.769482
649.147810	2575.079358
649.491108	2575.507856
649.834354	2573.612382
650.177548	2573.418298
650.520690	2573.569532
650.863781	2574.068607
651.206820	2576.069945
651.549807	2573.677917
651.892742	2569.849161
652.235626	2571.931157
652.578458	2569.387895
652.921238	2569.516445
653.263967	2573.193966
653.606644	2569.536609
653.949269	2569.670200
654.291843	2570.625498
654.634365	2569.738255
654.976836	2569.592062
655.319255	2571.094326
655.661622	2571.177505
656.003938	2569.153482
656.346203	2571.326219
656.688416	2570.587690
657.030577	2569.062741
657.372687	2569.435786
657.714746	2570.496949
658.056753	2572.407546
658.398708	2564.815569
658.740612	2567.852864
659.082465	2566.075857
659.424266	2568.982082
659.766016	2565.589386
660.107715	2567.338666
660.449362	2570.111301
660.790958	2571.011147
661.132503	2568.919068
661.473996	2570.023081
661.815438	2569.670200
662.156829	2570.968297
662.498168	2570.401167
662.839456	2572.969635
663.180693	2568.994685
663.521879	2570.721280
663.863013	2567.671382
664.204097	2568.104922
664.545129	2567.656259
664.886110	2571.427042
665.227040	2570.933009
665.567918	2571.686661
665.908746	2569.569377
666.249522	2571.333781
666.590248	2570.131465
666.930922	2573.118349
667.271545	2570.817062
667.612118	2569.750858
667.952639	2570.953173
668.293109	2570.844789
668.633528	2570.108780
668.973896	2569.468554
669.314213	2571.739593
669.654480	2569.433266
669.994695	2571.784964
670.334859	2570.814542
670.674973	2570.945612
671.015035	2569.498801
671.355047	2568.316650
671.695008	2570.179356
672.034918	2565.972513
672.374777	2569.894531
672.714585	2571.588359
673.054342	2570.154151
673.394049	2570.789336
673.733705	2572.573904
674.073310	2570.280179
674.412864	2567.303378
674.752368	2569.327401
675.091820	2570.144068
675.431223	2568.848492
675.770574	2570.663307
676.109875	2565.135682
676.449125	2566.605178
676.788324	2566.458985
677.127473	2564.208110
677.466571	2563.867832
677.805619	2567.890672
678.144616	2567.449572
678.483562	2566.811866
678.822458	2567.477298
679.161303	2563.618295
679.500098	2566.247256
679.838842	2568.362020
680.177535	2562.783984
680.516179	2569.549212
680.854771	2567.673903
681.193314	2566.897565
681.531805	2569.995354
681.870247	2571.666497
682.208638	2572.011816
682.546978	2573.156158
682.885268	2573.037691
683.223508	2569.561815
683.561697	2569.125755
683.899836	2568.810683
684.237925	2569.032494
684.575963	2569.002247
684.913951	2565.755744
685.251889	2570.585169
685.589776	2568.972000
685.927614	2570.464182
686.265401	2569.259346
686.603137	2569.234140
686.940824	2569.062741
687.278460	2567.941084
687.616046	2570.507031
687.953582	2569.531568
688.291068	2569.639953
688.628504	2571.376630
688.965889	2571.641291
689.303224	2570.938050
689.640510	2567.033676
689.977745	2567.010991
690.314930	2567.973852
690.652065	2569.198852
690.989150	2566.569890
691.326185	2564.392112
691.663170	2564.903789
692.000105	2563.928326
692.336990	2563.159550
692.673825	2563.855229
693.010610	2562.957903
693.347345	2562.690722
693.684030	2558.647717
694.020665	2559.514795
694.357251	2556.898437
694.693786	2558.241904
695.030272	2561.064950
695.366707	2561.344734
695.703093	2560.467573
696.039429	2562.728531
696.375716	2562.824313
696.711952	2560.515464
697.048139	2561.619477
697.384276	2559.028324
697.720363	2559.091338
698.056400	2560.848181
698.392388	2557.652089
698.728326	2559.179559
699.064214	2558.562017
699.400053	2561.773232
699.735842	2557.193344
700.071581	2557.200906
700.407270	2560.076884
700.742910	2559.378684
701.078501	2556.545556
701.414042	2557.644527
701.749533	2556.757284
702.084974	2559.300546
702.420366	2557.299208
702.755709	2556.772408
703.091002	2555.025648
703.426246	2556.096893
703.761440	2557.032027
704.096584	2554.612273
704.431679	2555.754095
704.766725	2559.262738
705.101721	2556.457336
705.436668	2555.865000
705.771565	2557.180741
706.106413	2556.417006
706.441212	2558.463715
706.775961	2558.438509
707.110661	2556.283416
707.445311	2557.684857
707.779913	2557.289126
708.114465	2559.819785
708.448967	2556.147305
708.783421	2558.231822
709.117825	2556.001111
709.452180	2559.174517
709.786485	2558.483879
710.120742	2560.089487
710.454949	2559.005639
710.789107	2561.569066
711.123216	2559.038406
711.457275	2560.003787
711.791286	2559.091338
712.125247	2559.512275
712.459159	2560.200392
712.793023	2565.831361
713.126837	2560.628890
713.460602	2562.055537
713.794318	2560.923798
714.127985	2560.928839
714.461602	2559.466904
714.795171	2561.175856
715.128691	2559.388767
715.462162	2556.159907
715.795584	2557.382387
716.128957	2558.385577
716.462281	2556.769887
716.795556	2558.766184
717.128782	2557.382387
717.461960	2554.881975
717.795088	2557.016904
718.128167	2554.211502
718.461198	2554.622356
718.794180	2555.824671
719.127113	2554.173693
719.459997	2555.179403
719.792833	2553.883827
720.125619	2558.002449
720.458357	2551.648075
720.791046	2551.640513
721.123686	2553.074721
721.456278	2553.654454
721.788821	2552.182437
722.121315	2553.697304
722.453761	2551.239741
722.786158	2549.896274
723.118506	2552.903322
723.450805	2551.322920
723.783056	2554.387942
724.115259	2548.139432
724.447412	2553.596481
724.779518	2554.592109
725.111574	2553.233518
725.443582	2553.173024
725.775542	2553.780483
726.107453	2553.629248
726.439315	2552.459701
726.771129	2557.717624
727.102895	2554.629917
727.434612	2556.689229
727.766281	2554.703014
728.097901	2554.095555
728.429473	2549.167827
728.760996	2552.028682
729.092471	2550.811243
729.423897	2556.674105
729.755276	2557.190823
730.086606	2556.391801
730.417887	2552.963816
730.749120	2556.089331
731.080305	2557.941955
731.411442	2557.780638
731.742530	2560.175187
732.073570	2560.293654
732.404562	2555.383570
732.735506	2557.185782
733.066401	2557.079918
733.397249	2556.870710
733.728048	2558.478838
734.058798	2557.256358
734.389501	2555.499516
734.720156	2553.667057
735.050762	2552.522715
735.381320	2552.300904
735.711831	2552.225287
736.042293	2552.217725
736.372707	2551.975750
736.703073	2550.672612
737.033391	2552.210163
737.363661	2553.742674
737.693883	2551.479196
738.024056	2556.553118
738.354182	2552.847869
738.684260	2553.392314
739.014290	2553.150339
739.344272	2551.627910
739.674207	2549.364432
740.004093	2555.683518
740.333931	2551.244782
740.663722	2554.468600
740.993464	2553.533466
741.323159	2553.687222
741.652806	2555.179403
741.982405	2553.851059
742.311956	2550.783517
742.641460	2555.126471
742.970915	2554.544218
743.300323	2550.770914
743.629683	2550.715461
743.958996	2549.422405
744.288260	2549.989535
744.617477	2550.317210
744.946647	2547.058104
745.275768	2547.983156
745.604842	2547.075748
745.933869	2546.410316
746.262847	2543.705737
746.591778	2550.667570
746.920662	2550.808723
747.249498	2549.177909
747.578286	2551.222097
747.907027	2553.407437
748.235720	2552.474824
748.564365	2549.984494
748.892963	2549.997097
749.221514	2548.262940
749.550017	2551.156562
749.878473	2550.085317
750.206881	2550.448280
750.535242	2548.910728
750.863555	2547.602549
751.191821	2549.402241
751.520039	2548.918290
751.848210	2551.413661
752.176334	2546.770758
752.504411	2548.948537
752.832440	2549.583722
753.160421	2549.127498
753.488356	2545.760007
753.816243	2550.231511
754.144082	2547.433670
754.471875	2547.988197
754.799620	2549.724875
755.127318	2548.139432
755.454969	2546.957281
755.782572	2546.737991
756.110129	2549.389638
756.437638	2547.005172
756.765100	2547.715975
757.092515	2547.660522
757.419882	2548.497354
757.747203	2548.401572
758.074477	2547.317724
758.401703	2549.147663
758.728882	2548.598177
759.056014	2546.594318
759.383099	2547.723537
759.710138	2550.607077
760.037129	2549.644216
760.364073	2551.022972
760.690970	2551.315359
761.017820	2551.864844
761.344623	2546.962322
761.671379	2551.408620
761.998088	2547.625234
762.324751	2549.659340
762.651366	2555.192006
762.977935	2565.753223
763.304456	2566.128789
763.630931	2571.046435
763.957359	2567.187432
764.283740	2565.312122
764.610074	2556.888354
764.936362	2555.260062
765.262602	2554.009855
765.588796	2552.744526
765.914943	2549.382076
766.241044	2550.281922
766.567097	2550.503733
766.893104	2547.786551
767.219064	2546.004503
767.544978	2550.125646
767.870845	2547.111036
768.196665	2546.727909
768.522438	2543.269677
768.848165	2545.502908
769.173846	2543.695655
769.499479	2546.584236
769.825066	2545.548279
770.150607	2546.317055
770.476101	2546.256561
770.801548	2544.905532
771.126949	2543.960315
771.452303	2542.939482
771.777611	2544.756817
772.102872	2546.100285
772.428087	2541.205325
772.753256	2542.163144
773.078378	2538.931764
773.403453	2545.901159
773.728482	2543.350336
774.053465	2544.595501
774.378401	2541.913607
774.703291	2542.132897
775.028135	2541.598535
775.352932	2543.562064
775.677683	2541.684234
776.002388	2542.611807
776.327046	2541.495191
776.651658	2542.190870
776.976224	2543.483926
777.300743	2541.472506
777.625216	2542.374872
777.949643	2540.744059
778.274024	2542.720191
778.598359	2540.519728
778.922647	2538.490663
779.246889	2536.408667
779.571086	2537.580735
779.895236	2540.446631
780.219339	2541.860675
780.543397	2540.910417
780.867409	2540.890253
781.191374	2539.987886
781.515294	2542.621889
781.839167	2542.639533
782.162995	2539.932433
782.486776	2541.422094
782.810511	2540.413863
783.134201	2542.203473
783.457844	2540.600386
783.781441	2540.774306
784.104993	2542.107691
784.428498	2541.994265
784.751958	2540.618030
785.075372	2542.997455
785.398739	2541.127187
785.722061	2541.588452
786.045337	2540.988555
786.368568	2542.637012
786.691752	2540.333205
787.014891	2541.618699
787.337983	2542.422763
787.661030	2541.248174
787.984031	2545.485264
788.306987	2544.499719
788.629897	2546.541386
788.952760	2544.693803
789.275579	2544.038453
789.598351	2544.658515
789.921078	2544.247661
790.243759	2540.935623
790.566395	2544.053577
790.888984	2539.972762
791.211529	2539.748431
791.534027	2538.964532
791.856480	2540.696168
792.178888	2540.088709
792.501249	2541.648946
792.823566	2543.093237
793.145836	2541.041487
793.468062	2542.190870
793.790241	2540.807073
794.112375	2538.437731
794.434464	2541.318751
794.756507	2540.053421
795.078505	2541.301107
795.400457	2538.891435
795.722364	2536.204500
796.044226	2536.915303
796.366042	2540.612989
796.687812	2539.539223
797.009538	2544.076262
797.331218	2541.999306
797.652852	2538.573842
797.974442	2541.810263
798.295986	2538.394881
798.617484	2543.078113
798.938938	2540.733977
799.260346	2541.202804
799.581709	2542.100129
799.903026	2542.074924
800.224299	2537.646270
800.545526	2541.969059
800.866708	2539.110725
801.187845	2540.582742
801.508936	2539.980324
801.829983	2540.421425
802.150984	2536.023018
802.471940	2541.717002
802.792851	2538.334388
803.113717	2540.842362
803.434538	2539.181301
803.755314	2540.446631
804.076045	2540.905376
804.396731	2538.931764
804.717372	2540.134079
805.037967	2540.930582
805.358518	2537.111908
805.679024	2537.069058
805.999485	2541.107022
806.319901	2541.512835
806.640272	2538.120138
806.960598	2539.874460
807.280879	2541.016281
807.601115	2537.016126
807.921306	2539.491332
808.241453	2540.013092
808.561554	2539.650129
808.881611	2537.827752
809.201623	2539.594676
809.521590	2540.275232
809.841513	2537.086702
810.161390	2540.333205
810.481223	2537.822710
810.801011	2541.079296
811.120755	2537.235416
811.440453	2542.916796
811.760107	2539.934954
812.079716	2536.108718
812.399281	2534.863553
812.718801	2537.021167
813.038276	2534.480425
813.357707	2539.042670
813.677093	2539.161137
813.996434	2538.838503
814.315731	2540.224820
814.634983	2538.331867
814.954191	2539.380427
815.273354	2539.708102
815.592473	2542.427804
815.911547	2541.563247
816.230577	2540.489481
816.549562	2537.248019
816.868502	2540.146682
817.187399	2541.253216
817.506250	2541.510314
817.825058	2542.077444
818.143821	2542.392516
818.462539	2541.701878
818.781213	2541.810263
819.099843	2544.328319
819.418429	2545.296221
819.736970	2545.757487
820.055466	2548.409133
820.373919	2550.450801
820.692327	2553.462890
821.010691	2560.505382
821.329011	2575.991807
821.647286	2607.075561
821.965517	2635.351393
822.283704	2656.257058
822.601847	2665.613440
822.919945	2648.965029
823.237999	2629.365023
823.556010	2609.328957
823.873976	2596.380753
824.191897	2585.696028
824.509775	2574.832341
824.827609	2569.410580
825.145398	2563.028480
825.463144	2566.663152
825.780845	2563.482183
826.098502	2569.375292
826.416116	2577.234451
826.733685	2585.239803
827.051210	2590.404466
827.368692	2586.316090
827.686129	2579.530697
828.003522	2568.440158
828.320872	2555.509599
828.638177	2552.946172
828.955439	2549.780327
829.272656	2547.794113
829.589830	2545.626417
829.906960	2543.088196
830.224046	2543.909904
830.541088	2542.329502
830.858086	2541.568288
831.175041	2539.927392
831.491952	2542.440407
831.808819	2542.626930
832.125642	2542.508463
832.442421	2543.713299
832.759157	2548.010882
833.075849	2554.266954
833.392497	2560.003787
833.709101	2564.455126
834.025662	2566.267421
834.342179	2561.468242
834.658653	2556.129661
834.975083	2553.329300
835.291469	2557.972202
835.607811	2546.717826
835.924110	2542.301776
836.240366	2544.459389
836.556578	2539.990407
836.872746	2539.125849
837.188871	2540.854964
837.504952	2540.408822
837.820990	2536.771630
838.136984	2534.848430
838.452935	2539.249357
838.768842	2540.943185
839.084706	2538.009233
839.400526	2540.769265
839.716303	2542.682383
840.032037	2548.522559
840.347727	2549.591284
840.663373	2544.713968
840.978977	2542.609286
841.294537	2539.367824
841.610054	2540.381096
841.925527	2535.839016
842.240957	2539.009902
842.556344	2540.454193
842.871687	2536.403626
843.186987	2536.837165
843.502244	2536.101156
843.817458	2533.653676
844.132629	2535.760878
844.447756	2535.665097
844.762840	2531.798532
845.077881	2529.325846
845.392879	2530.145033
845.707833	2532.748789
846.022745	2529.388860
846.337613	2536.519572
846.652438	2534.455220
846.967221	2533.540250
847.281960	2536.411187
847.596656	2536.335570
847.911309	2534.354397
848.225919	2534.732483
848.540485	2533.686444
848.855009	2533.966228
849.169490	2533.305837
849.483928	2534.644263
849.798323	2533.643594
850.112675	2535.337422
850.426984	2536.650642
850.741251	2534.190559
851.055474	2533.893131
851.369654	2533.106711
851.683792	2532.171577
851.997887	2532.703419
852.311938	2534.581248
852.625947	2531.584283
852.939914	2535.047555
853.253837	2532.360620
853.567718	2533.318439
853.881555	2534.039324
854.195350	2530.792821
854.509103	2535.649973
854.822812	2533.333563
855.136479	2533.668800
855.450103	2533.252904
855.763685	2532.111083
856.077224	2536.164171
856.390720	2533.603265
856.704173	2533.628470
857.017584	2535.130734
857.330953	2531.400280
857.644278	2532.174097
857.957561	2538.344470
858.270802	2537.878163
858.584000	2534.679551
858.897155	2534.293903
859.210268	2533.394057
859.523339	2533.515044
859.836367	2535.171063
860.149352	2536.418749
860.462295	2537.293389
860.775195	2531.450692
861.088054	2529.686288
861.400869	2531.186031
861.713642	2526.026410
862.026373	2532.693336
862.339062	2534.366999
862.651708	2533.676361
862.964312	2532.277441
863.276873	2532.829447
863.589392	2535.871784
863.901869	2532.942873
864.214303	2536.123842
864.526696	2535.586959
864.839045	2534.160312
865.151353	2535.166022
865.463619	2532.156453
865.775842	2533.928419
866.088023	2532.264838
866.400162	2534.147709
866.712258	2534.152750
867.024313	2535.473533
867.336325	2535.375230
867.648296	2535.453368
867.960224	2535.450847
868.272110	2533.973789
868.583954	2535.488656
868.895755	2532.920188
869.207515	2534.525796
869.519233	2535.460930
869.830909	2535.839016
870.142542	2533.290713
870.454134	2533.883049
870.765684	2537.288348
871.077191	2532.940353
871.388657	2536.378420
871.700081	2535.531506
872.011463	2533.971269
872.322803	2535.118131
872.634101	2535.397915
872.945357	2533.822555
873.256571	2536.123842
873.567744	2535.334901
873.878874	2536.600231
874.189963	2534.785415
874.501010	2536.335570
874.812015	2534.800539
875.122979	2536.224665
875.433900	2536.592669
875.744780	2536.194418
876.055618	2537.084181
876.366415	2536.156609
876.677169	2535.776002
876.987882	2534.576207
877.298554	2533.174767
877.609183	2535.118131
877.919771	2533.757020
878.230317	2536.431352
878.540822	2540.471837
878.851285	2539.140972
879.161707	2539.698020
879.472087	2544.207332
879.782425	2545.034081
880.092722	2552.782334
880.402977	2561.700136
880.713191	2576.337126
881.023363	2593.086359
881.333494	2608.134204
881.643583	2607.446086
881.953631	2607.226796
882.263637	2603.024994
882.573602	2594.119796
882.883526	2588.352716
883.193408	2581.900039
883.503248	2570.156671
883.813048	2565.274314
884.122806	2564.069478
884.432522	2558.050340
884.742197	2552.353836
885.051831	2552.996583
885.361424	2546.064997
885.670975	2546.317055
885.980485	2546.024668
886.289954	2543.262115
886.599382	2541.674152
886.908768	2540.754141
887.218113	2540.156765
887.527417	2539.735828
887.836680	2538.231044
888.145901	2537.474871
888.455082	2536.890097
888.764221	2538.341949
889.073319	2539.352701
889.382376	2537.043852
889.691392	2536.980838
890.000366	2536.711136
890.309300	2535.400436
890.618193	2537.958822
890.927044	2535.014788
891.235855	2538.510828
891.544625	2536.764068
891.853353	2537.169881
892.162041	2537.921013
892.470687	2539.100643
892.779293	2538.382278
893.087858	2539.844213
893.396381	2542.163144
893.704864	2543.894780
894.013306	2543.872095
894.321707	2553.195709
894.630068	2555.852397
894.938387	2562.166442
895.246665	2560.318859
895.554903	2555.370967
895.863100	2551.123795
896.171256	2549.566078
896.479371	2548.157076
896.787446	2544.819832
897.095480	2544.955943
897.403473	2538.956970
897.711425	2540.461754
898.019336	2540.791950
898.327207	2541.296065
898.635038	2538.016795
898.942827	2537.772299
899.250576	2538.939326
899.558284	2537.432021
899.865952	2536.842206
900.173579	2536.075951
900.481165	2535.753317
900.788711	2537.343801
901.096216	2535.551671
901.403681	2534.082174
901.711105	2535.085364
902.018489	2536.169212
902.325832	2541.555685
902.633135	2535.370189
902.940397	2540.136600
903.247619	2540.459234
903.554800	2545.054246
903.861941	2553.225956
904.169041	2564.989488
904.476101	2571.701785
904.783121	2569.082905
905.090100	2564.329097
905.397039	2559.091338
905.703938	2553.283929
906.010796	2546.985007
906.317614	2543.725902
906.624391	2541.495191
906.931129	2540.827238
907.237826	2538.740200
907.544483	2535.314736
907.851099	2536.557381
908.157675	2537.250539
908.464211	2535.281969
908.770707	2530.611340
909.077163	2532.375744
909.383578	2529.366175
909.689954	2529.640918
909.996289	2529.351051
910.302584	2534.490508
910.608839	2530.056813
910.915054	2535.851619
911.221229	2533.482277
911.527363	2534.553522
911.833458	2531.435568
912.139513	2532.814324
912.445527	2531.400280
912.751502	2534.785415
913.057436	2534.082174
913.363331	2535.012267
913.669186	2536.191897
913.975000	2537.489994
914.280775	2538.427649
914.586510	2542.783206
914.892205	2546.173382
915.197859	2546.894267
915.503475	2556.003632
915.809050	2559.308108
916.114585	2566.761454
916.420081	2567.709191
916.725536	2565.342369
917.030952	2563.797256
917.336328	2555.817109
917.641665	2553.946841
917.946961	2551.131357
918.252218	2546.125491
918.557435	2546.543907
918.862612	2543.990562
919.167750	2539.508976
919.472848	2540.234903
919.777906	2538.384799
920.082925	2537.976466
920.387904	2536.955632
920.692843	2536.411187
920.997743	2535.995292
921.302603	2534.669469
921.607423	2535.783564
921.912204	2536.070909
922.216946	2532.905065
922.521647	2533.177287
922.826310	2532.539581
923.130932	2534.046886
923.435516	2535.060158
923.740059	2534.858512
924.044564	2532.166536
924.349028	2531.639735
924.653454	2530.172759
924.957840	2527.173273
925.262186	2528.362985
925.566493	2529.346010
925.870761	2528.846936
926.174989	2530.485311
926.479178	2531.017153
926.783328	2533.714170
927.087438	2529.532533
927.391509	2533.767102
927.695541	2531.778367
927.999533	2528.373067
928.303486	2530.500434
928.607400	2529.761905
928.911275	2530.084539
929.215110	2530.689478
929.518906	2530.344159
929.822663	2527.541277
930.126381	2530.263500
930.430060	2531.158305
930.733699	2531.405322
931.037299	2530.097142
931.340861	2531.775846
931.644383	2531.680064
931.947866	2529.671165
932.251309	2531.475898
932.554714	2529.928263
932.858080	2531.793490
933.161407	2530.334076
933.464694	2532.481608
933.767943	2531.516227
934.071153	2530.016484
934.374323	2530.986906
934.677455	2530.744930
934.980548	2530.502955
935.283602	2528.365506
935.586617	2530.550846
935.889593	2530.530681
936.192530	2529.744261
936.495428	2528.947759
936.798287	2529.174611
937.101108	2530.177801
937.403890	2529.104035
937.706632	2530.881042
938.009336	2528.776360
938.312002	2532.325332
938.614628	2532.683254
938.917216	2531.029756
939.219765	2529.824920
939.522275	2530.240815
939.824747	2534.921526
940.127179	2528.368026
940.429573	2527.679909
940.731929	2529.968593
941.034246	2526.321318
941.336524	2530.578572
941.638763	2534.069571
941.940964	2531.465815
942.243126	2528.040351
942.545250	2532.602596
942.847335	2528.867101
943.149381	2531.601927
943.451389	2528.647810
943.753359	2531.934643
944.055290	2532.312729
944.357182	2528.761236
944.659036	2528.985568
944.960851	2530.346679
945.262628	2533.278110
945.564367	2529.156967
945.866067	2529.656041
946.167729	2529.149405
946.469352	2531.002029
946.770937	2529.010773
947.072484	2533.245343
947.373992	2532.627801
947.675462	2528.355423
947.976893	2530.628984
948.278286	2528.796524
948.579641	2526.396935
948.880958	2530.681916
949.182236	2529.837523
949.483476	2529.562780
949.784678	2532.451361
950.085841	2530.117307
950.386967	2530.848274
950.688054	2529.146885
950.989103	2530.727286
951.290114	2527.795855
951.591087	2530.845753
951.892021	2530.266021
952.192917	2530.442461
952.493776	2531.415404
952.794596	2530.820548
953.095378	2529.913140
953.396122	2530.432379
953.696828	2530.087060
953.997496	2531.599406
954.298126	2528.471370
954.598718	2529.459436
954.899272	2528.405835
955.199788	2531.145702
955.500266	2528.499096
955.800706	2527.374919
956.101108	2523.818385
956.401472	2525.885258
956.701798	2523.508354
957.002087	2527.311905
957.302337	2527.662265
957.602550	2527.503468
957.902724	2531.417924
958.202861	2526.459950
958.502960	2529.083870
958.803022	2527.891637
959.103045	2526.454908
959.403031	2526.102028
959.702979	2526.470032
960.002889	2528.168901
960.302762	2529.235105
960.602596	2528.131092
960.902393	2525.784435
961.202153	2527.505989
961.501875	2527.032121
961.801559	2527.909281
962.101205	2528.690660
962.400814	2528.831813
962.700385	2526.785104
962.999918	2527.490866
963.299414	2526.681760
963.598873	2527.342152
963.898293	2527.349713
964.197677	2528.781401
964.497022	2528.050434
964.796331	2529.275434
965.095601	2528.967924
965.394835	2525.771832
965.694030	2527.821061
965.993189	2527.798376
966.292309	2524.745957
966.591393	2527.306863
966.890439	2526.558252
967.189447	2527.460619
967.488419	2527.216123
967.787353	2528.794004
968.086249	2527.059847
968.385108	2526.175124
968.683930	2529.434230
968.982714	2526.228057
969.281462	2524.115813
969.580172	2526.389373
969.878844	2528.751154
970.177480	2525.943231
970.476078	2529.504807
970.774639	2529.764426
971.073162	2525.918026
971.371649	2526.953983
971.670098	2525.169414
971.968510	2524.937521
972.266885	2521.113806
972.565223	2530.815507
972.863524	2528.478932
973.161788	2527.775691
973.460014	2526.974147
973.758204	2529.023376
974.056356	2526.187727
974.354471	2527.465660
974.652550	2526.331400
974.950591	2528.509179
975.248595	2528.325177
975.546563	2525.033303
975.844493	2527.430372
976.142386	2528.052954
976.440243	2526.149919
976.738062	2528.085722
977.035845	2525.860052
977.333590	2529.807276
977.631299	2528.688140
977.928971	2525.678571
978.226606	2527.072450
978.524204	2528.675537
978.821765	2525.449198
979.119290	2528.022707
979.416777	2525.857532
979.714228	2525.953314
980.011642	2527.720238
980.309020	2530.674354
980.606360	2527.962213
980.903664	2528.983047
981.200931	2525.991122
981.498162	2527.143026
981.795356	2526.422141
982.092513	2528.594878
982.389633	2527.654703
982.686717	2528.153777
982.983764	2526.916174
983.280775	2529.998840
983.577749	2527.816020
983.874686	2528.302491
984.171587	2528.705784
984.468451	2527.765608
984.765279	2527.521112
985.062070	2526.694363
985.358824	2524.990453
985.655543	2526.749816
985.952224	2525.925587
986.248869	2528.310053
986.545478	2523.520957
986.842050	2524.723272
987.138586	2522.248066
987.435086	2525.237470
987.731549	2522.694208
988.027975	2527.435413
988.324366	2526.943900
988.620719	2525.499610
988.917037	2526.301153
989.213318	2524.728313
989.509563	2528.128572
989.805772	2527.266534
990.101944	2527.155629
990.398080	2523.692356
990.694180	2525.902902
990.990244	2528.713345
991.286271	2525.320649
991.582262	2524.645134
991.878217	2525.877696
992.174136	2525.522295
992.470019	2526.079342
992.765865	2526.996832
993.061676	2527.954652
993.357450	2526.931298
993.653188	2524.975330
993.948890	2526.654034
994.244556	2526.971627
994.540186	2525.880217
994.835780	2526.543129
995.131337	2526.654034
995.426859	2526.414579
995.722345	2527.601771
996.017795	2524.375432
996.313208	2527.657224
996.608586	2525.343334
996.903928	2525.421472
997.199234	2526.023890
997.494504	2525.875176
997.789738	2526.863242
998.084936	2526.946421
998.380099	2525.378622
998.675225	2524.821575
998.970316	2527.788294
999.265371	2526.011287
999.560390	2524.849301
999.855373	2525.366019
1000.150320	2526.036493
1000.445232	2527.206040
1000.740108	2527.765608
1001.034948	2528.141174
1001.329752	2527.281658
1001.624521	2526.248221
1001.919254	2521.096162
1002.213951	2522.845442
1002.508613	2522.522808
1002.803239	2523.755371
1003.097829	2521.146573
1003.392384	2524.088087
1003.686903	2524.715710
1003.981386	2525.368540
1004.275834	2524.887110
1004.570246	2525.754188
1004.864623	2526.739734
1005.158964	2527.689991
1005.453270	2526.838036
1005.747540	2525.842408
1006.041775	2524.667819
1006.335974	2526.664116
1006.630138	2525.471883
1006.924266	2524.541791
1007.218359	2526.762419
1007.512416	2524.325021
1007.806438	2523.082377
1008.100425	2526.112110
1008.394376	2524.551873
1008.688292	2527.412728
1008.982172	2523.682274
1009.276017	2527.460619
1009.569827	2526.918695
1009.863602	2526.654034
1010.157341	2525.071112
1010.451045	2526.845598
1010.744714	2523.760412
1011.038347	2524.433406
1011.331945	2527.357275
1011.625508	2527.054806
1011.919036	2524.236801
1012.212528	2526.616225
1012.505986	2523.962058
1012.799408	2523.951976
1013.092795	2526.114631
1013.386147	2529.943387
1013.679464	2526.124713
1013.972745	2524.657737
1014.265992	2527.148067
1014.559204	2526.656555
1014.852380	2527.478263
1015.145521	2524.226718
1015.438628	2523.289064
1015.731699	2526.545649
1016.024736	2524.377953
1016.317737	2526.936339
1016.610703	2525.391225
1016.903635	2523.533560
1017.196531	2519.795544
1017.489393	2525.645803
1017.782219	2519.823271
1018.075011	2525.020700
1018.367768	2526.223015
1018.660490	2525.129085
1018.953177	2525.129085
1019.245829	2525.129085
