Dividing Wavelength (nm)	Counts (n)	Blue Motor Position (mm): 0.000000	Red Motor Position (mm): 27.300000	
326.493990	2125.579834
326.888308	2125.579834
327.282561	2125.579834
327.676750	2096.242839
328.070874	2093.366861
328.464933	2095.136306
328.858929	2103.655856
329.252859	2112.495519
329.646726	2125.201748
330.040528	2136.688017
330.434265	2155.844401
330.827938	2172.444921
331.221547	2188.259020
331.615091	2210.682073
332.008571	2226.357541
332.401986	2246.756570
332.795338	2265.290372
333.188625	2283.945162
333.581847	2304.122380
333.975006	2321.403455
334.368100	2341.772237
334.761129	2358.498786
335.154095	2377.622403
335.546996	2395.042110
335.939833	2408.348236
336.332606	2424.212747
336.725315	2437.781012
337.117960	2448.004472
337.510540	2455.135184
337.903056	2468.700929
338.295508	2474.667135
338.687896	2481.676859
339.080220	2491.701194
339.472480	2496.553304
339.864676	2501.027328
340.256807	2505.115704
340.648875	2507.865654
341.040879	2509.587208
341.432818	2512.498474
341.824694	2513.184071
342.216506	2517.237159
342.608253	2517.078362
342.999937	2515.273629
343.391557	2513.451252
343.783113	2512.516118
344.174605	2515.394617
344.566033	2511.394461
344.957397	2511.523011
345.348697	2508.079903
345.739934	2508.364728
346.131106	2505.115704
346.522215	2505.057731
346.913260	2502.751403
347.304241	2497.730414
347.695159	2496.835609
348.086012	2495.792090
348.476802	2494.859477
348.867528	2494.640187
349.258191	2490.592140
349.648789	2493.944507
350.039324	2488.492499
350.429796	2489.064670
350.820203	2487.383446
351.210548	2485.528301
351.600828	2485.740029
351.991045	2484.164669
352.381198	2487.093579
352.771288	2485.903867
353.161314	2483.458907
353.551276	2484.578043
353.941175	2483.952940
354.331010	2483.831953
354.720782	2483.968064
355.110490	2484.298259
355.500135	2483.900008
355.889717	2481.936479
356.279235	2480.041005
356.668689	2487.645586
357.058080	2484.948568
357.447408	2483.869761
357.836672	2482.922024
358.225873	2483.350523
358.615010	2481.510501
359.004084	2485.127529
359.393095	2486.889413
359.782043	2488.187510
360.170927	2490.841677
360.559748	2486.203816
360.948505	2492.132213
361.337199	2489.707417
361.725830	2491.615494
362.114398	2492.558190
362.502903	2492.548108
362.891344	2494.136071
363.279722	2497.261587
363.668037	2494.859477
364.056289	2495.303098
364.444478	2496.943994
364.832603	2495.449292
365.220665	2497.952225
365.608665	2496.946514
365.996601	2498.947853
366.384474	2500.271155
366.772284	2501.647390
367.160031	2501.934736
367.547715	2505.057731
367.935336	2505.851713
368.322893	2508.465551
368.710388	2509.766169
369.097820	2520.395442
369.485189	2520.972654
369.872495	2530.185362
370.259738	2534.704757
370.646918	2543.536858
371.034035	2549.520708
371.421090	2559.308108
371.808081	2569.229099
372.195010	2579.071952
372.581875	2593.338417
372.968678	2606.019440
373.355418	2615.643002
373.742096	2635.205200
374.128710	2647.510656
374.515262	2662.137564
374.901751	2679.181705
375.288177	2691.086390
375.674540	2716.201419
376.060841	2729.252966
376.447079	2752.303642
376.833254	2772.596807
377.219367	2784.526697
377.605417	2823.812409
377.991404	2832.861280
378.377329	2853.189733
378.763191	2869.563401
379.148991	2908.755852
379.534727	2933.611261
379.920402	2963.167546
380.306013	2973.073413
380.691563	3024.586443
381.077049	3044.556974
381.462474	3063.131106
381.847835	3103.205758
382.233134	3125.475055
382.618371	3123.642596
383.003545	3190.536187
383.388657	3198.579348
383.773706	3232.846591
384.158693	3249.162286
384.543618	3274.539454
384.928480	3309.514979
385.313280	3357.196733
385.698017	3352.435363
386.082692	3409.367634
386.467305	3413.937440
386.851856	3448.459262
387.236344	3465.568938
387.620770	3499.639576
388.005133	3523.665715
388.389435	3555.818195
388.773674	3564.037796
389.157851	3607.200155
389.541965	3625.577682
389.926018	3586.899429
390.310008	3658.897188
390.693936	3678.320754
391.077802	3719.229717
391.461606	3708.456771
391.845348	3770.054630
392.229027	3770.220988
392.612645	3779.037966
392.996200	3857.339688
393.379694	3898.987181
393.763125	3964.446564
394.146494	3927.845266
394.529801	3991.930934
394.913047	4041.727452
395.296230	4006.794777
395.679351	4060.117581
396.062410	4085.061211
396.445408	4067.291143
396.828343	4100.633335
397.211217	4122.895070
397.594028	4041.359448
397.976778	4112.951394
398.359466	4137.199344
398.742092	4167.814272
399.124656	4091.332406
399.507158	4169.941638
399.889598	4191.860575
400.271977	4255.641254
400.654294	4227.340216
401.036549	4234.362543
401.418742	4205.660734
401.800874	4306.713183
402.182944	4330.220084
402.564952	4390.466913
402.946898	4378.882342
403.328783	4375.051065
403.710606	4289.795071
404.092367	4480.592662
404.474067	4446.529585
404.855705	4453.337664
405.237282	4382.113722
405.618797	4489.787727
406.000250	4524.067573
406.381642	4605.827526
406.762972	4573.302002
407.144240	4581.564453
407.525447	4580.783074
407.906593	4636.697032
408.287677	4676.990975
408.668700	4607.808700
409.049661	4659.896422
409.430560	4699.287998
409.811399	4629.334427
410.192176	4786.746976
410.572891	4727.367225
410.953545	4833.551569
411.334138	4716.034711
411.714669	4783.077016
412.095139	4674.949307
412.475547	4816.232685
412.855894	4795.790806
413.236180	4809.278413
413.616405	4760.432153
413.996568	4845.078167
414.376670	4792.849293
414.756711	4743.521602
415.136691	4773.385398
415.516609	4852.849106
415.896466	4892.822935
416.276262	4927.135549
416.655997	4904.415069
417.035670	5087.245116
417.415283	5178.212737
417.794834	5122.855827
418.174324	5077.626594
418.553753	4985.812059
418.933121	5171.931459
419.312428	5238.066357
419.691674	5175.082180
420.070859	5298.454338
420.449983	5211.048293
420.829045	5329.044060
421.208047	5236.065018
421.586988	5302.479700
421.965867	5318.099715
422.344686	5449.109221
422.723444	5299.765038
423.102141	5120.983038
423.480777	5419.656280
423.859352	5189.242782
424.237866	5451.581907
424.616319	5444.955310
424.994712	5551.560591
425.373044	5433.532056
425.751314	5571.949537
426.129524	5374.119537
426.507673	5571.548766
426.885762	5653.311240
427.263789	5579.740641
427.641756	5460.643381
428.019662	5587.161219
428.397508	5591.148772
428.775292	5540.331421
429.153016	5637.320700
429.530679	5563.432508
429.908282	5649.898379
430.285824	5522.412639
430.663305	5790.939781
431.040726	5529.830697
431.418086	5528.484709
431.795385	5637.605525
432.172624	5648.214633
432.549802	5641.948479
432.926920	5652.774357
433.303977	5661.321633
433.680974	5697.343198
434.057910	5717.502773
434.434786	5718.803390
434.811601	5690.313309
435.188355	5925.652015
435.565050	5798.791378
435.941683	5783.680520
436.318257	5993.639536
436.694770	5980.073791
437.071222	6009.073029
437.447614	5946.287978
437.823946	5856.373958
438.200218	6013.025293
438.576429	5874.799375
438.952580	5971.594570
439.328670	6018.121900
439.704700	5925.188229
440.080670	5910.281537
440.456580	6178.949831
440.832429	6066.572429
441.208218	5905.656278
441.583947	6064.860958
441.959616	6065.977573
442.335224	5995.348487
442.710773	6127.928313
443.086261	6159.249002
443.461689	5951.278720
443.837057	6097.794816
444.212365	6253.576552
444.587612	6141.121012
444.962800	6293.661287
445.337927	6269.998111
445.712995	5878.822216
446.088002	6447.348423
446.462949	6279.286437
446.837837	6207.797834
447.212664	6377.281426
447.587431	6511.204719
447.962139	7040.835904
448.336786	7954.227446
448.711374	7685.042433
449.085901	6770.264574
449.460369	6692.572832
449.834776	6611.435461
450.209124	6990.129458
450.583412	7126.764892
450.957640	7264.400995
451.331808	7017.896133
451.705917	6573.795685
452.079965	6492.383571
452.453954	6683.937335
452.827883	6559.446041
453.201752	6639.192054
453.575562	6428.194559
453.949311	6605.738957
454.323001	6488.078426
454.696632	6548.284926
455.070202	6660.664848
455.443713	6793.736187
455.817164	6871.793413
456.190556	6926.048831
456.563888	6973.385266
456.937160	6992.826475
457.310373	6659.255846
457.683526	6658.981103
458.056619	6536.589449
458.429653	6502.927145
458.802628	6417.678712
459.175542	6498.122925
459.548398	6780.780421
459.921194	6890.576752
460.293930	6861.776640
460.666607	7260.998216
461.039224	7479.754046
461.411782	7555.136940
461.784280	7537.573560
462.156719	7410.788541
462.529099	7271.647653
462.901419	6890.591875
463.273680	6771.950840
463.645882	6744.330358
464.018024	6584.611481
464.390106	6680.312746
464.762130	6930.091836
465.134094	7220.041362
465.505999	7914.344357
465.877845	8752.534487
466.249631	9178.401081
466.621358	8837.911468
466.993026	8315.249679
467.364634	8058.992705
467.736184	7730.044814
468.107674	7414.849190
468.479105	7351.348296
468.850477	7138.896429
469.221790	6914.020638
469.593043	6630.982535
469.964238	6465.831814
470.335373	6411.306694
470.706449	6378.294698
471.077467	6295.458458
471.448425	7000.481467
471.819324	7543.691000
472.190164	7491.101683
472.560945	6694.213727
472.931667	6162.770248
473.302330	6018.106776
473.672934	5759.581284
474.043479	5874.572523
474.413965	5775.970075
474.784393	5634.842973
475.154761	5648.819572
475.525070	5614.993430
475.895321	5468.333661
476.265513	5478.080732
476.635645	5486.128934
477.005719	5402.153394
477.375734	5389.255602
477.745691	5413.125465
478.115588	5387.168564
478.485427	5398.304473
478.855207	5538.705648
479.224928	5760.302169
479.594591	5913.959058
479.964194	5744.261217
480.333739	5624.095233
480.703226	5488.735211
481.072653	5435.435091
481.442022	5424.790695
481.811333	5412.215537
482.180584	5257.888173
482.549777	5079.370833
482.918912	4957.505980
483.287988	4878.672417
483.657005	4809.177590
484.025964	4651.109691
484.394864	4604.181590
484.763706	4521.771327
485.132489	4401.905292
485.501213	4319.099298
485.869879	4274.921147
486.238487	4169.409797
486.607036	4136.675064
486.975527	4028.441491
487.343959	4003.601206
487.712333	3955.218732
488.080648	3888.758680
488.448905	3838.606761
488.817104	3775.615023
489.185244	3767.803755
489.553326	3731.535174
489.921350	3758.286057
490.289315	3849.402392
490.657222	3844.071372
491.025070	3773.361627
491.392861	3706.261349
491.760593	3607.618571
492.128267	3513.664066
492.495883	3433.192127
492.863440	3360.367619
493.230939	3290.421609
493.598380	3252.749067
493.965763	3200.089173
494.333088	3165.756395
494.700354	3123.685446
495.067563	3102.202569
495.434713	3062.808472
495.801805	3047.059907
496.168839	3015.908097
496.535815	2985.882985
496.902733	2965.647793
497.269593	2938.556633
497.636395	2924.093562
498.003139	2902.073802
498.369825	2878.995400
498.736453	2864.552494
499.103023	2846.631192
499.469535	2831.890858
499.835989	2814.695482
500.202385	2801.381795
500.568723	2783.679783
500.935003	2777.370779
501.301226	2760.964344
501.667390	2758.600043
502.033497	2750.105699
502.399546	2738.473236
502.765537	2725.832543
503.131470	2719.563868
503.497345	2716.035061
503.863163	2701.982844
504.228923	2699.316074
504.594625	2693.223839
504.960269	2684.356450
505.325856	2683.723785
505.691385	2671.201559
506.056856	2670.652073
506.422270	2667.057730
506.787625	2660.675630
507.152924	2659.359888
507.518164	2656.733447
507.883347	2649.892602
508.248472	2648.299597
508.613540	2649.461583
508.978550	2643.858340
509.343503	2639.565798
509.708398	2641.453710
510.073236	2640.740387
510.438016	2639.878349
510.802738	2632.919037
511.167403	2634.927936
511.532010	2630.862246
511.896561	2633.670168
512.261053	2634.383492
512.625488	2625.064919
512.989866	2623.182048
513.354186	2623.083745
513.718449	2617.127622
514.082655	2620.515277
514.446803	2622.630042
514.810894	2618.143415
515.174927	2619.645678
515.538904	2617.977057
515.902822	2620.215329
516.266684	2617.961933
516.630488	2618.090482
516.994235	2617.205760
517.357925	2612.696448
517.721558	2614.612086
518.085133	2612.580501
518.448651	2612.215018
518.812112	2611.181581
519.175516	2614.851541
519.538863	2611.078237
519.902152	2611.630244
520.265385	2611.332816
520.628560	2610.667383
520.991678	2609.081941
521.354739	2611.113526
521.717743	2608.356014
522.080690	2610.163268
522.443580	2609.633947
522.806413	2611.330295
523.169189	2608.255191
523.531908	2610.248968
523.894569	2608.116560
524.257174	2607.693103
524.619722	2608.088833
524.982213	2606.962135
525.344647	2606.813421
525.707025	2606.508432
526.069345	2605.391816
526.431608	2604.670931
526.793815	2607.655294
527.155964	2604.832248
527.518057	2605.507762
527.880093	2604.925509
528.242072	2600.968203
528.603995	2604.781836
528.965860	2601.802514
529.327669	2604.701178
529.689421	2601.409304
530.051117	2603.062803
530.412755	2601.686568
530.774337	2602.732607
531.135862	2601.898296
531.497331	2602.304109
531.858743	2597.895620
532.220098	2602.110025
532.581396	2600.340580
532.942638	2599.168512
533.303824	2599.483584
533.664953	2602.659511
534.026025	2601.394181
534.387040	2601.840323
534.747999	2599.584407
535.108902	2603.937443
535.469748	2596.864704
535.830537	2598.167843
536.191270	2602.422576
536.551947	2604.320571
536.912567	2600.164139
537.273131	2601.646239
537.633638	2597.676330
537.994089	2597.641042
538.354483	2599.823862
538.714821	2600.239757
539.075103	2601.704212
539.435328	2603.183791
539.795497	2600.572473
540.155609	2602.425097
540.515665	2601.152206
540.875665	2600.169181
541.235609	2599.042483
541.595496	2600.670775
541.955328	2604.640684
542.315102	2600.587596
542.674821	2599.657503
543.034483	2598.248501
543.394090	2598.805548
543.753640	2598.044334
544.113134	2599.377719
544.472571	2602.868718
544.831953	2599.975096
545.191278	2599.728080
545.550548	2598.518203
545.909761	2598.314036
546.268918	2601.752103
546.628019	2600.506938
546.987064	2598.583738
547.346053	2599.055086
547.704986	2598.971907
548.063863	2602.455344
548.422684	2601.805035
548.781449	2599.682709
549.140158	2598.997112
549.498811	2598.702205
549.857408	2597.968717
550.215949	2596.509303
550.574434	2596.784046
550.932864	2594.238263
551.291237	2597.018459
551.649555	2599.677668
552.007817	2598.876125
552.366022	2599.627257
552.724173	2598.745055
553.082267	2600.854777
553.440305	2601.099273
553.798288	2599.342431
554.156215	2599.286979
554.514086	2600.774119
554.871902	2600.673296
555.229661	2600.706063
555.587365	2598.601382
555.945014	2600.534664
556.302606	2597.371340
556.660143	2599.365117
557.017625	2600.091043
557.375050	2598.792946
557.732421	2600.368306
558.089735	2600.078440
558.446994	2602.372165
558.804197	2600.897627
559.161345	2598.341762
559.518437	2600.005343
559.875474	2600.338059
560.232455	2601.868049
560.589381	2599.017277
560.946251	2600.290168
561.303065	2599.097935
561.659825	2600.748913
562.016528	2600.096084
562.373177	2598.888727
562.729770	2600.080960
563.086307	2599.256732
563.442789	2598.331680
563.799216	2600.149016
564.155587	2597.769591
564.511904	2599.851588
564.868164	2600.327977
565.224370	2602.445262
565.580520	2598.674478
565.936615	2601.132041
566.292654	2596.511823
566.648638	2598.881166
567.004567	2600.028028
567.360441	2595.864035
567.716260	2597.883017
568.072023	2599.957452
568.427732	2594.535691
568.783385	2591.226174
569.138982	2596.761361
569.494525	2596.892431
569.850013	2592.567121
570.205445	2598.651793
570.560823	2597.078953
570.916145	2596.952924
571.271412	2596.882348
571.626625	2595.818665
571.981782	2595.523757
572.336884	2596.897472
572.691931	2595.652307
573.046923	2596.968048
573.401860	2596.045517
573.756743	2595.722883
574.111570	2595.427975
574.466342	2595.690115
574.821059	2596.678182
575.175722	2596.620208
575.530330	2593.381267
575.884882	2595.095259
576.239380	2595.314549
576.593823	2595.979982
576.948211	2595.049889
577.302544	2596.912595
577.656823	2593.406473
578.011047	2593.961000
578.365216	2595.180959
578.719330	2595.306988
579.073389	2594.001329
579.427394	2592.609970
579.781344	2591.231215
580.135239	2594.938983
580.489080	2589.570155
580.842866	2589.456729
581.196597	2598.482915
581.550273	2591.783221
581.903895	2593.464446
582.257463	2592.627614
582.610975	2595.944694
582.964434	2592.814137
583.317837	2590.815320
583.671186	2594.056782
584.024481	2590.386822
584.377721	2591.952100
584.730906	2591.813468
585.084037	2592.221802
585.437113	2591.926894
585.790135	2591.521081
586.143103	2593.313211
586.496016	2591.904209
586.848874	2590.154928
587.201679	2587.694845
587.554428	2586.502612
587.907124	2587.049578
588.259765	2587.150401
588.612352	2591.037130
588.964884	2587.261306
589.317362	2589.993612
589.669786	2587.024372
590.022155	2588.740885
590.374470	2588.579568
590.726731	2589.116451
591.078937	2586.537901
591.431090	2589.048395
591.783188	2585.827098
592.135232	2587.283991
592.487222	2587.331882
592.839157	2587.881368
593.191038	2588.067891
593.542866	2586.933631
593.894639	2590.359095
594.246358	2587.924218
594.598022	2588.788776
594.949633	2587.520926
595.301190	2586.477407
595.652692	2588.430854
596.004141	2587.563775
596.355535	2588.589650
596.706876	2587.891450
597.058162	2584.705441
597.409395	2585.396079
597.760573	2586.023703
598.111698	2585.242324
598.462768	2588.017479
598.813785	2586.616038
599.164748	2585.683425
599.515657	2587.122674
599.866511	2582.073959
600.217312	2586.270719
600.568060	2587.263827
600.918753	2589.013107
601.269392	2583.561099
601.619978	2584.723085
601.970510	2584.481110
602.320988	2584.463466
602.671412	2585.295256
603.021783	2584.816347
603.372100	2588.708117
603.722363	2586.240472
604.072572	2584.251737
604.422728	2585.764083
604.772830	2584.009762
605.122878	2580.947261
605.472872	2583.130081
605.822813	2577.766293
606.172701	2582.744432
606.522534	2584.924731
606.872314	2586.507654
607.222041	2585.040678
607.571714	2584.337437
607.921333	2583.563620
608.270899	2585.093610
608.620411	2585.307859
608.969870	2586.169896
609.319276	2586.227870
609.668627	2588.919846
610.017926	2589.096286
610.367171	2593.126689
610.716362	2591.745413
611.065500	2592.110896
611.414585	2590.676688
611.763616	2588.834146
612.112594	2586.580750
612.461518	2587.480596
612.810389	2588.080494
613.159207	2586.331213
613.507971	2585.252406
613.856682	2586.598394
614.205340	2584.952458
614.553945	2587.442788
614.902496	2586.104361
615.250994	2587.551172
615.599439	2587.160483
615.947830	2587.586461
616.296169	2585.544793
616.644454	2587.699887
616.992686	2581.282498
617.340864	2586.986563
617.688990	2584.954978
618.037063	2583.961871
618.385082	2585.751481
618.733048	2590.260793
619.080961	2586.938672
619.428821	2585.756522
619.776628	2585.522108
620.124382	2588.501430
620.472083	2586.825246
620.819731	2588.977819
621.167326	2585.678384
621.514868	2582.941037
621.862357	2583.356932
622.209793	2583.745101
622.557176	2583.157807
622.904506	2583.745101
623.251783	2580.228897
623.599007	2578.182188
623.946179	2577.572208
624.293297	2579.835687
624.640363	2580.775862
624.987376	2581.463979
625.334336	2580.680080
625.681243	2578.542631
626.028097	2579.755028
626.374899	2578.996334
626.721647	2579.565985
627.068343	2578.499781
627.414987	2578.766962
627.761577	2582.013465
628.108115	2580.722930
628.454600	2576.042218
628.801032	2577.441138
629.147412	2578.688824
629.493739	2579.039184
629.840014	2576.768144
630.186236	2578.343505
630.532405	2577.441138
630.878521	2581.007755
631.224585	2577.310068
631.570597	2577.408371
631.916556	2576.458113
632.262462	2575.956519
632.608316	2578.777044
632.954117	2575.462486
633.299866	2577.481468
633.645562	2575.540623
633.991206	2574.618092
634.336797	2576.155644
634.682336	2576.841241
635.027823	2570.915365
635.373257	2572.594069
635.718639	2572.037022
636.063968	2574.701271
636.409245	2573.730849
636.754470	2571.979048
637.099642	2570.819583
637.444762	2574.212279
637.789829	2570.713719
638.134845	2569.919737
638.479808	2573.761096
638.824719	2574.103895
639.169577	2570.945612
639.514383	2568.883780
639.859137	2569.433266
640.203839	2569.549212
640.548489	2571.237999
640.893086	2570.214644
641.237632	2566.769016
641.582125	2564.508058
641.926566	2564.177863
642.270955	2568.109963
642.615292	2570.496949
642.959576	2569.876887
643.303809	2570.570046
643.647990	2571.285890
643.992118	2569.881928
644.336195	2570.980900
644.680219	2570.685992
645.024192	2569.201372
645.368112	2569.355128
645.711981	2571.908472
646.055797	2571.046435
646.399562	2570.945612
646.743274	2571.515262
647.086935	2569.594582
647.430544	2573.496436
647.774101	2572.551219
648.117606	2573.473750
648.461059	2574.431570
648.804460	2573.587176
649.147810	2573.267063
649.491108	2568.293965
649.834354	2571.658935
650.177548	2570.383523
650.520690	2569.977710
650.863781	2570.277659
651.206820	2572.089954
651.549807	2570.670869
651.892742	2570.033163
652.235626	2569.990313
652.578458	2568.679613
652.921238	2567.285734
653.263967	2571.550550
653.606644	2568.064592
653.949269	2564.548387
654.291843	2566.123748
654.634365	2566.194324
654.976836	2568.830848
655.319255	2570.144068
655.661622	2563.459498
656.003938	2564.835733
656.346203	2568.687175
656.688416	2569.234140
657.030577	2565.309602
657.372687	2567.089129
657.714746	2566.506876
658.056753	2564.858418
658.398708	2563.119220
658.740612	2564.220712
659.082465	2564.124931
659.424266	2561.947152
659.766016	2563.908161
660.107715	2564.465208
660.449362	2568.215827
660.790958	2565.430589
661.132503	2565.871690
661.473996	2566.456464
661.815438	2564.497976
662.156829	2569.516445
662.498168	2566.620302
662.839456	2566.988306
663.180693	2566.590055
663.521879	2567.341187
663.863013	2564.288768
664.204097	2566.806824
664.545129	2564.792883
664.886110	2565.528892
665.227040	2567.303378
665.567918	2568.283882
665.908746	2565.239026
666.249522	2566.504355
666.590248	2564.553429
666.930922	2567.431927
667.271545	2565.261711
667.612118	2567.487380
667.952639	2568.419994
668.293109	2565.720456
668.633528	2567.953687
668.973896	2565.523851
669.314213	2566.708522
669.654480	2563.663665
669.994695	2565.249108
670.334859	2566.990827
670.674973	2567.452092
671.015035	2565.357493
671.355047	2567.739438
671.695008	2566.975703
672.034918	2564.845816
672.374777	2566.411094
672.714585	2564.346741
673.054342	2564.926474
673.394049	2567.361351
673.733705	2565.097873
674.073310	2567.056362
674.412864	2566.098542
674.752368	2563.363716
675.091820	2567.242884
675.431223	2563.134344
675.770574	2566.945456
676.109875	2560.964127
676.449125	2561.881617
676.788324	2561.274158
677.127473	2560.467573
677.466571	2558.322562
677.805619	2562.826833
678.144616	2565.349931
678.483562	2564.533264
678.822458	2561.483366
679.161303	2563.288099
679.500098	2566.166598
679.838842	2562.804148
680.177535	2563.378840
680.516179	2560.578479
680.854771	2563.877914
681.193314	2563.860270
681.531805	2564.790363
681.870247	2565.672565
682.208638	2568.714901
682.546978	2568.578790
682.885268	2566.703481
683.223508	2565.344890
683.561697	2564.205589
683.899836	2568.394788
684.237925	2564.530743
684.575963	2563.837585
684.913951	2563.169632
685.251889	2566.274983
685.589776	2568.677092
685.927614	2564.208110
686.265401	2566.065775
686.603137	2565.291958
686.940824	2563.028480
687.278460	2567.681465
687.616046	2565.891855
687.953582	2565.077709
688.291068	2566.486711
688.628504	2569.881928
688.965889	2568.389747
689.303224	2566.915209
689.640510	2565.271793
689.977745	2565.481001
690.314930	2563.071329
690.652065	2566.085939
690.989150	2563.005794
691.326185	2561.720300
691.663170	2561.488407
692.000105	2564.198027
692.336990	2558.594785
692.673825	2560.079405
693.010610	2561.495969
693.347345	2558.032696
693.684030	2555.801986
694.020665	2556.462377
694.357251	2553.243600
694.693786	2559.073694
695.030272	2558.728375
695.366707	2558.609908
695.703093	2556.545556
696.039429	2556.664023
696.375716	2558.284754
696.711952	2556.348951
697.048139	2556.472459
697.384276	2555.910370
697.720363	2558.070505
698.056400	2556.689229
698.392388	2556.217881
698.728326	2554.448436
699.064214	2555.980947
699.400053	2557.359702
699.735842	2554.352654
700.071581	2556.260731
700.407270	2554.539177
700.742910	2554.148487
701.078501	2556.210319
701.414042	2552.429454
701.749533	2554.120761
702.084974	2554.231666
702.420366	2555.529763
702.755709	2554.203940
703.091002	2554.052705
703.426246	2552.147149
703.761440	2551.219577
704.096584	2554.488765
704.431679	2555.955741
704.766725	2553.379711
705.101721	2554.531615
705.436668	2551.867365
705.771565	2553.944320
706.106413	2556.613611
706.441212	2553.165462
706.775961	2553.992211
707.110661	2554.786193
707.445311	2554.052705
707.779913	2553.679660
708.114465	2552.489948
708.448967	2554.226625
708.783421	2555.665874
709.117825	2557.606719
709.452180	2554.662685
709.786485	2554.312325
710.120742	2557.198385
710.454949	2556.532953
710.789107	2555.345761
711.123216	2554.670247
711.457275	2554.022458
711.791286	2556.270813
712.125247	2556.054043
712.459159	2560.268448
712.793023	2559.101421
713.126837	2559.136709
713.460602	2557.170659
713.794318	2555.988508
714.127985	2558.499003
714.461602	2555.993549
714.795171	2557.543704
715.128691	2555.749053
715.462162	2554.324928
715.795584	2554.692932
716.128957	2551.791748
716.462281	2553.299053
716.795556	2555.116389
717.128782	2550.665050
717.461960	2551.408620
717.795088	2549.866027
718.128167	2551.665719
718.461198	2551.764021
718.794180	2551.469114
719.127113	2548.351160
719.459997	2551.950544
719.792833	2552.623538
720.125619	2552.963816
720.458357	2552.812581
720.791046	2549.651778
721.123686	2549.893753
721.456278	2551.804351
721.788821	2548.194884
722.121315	2553.392314
722.453761	2548.467107
722.786158	2550.183620
723.118506	2550.211346
723.450805	2548.474668
723.783056	2549.414844
724.115259	2549.800492
724.447412	2550.236552
724.779518	2550.349978
725.111574	2550.952396
725.443582	2552.202602
725.775542	2552.752088
726.107453	2548.414175
726.439315	2551.234700
726.771129	2555.683518
727.102895	2553.294012
727.434612	2551.176727
727.766281	2553.414999
728.097901	2547.726057
728.429473	2552.285781
728.760996	2549.094730
729.092471	2547.451314
729.423897	2552.794937
729.755276	2551.433826
730.086606	2553.402396
730.417887	2550.970040
730.749120	2553.730071
731.080305	2554.657644
731.411442	2554.829043
731.742530	2551.910215
732.073570	2554.047664
732.404562	2555.408776
732.735506	2552.401727
733.066401	2552.742005
733.397249	2556.921122
733.728048	2550.833928
734.058798	2551.748898
734.389501	2549.402241
734.720156	2550.594474
735.050762	2551.312838
735.381320	2551.380894
735.711831	2549.674463
736.042293	2550.803682
736.372707	2546.622044
736.703073	2550.304607
737.033391	2549.619010
737.363661	2548.583053
737.693883	2551.070863
738.024056	2550.034906
738.354182	2550.748229
738.684260	2548.441901
739.014290	2549.745039
739.344272	2548.817467
739.674207	2548.671273
740.004093	2552.111861
740.333931	2549.331665
740.663722	2550.743188
740.993464	2549.407282
741.323159	2552.598332
741.652806	2549.964329
741.982405	2550.796120
742.311956	2552.560524
742.641460	2550.115564
742.970915	2548.603218
743.300323	2550.072714
743.629683	2548.061294
743.958996	2550.899463
744.288260	2547.219421
744.617477	2549.810574
744.946647	2545.157589
745.275768	2544.005686
745.604842	2546.354863
745.933869	2547.559699
746.262847	2542.074924
746.591778	2546.160779
746.920662	2547.221942
747.249498	2548.603218
747.578286	2546.095244
747.907027	2547.027857
748.235720	2544.998793
748.564365	2549.608928
748.892963	2548.179761
749.221514	2547.257230
749.550017	2545.568443
749.878473	2547.557178
750.206881	2545.707075
750.535242	2547.600028
750.863555	2545.986859
751.191821	2546.364946
751.520039	2547.698331
751.848210	2546.110367
752.176334	2547.673125
752.504411	2547.594987
752.832440	2545.271015
753.160421	2548.885522
753.488356	2546.044832
753.816243	2546.652291
754.144082	2547.310162
754.471875	2542.989893
754.799620	2545.132383
755.127318	2546.022147
755.454969	2545.807898
755.782572	2546.775800
756.110129	2547.226983
756.437638	2545.202960
756.765100	2544.096426
757.092515	2546.022147
757.419882	2546.536345
757.747203	2545.127342
758.074477	2545.361756
758.401703	2546.657332
758.728882	2544.177085
759.056014	2547.166489
759.383099	2546.082641
759.710138	2547.766386
760.037129	2545.835624
760.364073	2543.693134
760.690970	2548.391489
761.017820	2548.494833
761.344623	2546.480892
761.671379	2550.944834
761.998088	2541.207845
762.324751	2549.384597
762.651366	2549.981973
762.977935	2558.924980
763.304456	2561.833726
763.630931	2563.492266
763.957359	2560.616288
764.283740	2557.009342
764.610074	2554.551779
764.936362	2551.239741
765.262602	2547.768907
765.588796	2548.837632
765.914943	2547.721016
766.241044	2546.322096
766.567097	2545.157589
766.893104	2546.191026
767.219064	2545.888557
767.544978	2542.621889
767.870845	2543.695655
768.196665	2544.111550
768.522438	2544.683721
768.848165	2543.304965
769.173846	2541.560726
769.499479	2545.933927
769.825066	2542.475695
770.150607	2544.393854
770.476101	2539.624923
770.801548	2544.582898
771.126949	2542.800850
771.452303	2544.245140
771.777611	2540.093750
772.102872	2542.042156
772.428087	2539.556867
772.753256	2541.696837
773.078378	2543.196580
773.403453	2539.763555
773.728482	2542.672300
774.053465	2542.155582
774.378401	2541.255736
774.703291	2543.181457
775.028135	2540.665921
775.352932	2541.364121
775.677683	2541.185160
776.002388	2540.250026
776.327046	2541.724563
776.651658	2538.241126
776.976224	2542.004347
777.300743	2540.217258
777.625216	2538.258770
777.949643	2540.625592
778.274024	2541.401930
778.598359	2535.728111
778.922647	2535.682741
779.246889	2538.682227
779.571086	2535.418080
779.895236	2539.309851
780.219339	2538.462937
780.543397	2539.355221
780.867409	2539.171219
781.191374	2539.957639
781.515294	2539.723225
781.839167	2540.549975
782.162995	2539.619882
782.486776	2541.187681
782.810511	2536.940508
783.134201	2540.900335
783.457844	2538.087371
783.781441	2541.371683
784.104993	2539.214069
784.428498	2538.588966
784.751958	2537.401774
785.075372	2541.263298
785.398739	2538.820859
785.722061	2537.106867
786.045337	2539.609799
786.368568	2540.895294
786.691752	2538.057124
787.014891	2541.893442
787.337983	2539.080478
787.661030	2542.324461
787.984031	2543.859492
788.306987	2542.483257
788.629897	2541.129707
788.952760	2539.977804
789.275579	2542.037115
789.598351	2539.670293
789.921078	2540.464275
790.243759	2538.120138
790.566395	2539.642567
790.888984	2538.135262
791.211529	2538.954449
791.534027	2541.268339
791.856480	2539.352701
792.178888	2539.443441
792.501249	2538.155427
792.823566	2540.174409
793.145836	2539.350180
793.468062	2538.228523
793.790241	2539.680376
794.112375	2538.019315
794.434464	2541.593493
794.756507	2537.941178
795.078505	2540.267670
795.400457	2535.791125
795.722364	2535.256763
796.044226	2537.888245
796.366042	2536.973276
796.687812	2537.275745
797.009538	2538.117618
797.331218	2540.746580
797.652852	2538.898997
797.974442	2539.294727
798.295986	2537.613503
798.617484	2540.179450
798.938938	2541.454862
799.260346	2541.311189
799.581709	2539.423277
799.903026	2538.588966
800.224299	2536.877494
800.545526	2536.902700
800.866708	2538.110056
801.187845	2539.214069
801.508936	2536.958153
801.829983	2540.252547
802.150984	2537.363965
802.471940	2538.054603
802.792851	2537.038811
803.113717	2539.652649
803.434538	2536.781712
803.755314	2538.132741
804.076045	2537.568132
804.396731	2538.682227
804.717372	2538.528472
805.037967	2535.415559
805.358518	2536.393543
805.679024	2535.362627
805.999485	2536.817000
806.319901	2540.113915
806.640272	2537.701723
806.960598	2537.694161
807.280879	2538.183153
807.601115	2539.299768
807.921306	2536.481763
808.241453	2539.362783
808.561554	2534.944212
808.881611	2538.286497
809.201623	2537.076620
809.521590	2540.396219
809.841513	2537.865560
810.161390	2538.835982
810.481223	2533.822555
810.801011	2537.248019
811.120755	2537.230375
811.440453	2537.273225
811.760107	2538.092412
812.079716	2534.314067
812.399281	2533.809952
812.718801	2534.732483
813.038276	2532.660569
813.357707	2536.577545
813.677093	2536.053265
813.996434	2537.121990
814.315731	2536.501928
814.634983	2538.286497
814.954191	2539.277083
815.273354	2535.569315
815.592473	2536.209541
815.911547	2538.956970
816.230577	2538.873791
816.549562	2538.783050
816.868502	2537.754655
817.187399	2538.362114
817.506250	2541.028884
817.825058	2537.986548
818.143821	2539.261960
818.462539	2537.553009
818.781213	2539.876981
819.099843	2542.362269
819.418429	2543.564585
819.736970	2545.986859
820.055466	2546.826211
820.373919	2547.027857
820.692327	2551.640513
821.010691	2554.488765
821.329011	2569.823955
821.647286	2594.031576
821.965517	2618.892026
822.283704	2638.091260
822.601847	2642.320788
822.919945	2632.694705
823.237999	2615.721140
823.556010	2597.220106
823.873976	2587.460432
824.191897	2579.621437
824.509775	2566.322874
824.827609	2562.675599
825.145398	2559.582851
825.463144	2558.700649
825.780845	2558.829198
826.098502	2562.771381
826.416116	2570.088616
826.733685	2576.342167
827.051210	2580.160841
827.368692	2576.074986
827.686129	2567.371434
828.003522	2561.052347
828.320872	2549.790410
828.638177	2550.133208
828.955439	2543.138607
829.272656	2540.121477
829.589830	2541.840510
829.906960	2542.531148
830.224046	2544.862682
830.541088	2540.784388
830.858086	2536.209541
831.175041	2539.299768
831.491952	2540.917979
831.808819	2541.071734
832.125642	2538.352032
832.442421	2540.761703
832.759157	2548.116747
833.075849	2548.598177
833.392497	2555.058415
833.709101	2556.853066
834.025662	2559.557645
834.342179	2556.094373
834.658653	2552.565565
834.975083	2548.855276
835.291469	2551.010369
835.607811	2545.316386
835.924110	2541.313709
836.240366	2538.614172
836.556578	2539.486291
836.872746	2538.964532
837.188871	2538.268853
837.504952	2536.212062
837.820990	2538.296579
838.136984	2535.279448
838.452935	2538.057124
838.768842	2534.931609
839.084706	2537.409336
839.400526	2538.074768
839.716303	2538.984696
840.032037	2544.635830
840.347727	2543.932589
840.663373	2544.174564
840.978977	2541.633823
841.294537	2539.191384
841.610054	2535.259284
841.925527	2537.323636
842.240957	2535.934798
842.556344	2535.619726
842.871687	2534.445137
843.186987	2536.990920
843.502244	2535.148378
843.817458	2534.384643
844.132629	2534.130065
844.447756	2535.728111
844.762840	2526.981709
845.077881	2528.451205
845.392879	2530.281144
845.707833	2531.649817
846.022745	2528.277286
846.337613	2534.457740
846.652438	2532.887421
846.967221	2536.171733
847.281960	2533.769623
847.596656	2535.516382
847.911309	2532.723583
848.225919	2534.125024
848.540485	2530.611340
848.855009	2531.334745
849.169490	2534.177956
849.483928	2535.803728
849.798323	2534.556043
850.112675	2532.058151
850.426984	2531.659900
850.741251	2533.835158
851.055474	2531.977493
851.369654	2534.803059
851.683792	2535.234078
851.997887	2534.230888
852.311938	2530.691998
852.625947	2532.615198
852.939914	2532.930271
853.253837	2532.763913
853.567718	2532.285003
853.881555	2534.253573
854.195350	2533.757020
854.509103	2533.439427
854.822812	2532.998326
855.136479	2533.550332
855.450103	2534.717360
855.763685	2530.974303
856.077224	2533.469674
856.390720	2537.202648
856.704173	2529.913140
857.017584	2532.108562
857.330953	2533.033614
857.644278	2533.028573
857.957561	2537.404295
858.270802	2531.604447
858.584000	2533.222658
858.897155	2534.339273
859.210268	2532.153933
859.523339	2532.612678
859.836367	2533.018491
860.149352	2531.294416
860.462295	2533.867925
860.775195	2527.505989
861.088054	2528.753675
861.400869	2530.603778
861.713642	2529.822399
862.026373	2530.936494
862.339062	2534.729962
862.651708	2530.873480
862.964312	2534.026722
863.276873	2533.573018
863.589392	2532.022863
863.901869	2531.516227
864.214303	2532.171577
864.526696	2534.556043
864.839045	2533.600744
865.151353	2534.366999
865.463619	2535.324819
865.775842	2532.801721
866.088023	2536.209541
866.400162	2532.121165
866.712258	2533.613347
867.024313	2532.158974
867.336325	2534.671989
867.648296	2534.704757
867.960224	2533.502442
868.272110	2534.538399
868.583954	2530.641587
868.895755	2535.060158
869.207515	2535.062679
869.519233	2534.593851
869.830909	2534.167874
870.142542	2532.864736
870.454134	2535.014788
870.765684	2535.549150
871.077191	2532.957997
871.388657	2536.373379
871.700081	2533.474715
872.011463	2532.955476
872.322803	2532.501772
872.634101	2534.377082
872.945357	2533.797349
873.256571	2535.017308
873.567744	2532.584952
873.878874	2533.383974
874.189963	2533.956145
874.501010	2537.800025
874.812015	2534.871115
875.122979	2533.504962
875.433900	2535.100487
875.744780	2533.961187
876.055618	2535.438245
876.366415	2535.710467
876.677169	2535.564273
876.987882	2532.897503
877.298554	2530.933974
877.609183	2533.638553
877.919771	2533.273069
878.230317	2535.405477
878.540822	2537.179963
878.851285	2537.305992
879.161707	2539.970242
879.472087	2541.638864
879.782425	2541.870757
880.092722	2547.668084
880.402977	2554.415668
880.713191	2567.615930
881.023363	2582.469689
881.333494	2595.526278
881.643583	2592.756164
881.953631	2591.876483
882.263637	2587.097469
882.573602	2585.539752
882.883526	2577.095819
883.193408	2567.963769
883.503248	2560.649055
883.813048	2560.543191
884.122806	2556.361554
884.432522	2554.887016
884.742197	2549.364432
885.051831	2546.584236
885.361424	2541.737166
885.670975	2543.463762
885.980485	2543.088196
886.289954	2541.530479
886.599382	2541.112063
886.908768	2539.289686
887.218113	2538.631816
887.527417	2539.400592
887.836680	2537.048893
888.145901	2536.244829
888.455082	2535.801208
888.764221	2534.283820
889.073319	2537.142155
889.382376	2536.433872
889.691392	2533.023532
890.000366	2536.776671
890.309300	2534.881197
890.618193	2537.028729
890.927044	2536.257432
891.235855	2534.046886
891.544625	2534.220806
891.853353	2537.835313
892.162041	2536.761547
892.470687	2533.943543
892.779293	2537.648791
893.087858	2535.644932
893.396381	2536.756506
893.704864	2539.932433
894.013306	2539.496373
894.321707	2550.024823
894.630068	2556.109496
894.938387	2555.640669
895.246665	2553.783003
895.554903	2552.081614
895.863100	2549.508105
896.171256	2545.896118
896.479371	2545.218083
896.787446	2545.800336
897.095480	2542.954605
897.403473	2539.655170
897.711425	2539.566950
898.019336	2539.408153
898.327207	2536.058307
898.635038	2535.569315
898.942827	2536.428831
899.250576	2535.382792
899.558284	2533.628470
899.865952	2533.464633
900.173579	2533.880528
900.481165	2535.871784
900.788711	2535.332380
901.096216	2536.673327
901.403681	2536.880015
901.711105	2536.217103
902.018489	2533.883049
902.325832	2539.330015
902.633135	2536.499407
902.940397	2533.288192
903.247619	2537.885725
903.554800	2542.377393
903.861941	2548.749411
904.169041	2560.470094
904.476101	2563.373799
904.783121	2559.618139
905.090100	2558.534291
905.397039	2556.117058
905.703938	2550.435677
906.010796	2546.498536
906.317614	2542.662218
906.624391	2539.577032
906.931129	2534.167874
907.237826	2536.668286
907.544483	2534.240971
907.851099	2535.226516
908.157675	2534.465302
908.464211	2532.602596
908.770707	2528.262162
909.077163	2532.952956
909.383578	2529.519930
909.689954	2528.920033
909.996289	2526.341482
910.302584	2533.058820
910.608839	2532.504293
910.915054	2532.952956
911.221229	2530.523120
911.527363	2535.251722
911.833458	2532.428676
912.139513	2532.748789
912.445527	2532.290044
912.751502	2531.730476
913.057436	2533.210055
913.363331	2533.517565
913.669186	2533.749458
913.975000	2536.597710
914.280775	2535.667617
914.586510	2539.491332
914.892205	2540.756662
915.197859	2546.029709
915.503475	2550.226469
915.809050	2555.633107
916.114585	2560.611246
916.420081	2558.362892
916.725536	2560.233160
917.030952	2554.418189
917.336328	2553.273847
917.641665	2552.212684
917.946961	2546.801005
918.252218	2545.434853
918.557435	2542.455531
918.862612	2540.134079
919.167750	2539.539223
919.472848	2538.208359
919.777906	2538.692309
920.082925	2537.079140
920.387904	2535.728111
920.692843	2535.468492
920.997743	2535.526465
921.302603	2533.003367
921.607423	2534.540919
921.912204	2533.852802
922.216946	2530.187883
922.521647	2534.218285
922.826310	2532.370702
923.130932	2534.833306
923.435516	2531.972451
923.740059	2533.247863
924.044564	2531.821217
924.349028	2531.581762
924.653454	2526.696884
924.957840	2531.017153
925.262186	2526.764939
925.566493	2530.944056
925.870761	2526.593540
926.174989	2529.300640
926.479178	2530.366844
926.783328	2530.906247
927.087438	2532.065713
927.391509	2532.164015
927.695541	2529.454395
927.999533	2528.307533
928.303486	2529.293078
928.607400	2527.836185
928.911275	2530.031607
929.215110	2528.552028
929.518906	2528.239477
929.822663	2529.461957
930.126381	2528.806607
930.430060	2528.975485
930.733699	2528.584796
931.037299	2528.640249
931.340861	2531.599406
931.644383	2528.725948
931.947866	2531.906916
932.251309	2526.507841
932.554714	2529.502286
932.858080	2529.519930
933.161407	2528.645290
933.464694	2528.554549
933.767943	2527.349713
934.071153	2530.490352
934.374323	2528.940197
934.677455	2529.971113
934.980548	2530.117307
935.283602	2529.787111
935.586617	2528.335259
935.889593	2528.451205
936.192530	2531.612009
936.495428	2527.745444
936.798287	2529.083870
937.101108	2529.398942
937.403890	2530.613860
937.706632	2528.073119
938.009336	2527.324508
938.312002	2532.922709
938.614628	2529.903058
938.917216	2532.358100
939.219765	2533.220137
939.522275	2532.088398
939.824747	2531.995137
940.127179	2529.323325
940.429573	2528.650331
940.731929	2529.383819
941.034246	2527.430372
941.336524	2530.714683
941.638763	2526.772501
941.940964	2530.356762
942.243126	2528.887265
942.545250	2529.961031
942.847335	2529.318284
943.149381	2527.453057
943.451389	2530.621422
943.753359	2530.210568
944.055290	2529.827440
944.357182	2531.801052
944.659036	2528.630166
944.960851	2530.901206
945.262628	2528.935156
945.564367	2527.949611
945.866067	2531.445651
946.167729	2529.945907
946.469352	2528.567152
946.770937	2527.321987
947.072484	2528.995650
947.373992	2531.798532
947.675462	2528.030269
947.976893	2531.725435
948.278286	2527.417769
948.579641	2531.927081
948.880958	2529.401463
949.182236	2528.010104
949.483476	2531.067564
949.784678	2530.097142
950.085841	2526.858201
950.386967	2529.802235
950.688054	2529.857687
950.989103	2529.136802
951.290114	2528.519261
951.591087	2530.583613
951.892021	2531.387678
952.192917	2528.622605
952.493776	2528.688140
952.794596	2531.710311
953.095378	2528.065557
953.396122	2529.524971
953.696828	2530.883562
953.997496	2529.787111
954.298126	2529.098994
954.598718	2529.340969
954.899272	2530.649148
955.199788	2528.057995
955.500266	2527.720238
955.800706	2525.953314
956.101108	2522.908457
956.401472	2526.147398
956.701798	2526.326359
957.002087	2526.616225
957.302337	2525.061029
957.602550	2528.567152
957.902724	2525.368540
958.202861	2527.256452
958.502960	2525.822244
958.803022	2527.879034
959.103045	2527.281658
959.403031	2526.394415
959.702979	2528.403314
960.002889	2526.565814
960.302762	2525.275278
960.602596	2528.579755
960.902393	2526.528005
961.202153	2527.115300
961.501875	2526.384332
961.801559	2527.495907
962.101205	2526.694363
962.400814	2527.919364
962.700385	2528.504138
962.999918	2527.725279
963.299414	2526.076822
963.598873	2527.269055
963.898293	2529.043541
964.197677	2527.057326
964.497022	2526.401976
964.796331	2527.687471
965.095601	2526.427182
965.394835	2528.158818
965.694030	2524.917357
965.993189	2528.236956
966.292309	2525.597912
966.591393	2527.624456
966.890439	2528.310053
967.189447	2526.454908
967.488419	2525.791997
967.787353	2527.039682
968.086249	2525.847449
968.385108	2526.969106
968.683930	2529.532533
968.982714	2526.699404
969.281462	2527.306863
969.580172	2527.269055
969.878844	2527.339631
970.177480	2526.591020
970.476078	2525.983561
970.774639	2529.688809
971.073162	2527.715197
971.371649	2525.834847
971.670098	2523.042047
971.968510	2524.471214
972.266885	2523.215967
972.565223	2526.681760
972.863524	2525.678571
973.161788	2525.910464
973.460014	2528.761236
973.758204	2527.488345
974.056356	2525.736544
974.354471	2529.958510
974.652550	2524.617408
974.950591	2526.235618
975.248595	2530.369364
975.546563	2524.887110
975.844493	2528.436082
976.142386	2528.491535
976.440243	2528.415917
976.738062	2528.415917
977.035845	2526.888448
977.333590	2526.641431
977.631299	2525.255114
977.928971	2527.309384
978.226606	2526.321318
978.524204	2526.543129
978.821765	2529.325846
979.119290	2526.530526
979.416777	2525.701256
979.714228	2525.121523
980.011642	2527.737882
980.309020	2527.543798
980.606360	2527.601771
980.903664	2526.331400
981.200931	2528.408356
981.498162	2527.095135
981.795356	2528.161339
982.092513	2528.312574
982.389633	2525.902902
982.686717	2526.805269
982.983764	2529.524971
983.280775	2527.664785
983.577749	2527.538757
983.874686	2528.022707
984.171587	2528.128572
984.468451	2527.435413
984.765279	2531.165867
985.062070	2524.773684
985.358824	2527.977337
985.655543	2524.587161
985.952224	2525.925587
986.248869	2525.708818
986.545478	2523.543642
986.842050	2524.682943
987.138586	2523.904085
987.435086	2522.502644
987.731549	2522.732016
988.027975	2529.744261
988.324366	2526.701925
988.620719	2529.177132
988.917037	2525.852491
989.213318	2527.488345
989.509563	2527.188396
989.805772	2523.311749
990.101944	2526.170083
990.398080	2527.473222
990.694180	2527.427851
990.990244	2525.731503
991.286271	2525.176976
991.582262	2524.859383
991.878217	2527.218643
992.174136	2527.024559
992.470019	2527.964734
992.765865	2526.414579
993.061676	2524.922398
993.357450	2527.112779
993.653188	2524.040196
993.948890	2525.050947
994.244556	2524.952645
994.540186	2527.813499
994.835780	2525.819723
995.131337	2525.771832
995.426859	2525.360978
995.722345	2524.967768
996.017795	2528.453726
996.313208	2526.767460
996.608586	2526.049096
996.903928	2528.862059
997.199234	2526.906092
997.494504	2525.759229
997.789738	2525.182017
998.084936	2528.670496
998.380099	2525.159332
998.675225	2525.045906
998.970316	2526.036493
999.265371	2527.652183
999.560390	2525.547501
999.855373	2525.991122
1000.150320	2526.313756
1000.445232	2525.479445
1000.740108	2529.340969
1001.034948	2527.475742
1001.329752	2527.909281
1001.624521	2527.823582
1001.919254	2523.246214
1002.213951	2523.576410
1002.508613	2522.311080
1002.803239	2521.832170
1003.097829	2518.925945
1003.392384	2526.656555
1003.686903	2525.706297
1003.981386	2526.916174
1004.275834	2523.762932
1004.570246	2527.246370
1004.864623	2525.209743
1005.158964	2524.287212
1005.453270	2524.456091
1005.747540	2525.151770
1006.041775	2523.851152
1006.335974	2527.498427
1006.630138	2524.723272
1006.924266	2526.311236
1007.218359	2524.440968
1007.512416	2525.161852
1007.806438	2523.808303
1008.100425	2526.641431
1008.394376	2524.191430
1008.688292	2526.195289
1008.982172	2522.973992
1009.276017	2525.045906
1009.569827	2526.154960
1009.863602	2527.261493
1010.157341	2525.101359
1010.451045	2526.142357
1010.744714	2524.534229
1011.038347	2526.664116
1011.331945	2525.605474
1011.625508	2523.798220
1011.919036	2530.268541
1012.212528	2526.427182
1012.505986	2526.664116
1012.799408	2525.842408
1013.092795	2524.781245
1013.386147	2525.658406
1013.679464	2525.812161
1013.972745	2524.937521
1014.265992	2524.304856
1014.559204	2526.497758
1014.852380	2524.471214
1015.145521	2528.191586
1015.438628	2525.660927
1015.731699	2525.025741
1016.024736	2524.161183
1016.317737	2522.787469
1016.610703	2528.869621
1016.903635	2521.723786
1017.196531	2519.054495
1017.489393	2524.922398
1017.782219	2520.755884
1018.075011	2523.944414
1018.367768	2525.769312
1018.660490	2525.048427
1018.953177	2525.048427
1019.245829	2525.048427
