Dividing Wavelength (nm)	Counts (n)	Blue Motor Position (mm): 0.000000	Red Motor Position (mm): 49.500000	
326.493990	2127.687036
326.888308	2127.687036
327.282561	2127.687036
327.676750	2094.579258
328.070874	2095.406008
328.464933	2098.972624
328.858929	2104.709457
329.252859	2112.137597
329.646726	2124.082611
330.040528	2140.524335
330.434265	2155.783907
330.827938	2172.061793
331.221547	2189.302539
331.615091	2205.610672
332.008571	2229.336863
332.401986	2247.986611
332.795338	2267.500918
333.188625	2287.168979
333.581847	2302.869653
333.975006	2324.344968
334.368100	2342.684686
334.761129	2360.429548
335.154095	2373.274408
335.546996	2399.430434
335.939833	2424.779877
336.332606	2439.623554
336.725315	2450.666202
337.117960	2461.865125
337.510540	2468.106073
337.903056	2481.835656
338.295508	2488.111892
338.687896	2494.068016
339.080220	2504.273832
339.472480	2512.362363
339.864676	2515.369411
340.256807	2521.837212
340.648875	2522.490041
341.040879	2524.534229
341.432818	2526.212933
341.824694	2530.003881
342.216506	2528.234436
342.608253	2528.612522
342.999937	2529.824920
343.391557	2529.877852
343.783113	2528.138654
344.174605	2528.705784
344.566033	2527.427851
344.957397	2523.977181
345.348697	2523.306708
345.739934	2521.517098
346.131106	2517.118692
346.522215	2516.715399
346.913260	2516.052487
347.304241	2514.703979
347.695159	2511.240706
348.086012	2511.278515
348.476802	2507.820283
348.867528	2507.283400
349.258191	2506.189470
349.648789	2506.517145
350.039324	2503.527741
350.429796	2501.947339
350.820203	2501.486073
351.210548	2498.088336
351.600828	2499.235198
351.991045	2497.115393
352.381198	2496.439878
352.771288	2496.812924
353.161314	2496.555825
353.551276	2497.228819
353.941175	2498.743686
354.331010	2495.217399
354.720782	2497.445589
355.110490	2497.107831
355.500135	2494.317553
355.889717	2497.806031
356.279235	2500.553460
356.668689	2500.316526
357.058080	2497.284272
357.447408	2496.233191
357.836672	2495.383757
358.225873	2500.152688
358.615010	2493.299240
359.004084	2504.362052
359.393095	2501.501197
359.782043	2501.057575
360.170927	2504.233502
360.559748	2505.589573
360.948505	2502.973214
361.337199	2506.035715
361.725830	2505.529079
362.114398	2505.919768
362.502903	2502.559839
362.891344	2509.403206
363.279722	2504.737618
363.668037	2508.742814
364.056289	2508.072341
364.444478	2511.424708
364.832603	2509.020078
365.220665	2512.969822
365.608665	2510.900428
365.996601	2511.437311
366.384474	2515.150121
366.772284	2514.744308
367.160031	2517.562313
367.547715	2518.494927
367.935336	2519.787983
368.322893	2523.541122
368.710388	2527.203520
369.097820	2535.332380
369.485189	2536.043183
369.872495	2543.748587
370.259738	2549.331665
370.646918	2556.477500
371.034035	2562.582338
371.421090	2571.505180
371.808081	2585.030596
372.195010	2593.081318
372.581875	2606.286621
372.968678	2620.706841
373.355418	2628.397122
373.742096	2646.699031
374.128710	2662.535815
374.515262	2679.113650
374.901751	2691.832481
375.288177	2703.583411
375.674540	2727.042420
376.060841	2745.304000
376.447079	2766.113883
376.833254	2786.013838
377.219367	2799.990437
377.605417	2835.520489
377.991404	2844.581963
378.377329	2867.796477
378.763191	2884.644013
379.148991	2923.402924
379.534727	2945.178188
379.920402	2976.224134
380.306013	2989.530260
380.691563	3038.832744
381.077049	3058.974674
381.462474	3075.638208
381.847835	3116.479116
382.233134	3137.717497
382.618371	3140.202786
383.003545	3207.063610
383.388657	3212.984445
383.773706	3244.529465
384.158693	3263.932866
384.543618	3286.726443
384.928480	3323.476455
385.313280	3368.151160
385.698017	3365.867518
386.082692	3422.943462
386.467305	3429.663320
386.851856	3462.554328
387.236344	3483.369252
387.620770	3512.330681
388.005133	3539.570556
388.389435	3566.926377
388.773674	3580.456834
389.157851	3617.466465
389.541965	3633.416676
389.926018	3598.108434
390.310008	3669.211389
390.693936	3691.294163
391.077802	3731.777149
391.461606	3721.021847
391.845348	3780.661218
392.229027	3783.612813
392.612645	3797.798620
392.996200	3872.957183
393.379694	3914.750869
393.763125	3981.258812
394.146494	3946.442083
394.529801	4006.850229
394.913047	4056.888722
395.296230	4020.781458
395.679351	4077.529727
396.062410	4098.556379
396.445408	4085.580449
396.828343	4112.275880
397.211217	4139.024242
397.594028	4057.155903
397.976778	4125.818939
398.359466	4153.963701
398.742092	4179.819779
399.124656	4099.194085
399.507158	4181.427908
399.889598	4205.353224
400.271977	4268.624746
400.654294	4238.791197
401.036549	4249.526334
401.418742	4220.269998
401.800874	4320.609124
402.182944	4340.476311
402.564952	4405.333276
402.946898	4392.485896
403.328783	4390.182088
403.710606	4302.481135
404.092367	4496.550434
404.474067	4462.956185
404.855705	4468.196465
405.237282	4394.159559
405.618797	4505.044779
406.000250	4540.337897
406.381642	4620.164568
406.762972	4586.827418
407.144240	4593.330506
407.525447	4592.841514
407.906593	4653.151358
408.287677	4696.958985
408.668700	4622.967449
409.049661	4675.589534
409.430560	4712.614288
409.811399	4639.903206
410.192176	4802.097290
410.572891	4743.299792
410.953545	4845.090770
411.334138	4727.432760
411.714669	4796.536897
412.095139	4689.324158
412.475547	4829.632072
412.855894	4811.645235
413.236180	4818.740659
413.616405	4773.937404
413.996568	4863.301938
414.376670	4803.818844
414.756711	4759.272688
415.136691	4791.405002
415.516609	4871.503896
415.896466	4906.524792
416.276262	4940.741623
416.655997	4922.326288
417.035670	5104.092652
417.415283	5190.170354
417.794834	5141.429958
418.174324	5090.791568
418.553753	4997.683977
418.933121	5183.253891
419.312428	5250.933902
419.691674	5188.345456
420.070859	5318.132482
420.449983	5231.674173
420.829045	5340.699208
421.208047	5250.931381
421.586988	5321.855375
421.965867	5330.868958
422.344686	5468.079083
422.723444	5317.449406
423.102141	5136.865193
423.480777	5437.287715
423.859352	5206.475966
424.237866	5467.146470
424.616319	5461.669256
424.994712	5564.211366
425.373044	5442.424651
425.751314	5587.138534
426.129524	5385.963728
426.507673	5582.964459
426.885762	5666.735833
427.263789	5602.972798
427.641756	5479.290609
428.019662	5600.747129
428.397508	5611.336072
428.775292	5557.183998
429.153016	5655.272249
429.530679	5583.513944
429.908282	5666.776162
430.285824	5536.895874
430.663305	5812.531043
431.040726	5542.632707
431.418086	5546.716042
431.795385	5648.698584
432.172624	5663.486809
432.549802	5653.180170
432.926920	5670.695659
433.303977	5679.031207
433.680974	5720.040993
434.057910	5736.661678
434.434786	5740.445064
434.811601	5709.598243
435.188355	5949.209327
435.565050	5820.851468
435.941683	5797.939423
436.318257	6014.514954
436.694770	5999.058777
437.071222	6031.859044
437.447614	5966.578622
437.823946	5871.104210
438.200218	6028.310072
438.576429	5898.608745
438.952580	5993.768086
439.328670	6040.799530
439.704700	5945.804027
440.080670	5938.690959
440.456580	6207.870931
440.832429	6089.174443
441.208218	5930.108395
441.583947	6090.679227
441.959616	6093.368683
442.335224	6021.111304
442.710773	6156.562067
443.086261	6186.254463
443.461689	5979.274768
443.837057	6125.969825
444.212365	6284.993023
444.587612	6172.976064
444.962800	6331.888356
445.337927	6308.424306
445.712995	5916.197331
446.088002	6500.305745
446.462949	6329.042625
446.837837	6253.395070
447.212664	6429.636329
447.587431	6571.922897
447.962139	7112.720237
448.336786	8041.449490
448.711374	7784.859800
449.085901	6860.435693
449.460369	6777.924608
449.834776	6715.411779
450.209124	7101.584328
450.583412	7252.450940
450.957640	7405.036584
451.331808	7168.225862
451.705917	6714.453960
452.079965	6639.242465
452.453954	6850.280289
452.827883	6728.357462
453.201752	6822.730383
453.575562	6623.556915
453.949311	6829.561146
454.323001	6713.498661
454.696632	6788.538757
455.070202	6925.234685
455.443713	7080.464414
455.817164	7182.280599
456.190556	7265.431911
456.563888	7336.466810
456.937160	7382.346351
457.310373	7035.414143
457.683526	7062.858185
458.056619	6952.424148
458.429653	6939.037364
458.802628	6880.098714
459.175542	6986.666185
459.548398	7343.542069
459.921194	7506.010896
460.293930	7507.036771
460.666607	8039.259108
461.039224	8343.467537
461.411782	8469.960170
461.784280	8493.701484
462.156719	8384.968836
462.529099	8261.296730
462.901419	7848.209460
463.273680	7746.395796
463.645882	7755.623628
464.018024	7621.198741
464.390106	7783.985160
464.762130	8171.274325
465.134094	8644.124473
465.505999	9663.004680
465.877845	10883.967100
466.249631	11533.728981
466.621358	11153.976342
466.993026	10531.734119
467.364634	10264.184961
467.736184	9901.030321
468.107674	9570.537316
468.479105	9605.512841
468.850477	9368.119865
469.221790	9138.820462
469.593043	8807.725039
469.964238	8673.635388
470.335373	8684.559568
470.706449	8735.482784
471.077467	8718.920073
471.448425	10039.190703
471.819324	11113.581576
472.190164	11136.319700
472.560945	9886.582374
472.931667	9098.120706
473.302330	8961.039130
473.672934	8607.003937
474.043479	8961.828071
474.413965	8903.161643
474.784393	8783.378787
475.154761	8940.352756
475.525070	9026.952217
475.895321	8857.481227
476.265513	9036.863125
476.635645	9199.561325
477.005719	9198.855563
477.375734	9315.621289
477.745691	9550.526455
478.115588	9690.887302
478.485427	9929.260782
478.855207	10466.355395
479.224928	11278.084508
479.594591	11909.022721
479.964194	11721.116232
480.333739	11669.343582
480.703226	11578.348234
481.072653	11670.959271
481.442022	11902.761608
481.811333	12095.459713
482.180584	11904.044581
482.549777	11609.989036
482.918912	11438.453694
483.287988	11458.588063
483.657005	11466.658950
484.025964	11150.525672
484.394864	11278.782708
484.763706	11252.571228
485.132489	11012.065340
485.501213	10971.862138
485.869879	11049.009436
486.238487	10887.228727
486.607036	10998.214770
486.975527	10781.714856
487.343959	10970.937087
487.712333	11017.441731
488.080648	10948.183839
488.448905	10991.010961
488.817104	10924.548389
489.185244	11196.425377
489.553326	11351.708039
489.921350	11883.703525
490.289315	12948.085187
490.657222	13297.744659
491.025070	13201.403168
491.392861	13079.339189
491.760593	12699.649563
492.128267	12355.870597
492.495883	12016.908454
492.863440	11677.989160
493.230939	11348.529592
493.598380	11277.207347
493.965763	11145.965948
494.333088	11040.164732
494.700354	10972.053702
495.067563	11029.870696
495.434713	10861.786023
495.801805	10992.790488
496.168839	10912.837788
496.535815	10847.045690
496.902733	10849.621719
497.269593	10779.529516
497.636395	10882.709333
498.003139	10868.546211
498.369825	10734.391025
498.736453	10895.672660
499.103023	10823.122894
499.469535	10845.893786
499.835989	10838.921870
500.202385	10800.173041
500.568723	10649.576132
500.935003	10875.770184
501.301226	10678.754330
501.667390	10941.171594
502.033497	11030.997393
502.399546	10894.813143
502.765537	10801.027517
503.131470	10871.558300
503.497345	11046.269569
503.863163	10658.070476
504.228923	10973.641666
504.594625	11034.884123
504.960269	10778.980030
505.325856	11010.701708
505.691385	10796.470314
506.056856	10954.543254
506.422270	10973.568569
506.787625	10869.466221
507.152924	10987.948460
507.518164	10963.594646
507.883347	10888.032791
508.248472	10801.340068
508.613540	11038.695235
508.978550	10921.198542
509.343503	10898.926724
509.708398	11014.255722
510.073236	11127.001127
510.438016	11125.009872
510.802738	11079.382388
511.167403	11133.552107
511.532010	11027.508915
511.896561	11258.338308
512.261053	11333.128867
512.625488	11200.181037
512.989866	11185.455827
513.354186	11176.714466
513.718449	11073.950545
514.082655	11269.030596
514.446803	11167.113588
514.810894	11286.725046
515.174927	11156.494398
515.538904	11174.844198
515.902822	11332.428147
516.266684	11213.598068
516.630488	11152.038018
516.994235	11206.510206
517.357925	11280.690785
517.721558	11372.202850
518.085133	11385.302289
518.448651	11392.415357
518.812112	11275.100145
519.175516	11291.335181
519.538863	11409.567883
519.902152	11326.761890
520.265385	11483.085550
520.628560	11386.915458
520.991678	11367.426357
521.354739	11437.175762
521.717743	11373.004394
522.080690	11354.052176
522.443580	11483.831641
522.806413	11440.245824
523.169189	11470.906122
523.531908	11526.787312
523.894569	11345.646052
524.257174	11350.251146
524.619722	11468.372942
524.982213	11412.738768
525.344647	11474.291257
525.707025	11422.395099
526.069345	11507.293171
526.431608	11438.531832
526.793815	11537.411544
527.155964	11329.070738
527.518057	11374.322656
527.880093	11331.188023
528.242072	11401.093703
528.603995	11303.373456
528.965860	11223.415715
529.327669	11278.064343
529.689421	11229.303783
530.051117	11200.052488
530.412755	11301.248610
530.774337	11192.115191
531.135862	11174.892089
531.497331	11202.416789
531.858743	11050.675537
532.220098	11216.310209
532.581396	11089.119377
532.942638	11066.950903
533.303824	11035.652899
533.664953	11045.200844
534.026025	10957.424274
534.387040	11058.156610
534.747999	11065.955275
535.108902	11121.493667
535.469748	10884.415763
535.830537	10983.363531
536.191270	10958.858482
536.551947	10977.031842
536.912567	10980.094342
537.273131	10911.733776
537.633638	10888.988090
537.994089	10877.022911
538.354483	10822.066772
538.714821	10971.995729
539.075103	10975.539660
539.435328	10939.535739
539.795497	10766.538463
540.155609	10923.787175
540.515665	11013.381081
540.875665	10753.197049
541.235609	10824.035343
541.595496	10814.197531
541.955328	10972.981274
542.315102	10859.371311
542.674821	10801.670264
543.034483	10805.002467
543.394090	10811.009001
543.753640	10736.858669
544.113134	10966.649585
544.472571	10820.766155
544.831953	10965.036416
545.191278	10769.850501
545.550548	10791.345981
545.909761	10933.259503
546.268918	10908.920812
546.628019	10991.257978
546.987064	10850.849240
547.346053	10771.730851
547.704986	10863.762156
548.063863	10860.581188
548.422684	10840.676192
548.781449	10768.063412
549.140158	10869.642662
549.498811	10745.594989
549.857408	10601.909502
550.215949	10831.027423
550.574434	10686.792450
550.932864	10779.985741
551.291237	10839.662920
551.649555	10779.698395
552.007817	10795.230190
552.366022	10764.277505
552.724173	10753.179405
553.082267	10742.706408
553.440305	10879.122552
553.798288	10679.570997
554.156215	10834.326858
554.514086	10808.637138
554.871902	10664.245889
555.229661	10699.486075
555.587365	10673.050265
555.945014	10570.329193
556.302606	10691.735301
556.660143	10581.888559
557.017625	10736.132743
557.375050	10637.479883
557.732421	10776.688826
558.089735	10689.328150
558.446994	10683.997130
558.804197	10722.309899
559.161345	10728.079500
559.518437	10575.410676
559.875474	10659.766824
560.232455	10690.598521
560.589381	10642.684874
560.946251	10637.852928
561.303065	10750.580690
561.659825	10679.218116
562.016528	10613.486511
562.373177	10492.062759
562.729770	10606.905285
563.086307	10518.488488
563.442789	10608.089956
563.799216	10486.426749
564.155587	10536.871055
564.511904	10492.443366
564.868164	10484.808539
565.224370	10499.652216
565.580520	10426.371483
565.936615	10430.054046
566.292654	10294.996494
566.648638	10428.826525
567.004567	10383.657787
567.360441	10371.281754
567.716260	10276.813052
568.072023	10374.992043
568.427732	10326.813736
568.783385	10240.857022
569.138982	10308.350510
569.494525	10322.619496
569.850013	10199.915291
570.205445	10284.531058
570.560823	10179.024749
570.916145	10089.892108
571.271412	10160.470783
571.626625	10109.202248
571.981782	10080.187887
572.336884	10059.211646
572.691931	10062.974867
573.046923	10006.241722
573.401860	9962.391245
573.756743	9900.979909
574.111570	9941.553636
574.466342	9930.216081
574.821059	9959.910998
575.175722	9851.798412
575.530330	9857.147076
575.884882	9846.094347
576.239380	9778.820148
576.593823	9757.508671
576.948211	9770.560218
577.302544	9654.888422
577.656823	9669.913581
578.011047	9670.420217
578.365216	9639.762440
578.719330	9563.880472
579.073389	9578.996372
579.427394	9520.453452
579.781344	9495.144339
580.135239	9444.170712
580.489080	9457.996077
580.842866	9353.450108
581.196597	9366.826809
581.550273	9400.539526
581.903895	9373.622285
582.257463	9440.470505
582.610975	9315.926279
582.964434	9342.556174
583.317837	9265.718907
583.671186	9251.447401
584.024481	9235.784536
584.377721	9162.534050
584.730906	9138.555801
585.084037	9163.597733
585.437113	9103.250080
585.790135	9121.683059
586.143103	9019.690435
586.496016	8989.725816
586.848874	9056.798368
587.201679	9045.987614
587.554428	8933.060727
587.907124	8975.129155
588.259765	8947.894322
588.612352	8943.982386
588.964884	8821.144591
589.317362	8844.706944
589.669786	8835.683278
590.022155	8892.607987
590.374470	8906.692971
590.726731	8839.806942
591.078937	8694.588944
591.431090	8809.771748
591.783188	8681.945730
592.135232	8670.540119
592.487222	8667.835540
592.839157	8724.914005
593.191038	8655.741812
593.542866	8602.476981
593.894639	8499.171136
594.246358	8551.205926
594.598022	8566.054644
594.949633	8469.045200
595.301190	8445.215666
595.652692	8466.998492
596.004141	8574.496056
596.355535	8356.289712
596.706876	8334.552257
597.058162	8272.866178
597.409395	8350.041202
597.760573	8414.008403
598.111698	8314.012075
598.462768	8298.757544
598.813785	8267.706557
599.164748	8241.056497
599.515657	8224.861790
599.866511	8143.220304
600.217312	8257.372191
600.568060	8127.058364
600.918753	8227.957059
601.269392	8192.293416
601.619978	8107.007175
601.970510	8173.074017
602.320988	8172.108636
602.671412	8223.745175
603.021783	8160.458529
603.372100	8128.051472
603.722363	8140.727453
604.072572	8109.729398
604.422728	8126.647510
604.772830	8052.943321
605.122878	8066.982934
605.472872	8055.232004
605.822813	8086.101510
606.172701	8025.471553
606.522534	8105.149510
606.872314	8105.348635
607.222041	8070.925116
607.571714	8129.641956
607.921333	8092.390349
608.270899	8092.100483
608.620411	8185.709669
608.969870	8090.520081
609.319276	8082.650840
609.668627	8099.909230
610.017926	8133.135475
610.367171	8176.287752
610.716362	8154.603229
611.065500	8149.063001
611.414585	8171.231475
611.763616	8165.015732
612.112594	8145.786251
612.461518	8154.139443
612.810389	8218.031027
613.159207	8155.737489
613.507971	8109.132021
613.856682	8226.328766
614.205340	8183.017693
614.553945	8262.330166
614.902496	8160.687902
615.250994	8209.410654
615.599439	8192.406842
615.947830	8199.731638
616.296169	8178.440325
616.644454	8192.515227
616.992686	8190.909619
617.340864	8245.689317
617.688990	8155.878641
618.037063	8244.048422
618.385082	8190.405504
618.733048	8280.238865
619.080961	8215.185295
619.428821	8235.876711
619.776628	8241.570695
620.124382	8190.617232
620.472083	8174.167947
620.819731	8198.065537
621.167326	8094.232891
621.514868	8103.155733
621.862357	7989.697004
622.209793	8004.759972
622.557176	7940.442411
622.904506	7913.605828
623.251783	7844.113522
623.599007	7800.792367
623.946179	7803.875033
624.293297	7759.250739
624.640363	7679.960950
624.987376	7659.892117
625.334336	7610.491330
625.681243	7551.255252
626.028097	7547.789458
626.374899	7518.397011
626.721647	7512.733274
627.068343	7445.804395
627.414987	7424.613905
627.761577	7371.091975
628.108115	7411.438850
628.454600	7304.642005
628.801032	7357.606888
629.147412	7316.975188
629.493739	7299.875594
629.840014	7233.760862
630.186236	7297.907024
630.532405	7178.502254
630.878521	7225.198462
631.224585	7186.608429
631.570597	7108.904084
631.916556	7144.842470
632.262462	7141.510267
632.608316	7102.872343
632.954117	7077.709424
633.299866	7061.466826
633.645562	7049.804117
633.991206	6981.264589
634.336797	6919.691936
634.682336	6878.969495
635.027823	6847.472366
635.373257	6837.004410
635.718639	6767.310458
636.063968	6783.132119
636.409245	6673.136663
636.754470	6669.655746
637.099642	6634.387834
637.444762	6579.129226
637.789829	6584.026707
638.134845	6529.183994
638.479808	6509.488206
638.824719	6520.530854
639.169577	6444.177538
639.514383	6464.826104
639.859137	6392.379682
640.203839	6400.937041
640.548489	6388.508076
640.893086	6364.829776
641.237632	6333.867009
641.582125	6356.095977
641.926566	6324.336708
642.270955	6338.575447
642.615292	6331.759807
642.959576	6347.929308
643.303809	6339.687021
643.647990	6348.143557
643.992118	6337.158883
644.336195	6285.035872
644.680219	6312.719369
645.024192	6298.140352
645.368112	6395.762296
645.711981	6415.720224
646.055797	6491.193859
646.399562	6450.763805
646.743274	6579.141829
647.086935	6629.734849
647.430544	6627.095805
647.774101	6642.332693
648.117606	6653.138406
648.461059	6641.629452
648.804460	6608.098217
649.147810	6514.736047
649.491108	6485.482232
649.834354	6458.504497
650.177548	6374.415530
650.520690	6292.206914
650.863781	6266.202122
651.206820	6288.708353
651.549807	6210.421754
651.892742	6149.804400
652.235626	6158.727242
652.578458	6140.150590
652.921238	6045.727258
653.263967	6089.270225
653.606644	6029.983735
653.949269	6032.317789
654.291843	5971.753367
654.634365	6018.971334
654.976836	5973.114478
655.319255	5975.188913
655.661622	5951.382064
656.003938	5951.903823
656.346203	5907.123254
656.688416	5939.000990
657.030577	5894.966511
657.372687	5857.566191
657.714746	5853.092167
658.056753	5896.685545
658.398708	5833.232541
658.740612	5823.911448
659.082465	5870.930290
659.424266	5863.585329
659.766016	5867.998859
660.107715	5839.292008
660.449362	5853.215675
660.790958	5848.892886
661.132503	5838.001473
661.473996	5874.048243
661.815438	5863.156831
662.156829	5859.804463
662.498168	5849.346590
662.839456	5822.615871
663.180693	5862.229258
663.521879	5865.193457
663.863013	5848.771898
664.204097	5871.199992
664.545129	5915.811682
664.886110	5907.771042
665.227040	5943.684222
665.567918	5904.320372
665.908746	5936.014107
666.249522	5939.358912
666.590248	5927.484474
666.930922	5948.864008
667.271545	5964.836904
667.612118	5969.593232
667.952639	5941.826557
668.293109	5963.175843
668.633528	5916.610705
668.973896	5923.287714
669.314213	5918.594399
669.654480	5899.117902
669.994695	5888.264297
670.334859	5881.836826
670.674973	5869.440629
671.015035	5877.040168
671.355047	5871.721751
671.695008	5862.405699
672.034918	5828.637530
672.374777	5844.242421
672.714585	5827.384803
673.054342	5833.701369
673.394049	5825.212066
673.733705	5860.195153
674.073310	5843.574468
674.412864	5804.656761
674.752368	5792.678979
675.091820	5801.611904
675.431223	5735.618159
675.770574	5738.700824
676.109875	5687.712074
676.449125	5692.851530
676.788324	5658.077651
677.127473	5601.271409
677.466571	5594.080203
677.805619	5584.683492
678.144616	5569.250000
678.483562	5550.781732
678.822458	5521.023801
679.161303	5512.680692
679.500098	5503.389845
679.838842	5488.268904
680.177535	5491.671683
680.516179	5509.837481
680.854771	5517.537843
681.193314	5602.141008
681.531805	5710.626639
681.870247	5860.913517
682.208638	5956.869360
682.546978	5977.033975
682.885268	5948.571621
683.223508	5868.021544
683.561697	5811.341331
683.899836	5782.483246
684.237925	5740.795424
684.575963	5700.844280
684.913951	5662.939844
685.251889	5724.527620
685.589776	5688.785840
685.927614	5660.988917
686.265401	5734.786368
686.603137	5716.625612
686.940824	5794.816428
687.278460	5814.756713
687.616046	5823.336756
687.953582	5893.965842
688.291068	5877.077977
688.628504	5939.525270
688.965889	5904.209467
689.303224	5846.727710
689.640510	5798.257016
689.977745	5721.989399
690.314930	5622.174553
690.652065	5570.568261
690.989150	5475.449250
691.326185	5400.308331
691.663170	5343.670968
692.000105	5267.294967
692.336990	5190.177916
692.673825	5161.894522
693.010610	5099.515284
693.347345	5025.470817
693.684030	5013.679558
694.020665	4970.837312
694.357251	4880.416656
694.693786	4895.421650
695.030272	4856.108212
695.366707	4821.742666
695.703093	4790.248057
696.039429	4809.356551
696.375716	4791.425167
696.711952	4767.915746
697.048139	4754.322275
697.384276	4734.558431
697.720363	4748.393878
698.056400	4759.272688
698.392388	4704.477866
698.728326	4686.422973
699.064214	4666.223070
699.400053	4658.212677
699.735842	4621.417295
700.071581	4598.059108
700.407270	4571.378802
700.742910	4556.429260
701.078501	4502.733410
701.414042	4500.633769
701.749533	4472.229388
702.084974	4408.864604
702.420366	4463.772852
702.755709	4401.542328
703.091002	4344.980582
703.426246	4397.000249
703.761440	4355.052808
704.096584	4315.943536
704.431679	4339.092515
704.766725	4322.948219
705.101721	4308.631343
705.436668	4339.889017
705.771565	4290.273981
706.106413	4316.261129
706.441212	4343.488401
706.775961	4352.262529
707.110661	4336.455991
707.445311	4365.465311
707.779913	4386.151686
708.114465	4400.435795
708.448967	4420.615534
708.783421	4483.418229
709.117825	4525.043036
709.452180	4528.077811
709.786485	4573.944749
710.120742	4660.990352
710.454949	4643.802538
710.789107	4711.036407
711.123216	4789.343170
711.457275	4776.573928
711.791286	4852.155947
712.125247	4869.792424
712.459159	4770.925315
712.793023	4843.212940
713.126837	4805.099297
713.460602	4800.985715
713.794318	4723.334302
714.127985	4722.515114
714.461602	4641.032424
714.795171	4612.396150
715.128691	4542.646745
715.462162	4487.204135
715.795584	4436.175055
716.128957	4420.928086
716.462281	4369.641907
716.795556	4340.882124
717.128782	4301.815703
717.461960	4230.760639
717.795088	4247.555243
718.128167	4202.469684
718.461198	4143.641939
718.794180	4139.757730
719.127113	4123.827684
719.459997	4101.152574
719.792833	4056.573650
720.125619	4048.122156
720.458357	4010.399202
720.791046	4015.364738
721.123686	3988.253413
721.456278	3949.431487
721.788821	3966.926811
722.121315	3938.897996
722.453761	3911.900097
722.786158	3921.440480
723.118506	3947.805715
723.450805	3899.841657
723.783056	3922.327723
724.115259	3939.989406
724.447412	3943.004016
724.779518	3935.016307
725.111574	3935.094445
725.443582	3970.311946
725.775542	3953.315696
726.107453	4005.370651
726.439315	4004.279241
726.771129	4023.428064
727.102895	4058.995925
727.434612	4102.916977
727.766281	4118.262250
728.097901	4120.601345
728.429473	4119.822487
728.760996	4129.314980
729.092471	4126.267602
729.423897	4113.195890
729.755276	4117.493474
730.086606	4114.428452
730.417887	4151.617044
730.749120	4220.675811
731.080305	4281.608237
731.411442	4306.372906
731.742530	4279.390130
732.073570	4281.648567
732.404562	4337.368440
732.735506	4330.270495
733.066401	4292.759270
733.397249	4231.572265
733.728048	4151.531345
734.058798	4062.560020
734.389501	3996.447808
734.720156	3935.081842
735.050762	3887.712640
735.381320	3881.423801
735.711831	3836.003005
736.042293	3802.217192
736.372707	3825.146880
736.703073	3795.709062
737.033391	3785.634316
737.363661	3803.119558
737.693883	3831.062674
738.024056	3839.559539
738.354182	3833.046368
738.684260	3898.059609
739.014290	3920.802774
739.344272	3912.273142
739.674207	3956.466417
740.004093	3960.753918
740.333931	3957.300728
740.663722	3955.624544
740.993464	3952.259574
741.323159	3932.236111
741.652806	3901.076739
741.982405	3872.788304
742.311956	3840.809745
742.641460	3834.054599
742.970915	3806.534940
743.300323	3767.811317
743.629683	3732.916450
743.958996	3720.689131
744.288260	3693.413968
744.617477	3662.481448
744.946647	3652.739418
745.275768	3624.972743
745.604842	3619.530817
745.933869	3572.312850
746.262847	3565.663568
746.591778	3603.447016
746.920662	3572.872418
747.249498	3544.677245
747.578286	3586.927155
747.907027	3609.511524
748.235720	3604.651852
748.564365	3626.757312
748.892963	3628.221767
749.221514	3612.064869
749.550017	3591.781786
749.878473	3587.441353
750.206881	3557.832136
750.535242	3553.204356
750.863555	3553.995818
751.191821	3546.849982
751.520039	3532.311294
751.848210	3507.831451
752.176334	3541.571894
752.504411	3550.850138
752.832440	3509.449662
753.160421	3490.459635
753.488356	3498.444823
753.816243	3511.907224
754.144082	3469.725369
754.471875	3455.973102
754.799620	3473.949856
755.127318	3466.418372
755.454969	3467.376192
755.782572	3472.598827
756.110129	3448.313068
756.437638	3439.566666
756.765100	3453.008903
757.092515	3462.347641
757.419882	3469.271665
757.747203	3442.374589
758.074477	3439.193621
758.401703	3460.850418
758.728882	3481.594766
759.056014	3487.991990
759.383099	3493.544821
759.710138	3485.879747
760.037129	3504.433713
760.364073	3535.925802
760.690970	3518.858975
761.017820	3498.407014
761.344623	3516.235055
761.671379	3561.635686
761.998088	3612.115280
762.324751	3738.973396
762.651366	3986.549503
762.977935	4463.946772
763.304456	4910.151902
763.630931	5007.254607
763.957359	4646.300430
764.283740	4302.821413
764.610074	4105.170373
764.936362	3909.649221
765.262602	3747.432452
765.588796	3634.997077
765.914943	3551.563461
766.241044	3461.059626
766.567097	3429.822116
766.893104	3383.909807
767.219064	3349.859334
767.544978	3324.933348
767.870845	3272.011315
768.196665	3251.193871
768.522438	3257.402052
768.848165	3251.914756
769.173846	3215.983932
769.499479	3200.593289
769.825066	3182.873633
770.150607	3168.922240
770.476101	3180.577387
770.801548	3180.143848
771.126949	3134.821355
771.452303	3114.255967
771.777611	3119.667646
772.102872	3128.078811
772.428087	3101.166612
772.753256	3091.154880
773.078378	3082.315217
773.403453	3049.237686
773.728482	3039.387271
774.053465	3058.372257
774.378401	3049.018396
774.703291	3012.908611
775.028135	3016.490350
775.352932	3011.348373
775.677683	2997.984275
776.002388	2993.056547
776.327046	2995.773729
776.651658	2986.979436
776.976224	2972.624750
777.300743	2974.676500
777.625216	2964.352217
777.949643	2962.497072
778.274024	2964.644604
778.598359	2953.380145
778.922647	2958.509519
779.246889	2957.491206
779.571086	2941.848506
779.895236	2935.826848
780.219339	2945.979732
780.543397	2959.590847
780.867409	2962.459263
781.191374	2957.849128
781.515294	2950.821760
781.839167	2953.624641
782.162995	2943.938064
782.486776	2950.972994
782.810511	2950.105916
783.134201	2936.131838
783.457844	2944.787499
783.781441	2936.704008
784.104993	2916.544434
784.428498	2914.296080
784.751958	2930.450457
785.075372	2924.464087
785.398739	2905.998340
785.722061	2924.416196
786.045337	2935.262238
786.368568	2920.012748
786.691752	2914.757345
787.014891	2959.437092
787.337983	2990.682163
787.661030	3018.247193
787.984031	3083.366297
788.306987	3129.828092
788.629897	3122.437760
788.952760	3110.152468
789.275579	3091.984150
789.598351	3032.193545
789.921078	2992.433964
790.243759	2980.655308
790.566395	2963.527988
790.888984	2937.629060
791.211529	2920.645413
791.534027	2910.588311
791.856480	2901.796539
792.178888	2886.907491
792.501249	2878.362735
792.823566	2874.632281
793.145836	2870.720346
793.468062	2870.780840
793.790241	2867.282279
794.112375	2873.288814
794.434464	2882.872047
794.756507	2889.715413
795.078505	2894.592730
795.400457	2908.312230
795.722364	2944.215328
796.044226	2968.783391
796.366042	2974.754638
796.687812	2964.921867
797.009538	2979.505925
797.331218	2970.898155
797.652852	2953.879220
797.974442	2939.196859
798.295986	2932.479522
798.617484	2929.331321
798.938938	2913.358425
799.260346	2899.553225
799.581709	2892.304046
799.903026	2884.384393
800.224299	2878.070348
800.545526	2870.271683
800.866708	2854.739888
801.187845	2845.431397
801.508936	2848.415761
801.829983	2855.798530
802.150984	2839.298834
802.471940	2826.224601
802.792851	2829.483707
803.113717	2829.055209
803.434538	2832.614264
803.755314	2822.786534
804.076045	2820.308807
804.396731	2819.724033
804.717372	2819.091369
805.037967	2814.703044
805.358518	2820.177737
805.679024	2832.576455
805.999485	2829.284582
806.319901	2830.237360
806.640272	2824.704693
806.960598	2829.556804
807.280879	2838.514934
807.601115	2846.530369
807.921306	2833.004953
808.241453	2827.192503
808.561554	2834.436641
808.881611	2835.775067
809.201623	2832.863801
809.521590	2829.438337
809.841513	2825.304591
810.161390	2830.688543
810.481223	2824.727379
810.801011	2817.064825
811.120755	2810.488640
811.440453	2814.642550
811.760107	2815.055925
812.079716	2813.195739
812.399281	2804.504790
812.718801	2795.849129
813.038276	2791.763274
813.357707	2795.276958
813.677093	2801.800211
813.996434	2795.511372
814.315731	2794.271248
814.634983	2789.368726
814.954191	2792.285033
815.273354	2805.175263
815.592473	2813.659525
815.911547	2814.715647
816.230577	2825.365085
816.549562	2833.146106
816.868502	2830.582679
817.187399	2841.282528
817.506250	2859.748274
817.825058	2850.679239
818.143821	2864.197093
818.462539	2878.093033
818.781213	2906.530182
819.099843	2942.692899
819.418429	3000.005777
819.736970	3063.438616
820.055466	3135.978299
820.373919	3241.484608
820.692327	3386.231259
821.010691	3557.257444
821.329011	3999.406966
821.647286	4907.704422
821.965517	6310.622249
822.283704	7074.099958
822.601847	7058.404325
822.919945	6418.702067
823.237999	5900.625207
823.556010	5313.010670
823.873976	4748.361110
824.191897	4331.568593
824.509775	4029.908467
824.827609	3757.164400
825.145398	3634.739979
825.463144	3617.652988
825.780845	3711.952812
826.098502	3815.906445
826.416116	4102.211216
826.733685	4427.209363
827.051210	4492.114219
827.368692	4377.306981
827.686129	4107.343111
828.003522	3777.059313
828.320872	3516.779499
828.638177	3314.631751
828.955439	3177.794671
829.272656	3087.966350
829.589830	3023.343799
829.906960	2973.582569
830.224046	2928.078594
830.541088	2894.116341
830.858086	2877.883825
831.175041	2860.040661
831.491952	2858.674509
831.808819	2876.013557
832.125642	2896.677247
832.442421	2942.304730
832.759157	3030.048534
833.075849	3208.102087
833.392497	3487.669356
833.709101	3698.399669
834.025662	3646.122904
834.342179	3487.263543
834.658653	3307.506080
834.975083	3155.517812
835.291469	3061.303687
835.607811	2973.660707
835.924110	2914.454876
836.240366	2860.902699
836.556578	2815.907880
836.872746	2794.649334
837.188871	2772.228802
837.504952	2752.038981
837.820990	2746.967581
838.136984	2732.050806
838.452935	2723.485886
838.768842	2722.701987
839.084706	2742.173443
839.400526	2821.506081
839.716303	2953.906946
840.032037	3038.240409
840.347727	3025.123326
840.663373	2962.222329
840.978977	2883.696276
841.294537	2811.917807
841.610054	2761.486104
841.925527	2740.184708
842.240957	2718.278374
842.556344	2695.232739
842.871687	2678.284380
843.186987	2671.695592
843.502244	2664.143943
843.817458	2663.526402
844.132629	2649.902684
844.447756	2639.893473
844.762840	2634.025570
845.077881	2635.253091
845.392879	2635.570683
845.707833	2631.389046
846.022745	2620.482510
846.337613	2627.424179
846.652438	2624.018879
846.967221	2625.805968
847.281960	2623.144239
847.596656	2620.338837
847.911309	2620.046450
848.225919	2618.133332
848.540485	2612.313320
848.855009	2612.804833
849.169490	2615.048146
849.483928	2614.173506
849.798323	2612.492281
850.112675	2610.967332
850.426984	2612.144442
850.741251	2609.349122
851.055474	2611.181581
851.369654	2617.682149
851.683792	2614.680142
851.997887	2610.677466
852.311938	2611.209307
852.625947	2611.327775
852.939914	2615.305245
853.253837	2615.053187
853.567718	2612.426746
853.881555	2612.048660
854.195350	2613.828187
854.509103	2614.438167
854.822812	2611.012702
855.136479	2611.383227
855.450103	2609.412136
855.763685	2613.790378
856.077224	2612.179730
856.390720	2609.326437
856.704173	2612.467075
857.017584	2616.346243
857.330953	2617.208281
857.644278	2620.968981
857.957561	2621.089969
858.270802	2615.711058
858.584000	2611.688217
858.897155	2616.091665
859.210268	2620.225411
859.523339	2615.390945
859.836367	2611.675614
860.149352	2609.399533
860.462295	2610.138062
860.775195	2607.340222
861.088054	2608.116560
861.400869	2607.637650
861.713642	2605.003647
862.026373	2605.837958
862.339062	2607.395675
862.651708	2615.733743
862.964312	2618.007303
863.276873	2614.176027
863.589392	2616.779782
863.901869	2622.108282
864.214303	2625.556431
864.526696	2627.986267
864.839045	2629.738068
865.151353	2631.507513
865.463619	2631.366361
865.775842	2633.808800
866.088023	2631.510034
866.400162	2631.943573
866.712258	2632.324180
867.024313	2631.580610
867.336325	2628.860908
867.648296	2628.906278
867.960224	2635.951291
868.272110	2632.188069
868.583954	2627.235136
868.895755	2628.533233
869.207515	2635.086733
869.519233	2638.003040
869.830909	2636.588997
870.142542	2632.772843
870.454134	2633.400467
870.765684	2639.202835
871.077191	2640.059831
871.388657	2644.826242
871.700081	2639.384316
872.011463	2642.106539
872.322803	2641.834317
872.634101	2646.008393
872.945357	2654.164979
873.256571	2662.896258
873.567744	2660.360557
873.878874	2657.872748
874.189963	2658.747388
874.501010	2661.608243
874.812015	2667.445899
875.122979	2666.215858
875.433900	2659.609426
875.744780	2657.744199
876.055618	2666.820796
876.366415	2670.662155
876.677169	2665.021104
876.987882	2661.008346
877.298554	2662.016577
877.609183	2671.909841
877.919771	2679.537107
878.230317	2686.866944
878.540822	2697.637370
878.851285	2710.779658
879.161707	2734.389902
879.472087	2776.057559
879.782425	2826.695949
880.092722	2942.123249
880.402977	3132.260448
880.713191	3399.560069
881.023363	3707.158674
881.333494	3900.766708
881.643583	4079.009305
881.953631	4075.442689
882.263637	3896.224629
882.573602	3671.505114
882.883526	3535.613250
883.193408	3417.743511
883.503248	3313.391627
883.813048	3196.731765
884.122806	3077.447983
884.432522	2991.181238
884.742197	2922.046854
885.051831	2885.185937
885.361424	2845.224710
885.670975	2808.318423
885.980485	2777.383382
886.289954	2759.835126
886.599382	2744.217631
886.908768	2735.357803
887.218113	2713.471634
887.527417	2700.795652
887.836680	2691.799713
888.145901	2687.184537
888.455082	2679.133814
888.764221	2665.169818
889.073319	2660.252173
889.382376	2661.348624
889.691392	2658.525577
890.000366	2660.111020
890.309300	2659.334683
890.618193	2658.422234
890.927044	2662.881134
891.235855	2663.221412
891.544625	2662.760147
891.853353	2662.684529
892.162041	2673.177691
892.470687	2689.984898
892.779293	2702.187011
893.087858	2711.064483
893.396381	2736.839902
893.704864	2780.138373
894.013306	2850.449866
894.321707	2946.229269
894.630068	2999.015191
894.938387	3021.171062
895.246665	3014.831811
895.554903	2968.450675
895.863100	2923.458377
896.171256	2865.961497
896.479371	2803.118473
896.787446	2762.743872
897.095480	2740.283011
897.403473	2732.842267
897.711425	2718.888354
898.019336	2698.086032
898.327207	2684.795030
898.635038	2682.216480
898.942827	2681.551048
899.250576	2671.042763
899.558284	2658.437357
899.865952	2654.089362
900.173579	2653.247489
900.481165	2651.904022
900.788711	2640.957156
901.096216	2634.411218
901.403681	2631.915847
901.711105	2632.800569
902.018489	2629.271762
902.325832	2634.401136
902.633135	2635.938688
902.940397	2651.657005
903.247619	2688.994311
903.554800	2762.257400
903.861941	2893.972668
904.169041	3025.829088
904.476101	3091.722010
904.783121	3085.087851
905.090100	3024.747760
905.397039	2946.234310
905.703938	2870.468288
906.010796	2803.093267
906.317614	2754.743560
906.624391	2715.793085
906.931129	2684.273271
907.237826	2660.680671
907.544483	2644.075110
907.851099	2626.292440
908.157675	2618.118209
908.464211	2611.962960
908.770707	2602.432659
909.077163	2595.236412
909.383578	2594.961669
909.689954	2589.078642
909.996289	2591.957141
910.302584	2591.407655
910.608839	2586.195102
910.915054	2588.163673
911.221229	2589.943200
911.527363	2589.590319
911.833458	2587.011769
912.139513	2589.005545
912.445527	2591.221132
912.751502	2601.265632
913.057436	2603.526589
913.363331	2609.333998
913.669186	2621.576440
913.975000	2634.396095
914.280775	2653.373518
914.586510	2673.880932
914.892205	2713.194370
915.197859	2782.056532
915.503475	2866.853781
915.809050	2939.491767
916.114585	2954.809313
916.420081	2965.408338
916.725536	2978.255719
917.030952	2950.647840
917.336328	2901.375602
917.641665	2852.418437
917.946961	2799.869449
918.252218	2764.495672
918.557435	2735.015005
918.862612	2713.033053
919.167750	2695.089066
919.472848	2678.876716
919.777906	2659.155722
920.082925	2646.903197
920.387904	2633.423152
920.692843	2630.612709
920.997743	2626.118520
921.302603	2618.256841
921.607423	2613.414812
921.912204	2605.991713
922.216946	2602.382247
922.521647	2600.040631
922.826310	2595.223809
923.130932	2592.176431
923.435516	2586.744588
923.740059	2586.744588
924.044564	2584.110585
924.349028	2581.554720
924.653454	2572.105077
924.957840	2572.185736
925.262186	2568.629202
925.566493	2568.062072
925.870761	2563.209961
926.174989	2565.730538
926.479178	2562.340362
926.783328	2561.054868
927.087438	2559.305587
927.391509	2562.504200
927.695541	2557.175700
927.999533	2558.720814
928.303486	2553.483055
928.607400	2553.654454
928.911275	2556.263251
929.215110	2554.922304
929.518906	2554.367777
929.822663	2554.627397
930.126381	2554.299722
930.430060	2556.716955
930.733699	2554.846687
931.037299	2554.435833
931.340861	2556.293498
931.644383	2556.059084
931.947866	2555.895247
932.251309	2557.190823
932.554714	2552.066491
932.858080	2555.547407
933.161407	2556.061605
933.464694	2553.306614
933.767943	2552.101779
934.071153	2553.271326
934.374323	2555.549928
934.677455	2552.457180
934.980548	2552.147149
935.283602	2553.266285
935.586617	2553.336861
935.889593	2551.486758
936.192530	2551.315359
936.495428	2550.019782
936.798287	2554.244269
937.101108	2555.844835
937.403890	2555.650751
937.706632	2560.790207
938.009336	2563.053685
938.312002	2568.843451
938.614628	2570.486867
938.917216	2575.278483
939.219765	2575.323854
939.522275	2576.442990
939.824747	2575.833010
940.127179	2569.561815
940.429573	2569.282031
940.731929	2565.914540
941.034246	2568.266238
941.336524	2566.942936
941.638763	2568.664490
941.940964	2566.859757
942.243126	2564.497976
942.545250	2564.157698
942.847335	2560.820454
943.149381	2563.139385
943.451389	2557.770556
943.753359	2557.546225
944.055290	2555.118909
944.357182	2557.440361
944.659036	2556.721996
944.960851	2553.667057
945.262628	2556.522871
945.564367	2555.365926
945.866067	2555.257541
946.167729	2558.171328
946.469352	2554.730740
946.770937	2555.542366
947.072484	2553.664536
947.373992	2555.917932
947.675462	2552.643703
947.976893	2553.974567
948.278286	2551.517005
948.579641	2550.854093
948.880958	2550.102961
949.182236	2551.650595
949.483476	2550.163455
949.784678	2552.429454
950.085841	2551.217056
950.386967	2554.576985
950.688054	2551.302756
950.989103	2551.527087
951.290114	2551.612787
951.591087	2556.863148
951.892021	2553.435164
952.192917	2560.432285
952.493776	2557.929353
952.794596	2560.523026
953.095378	2562.030331
953.396122	2561.140567
953.696828	2558.441030
953.997496	2558.796431
954.298126	2552.910884
954.598718	2556.119578
954.899272	2553.162942
955.199788	2553.309135
955.500266	2551.615307
955.800706	2547.433670
956.101108	2544.149358
956.401472	2544.867723
956.701798	2544.361087
957.002087	2543.113401
957.302337	2542.911755
957.602550	2542.049718
957.902724	2540.454193
958.202861	2540.060983
958.502960	2540.653318
958.803022	2540.078627
959.103045	2542.059800
959.403031	2540.025695
959.702979	2539.425797
960.002889	2537.716846
960.302762	2537.757175
960.602596	2537.926054
960.902393	2536.544778
961.202153	2537.734490
961.501875	2536.343132
961.801559	2536.360776
962.101205	2536.086033
962.400814	2536.655683
962.700385	2538.765406
962.999918	2539.035108
963.299414	2535.798687
963.598873	2536.897659
963.898293	2535.443286
964.197677	2535.153419
964.497022	2536.776671
964.796331	2535.647452
965.095601	2535.166022
965.394835	2536.660724
965.694030	2535.672658
965.993189	2538.057124
966.292309	2537.295910
966.591393	2536.791794
966.890439	2536.113759
967.189447	2535.198790
967.488419	2535.677699
967.787353	2534.518234
968.086249	2536.824562
968.385108	2536.746424
968.683930	2534.208203
968.982714	2538.447813
969.281462	2535.251722
969.580172	2533.643594
969.878844	2538.679707
970.177480	2536.595189
970.476078	2536.932947
970.774639	2538.634336
971.073162	2536.834644
971.371649	2531.927081
971.670098	2532.320291
971.968510	2534.792977
972.266885	2531.425486
972.565223	2535.879346
972.863524	2535.287010
973.161788	2537.177443
973.460014	2535.218954
973.758204	2534.369520
974.056356	2535.836496
974.354471	2538.107536
974.652550	2536.882535
974.950591	2536.799356
975.248595	2535.229037
975.546563	2538.775488
975.844493	2535.269366
976.142386	2536.527134
976.440243	2534.389685
976.738062	2536.141486
977.035845	2534.452699
977.333590	2534.087215
977.631299	2533.394057
977.928971	2532.494211
978.226606	2532.380785
978.524204	2535.826413
978.821765	2532.219468
979.119290	2532.116124
979.416777	2532.650487
979.714228	2535.523944
980.011642	2536.028060
980.309020	2534.515713
980.606360	2534.107380
980.903664	2537.989068
981.200931	2535.773481
981.498162	2538.901517
981.795356	2542.218597
982.092513	2543.194060
982.389633	2542.881508
982.686717	2549.092210
982.983764	2547.965512
983.280775	2551.690925
983.577749	2551.431305
983.874686	2552.129505
984.171587	2548.620862
984.468451	2548.431819
984.765279	2542.458051
985.062070	2540.401261
985.358824	2536.822041
985.655543	2541.933771
985.952224	2538.720036
986.248869	2537.159799
986.545478	2529.787111
986.842050	2533.527647
987.138586	2526.449867
987.435086	2530.331556
987.731549	2528.650331
988.027975	2535.307175
988.324366	2533.265507
988.620719	2532.806762
988.917037	2531.291896
989.213318	2535.501259
989.509563	2532.375744
989.805772	2531.911957
990.101944	2530.225692
990.398080	2531.284334
990.694180	2531.934643
990.990244	2531.279293
991.286271	2530.762574
991.582262	2533.938501
991.878217	2534.697195
992.174136	2533.996475
992.470019	2533.116793
992.765865	2533.880528
993.061676	2531.417924
993.357450	2533.880528
993.653188	2530.213089
993.948890	2533.754499
994.244556	2534.165353
994.540186	2531.904396
994.835780	2531.264169
995.131337	2534.447658
995.426859	2532.164015
995.722345	2535.143337
996.017795	2537.326157
996.313208	2537.726928
996.608586	2534.155271
996.903928	2537.547967
997.199234	2532.894982
997.494504	2538.331867
997.789738	2535.002185
998.084936	2537.497556
998.380099	2535.539068
998.675225	2532.456402
998.970316	2531.596885
999.265371	2532.297606
999.560390	2530.883562
999.855373	2531.735517
1000.150320	2529.653521
1000.445232	2530.187883
1000.740108	2532.486649
1001.034948	2531.639735
1001.329752	2528.562111
1001.624521	2532.121165
1001.919254	2529.895496
1002.213951	2530.591175
1002.508613	2526.883407
1002.803239	2528.005063
1003.097829	2525.481966
1003.392384	2530.145033
1003.686903	2528.030269
1003.981386	2532.526978
1004.275834	2528.541946
1004.570246	2531.198634
1004.864623	2530.462626
1005.158964	2529.041020
1005.453270	2530.001360
1005.747540	2528.461288
1006.041775	2528.667975
1006.335974	2529.557739
1006.630138	2529.608150
1006.924266	2530.931453
1007.218359	2527.190917
1007.512416	2528.678057
1007.806438	2525.968437
1008.100425	2529.754344
1008.394376	2530.628984
1008.688292	2531.720394
1008.982172	2528.552028
1009.276017	2533.376413
1009.569827	2529.391381
1009.863602	2531.385157
1010.157341	2528.557070
1010.451045	2529.532533
1010.744714	2528.763757
1011.038347	2530.394570
1011.331945	2530.233253
1011.625508	2530.876000
1011.919036	2530.717204
1012.212528	2529.953469
1012.505986	2527.931967
1012.799408	2529.010773
1013.092795	2528.231915
1013.386147	2528.587317
1013.679464	2529.320804
1013.972745	2528.554549
1014.265992	2526.502799
1014.559204	2531.085208
1014.852380	2528.350382
1015.145521	2529.272913
1015.438628	2529.562780
1015.731699	2527.458098
1016.024736	2528.163860
1016.317737	2529.877852
1016.610703	2530.240815
1016.903635	2525.471883
1017.196531	2526.429703
1017.489393	2525.292922
1017.782219	2523.510875
1018.075011	2529.177132
1018.367768	2528.960362
1018.660490	2529.063706
1018.953177	2529.063706
1019.245829	2529.063706
