Dividing Wavelength (nm)	Counts (n)	Blue Motor Position (mm): 0.000000	Red Motor Position (mm): 19.000000	
326.493990	2127.689557
326.888308	2127.689557
327.282561	2127.689557
327.676750	2094.869125
328.070874	2094.430544
328.464933	2095.083374
328.858929	2103.101329
329.252859	2114.224635
329.646726	2124.619494
330.040528	2137.560136
330.434265	2153.538073
330.827938	2172.023984
331.221547	2188.811027
331.615091	2208.985724
332.008571	2228.263097
332.401986	2248.994842
332.795338	2267.737852
333.188625	2288.129319
333.581847	2307.300827
333.975006	2326.273210
334.368100	2341.905828
334.761129	2360.084229
335.154095	2376.291538
335.546996	2394.840464
335.939833	2409.595921
336.332606	2424.908426
336.725315	2435.041145
337.117960	2447.644030
337.510540	2452.002107
337.903056	2468.958028
338.295508	2472.691003
338.687896	2481.475213
339.080220	2490.468632
339.472480	2498.736124
339.864676	2500.419869
340.256807	2503.144613
340.648875	2506.784326
341.040879	2510.925634
341.432818	2512.548886
341.824694	2515.205574
342.216506	2514.441839
342.608253	2515.891171
342.999937	2514.615759
343.391557	2513.562158
343.783113	2513.463855
344.174605	2511.278515
344.566033	2512.034688
344.957397	2509.955212
345.348697	2509.791374
345.739934	2504.135200
346.131106	2504.271311
346.522215	2502.116218
346.913260	2500.616474
347.304241	2501.498676
347.695159	2500.361896
348.086012	2494.557007
348.476802	2493.415186
348.867528	2491.376039
349.258191	2489.974599
349.648789	2489.725062
350.039324	2487.252376
350.429796	2487.116264
350.820203	2484.706593
351.210548	2484.144504
351.600828	2484.008393
351.991045	2483.416057
352.381198	2482.629638
352.771288	2483.786582
353.161314	2480.958495
353.551276	2481.175265
353.941175	2481.578557
354.331010	2481.447487
354.720782	2482.911942
355.110490	2482.468321
355.500135	2480.262816
355.889717	2486.004690
356.279235	2481.659215
356.668689	2484.890595
357.058080	2485.563589
357.447408	2483.043012
357.836672	2479.002527
358.225873	2484.073928
358.615010	2481.160141
359.004084	2486.060143
359.393095	2484.666264
359.782043	2483.400934
360.170927	2489.006697
360.559748	2489.467963
360.948505	2491.113899
361.337199	2488.873107
361.725830	2489.808241
362.114398	2490.836636
362.502903	2489.775473
362.891344	2493.243787
363.279722	2492.807727
363.668037	2493.079949
364.056289	2493.102635
364.444478	2494.839312
364.832603	2494.662872
365.220665	2498.063130
365.608665	2496.412152
365.996601	2499.401556
366.384474	2497.342245
366.772284	2499.204951
367.160031	2502.476660
367.547715	2502.156547
367.935336	2503.958759
368.322893	2507.946312
368.710388	2513.814215
369.097820	2519.601460
369.485189	2520.471059
369.872495	2524.395597
370.259738	2535.203831
370.646918	2539.607279
371.034035	2548.635985
371.421090	2557.757953
371.808081	2568.795560
372.195010	2576.299317
372.581875	2592.453695
372.968678	2605.086826
373.355418	2613.056890
373.742096	2632.601444
374.128710	2648.183650
374.515262	2661.230157
374.901751	2677.775223
375.288177	2689.944569
375.674540	2713.819473
376.060841	2728.564848
376.447079	2749.808271
376.833254	2770.819800
377.219367	2783.410082
377.605417	2820.157573
377.991404	2830.454129
378.377329	2855.128057
378.763191	2868.729090
379.148991	2906.482291
379.534727	2930.304264
379.920402	2961.430868
380.306013	2969.108545
380.691563	3019.648633
381.077049	3043.195863
381.462474	3059.214129
381.847835	3099.636621
382.233134	3122.152935
382.618371	3121.386680
383.003545	3191.781352
383.388657	3198.304605
383.773706	3230.487331
384.158693	3245.474682
384.543618	3275.575411
384.928480	3308.368117
385.313280	3352.594160
385.698017	3352.148018
386.082692	3405.652304
386.467305	3411.588263
386.851856	3441.169753
387.236344	3464.376705
387.620770	3494.696725
388.005133	3522.745705
388.389435	3548.291752
388.773674	3560.970254
389.157851	3605.740741
389.541965	3615.961681
389.926018	3585.596290
390.310008	3656.358967
390.693936	3670.118796
391.077802	3713.621433
391.461606	3700.179197
391.845348	3764.718569
392.229027	3764.980709
392.612645	3775.970424
392.996200	3856.260882
393.379694	3895.541552
393.763125	3957.613280
394.146494	3925.685132
394.529801	3989.675018
394.913047	4037.467677
395.296230	3999.585927
395.679351	4056.414854
396.062410	4078.232968
396.445408	4056.601377
396.828343	4092.091100
397.211217	4117.521200
397.594028	4039.247204
397.976778	4100.517388
398.359466	4129.859424
398.742092	4156.799350
399.124656	4081.076178
399.507158	4159.733302
399.889598	4183.489739
400.271977	4248.697064
400.654294	4216.098443
401.036549	4222.866192
401.418742	4193.745967
401.800874	4296.731699
402.182944	4316.235923
402.564952	4382.464082
402.946898	4367.796845
403.328783	4362.934652
403.710606	4276.539357
404.092367	4467.525991
404.474067	4430.032409
404.855705	4443.661169
405.237282	4368.174931
405.618797	4474.918843
406.000250	4503.487062
406.381642	4583.717026
406.762972	4541.225140
407.144240	4549.774937
407.525447	4543.680182
407.906593	4605.754430
408.287677	4635.469511
408.668700	4561.203233
409.049661	4600.168831
409.430560	4635.098986
409.811399	4556.797264
410.192176	4701.233883
410.572891	4631.698728
410.953545	4722.988983
411.334138	4594.900825
411.714669	4644.346983
412.095139	4528.579405
412.475547	4647.480060
412.855894	4611.914720
413.236180	4602.586064
413.616405	4545.447106
413.996568	4606.273668
414.376670	4528.687790
414.756711	4469.202175
415.136691	4476.584945
415.516609	4523.230741
415.896466	4527.077142
416.276262	4533.376063
416.655997	4485.164988
417.035670	4607.201241
417.415283	4652.879136
417.794834	4568.815375
418.174324	4504.996888
418.553753	4401.401176
418.933121	4509.097866
419.312428	4519.278477
419.691674	4435.902833
420.070859	4485.573322
420.449983	4382.136407
420.829045	4422.175771
421.208047	4315.986386
421.586988	4316.036798
421.965867	4280.922640
422.344686	4306.375426
422.723444	4183.643495
423.102141	4033.651524
423.480777	4159.319927
423.859352	3979.610354
424.237866	4070.391453
424.616319	4022.313969
424.994712	4025.421840
425.373044	3918.539296
425.751314	3935.323818
426.129524	3796.555976
426.507673	3828.257272
426.885762	3824.365501
427.263789	3737.960124
427.641756	3651.741270
428.019662	3645.737256
428.397508	3603.520113
428.775292	3532.606202
429.153016	3519.073224
429.530679	3456.636013
429.908282	3437.209927
430.285824	3360.347454
430.663305	3385.485168
431.040726	3274.892335
431.418086	3237.613002
431.795385	3226.610684
432.172624	3187.856814
432.549802	3148.462717
432.926920	3115.138169
433.303977	3083.368818
433.680974	3058.465518
434.057910	3025.937473
434.434786	2995.990498
434.811601	2962.534881
435.188355	2961.312401
435.565050	2919.198602
435.941683	2892.356978
436.318257	2888.702142
436.694770	2856.471524
437.071222	2837.950325
437.447614	2805.719708
437.823946	2777.650563
438.200218	2774.814914
438.576429	2745.447673
438.952580	2732.668348
439.328670	2720.763663
439.704700	2698.748944
440.080670	2684.537931
440.456580	2681.480472
440.832429	2664.106135
441.208218	2648.105512
441.583947	2643.954122
441.959616	2632.392236
442.335224	2624.044085
442.710773	2616.207612
443.086261	2611.063114
443.461689	2598.888727
443.837057	2594.621391
444.212365	2593.073757
444.587612	2582.550348
444.962800	2583.616552
445.337927	2579.273598
445.712995	2569.294634
446.088002	2572.402505
446.462949	2569.299675
446.837837	2564.858418
447.212664	2566.027966
447.587431	2564.490414
447.962139	2569.231619
448.336786	2575.659091
448.711374	2566.559808
449.085901	2562.983109
449.460369	2558.274672
449.834776	2554.675288
450.209124	2559.716442
450.583412	2559.383725
450.957640	2560.079405
451.331808	2558.395659
451.705917	2552.305945
452.079965	2553.898950
452.453954	2553.669578
452.827883	2554.191337
453.201752	2554.408107
453.575562	2551.582540
453.949311	2551.300235
454.323001	2550.891902
454.696632	2550.009700
455.070202	2552.189999
455.443713	2550.644885
455.817164	2547.834442
456.190556	2549.107333
456.563888	2548.855276
456.937160	2547.211859
457.310373	2549.566078
457.683526	2548.784699
458.056619	2552.142108
458.429653	2549.664381
458.802628	2549.069525
459.175542	2550.385266
459.548398	2551.388455
459.921194	2551.363250
460.293930	2553.243600
460.666607	2556.684187
461.039224	2555.350802
461.411782	2553.888868
461.784280	2554.408107
462.156719	2556.376677
462.529099	2557.742830
462.901419	2553.717468
463.273680	2554.950031
463.645882	2556.086811
464.018024	2553.215874
464.390106	2554.798796
464.762130	2557.775597
465.134094	2558.675443
465.505999	2565.372616
465.877845	2570.418811
466.249631	2572.420149
466.621358	2569.715570
466.993026	2571.288410
467.364634	2571.429562
467.736184	2564.011505
468.107674	2562.962945
468.479105	2565.518810
468.850477	2563.298181
469.221790	2561.440516
469.593043	2559.897923
469.964238	2561.891699
470.335373	2562.355486
470.706449	2561.599312
471.077467	2560.638973
471.448425	2571.548030
471.819324	2574.388720
472.190164	2573.854357
472.560945	2568.029304
472.931667	2563.915723
473.302330	2563.038562
473.672934	2562.526885
474.043479	2564.818089
474.413965	2564.306412
474.784393	2561.332131
475.154761	2559.693756
475.525070	2559.194682
475.895321	2559.325752
476.265513	2559.834909
476.635645	2565.405384
477.005719	2564.503017
477.375734	2566.128789
477.745691	2568.765313
478.115588	2570.277659
478.485427	2572.997361
478.855207	2574.459296
479.224928	2578.230079
479.594591	2580.211252
479.964194	2576.992476
480.333739	2577.690676
480.703226	2573.791343
481.072653	2579.419791
481.442022	2580.574216
481.811333	2582.580595
482.180584	2580.264185
482.549777	2579.560944
482.918912	2577.783937
483.287988	2579.964236
483.657005	2580.037333
484.025964	2575.344018
484.394864	2578.353587
484.763706	2576.342167
485.132489	2575.676735
485.501213	2574.565160
485.869879	2575.941395
486.238487	2571.979048
486.607036	2573.506518
486.975527	2576.289235
487.343959	2575.759914
487.712333	2576.276632
488.080648	2572.311764
488.448905	2574.371076
488.817104	2572.896538
489.185244	2574.151786
489.553326	2576.064903
489.921350	2579.288721
490.289315	2579.001376
490.657222	2583.409865
491.025070	2582.792323
491.392861	2582.762076
491.760593	2580.644792
492.128267	2579.003896
492.495883	2574.998699
492.863440	2575.611200
493.230939	2574.754203
493.598380	2574.197156
493.965763	2569.206414
494.333088	2569.897052
494.700354	2571.205231
495.067563	2568.810683
495.434713	2565.594427
495.801805	2574.348391
496.168839	2569.430745
496.535815	2572.286559
496.902733	2569.035014
497.269593	2571.800087
497.636395	2571.588359
498.003139	2568.921588
498.369825	2570.338153
498.736453	2571.437124
499.103023	2571.124573
499.469535	2574.098853
499.835989	2571.091805
500.202385	2572.957032
500.568723	2571.301013
500.935003	2570.260015
501.301226	2567.076526
501.667390	2572.616754
502.033497	2572.236147
502.399546	2571.606003
502.765537	2569.115673
503.131470	2571.288410
503.497345	2571.132134
503.863163	2570.275138
504.228923	2571.497618
504.594625	2572.609193
504.960269	2571.270766
505.325856	2572.107598
505.691385	2571.283369
506.056856	2571.893349
506.422270	2572.858730
506.787625	2571.361507
507.152924	2573.030129
507.518164	2572.319326
507.883347	2571.858061
508.248472	2574.640777
508.613540	2575.580953
508.978550	2575.258319
509.343503	2571.923596
509.708398	2574.648339
510.073236	2573.569532
510.438016	2575.659091
510.802738	2577.166396
511.167403	2576.226220
511.532010	2575.802763
511.896561	2573.594738
512.261053	2577.186560
512.625488	2574.744121
512.989866	2569.776064
513.354186	2572.122721
513.718449	2568.336815
514.082655	2575.734708
514.446803	2572.314285
514.810894	2576.319482
515.174927	2576.127918
515.538904	2574.613051
515.902822	2573.814028
516.266684	2576.304358
516.630488	2574.240006
516.994235	2577.156313
517.357925	2575.822928
517.721558	2576.538772
518.085133	2577.214287
518.448651	2577.133628
518.812112	2578.950964
519.175516	2575.812846
519.538863	2576.737897
519.902152	2575.472568
520.265385	2574.792012
520.628560	2579.523135
520.991678	2576.379976
521.354739	2578.497260
521.717743	2576.352249
522.080690	2577.945254
522.443580	2576.624472
522.806413	2580.186047
523.169189	2576.463155
523.531908	2579.145048
523.894569	2575.888463
524.257174	2577.526838
524.619722	2578.857703
524.982213	2579.276118
525.344647	2575.921231
525.707025	2576.644636
526.069345	2578.159503
526.431608	2577.441138
526.793815	2577.171437
527.155964	2577.032805
527.518057	2575.134811
527.880093	2575.827969
528.242072	2575.724626
528.603995	2578.235120
528.965860	2577.078175
529.327669	2575.661611
529.689421	2575.384348
530.051117	2576.662280
530.412755	2576.924420
530.774337	2575.981724
531.135862	2578.247723
531.497331	2577.547003
531.858743	2570.930488
532.220098	2576.594225
532.581396	2574.234965
532.942638	2572.853688
533.303824	2572.462999
533.664953	2578.797209
534.026025	2577.836869
534.387040	2577.468865
534.747999	2575.306210
535.108902	2580.841397
535.469748	2577.000037
535.830537	2577.075655
536.191270	2576.359811
536.551947	2576.624472
536.912567	2573.574573
537.273131	2576.692527
537.633638	2574.973494
537.994089	2576.536251
538.354483	2575.175140
538.714821	2576.248906
539.075103	2576.989955
539.435328	2575.669173
539.795497	2576.155644
540.155609	2575.636405
540.515665	2579.281160
540.875665	2575.013823
541.235609	2577.242013
541.595496	2578.293093
541.955328	2576.500963
542.315102	2575.606158
542.674821	2574.575242
543.034483	2578.217476
543.394090	2575.485171
543.753640	2578.716550
544.113134	2573.398133
544.472571	2575.926272
544.831953	2575.573391
545.191278	2577.305027
545.550548	2574.398802
545.909761	2576.203535
546.268918	2574.129100
546.628019	2576.468196
546.987064	2574.648339
547.346053	2578.177147
547.704986	2574.111456
548.063863	2574.857547
548.422684	2576.516087
548.781449	2577.917527
549.140158	2573.314954
549.498811	2577.209245
549.857408	2573.453586
550.215949	2570.996023
550.574434	2572.226065
550.932864	2573.098184
551.291237	2573.529203
551.649555	2577.781416
552.007817	2576.251426
552.366022	2576.032136
552.724173	2576.047259
553.082267	2575.953998
553.440305	2574.653380
553.798288	2575.535582
554.156215	2576.311920
554.514086	2575.719584
554.871902	2571.656414
555.229661	2575.691858
555.587365	2575.573391
555.945014	2573.743452
556.302606	2572.478122
556.660143	2575.485171
557.017625	2576.100192
557.375050	2576.586663
557.732421	2575.235634
558.089735	2575.086920
558.446994	2576.778227
558.804197	2575.180181
559.161345	2574.671024
559.518437	2576.074986
559.875474	2571.353945
560.232455	2575.326374
560.589381	2574.325705
560.946251	2576.352249
561.303065	2576.107753
561.659825	2574.605489
562.016528	2573.206569
562.373177	2574.993658
562.729770	2572.735221
563.086307	2575.097002
563.442789	2576.251426
563.799216	2574.915520
564.155587	2573.440983
564.511904	2578.194791
564.868164	2574.277814
565.224370	2575.666652
565.580520	2574.000551
565.936615	2573.811508
566.292654	2574.310582
566.648638	2572.717577
567.004567	2573.572053
567.360441	2573.249419
567.716260	2569.657597
568.072023	2573.766137
568.427732	2569.203893
568.783385	2572.664645
569.138982	2570.640622
569.494525	2569.322360
569.850013	2569.738255
570.205445	2569.859243
570.560823	2573.135993
570.916145	2573.519121
571.271412	2570.582649
571.626625	2572.674727
571.981782	2571.999213
572.336884	2570.643142
572.691931	2571.132134
573.046923	2573.985427
573.401860	2572.132803
573.756743	2571.207752
574.111570	2573.967783
574.466342	2572.468040
574.821059	2575.008782
575.175722	2569.559294
575.530330	2571.729511
575.884882	2573.052814
576.239380	2572.946950
576.593823	2572.110118
576.948211	2572.505849
577.302544	2571.797567
577.656823	2572.190777
578.011047	2569.561815
578.365216	2570.310426
578.719330	2570.716239
579.073389	2569.650035
579.427394	2569.156002
579.781344	2568.929150
580.135239	2567.005950
580.489080	2571.558112
580.842866	2568.835889
581.196597	2569.851681
581.550273	2571.033832
581.903895	2569.846640
582.257463	2569.166084
582.610975	2566.516958
582.964434	2568.883780
583.317837	2567.810014
583.671186	2570.973338
584.024481	2568.851012
584.377721	2569.408060
584.730906	2570.421332
585.084037	2567.570559
585.437113	2572.047104
585.790135	2569.188770
586.143103	2567.419325
586.496016	2567.129458
586.848874	2564.452606
587.201679	2566.416135
587.554428	2564.775239
587.907124	2563.882955
588.259765	2564.533264
588.612352	2565.612071
588.964884	2570.023081
589.317362	2566.426217
589.669786	2566.781619
590.022155	2569.012329
590.374470	2569.103070
590.726731	2567.394119
591.078937	2567.288255
591.431090	2567.222720
591.783188	2565.843964
592.135232	2566.355641
592.487222	2567.976372
592.839157	2567.857905
593.191038	2567.048800
593.542866	2565.516289
593.894639	2564.601320
594.246358	2565.818758
594.598022	2567.946125
594.949633	2565.670044
595.301190	2565.549057
595.652692	2566.572411
596.004141	2562.748696
596.355535	2565.155847
596.706876	2567.414283
597.058162	2562.415979
597.409395	2561.359858
597.760573	2563.328428
598.111698	2562.428582
598.462768	2564.775239
598.813785	2565.352452
599.164748	2562.312636
599.515657	2563.943449
599.866511	2564.147616
600.217312	2563.898079
600.568060	2566.569890
600.918753	2564.674416
601.269392	2560.265927
601.619978	2562.418500
601.970510	2563.083932
602.320988	2563.673747
602.671412	2565.584345
603.021783	2563.701474
603.372100	2565.198696
603.722363	2561.604354
604.072572	2563.951011
604.422728	2565.912020
604.772830	2559.595454
605.122878	2560.054199
605.472872	2558.136040
605.822813	2561.881617
606.172701	2563.419169
606.522534	2562.194169
606.872314	2563.794735
607.222041	2564.071998
607.571714	2564.102245
607.921333	2563.545198
608.270899	2563.119220
608.620411	2563.837585
608.969870	2565.818758
609.319276	2567.265569
609.668627	2567.436969
610.017926	2569.466033
610.367171	2570.867474
610.716362	2570.169274
611.065500	2569.468554
611.414585	2565.914540
611.763616	2567.341187
612.112594	2566.126269
612.461518	2566.237174
612.810389	2567.056362
613.159207	2566.262380
613.507971	2563.424210
613.856682	2566.514437
614.205340	2563.159550
614.553945	2562.597461
614.902496	2565.274314
615.250994	2562.567214
615.599439	2563.535116
615.947830	2566.194324
616.296169	2563.439334
616.644454	2564.782801
616.992686	2565.738100
617.340864	2565.589386
617.688990	2562.395815
618.037063	2564.543346
618.385082	2562.816751
618.733048	2564.462688
619.080961	2563.681309
619.428821	2564.742472
619.776628	2561.964796
620.124382	2566.002760
620.472083	2563.101576
620.819731	2562.297512
621.167326	2562.050496
621.514868	2564.558470
621.862357	2561.014539
622.209793	2563.114179
622.557176	2564.142575
622.904506	2562.526885
623.251783	2557.931873
623.599007	2558.922460
623.946179	2555.244938
624.293297	2557.924311
624.640363	2559.144271
624.987376	2561.367419
625.334336	2558.998077
625.681243	2560.538150
626.028097	2561.077553
626.374899	2557.982285
626.721647	2559.797100
627.068343	2561.521175
627.414987	2558.751061
627.761577	2561.367419
628.108115	2558.993036
628.454600	2558.446071
628.801032	2555.123950
629.147412	2559.056050
629.493739	2559.628221
629.840014	2559.131668
630.186236	2557.979764
630.532405	2555.794424
630.878521	2560.366750
631.224585	2558.987995
631.570597	2556.926163
631.916556	2558.004970
632.262462	2555.542366
632.608316	2558.085628
632.954117	2556.162428
633.299866	2557.198385
633.645562	2559.073694
633.991206	2560.071843
634.336797	2557.578992
634.682336	2558.950186
635.027823	2554.284598
635.373257	2555.867521
635.718639	2554.224104
636.063968	2554.738302
636.409245	2556.689229
636.754470	2554.239228
637.099642	2554.461039
637.444762	2557.100083
637.789829	2555.338199
638.134845	2556.396842
638.479808	2555.754095
638.824719	2554.508930
639.169577	2556.240566
639.514383	2554.798796
639.859137	2552.454659
640.203839	2556.520350
640.548489	2553.956923
640.893086	2551.552293
641.237632	2550.254196
641.582125	2549.918959
641.926566	2549.213197
642.270955	2553.185627
642.615292	2554.493806
642.959576	2554.617314
643.303809	2557.475649
643.647990	2555.260062
643.992118	2552.174875
644.336195	2555.451625
644.680219	2552.946172
645.024192	2556.981616
645.368112	2556.686708
645.711981	2553.616645
646.055797	2557.694939
646.399562	2557.062274
646.743274	2555.209650
647.086935	2555.928014
647.430544	2556.013714
647.774101	2557.768036
648.117606	2555.698642
648.461059	2554.004814
648.804460	2554.347613
649.147810	2554.256872
649.491108	2553.611604
649.834354	2555.746533
650.177548	2553.155380
650.520690	2554.488765
650.863781	2554.428271
651.206820	2555.441543
651.549807	2552.631100
651.892742	2553.230997
652.235626	2555.542366
652.578458	2552.167314
652.921238	2553.515822
653.263967	2552.351316
653.606644	2552.500030
653.949269	2552.530277
654.291843	2552.976419
654.634365	2553.992211
654.976836	2551.544731
655.319255	2552.868034
655.661622	2551.320400
656.003938	2554.556821
656.346203	2552.500030
656.688416	2554.665205
657.030577	2552.043805
657.372687	2551.169165
657.714746	2552.742005
658.056753	2552.729402
658.398708	2546.914431
658.740612	2548.078938
659.082465	2546.944678
659.424266	2549.601366
659.766016	2546.770758
660.107715	2552.084135
660.449362	2551.280071
660.790958	2550.637323
661.132503	2551.438867
661.473996	2551.794268
661.815438	2552.900802
662.156829	2553.672098
662.498168	2550.629762
662.839456	2552.691594
663.180693	2550.768393
663.521879	2553.800648
663.863013	2548.953578
664.204097	2552.852911
664.545129	2550.160934
664.886110	2551.232180
665.227040	2552.283260
665.567918	2551.640513
665.908746	2553.662016
666.249522	2553.369629
666.590248	2551.204453
666.930922	2553.692263
667.271545	2549.107333
667.612118	2551.693445
667.952639	2552.840308
668.293109	2552.603373
668.633528	2550.627241
668.973896	2551.423743
669.314213	2552.099258
669.654480	2552.900802
669.994695	2552.280740
670.334859	2550.705379
670.674973	2551.272509
671.015035	2550.838970
671.355047	2552.515153
671.695008	2551.915256
672.034918	2554.821481
672.374777	2550.637323
672.714585	2551.580019
673.054342	2552.283260
673.394049	2552.915925
673.733705	2552.913404
674.073310	2551.527087
674.412864	2552.270657
674.752368	2552.731923
675.091820	2549.331665
675.431223	2552.316028
675.770574	2552.580688
676.109875	2548.330996
676.449125	2549.170348
676.788324	2548.041129
677.127473	2548.378887
677.466571	2543.171375
677.805619	2547.514329
678.144616	2547.683207
678.483562	2550.133208
678.822458	2549.876109
679.161303	2551.401058
679.500098	2550.939793
679.838842	2549.258568
680.177535	2549.082127
680.516179	2549.283774
680.854771	2549.109854
681.193314	2549.606408
681.531805	2550.607077
681.870247	2552.205122
682.208638	2551.625390
682.546978	2550.145811
682.885268	2548.756973
683.223508	2550.586912
683.561697	2550.841490
683.899836	2551.630431
684.237925	2552.888199
684.575963	2552.666388
684.913951	2551.232180
685.251889	2552.389124
685.589776	2550.158414
685.927614	2550.879299
686.265401	2552.389124
686.603137	2549.334185
686.940824	2552.759649
687.278460	2550.539021
687.616046	2549.916438
687.953582	2551.365770
688.291068	2551.209494
688.628504	2553.924156
688.965889	2550.433157
689.303224	2550.808723
689.640510	2550.463404
689.977745	2548.789741
690.314930	2550.304607
690.652065	2550.355019
690.989150	2550.818805
691.326185	2551.116233
691.663170	2550.297046
692.000105	2549.573640
692.336990	2550.037426
692.673825	2548.847714
693.010610	2545.709596
693.347345	2547.501726
693.684030	2543.347815
694.020665	2545.548279
694.357251	2541.094419
694.693786	2545.137425
695.030272	2546.808567
695.366707	2547.892415
695.703093	2545.389482
696.039429	2546.906870
696.375716	2546.538865
696.711952	2547.126160
697.048139	2547.559699
697.384276	2547.859648
697.720363	2545.787733
698.056400	2546.571633
698.392388	2545.044163
698.728326	2545.439894
699.064214	2546.647250
699.400053	2546.443083
699.735842	2545.041643
700.071581	2545.754966
700.407270	2545.467620
700.742910	2545.954092
701.078501	2546.906870
701.414042	2545.616334
701.749533	2543.327650
702.084974	2544.850079
702.420366	2546.382590
702.755709	2542.740356
703.091002	2545.006355
703.426246	2543.446118
703.761440	2545.235727
704.096584	2543.526776
704.431679	2543.688093
704.766725	2542.768082
705.101721	2543.441076
705.436668	2546.720347
705.771565	2543.793957
706.106413	2543.710778
706.441212	2545.676828
706.775961	2541.943854
707.110661	2542.763041
707.445311	2546.992569
707.779913	2545.059287
708.114465	2546.599359
708.448967	2546.128011
708.783421	2545.644061
709.117825	2544.295552
709.452180	2547.118598
709.786485	2546.085162
710.120742	2546.294369
710.454949	2547.930224
710.789107	2544.928217
711.123216	2543.241951
711.457275	2544.015768
711.791286	2545.455017
712.125247	2545.230686
712.459159	2548.857796
712.793023	2547.156407
713.126837	2543.904863
713.460602	2545.613814
713.794318	2545.288659
714.127985	2545.339071
714.461602	2543.892260
714.795171	2547.179092
715.128691	2545.858310
715.462162	2546.997610
715.795584	2545.361756
716.128957	2542.727753
716.462281	2546.014585
716.795556	2546.092723
717.128782	2543.607434
717.461960	2543.909904
717.795088	2542.485778
718.128167	2545.099616
718.461198	2543.733463
718.794180	2547.373176
719.127113	2543.365459
719.459997	2547.408464
719.792833	2542.216076
720.125619	2545.129863
720.458357	2543.690613
720.791046	2541.096940
721.123686	2545.926365
721.456278	2541.545602
721.788821	2541.233051
722.121315	2543.065510
722.453761	2541.109543
722.786158	2541.840510
723.118506	2544.056097
723.450805	2541.613658
723.783056	2541.452341
724.115259	2542.102650
724.447412	2543.617517
724.779518	2541.681714
725.111574	2545.538196
725.443582	2545.334030
725.775542	2542.279090
726.107453	2541.127187
726.439315	2541.492670
726.771129	2549.140101
727.102895	2543.398227
727.434612	2541.936292
727.766281	2544.620706
728.097901	2540.272711
728.429473	2538.175591
728.760996	2542.463093
729.092471	2540.665921
729.423897	2545.361756
729.755276	2542.543751
730.086606	2544.076262
730.417887	2543.798998
730.749120	2543.272198
731.080305	2548.812426
731.411442	2544.706406
731.742530	2545.533155
732.073570	2545.825542
732.404562	2543.642723
732.735506	2544.182126
733.066401	2546.586756
733.397249	2545.949050
733.728048	2542.500901
734.058798	2545.928886
734.389501	2540.648277
734.720156	2543.957795
735.050762	2541.873277
735.381320	2541.860675
735.711831	2543.151210
736.042293	2542.475695
736.372707	2542.984852
736.703073	2543.244471
737.033391	2543.882177
737.363661	2542.221117
737.693883	2544.587939
738.024056	2543.678011
738.354182	2541.853113
738.684260	2541.452341
739.014290	2543.819163
739.344272	2542.871426
739.674207	2542.389996
740.004093	2544.028371
740.333931	2543.559543
740.663722	2542.332022
740.993464	2542.785726
741.323159	2545.008875
741.652806	2543.264636
741.982405	2544.371169
742.311956	2543.597352
742.641460	2542.669780
742.970915	2544.159441
743.300323	2543.536858
743.629683	2540.912938
743.958996	2544.540048
744.288260	2540.398740
744.617477	2541.530479
744.946647	2536.635519
745.275768	2540.991076
745.604842	2539.330015
745.933869	2540.015612
746.262847	2537.142155
746.591778	2541.724563
746.920662	2541.749769
747.249498	2542.221117
747.578286	2540.335726
747.907027	2542.085006
748.235720	2541.737166
748.564365	2540.587783
748.892963	2541.185160
749.221514	2540.441590
749.550017	2541.356559
749.878473	2540.640715
750.206881	2539.919830
750.535242	2541.159954
750.863555	2540.597866
751.191821	2540.557536
751.520039	2542.306817
751.848210	2540.169367
752.176334	2541.901004
752.504411	2540.925541
752.832440	2540.668442
753.160421	2543.637681
753.488356	2542.674821
753.816243	2540.877650
754.144082	2539.975283
754.471875	2544.494677
754.799620	2539.549306
755.127318	2537.472350
755.454969	2539.687937
755.782572	2541.361600
756.110129	2541.964018
756.437638	2542.344625
756.765100	2538.394881
757.092515	2539.571991
757.419882	2540.018133
757.747203	2542.919317
758.074477	2542.205994
758.401703	2541.212886
758.728882	2537.497556
759.056014	2542.102650
759.383099	2542.120294
759.710138	2540.781868
760.037129	2541.291024
760.364073	2542.478216
760.690970	2540.786909
761.017820	2539.120808
761.344623	2541.162475
761.671379	2539.798843
761.998088	2539.413194
762.324751	2540.930582
762.651366	2540.910417
762.977935	2547.479041
763.304456	2545.510470
763.630931	2547.259750
763.957359	2548.905687
764.283740	2546.924514
764.610074	2546.289328
764.936362	2541.964018
765.262602	2542.538710
765.588796	2542.505942
765.914943	2541.837989
766.241044	2539.070396
766.567097	2537.767258
766.893104	2541.832948
767.219064	2538.629295
767.544978	2539.571991
767.870845	2541.291024
768.196665	2540.426466
768.522438	2540.156765
768.848165	2541.890922
769.173846	2541.578370
769.499479	2538.195756
769.825066	2537.522762
770.150607	2537.792463
770.476101	2538.243647
770.801548	2540.486960
771.126949	2539.728267
771.452303	2539.453524
771.777611	2537.124511
772.102872	2536.622916
772.428087	2538.407484
772.753256	2539.882022
773.078378	2536.133924
773.403453	2536.048224
773.728482	2538.604089
774.053465	2535.100487
774.378401	2539.019984
774.703291	2538.145344
775.028135	2536.378420
775.352932	2535.758358
775.677683	2537.071578
776.002388	2536.688451
776.327046	2538.112577
776.651658	2535.443286
776.976224	2536.287679
777.300743	2536.315405
777.625216	2536.030580
777.949643	2537.737011
778.274024	2540.630633
778.598359	2533.991433
778.922647	2534.334232
779.246889	2536.154088
779.571086	2532.547143
779.895236	2535.876825
780.219339	2536.935467
780.543397	2536.285158
780.867409	2537.991589
781.191374	2536.391023
781.515294	2536.675848
781.839167	2534.924047
782.162995	2537.598379
782.486776	2538.956970
782.810511	2535.065199
783.134201	2536.751465
783.457844	2535.039993
783.781441	2536.577545
784.104993	2537.910931
784.428498	2537.124511
784.751958	2538.001671
785.075372	2538.813297
785.398739	2535.861702
785.722061	2536.580066
786.045337	2536.456558
786.368568	2535.261804
786.691752	2534.235929
787.014891	2537.389171
787.337983	2537.651311
787.661030	2537.668955
787.984031	2539.866898
788.306987	2539.703061
788.629897	2537.532844
788.952760	2541.606096
789.275579	2537.981507
789.598351	2540.486960
789.921078	2536.950591
790.243759	2537.333718
790.566395	2537.293389
790.888984	2536.456558
791.211529	2533.865405
791.534027	2537.648791
791.856480	2535.254243
792.178888	2538.407484
792.501249	2537.028729
792.823566	2536.789274
793.145836	2537.855478
793.468062	2535.312216
793.790241	2535.357586
794.112375	2539.360262
794.434464	2534.419932
794.756507	2538.089892
795.078505	2539.387989
795.400457	2533.487318
795.722364	2533.124355
796.044226	2535.302133
796.366042	2534.568646
796.687812	2535.639891
797.009538	2537.139634
797.331218	2538.863709
797.652852	2539.640046
797.974442	2539.854295
798.295986	2535.186187
798.617484	2537.174922
798.938938	2536.252391
799.260346	2535.216434
799.581709	2533.608306
799.903026	2539.050231
800.224299	2534.240971
800.545526	2535.828934
800.866708	2537.681558
801.187845	2536.302802
801.508936	2537.747093
801.829983	2535.579397
802.150984	2534.624098
802.471940	2534.868594
802.792851	2533.149561
803.113717	2538.173071
803.434538	2535.012267
803.755314	2534.939170
804.076045	2536.912782
804.396731	2536.093595
804.717372	2537.260622
805.037967	2537.205169
805.358518	2537.467309
805.679024	2538.553678
805.999485	2536.806918
806.319901	2535.493697
806.640272	2532.456402
806.960598	2537.999151
807.280879	2536.020498
807.601115	2538.581404
807.921306	2536.378420
808.241453	2536.370858
808.561554	2533.953625
808.881611	2537.404295
809.201623	2534.571166
809.521590	2536.446475
809.841513	2535.891948
810.161390	2535.881866
810.481223	2533.620909
810.801011	2537.298430
811.120755	2535.710467
811.440453	2537.739531
811.760107	2535.168543
812.079716	2535.448327
812.399281	2529.260311
812.718801	2536.207021
813.038276	2528.239477
813.357707	2535.622247
813.677093	2535.208872
813.996434	2536.242309
814.315731	2534.215765
814.634983	2537.157278
814.954191	2537.931095
815.273354	2535.329860
815.592473	2536.799356
815.911547	2536.605272
816.230577	2536.849768
816.549562	2534.735004
816.868502	2535.004705
817.187399	2536.638039
817.506250	2535.854140
817.825058	2536.688451
818.143821	2536.441434
818.462539	2536.537216
818.781213	2535.904551
819.099843	2540.328164
819.418429	2538.745242
819.736970	2537.822710
820.055466	2541.124666
820.373919	2539.188863
820.692327	2544.340922
821.010691	2548.991387
821.329011	2550.959957
821.647286	2569.302196
821.965517	2584.846593
822.283704	2591.279106
822.601847	2594.485280
822.919945	2588.178796
823.237999	2578.013309
823.556010	2566.983265
823.873976	2564.613922
824.191897	2558.829198
824.509775	2551.423743
824.827609	2548.111705
825.145398	2548.197405
825.463144	2546.617003
825.780845	2548.381407
826.098502	2550.707900
826.416116	2553.102448
826.733685	2556.079249
827.051210	2557.977243
827.368692	2558.289795
827.686129	2552.729402
828.003522	2551.653116
828.320872	2541.044008
828.638177	2541.545602
828.955439	2537.900848
829.272656	2535.796167
829.589830	2535.203831
829.906960	2538.034439
830.224046	2537.371527
830.541088	2537.452186
830.858086	2538.354552
831.175041	2537.442103
831.491952	2536.136444
831.808819	2540.189532
832.125642	2532.363141
832.442421	2540.365972
832.759157	2540.547454
833.075849	2542.405119
833.392497	2544.741694
833.709101	2548.504915
834.025662	2547.572302
834.342179	2545.550799
834.658653	2546.435522
834.975083	2541.535520
835.291469	2542.722712
835.607811	2540.557536
835.924110	2539.939995
836.240366	2534.409849
836.556578	2536.149047
836.872746	2536.549819
837.188871	2534.619057
837.504952	2536.678368
837.820990	2534.719880
838.136984	2534.465302
838.452935	2533.668800
838.768842	2534.858512
839.084706	2536.091074
839.400526	2532.388347
839.716303	2538.861188
840.032037	2540.257588
840.347727	2538.674665
840.663373	2539.907228
840.978977	2536.053265
841.294537	2534.220806
841.610054	2536.963194
841.925527	2533.343645
842.240957	2535.891948
842.556344	2535.160981
842.871687	2535.259284
843.186987	2533.885569
843.502244	2533.167205
843.817458	2534.200641
844.132629	2531.503624
844.447756	2533.814993
844.762840	2526.601102
845.077881	2531.488501
845.392879	2529.570342
845.707833	2531.624612
846.022745	2527.712676
846.337613	2532.741227
846.652438	2531.808614
846.967221	2533.913296
847.281960	2531.939684
847.596656	2533.716691
847.911309	2533.482277
848.225919	2533.207534
848.540485	2533.386495
848.855009	2531.675023
849.169490	2532.345497
849.483928	2533.378933
849.798323	2532.252235
850.112675	2533.129396
850.426984	2534.079654
850.741251	2534.959335
851.055474	2532.617719
851.369654	2530.576052
851.683792	2532.501772
851.997887	2533.714170
852.311938	2533.416742
852.625947	2531.528830
852.939914	2531.541433
853.253837	2533.341125
853.567718	2532.844571
853.881555	2533.648635
854.195350	2530.845753
854.509103	2532.829447
854.822812	2530.651669
855.136479	2534.498069
855.450103	2533.177287
855.763685	2532.234591
856.077224	2531.581762
856.390720	2532.617719
856.704173	2534.165353
857.017584	2534.901362
857.330953	2530.901206
857.644278	2532.826927
857.957561	2533.656197
858.270802	2533.356248
858.584000	2529.371216
858.897155	2530.596216
859.210268	2532.340456
859.523339	2533.018491
859.836367	2530.840712
860.149352	2532.005219
860.462295	2532.635363
860.775195	2528.920033
861.088054	2528.405835
861.400869	2530.387008
861.713642	2527.264014
862.026373	2532.088398
862.339062	2531.102852
862.651708	2532.161495
862.964312	2531.614529
863.276873	2533.663758
863.589392	2531.470857
863.901869	2530.344159
864.214303	2535.813811
864.526696	2533.031094
864.839045	2532.801721
865.151353	2530.815507
865.463619	2532.552184
865.775842	2531.596885
866.088023	2531.826258
866.400162	2533.666279
866.712258	2532.133768
867.024313	2533.464633
867.336325	2533.305837
867.648296	2533.729293
867.960224	2534.077133
868.272110	2533.865405
868.583954	2531.922040
868.895755	2532.990764
869.207515	2531.385157
869.519233	2532.491690
869.830909	2532.942873
870.142542	2533.073943
870.454134	2536.325488
870.765684	2530.255938
871.077191	2531.594365
871.388657	2533.545291
871.700081	2532.829447
872.011463	2532.577390
872.322803	2530.306350
872.634101	2532.242153
872.945357	2532.950435
873.256571	2530.321473
873.567744	2531.886752
873.878874	2534.495549
874.189963	2534.765251
874.501010	2534.750127
874.812015	2533.686444
875.122979	2535.927237
875.433900	2531.619571
875.744780	2533.852802
876.055618	2531.395239
876.366415	2533.865405
876.677169	2536.005374
876.987882	2530.644107
877.298554	2530.026566
877.609183	2531.223840
877.919771	2532.239633
878.230317	2530.510517
878.540822	2535.949922
878.851285	2535.478574
879.161707	2535.707946
879.472087	2535.647453
879.782425	2537.399253
880.092722	2541.906045
880.402977	2547.050542
880.713191	2554.082952
881.023363	2560.278530
881.333494	2566.673234
881.643583	2570.139027
881.953631	2568.661969
882.263637	2565.014694
882.573602	2561.662327
882.883526	2559.303067
883.193408	2554.541697
883.503248	2553.490617
883.813048	2548.504915
884.122806	2546.702703
884.432522	2542.740356
884.742197	2539.705581
885.051831	2542.248843
885.361424	2537.053934
885.670975	2537.437062
885.980485	2538.452855
886.289954	2535.730632
886.599382	2537.661393
886.908768	2537.089223
887.218113	2536.411187
887.527417	2536.161650
887.836680	2532.869777
888.145901	2533.978831
888.455082	2532.710980
888.764221	2535.095446
889.073319	2531.949766
889.382376	2533.147040
889.691392	2533.701567
890.000366	2530.651669
890.309300	2531.813655
890.618193	2533.018491
890.927044	2535.171063
891.235855	2535.203831
891.544625	2534.251053
891.853353	2534.014119
892.162041	2532.106042
892.470687	2534.556043
892.779293	2537.116949
893.087858	2532.511855
893.396381	2534.785415
893.704864	2533.857843
894.013306	2534.414890
894.321707	2540.668442
894.630068	2543.806560
894.938387	2543.098278
895.246665	2542.886549
895.554903	2542.800850
895.863100	2537.452186
896.171256	2540.547454
896.479371	2537.668955
896.787446	2538.460416
897.095480	2539.846734
897.403473	2537.275745
897.711425	2535.783564
898.019336	2534.735004
898.327207	2533.172246
898.635038	2535.985210
898.942827	2536.932947
899.250576	2533.767102
899.558284	2534.145189
899.865952	2532.950435
900.173579	2532.945394
900.481165	2530.812986
900.788711	2532.647966
901.096216	2535.196269
901.403681	2533.565456
901.711105	2534.190559
902.018489	2534.112421
902.325832	2533.167205
902.633135	2534.238450
902.940397	2533.205013
903.247619	2534.571166
903.554800	2536.627957
903.861941	2541.563247
904.169041	2547.935265
904.476101	2549.503064
904.783121	2548.862837
905.090100	2545.142466
905.397039	2546.483413
905.703938	2543.574667
906.010796	2539.728267
906.317614	2535.523944
906.624391	2536.340611
906.931129	2535.518903
907.237826	2532.947915
907.544483	2533.331042
907.851099	2534.084695
908.157675	2536.456558
908.464211	2529.237625
908.770707	2529.550177
909.077163	2527.745444
909.383578	2526.659075
909.689954	2529.615712
909.996289	2526.079343
910.302584	2530.019004
910.608839	2531.702750
910.915054	2533.326001
911.221229	2530.669313
911.527363	2533.492359
911.833458	2531.480939
912.139513	2533.930940
912.445527	2531.939684
912.751502	2532.615198
913.057436	2532.368182
913.363331	2531.944725
913.669186	2534.435055
913.975000	2535.080323
914.280775	2532.312729
914.586510	2533.348686
914.892205	2538.034439
915.197859	2538.155427
915.503475	2540.824718
915.809050	2545.999462
916.114585	2546.425439
916.420081	2547.088351
916.725536	2543.940151
917.030952	2545.946530
917.336328	2542.959646
917.641665	2543.168854
917.946961	2539.173740
918.252218	2537.792463
918.557435	2537.474871
918.862612	2535.423121
919.167750	2536.118800
919.472848	2535.755837
919.777906	2532.055630
920.082925	2533.351207
920.387904	2534.762730
920.692843	2534.913965
920.997743	2531.596885
921.302603	2531.347348
921.607423	2531.667462
921.912204	2533.426824
922.216946	2531.339787
922.521647	2530.094622
922.826310	2532.345497
923.130932	2532.799201
923.435516	2531.816176
923.740059	2531.591844
924.044564	2529.726617
924.349028	2531.758202
924.653454	2529.088911
924.957840	2529.822399
925.262186	2528.110928
925.566493	2529.051103
925.870761	2526.883407
926.174989	2530.830630
926.479178	2532.050589
926.783328	2531.138140
927.087438	2532.010260
927.391509	2530.024045
927.695541	2530.155115
927.999533	2527.430372
928.303486	2528.305012
928.607400	2527.266534
928.911275	2528.962882
929.215110	2530.341638
929.518906	2531.705270
929.822663	2530.707122
930.126381	2529.719056
930.430060	2528.972965
930.733699	2531.170908
931.037299	2530.666793
931.340861	2531.034797
931.644383	2531.148223
931.947866	2528.549508
932.251309	2529.663603
932.554714	2529.015815
932.858080	2532.532019
933.161407	2527.059847
933.464694	2530.825589
933.767943	2531.722914
934.071153	2529.398942
934.374323	2528.068078
934.677455	2530.586134
934.980548	2525.562624
935.283602	2529.116638
935.586617	2530.583613
935.889593	2530.729807
936.192530	2529.376257
936.495428	2529.091432
936.798287	2529.401463
937.101108	2530.019004
937.403890	2529.419107
937.706632	2532.398429
938.009336	2530.896165
938.312002	2531.085208
938.614628	2531.364992
938.917216	2529.711494
939.219765	2529.293078
939.522275	2528.602440
939.824747	2527.848788
940.127179	2529.151926
940.429573	2524.945083
940.731929	2529.328366
941.034246	2529.172090
941.336524	2528.841895
941.638763	2530.084539
941.940964	2530.039169
942.243126	2528.912471
942.545250	2528.153777
942.847335	2532.516896
943.149381	2529.802235
943.451389	2528.257121
943.753359	2531.191072
944.055290	2530.250897
944.357182	2530.979344
944.659036	2529.343490
944.960851	2530.525640
945.262628	2529.202337
945.564367	2528.320135
945.866067	2528.715866
946.167729	2527.397604
946.469352	2530.863397
946.770937	2528.819210
947.072484	2529.401463
947.373992	2529.905578
947.675462	2529.298119
947.976893	2528.814168
948.278286	2528.874662
948.579641	2529.686288
948.880958	2527.362316
949.182236	2530.220650
949.483476	2528.993129
949.784678	2527.379960
950.085841	2526.805269
950.386967	2530.936494
950.688054	2529.035979
950.989103	2530.613860
951.290114	2529.038500
951.591087	2530.928933
951.892021	2527.475742
952.192917	2532.307688
952.493776	2528.360465
952.794596	2531.606968
953.095378	2531.851464
953.396122	2532.678213
953.696828	2529.098994
953.997496	2530.881042
954.298126	2527.831143
954.598718	2532.012781
954.899272	2527.037162
955.199788	2528.113448
955.500266	2530.865918
955.800706	2529.691329
956.101108	2525.141688
956.401472	2529.598068
956.701798	2524.597243
957.002087	2524.188910
957.302337	2525.650844
957.602550	2528.025228
957.902724	2529.098994
958.202861	2528.872142
958.502960	2529.961031
958.803022	2527.788294
959.103045	2527.753006
959.403031	2526.699404
959.702979	2526.533046
960.002889	2529.346010
960.302762	2530.263500
960.602596	2529.835002
960.902393	2527.153108
961.202153	2527.901720
961.501875	2528.357944
961.801559	2527.009435
962.101205	2529.245187
962.400814	2529.920702
962.700385	2528.660413
962.999918	2528.040351
963.299414	2529.280475
963.598873	2526.228057
963.898293	2528.783922
964.197677	2527.463139
964.497022	2526.601102
964.796331	2527.962213
965.095601	2527.327028
965.394835	2529.524971
965.694030	2527.332069
965.993189	2529.726617
966.292309	2525.789476
966.591393	2528.415917
966.890439	2525.098838
967.189447	2529.918181
967.488419	2525.602953
967.787353	2527.516071
968.086249	2526.591020
968.385108	2529.013294
968.683930	2529.552698
968.982714	2528.118489
969.281462	2526.628828
969.580172	2527.115300
969.878844	2525.078673
970.177480	2526.906092
970.476078	2525.933149
970.774639	2531.377595
971.073162	2526.112110
971.371649	2527.700073
971.670098	2526.414579
971.968510	2525.426513
972.266885	2523.531039
972.565223	2528.078160
972.863524	2526.762419
973.161788	2527.372398
973.460014	2527.382481
973.758204	2527.397604
974.056356	2528.244518
974.354471	2529.441792
974.652550	2526.822913
974.950591	2529.865249
975.248595	2525.834847
975.546563	2528.914992
975.844493	2526.081863
976.142386	2526.865763
976.440243	2528.088242
976.738062	2524.282171
977.035845	2530.409694
977.333590	2527.400125
977.631299	2526.391894
977.928971	2526.845598
978.226606	2526.296112
978.524204	2526.475073
978.821765	2525.371060
979.119290	2527.357275
979.416777	2525.355937
979.714228	2525.986081
980.011642	2527.437933
980.309020	2531.102852
980.606360	2522.921060
980.903664	2528.599919
981.200931	2525.728982
981.498162	2526.669157
981.795356	2525.998684
982.092513	2529.177132
982.389633	2530.581093
982.686717	2524.521626
982.983764	2528.511699
983.280775	2529.373737
983.577749	2528.743592
983.874686	2529.824920
984.171587	2529.719056
984.468451	2524.972809
984.765279	2529.227543
985.062070	2526.462470
985.358824	2526.593540
985.655543	2526.286030
985.952224	2528.788963
986.248869	2526.933818
986.545478	2522.805113
986.842050	2523.425175
987.138586	2524.877027
987.435086	2522.681605
987.731549	2523.984743
988.027975	2528.388191
988.324366	2524.423323
988.620719	2527.609333
988.917037	2527.039682
989.213318	2529.686288
989.509563	2526.575896
989.805772	2526.018849
990.101944	2528.115969
990.398080	2528.463808
990.694180	2526.407017
990.990244	2526.505320
991.286271	2526.618746
991.582262	2526.061698
991.878217	2526.437264
992.174136	2530.026566
992.470019	2525.802079
992.765865	2527.425331
993.061676	2525.968437
993.357450	2527.619415
993.653188	2524.539270
993.948890	2528.146216
994.244556	2527.080012
994.540186	2526.865762
994.835780	2529.643438
995.131337	2527.200999
995.426859	2527.531195
995.722345	2528.118489
996.017795	2526.107069
996.313208	2528.650331
996.608586	2527.637059
996.903928	2529.340969
997.199234	2524.786287
997.494504	2526.971627
997.789738	2526.051616
998.084936	2524.819054
998.380099	2527.561442
998.675225	2525.487007
998.970316	2526.331400
999.265371	2525.502130
999.560390	2526.318797
999.855373	2529.759385
1000.150320	2524.824095
1000.445232	2530.755013
1000.740108	2528.405835
1001.034948	2523.649506
1001.329752	2529.010773
1001.624521	2530.175280
1001.919254	2524.125895
1002.213951	2523.523477
1002.508613	2521.993487
1002.803239	2525.965917
1003.097829	2522.999198
1003.392384	2529.194776
1003.686903	2527.379960
1003.981386	2525.638242
1004.275834	2525.655886
1004.570246	2525.378622
1004.864623	2525.708818
1005.158964	2528.234436
1005.453270	2524.750998
1005.747540	2525.247552
1006.041775	2527.483304
1006.335974	2529.293078
1006.630138	2525.151770
1006.924266	2526.202851
1007.218359	2530.082019
1007.512416	2527.009435
1007.806438	2527.090094
1008.100425	2527.044723
1008.394376	2526.447347
1008.688292	2526.961544
1008.982172	2525.184538
1009.276017	2525.628159
1009.569827	2528.778880
1009.863602	2529.139323
1010.157341	2527.324508
1010.451045	2522.348889
1010.744714	2525.416431
1011.038347	2525.461801
1011.331945	2524.181348
1011.625508	2528.352903
1011.919036	2525.912984
1012.212528	2528.080681
1012.505986	2528.184024
1012.799408	2525.522295
1013.092795	2524.982892
1013.386147	2524.846780
1013.679464	2526.522964
1013.972745	2527.763088
1014.265992	2526.742254
1014.559204	2527.042203
1014.852380	2527.405166
1015.145521	2528.186545
1015.438628	2523.767973
1015.731699	2526.099507
1016.024736	2525.257634
1016.317737	2527.445495
1016.610703	2528.035310
1016.903635	2523.457943
1017.196531	2522.963909
1017.489393	2522.076666
1017.782219	2522.782428
1018.075011	2526.477594
1018.367768	2526.714528
1018.660490	2527.586647
1018.953177	2527.586647
1019.245829	2527.586647
