Dividing Wavelength (nm)	Counts (n)	Blue Motor Position (mm): 0.000000	Red Motor Position (mm): 11.800000	
326.493990	2125.718466
326.888308	2125.718466
327.282561	2125.718466
327.676750	2093.810483
328.070874	2094.201172
328.464933	2097.014136
328.858929	2101.145361
329.252859	2110.521908
329.646726	2126.474639
330.040528	2136.849333
330.434265	2155.463794
330.827938	2173.110353
331.221547	2189.206757
331.615091	2207.859027
332.008571	2227.655638
332.401986	2247.361508
332.795338	2264.725763
333.188625	2285.651592
333.581847	2302.945270
333.975006	2322.893116
334.368100	2338.356856
334.761129	2359.496934
335.154095	2375.031250
335.546996	2391.956924
335.939833	2408.171795
336.332606	2419.186716
336.725315	2432.271031
337.117960	2443.608586
337.510540	2453.186778
337.903056	2463.412759
338.295508	2468.159005
338.687896	2479.317599
339.080220	2488.464773
339.472480	2496.525578
339.864676	2499.535147
340.256807	2503.258039
340.648875	2504.581342
341.040879	2507.036384
341.432818	2509.428411
341.824694	2509.998062
342.216506	2512.006962
342.608253	2510.290449
342.999937	2510.318175
343.391557	2512.188443
343.783113	2512.256499
344.174605	2511.041581
344.566033	2510.839934
344.957397	2504.157885
345.348697	2504.788029
345.739934	2504.251146
346.131106	2501.952380
346.522215	2500.571104
346.913260	2499.267966
347.304241	2497.218737
347.695159	2492.328817
348.086012	2496.016422
348.476802	2493.634476
348.867528	2489.843529
349.258191	2486.241624
349.648789	2486.019813
350.039324	2486.322283
350.429796	2483.032930
350.820203	2485.293887
351.210548	2481.008907
351.600828	2481.570995
351.991045	2481.079483
352.381198	2479.219297
352.771288	2481.671818
353.161314	2482.730461
353.551276	2479.736015
353.941175	2480.517394
354.331010	2477.389358
354.720782	2478.289204
355.110490	2480.083855
355.500135	2479.993114
355.889717	2482.647282
356.279235	2481.114771
356.668689	2481.129894
357.058080	2481.694503
357.447408	2479.950264
357.836672	2480.182157
358.225873	2482.680049
358.615010	2473.142186
359.004084	2486.254227
359.393095	2480.756849
359.782043	2481.659215
360.170927	2482.506129
360.559748	2486.186172
360.948505	2487.895123
361.337199	2486.070225
361.725830	2486.712972
362.114398	2487.549804
362.502903	2486.302118
362.891344	2488.643734
363.279722	2489.241111
363.668037	2490.894609
364.056289	2491.769249
364.444478	2492.061636
364.832603	2492.096924
365.220665	2493.155567
365.608665	2492.669095
365.996601	2491.983498
366.384474	2493.173211
366.772284	2495.141781
367.160031	2496.064313
367.547715	2499.648573
367.935336	2502.058244
368.322893	2505.158554
368.710388	2505.607217
369.097820	2513.534431
369.485189	2515.445028
369.872495	2522.003570
370.259738	2528.897347
370.646918	2536.746424
371.034035	2542.198432
371.421090	2554.997922
371.808081	2563.525033
372.195010	2568.246074
372.581875	2584.513877
372.968678	2597.225147
373.355418	2608.275356
373.742096	2628.140023
374.128710	2643.790285
374.515262	2654.306132
374.901751	2668.870025
375.288177	2681.346881
375.674540	2709.884853
376.060841	2723.551421
376.447079	2743.542117
376.833254	2766.071033
377.219367	2777.090995
377.605417	2813.273877
377.991404	2822.035402
378.377329	2844.821418
378.763191	2863.272041
379.148991	2901.095818
379.534727	2923.279416
379.920402	2950.126081
380.306013	2964.833647
380.691563	3014.342819
381.077049	3032.243956
381.462474	3054.253634
381.847835	3092.810899
382.233134	3112.670525
382.618371	3108.677931
383.003545	3180.705937
383.388657	3182.009075
383.773706	3214.169116
384.158693	3228.223853
384.543618	3248.625403
384.928480	3282.736370
385.313280	3322.435457
385.698017	3317.127122
386.082692	3360.294522
386.467305	3357.274871
386.851856	3380.081051
387.236344	3387.171434
387.620770	3409.413005
388.005133	3420.531269
388.389435	3432.183897
388.773674	3424.004624
389.157851	3450.049746
389.541965	3441.593210
389.926018	3399.769277
390.310008	3438.901234
390.693936	3437.824948
391.077802	3452.650981
391.461606	3419.376845
391.845348	3440.711008
392.229027	3418.088830
392.612645	3402.945204
392.996200	3431.803289
393.379694	3431.082404
393.763125	3445.424487
394.146494	3392.567989
394.529801	3400.374216
394.913047	3395.786766
395.296230	3343.625947
395.679351	3339.207376
396.062410	3316.058397
396.445408	3276.528189
396.828343	3255.995570
397.211217	3230.439440
397.594028	3163.775222
397.976778	3155.951351
398.359466	3134.617188
398.742092	3110.550719
399.124656	3052.310269
399.507158	3044.393137
399.889598	3025.347658
400.271977	3010.060359
400.654294	2973.645584
401.036549	2943.219700
401.418742	2905.176632
401.800874	2897.521640
402.182944	2877.422560
402.564952	2861.343800
402.946898	2832.273986
403.328783	2807.184163
403.710606	2771.160078
404.092367	2773.347939
404.474067	2749.740215
404.855705	2732.224726
405.237282	2705.614996
405.618797	2696.251052
406.000250	2681.543486
406.381642	2671.763647
406.762972	2655.205978
407.144240	2640.420273
407.525447	2630.786628
407.906593	2618.297170
408.287677	2610.120418
408.668700	2595.291864
409.049661	2589.912953
409.430560	2581.884916
409.811399	2573.067938
410.192176	2568.369582
410.572891	2559.151832
410.953545	2554.322407
411.334138	2549.402241
411.714669	2548.363763
412.095139	2543.597352
412.475547	2543.045346
412.855894	2537.177443
413.236180	2534.901362
413.616405	2535.271887
413.996568	2531.589324
414.376670	2530.132430
414.756711	2528.032790
415.136691	2528.491535
415.516609	2530.258459
415.896466	2528.060516
416.276262	2528.821730
416.655997	2523.125226
417.035670	2523.142870
417.415283	2522.747140
417.794834	2522.311080
418.174324	2525.928108
418.553753	2525.141688
418.933121	2526.074301
419.312428	2522.636234
419.691674	2524.814013
420.070859	2525.265196
420.449983	2521.975843
420.829045	2524.897192
421.208047	2525.391225
421.586988	2523.994825
421.965867	2526.046575
422.344686	2522.893333
422.723444	2525.814682
423.102141	2523.399969
423.480777	2525.192099
423.859352	2526.011287
424.237866	2527.889117
424.616319	2526.452388
424.994712	2525.708818
425.373044	2525.464322
425.751314	2523.289064
426.129524	2522.182531
426.507673	2530.137471
426.885762	2526.278468
427.263789	2528.710825
427.641756	2524.524147
428.019662	2527.115300
428.397508	2525.126564
428.775292	2526.338962
429.153016	2525.938190
429.530679	2524.246883
429.908282	2526.356606
430.285824	2525.189579
430.663305	2527.904240
431.040726	2528.148736
431.418086	2525.860052
431.795385	2528.602440
432.172624	2525.925587
432.549802	2527.062367
432.926920	2525.784435
433.303977	2530.477749
433.680974	2525.078673
434.057910	2529.396422
434.434786	2527.198479
434.811601	2530.321473
435.188355	2529.736700
435.565050	2528.824251
435.941683	2526.855680
436.318257	2528.637728
436.694770	2522.028775
437.071222	2523.581451
437.447614	2525.015659
437.823946	2525.645803
438.200218	2527.959693
438.576429	2534.256094
438.952580	2531.115455
439.328670	2530.571011
439.704700	2529.671165
440.080670	2530.747451
440.456580	2529.666123
440.832429	2529.925743
441.208218	2529.172090
441.583947	2530.981865
441.959616	2529.275434
442.335224	2527.808458
442.710773	2532.194262
443.086261	2531.874149
443.461689	2526.391894
443.837057	2532.002698
444.212365	2532.239633
444.587612	2532.680733
444.962800	2530.013963
445.337927	2529.038500
445.712995	2530.525640
446.088002	2533.091587
446.462949	2532.209386
446.837837	2532.297606
447.212664	2533.018491
447.587431	2532.957997
447.962139	2532.779036
448.336786	2535.972607
448.711374	2534.069571
449.085901	2532.547143
449.460369	2533.630991
449.834776	2533.567977
450.209124	2533.779705
450.583412	2531.745599
450.957640	2535.178625
451.331808	2533.101670
451.705917	2530.714683
452.079965	2535.241640
452.453954	2532.022863
452.827883	2533.313398
453.201752	2534.941691
453.575562	2534.344314
453.949311	2533.963707
454.323001	2531.977493
454.696632	2531.692667
455.070202	2534.356917
455.443713	2534.855991
455.817164	2531.614529
456.190556	2530.686957
456.563888	2532.479087
456.937160	2530.308871
457.310373	2536.128883
457.683526	2535.062679
458.056619	2537.064017
458.429653	2533.106711
458.802628	2536.910262
459.175542	2536.660724
459.548398	2539.080478
459.921194	2535.304654
460.293930	2539.458565
460.666607	2538.987217
461.039224	2540.048380
461.411782	2538.803215
461.784280	2538.440252
462.156719	2537.898328
462.529099	2540.887732
462.901419	2537.989068
463.273680	2536.794315
463.645882	2540.247505
464.018024	2540.305479
464.390106	2539.526620
464.762130	2539.947557
465.134094	2540.408822
465.505999	2544.353525
465.877845	2544.983669
466.249631	2546.034750
466.621358	2545.583567
466.993026	2547.025337
467.364634	2550.400389
467.736184	2545.626417
468.107674	2544.182126
468.479105	2542.818494
468.850477	2543.158772
469.221790	2540.887732
469.593043	2543.126004
469.964238	2541.137269
470.335373	2542.513504
470.706449	2543.970397
471.077467	2543.098278
471.448425	2545.495347
471.819324	2547.219421
472.190164	2548.295708
472.560945	2545.510470
472.931667	2540.401261
473.302330	2544.459389
473.672934	2543.869574
474.043479	2544.935778
474.413965	2543.196580
474.784393	2540.146682
475.154761	2543.453679
475.525070	2541.391847
475.895321	2538.853626
476.265513	2537.575694
476.635645	2544.784544
477.005719	2540.063503
477.375734	2540.678524
477.745691	2548.721685
478.115588	2544.744215
478.485427	2546.813608
478.855207	2546.410316
479.224928	2549.019113
479.594591	2548.986346
479.964194	2545.523073
480.333739	2546.170861
480.703226	2544.814791
481.072653	2546.410316
481.442022	2548.136911
481.811333	2548.109185
482.180584	2549.964329
482.549777	2548.840152
482.918912	2549.515667
483.287988	2546.276725
483.657005	2547.088351
484.025964	2548.371325
484.394864	2548.494833
484.763706	2547.058104
485.132489	2546.584236
485.501213	2544.570295
485.869879	2548.101623
486.238487	2545.477702
486.607036	2547.027857
486.975527	2546.848896
487.343959	2547.945347
487.712333	2549.830739
488.080648	2547.441232
488.448905	2547.224462
488.817104	2547.615152
489.185244	2546.327137
489.553326	2547.279915
489.921350	2549.939124
490.289315	2549.921480
490.657222	2551.738816
491.025070	2553.515822
491.392861	2553.230997
491.760593	2551.259906
492.128267	2550.017262
492.495883	2549.513146
492.863440	2547.814277
493.230939	2550.201264
493.598380	2547.736139
493.965763	2541.653987
494.333088	2543.456200
494.700354	2544.469472
495.067563	2546.183464
495.434713	2541.112063
495.801805	2551.091027
496.168839	2548.961140
496.535815	2549.089689
496.902733	2547.715975
497.269593	2549.306459
497.636395	2548.091541
498.003139	2546.614483
498.369825	2546.997610
498.736453	2546.959802
499.103023	2547.211859
499.469535	2549.187992
499.835989	2547.521890
500.202385	2546.972405
500.568723	2548.688917
500.935003	2547.423588
501.301226	2545.704554
501.667390	2548.033568
502.033497	2548.202446
502.399546	2547.950388
502.765537	2549.281253
503.131470	2547.983156
503.497345	2548.908208
503.863163	2548.028526
504.228923	2548.394010
504.594625	2547.100954
504.960269	2546.995090
505.325856	2547.232024
505.691385	2547.910059
506.056856	2548.300749
506.422270	2546.599359
506.787625	2545.976777
507.152924	2544.822353
507.518164	2547.968032
507.883347	2549.238403
508.248472	2546.864020
508.613540	2549.583722
508.978550	2547.922662
509.343503	2547.398382
509.708398	2549.508105
510.073236	2547.342929
510.438016	2549.747560
510.802738	2548.935934
511.167403	2549.964329
511.532010	2548.701520
511.896561	2548.845193
512.261053	2550.775955
512.625488	2547.857127
512.989866	2542.521066
513.354186	2548.366284
513.718449	2541.333874
514.082655	2546.397713
514.446803	2549.445091
514.810894	2550.352498
515.174927	2550.546583
515.538904	2547.902498
515.902822	2549.956768
516.266684	2547.814277
516.630488	2550.765873
516.994235	2551.731254
517.357925	2550.425595
517.721558	2549.830739
518.085133	2550.586912
518.448651	2550.501212
518.812112	2549.354350
519.175516	2551.151521
519.538863	2548.426778
519.902152	2551.766542
520.265385	2549.578681
520.628560	2548.653629
520.991678	2548.900646
521.354739	2550.133208
521.717743	2548.096582
522.080690	2550.042467
522.443580	2551.398538
522.806413	2550.712941
523.169189	2549.089689
523.531908	2552.275698
523.894569	2551.421223
524.257174	2549.059442
524.619722	2548.772097
524.982213	2551.096068
525.344647	2547.511808
525.707025	2550.458363
526.069345	2549.588763
526.431608	2548.605738
526.793815	2551.461552
527.155964	2549.427447
527.518057	2550.675132
527.880093	2549.258568
528.242072	2549.951727
528.603995	2549.397200
528.965860	2552.399207
529.327669	2550.254196
529.689421	2547.418547
530.051117	2550.065152
530.412755	2550.531459
530.774337	2550.153373
531.135862	2553.480534
531.497331	2549.931562
531.858743	2543.567105
532.220098	2548.807385
532.581396	2547.340409
532.942638	2548.799823
533.303824	2548.262940
533.664953	2551.562375
534.026025	2548.585574
534.387040	2550.460883
534.747999	2548.242775
535.108902	2550.435677
535.469748	2549.248486
535.830537	2549.477858
536.191270	2551.821995
536.551947	2552.999104
536.912567	2550.738147
537.273131	2551.267468
537.633638	2548.119267
537.994089	2550.758311
538.354483	2550.022303
538.714821	2550.801161
539.075103	2550.261757
539.435328	2552.235369
539.795497	2548.114226
540.155609	2549.245965
540.515665	2552.729402
540.875665	2553.011707
541.235609	2551.625390
541.595496	2550.791079
541.955328	2551.799309
542.315102	2551.272509
542.674821	2551.698486
543.034483	2550.420554
543.394090	2551.562375
543.753640	2551.181768
544.113134	2548.852755
544.472571	2549.825698
544.831953	2550.652447
545.191278	2550.375183
545.550548	2551.116233
545.909761	2551.050698
546.268918	2550.556665
546.628019	2552.643703
546.987064	2549.248486
547.346053	2549.563558
547.704986	2549.079607
548.063863	2553.992211
548.422684	2550.899463
548.781449	2550.095399
549.140158	2548.993907
549.498811	2551.199412
549.857408	2550.231511
550.215949	2549.079607
550.574434	2544.688762
550.932864	2547.211859
551.291237	2546.430481
551.649555	2551.345606
552.007817	2550.934752
552.366022	2549.631613
552.724173	2549.709751
553.082267	2553.490617
553.440305	2549.145142
553.798288	2551.358208
554.156215	2553.218394
554.514086	2551.635472
554.871902	2552.489947
555.229661	2551.791748
555.587365	2549.442570
555.945014	2549.472817
556.302606	2550.541542
556.660143	2552.111861
557.017625	2550.544062
557.375050	2549.520708
557.732421	2551.776624
558.089735	2553.646892
558.446994	2551.481717
558.804197	2551.685883
559.161345	2550.549103
559.518437	2552.494989
559.875474	2552.444577
560.232455	2550.339895
560.589381	2552.631100
560.946251	2548.681356
561.303065	2552.162273
561.659825	2552.976419
562.016528	2550.168496
562.373177	2550.511295
562.729770	2550.463404
563.086307	2551.489278
563.442789	2551.448949
563.799216	2551.648075
564.155587	2547.668084
564.511904	2551.708569
564.868164	2550.554144
565.224370	2551.970709
565.580520	2551.204453
565.936615	2554.143446
566.292654	2551.181768
566.648638	2552.709238
567.004567	2550.912066
567.360441	2552.240410
567.716260	2550.423074
568.072023	2552.898281
568.427732	2546.478372
568.783385	2551.053219
569.138982	2548.709082
569.494525	2545.870912
569.850013	2548.797302
570.205445	2551.809392
570.560823	2548.699000
570.916145	2551.262427
571.271412	2550.637323
571.626625	2553.959444
571.981782	2547.778989
572.336884	2550.599515
572.691931	2551.519525
573.046923	2551.607746
573.401860	2550.904505
573.756743	2548.756973
574.111570	2549.893753
574.466342	2550.649926
574.821059	2550.581871
575.175722	2550.622200
575.530330	2550.236552
575.884882	2550.430636
576.239380	2547.597508
576.593823	2551.040616
576.948211	2548.797302
577.302544	2551.849721
577.656823	2551.799309
578.011047	2549.528270
578.365216	2551.983312
578.719330	2550.677653
579.073389	2549.994576
579.427394	2551.617828
579.781344	2551.751418
580.135239	2550.312169
580.489080	2553.001625
580.842866	2552.605894
581.196597	2549.797971
581.550273	2548.802343
581.903895	2548.076417
582.257463	2548.189843
582.610975	2550.304607
582.964434	2550.075235
583.317837	2548.444422
583.671186	2552.437015
584.024481	2552.195040
584.377721	2551.809392
584.730906	2548.550286
585.084037	2549.818136
585.437113	2549.127498
585.790135	2550.985163
586.143103	2548.033568
586.496016	2550.609597
586.848874	2546.248999
587.201679	2547.927703
587.554428	2545.031560
587.907124	2546.095244
588.259765	2546.591797
588.612352	2547.131201
588.964884	2547.612631
589.317362	2551.776624
589.669786	2547.080789
590.022155	2549.150183
590.374470	2549.951727
590.726731	2549.424926
591.078937	2547.509287
591.431090	2548.802343
591.783188	2547.680687
592.135232	2549.409802
592.487222	2548.081458
592.839157	2547.957950
593.191038	2548.973743
593.542866	2547.920142
593.894639	2549.694628
594.246358	2549.366953
594.598022	2549.495502
594.949633	2548.993907
595.301190	2547.937786
595.652692	2548.870399
596.004141	2546.654812
596.355535	2546.637168
596.706876	2550.213867
597.058162	2545.170192
597.409395	2549.185471
597.760573	2548.429298
598.111698	2548.565409
598.462768	2547.753783
598.813785	2549.374514
599.164748	2547.410985
599.515657	2548.121788
599.866511	2547.562220
600.217312	2548.600697
600.568060	2547.295038
600.918753	2549.520708
601.269392	2548.671273
601.619978	2547.347971
601.970510	2549.190512
602.320988	2547.448794
602.671412	2548.565409
603.021783	2546.727909
603.372100	2547.274874
603.722363	2548.681356
604.072572	2547.839483
604.422728	2550.019782
604.772830	2544.167003
605.122878	2540.769265
605.472872	2544.734132
605.822813	2543.042825
606.172701	2546.024668
606.522534	2548.502395
606.872314	2546.518701
607.222041	2548.666232
607.571714	2547.635316
607.921333	2545.384441
608.270899	2546.962322
608.620411	2546.107847
608.969870	2548.923331
609.319276	2550.251675
609.668627	2553.110009
610.017926	2556.049002
610.367171	2553.412479
610.716362	2558.292316
611.065500	2552.142108
611.414585	2551.711089
611.763616	2553.392314
612.112594	2549.293856
612.461518	2552.071532
612.810389	2548.804864
613.159207	2550.614638
613.507971	2548.963660
613.856682	2548.683876
614.205340	2548.119267
614.553945	2547.080789
614.902496	2548.767055
615.250994	2550.012220
615.599439	2547.572302
615.947830	2547.526932
616.296169	2547.602549
616.644454	2548.641027
616.992686	2548.391489
617.340864	2549.014072
617.688990	2547.957950
618.037063	2546.513660
618.385082	2545.384441
618.733048	2551.519525
619.080961	2545.991900
619.428821	2547.289997
619.776628	2549.815615
620.124382	2547.700851
620.472083	2545.737322
620.819731	2549.553475
621.167326	2546.047353
621.514868	2549.019113
621.862357	2548.026006
622.209793	2550.105482
622.557176	2548.341078
622.904506	2543.662887
623.251783	2543.778834
623.599007	2543.811601
623.946179	2543.458720
624.293297	2542.773123
624.640363	2546.717826
624.987376	2545.823022
625.334336	2544.701365
625.681243	2547.171530
626.028097	2545.878474
626.374899	2548.043650
626.721647	2545.407126
627.068343	2549.286294
627.414987	2545.606252
627.761577	2546.861499
628.108115	2546.826211
628.454600	2547.163968
628.801032	2543.241951
629.147412	2546.942158
629.493739	2546.649771
629.840014	2546.972405
630.186236	2546.087682
630.532405	2546.763197
630.878521	2548.908208
631.224585	2545.467620
631.570597	2544.222455
631.916556	2546.027188
632.262462	2546.788403
632.608316	2544.134235
632.954117	2546.627086
633.299866	2544.189688
633.645562	2545.293700
633.991206	2544.618186
634.336797	2546.579195
634.682336	2546.806047
635.027823	2545.880995
635.373257	2544.540048
635.718639	2544.325799
636.063968	2545.823022
636.409245	2546.538865
636.754470	2541.890922
637.099642	2542.531148
637.444762	2544.542568
637.789829	2541.555685
638.134845	2543.678011
638.479808	2546.175902
638.824719	2544.719009
639.169577	2543.141128
639.514383	2542.609286
639.859137	2541.633823
640.203839	2539.771116
640.548489	2543.458720
640.893086	2541.832948
641.237632	2538.780530
641.582125	2541.933771
641.926566	2539.027546
642.270955	2544.880326
642.615292	2543.002496
642.959576	2546.158258
643.303809	2545.732281
643.647990	2543.118443
643.992118	2543.864533
644.336195	2546.972405
644.680219	2542.188350
645.024192	2545.197918
645.368112	2542.805891
645.711981	2541.021322
646.055797	2542.158103
646.399562	2543.899821
646.743274	2545.916283
647.086935	2544.529966
647.430544	2544.235058
647.774101	2542.352187
648.117606	2543.410829
648.461059	2542.957126
648.804460	2546.042312
649.147810	2543.894780
649.491108	2541.832948
649.834354	2544.996272
650.177548	2543.468803
650.520690	2541.898483
650.863781	2543.761190
651.206820	2545.596170
651.549807	2544.875285
651.892742	2542.117773
652.235626	2544.484595
652.578458	2540.214738
652.921238	2544.827394
653.263967	2542.377393
653.606644	2540.771785
653.949269	2543.246992
654.291843	2540.232382
654.634365	2542.200952
654.976836	2542.700027
655.319255	2542.304296
655.661622	2543.811601
656.003938	2542.881508
656.346203	2542.052238
656.688416	2539.229192
657.030577	2540.050900
657.372687	2541.510314
657.714746	2542.826056
658.056753	2542.712630
658.398708	2536.920344
658.740612	2542.833617
659.082465	2540.113915
659.424266	2539.113246
659.766016	2538.102494
660.107715	2543.733463
660.449362	2540.376055
660.790958	2542.006868
661.132503	2541.086858
661.473996	2540.789429
661.815438	2539.508976
662.156829	2541.837989
662.498168	2541.540561
662.839456	2540.761703
663.180693	2540.255067
663.521879	2542.364790
663.863013	2540.691127
664.204097	2541.386806
664.545129	2541.485109
664.886110	2543.123484
665.227040	2542.049718
665.567918	2543.751107
665.908746	2540.744059
666.249522	2542.624409
666.590248	2542.841179
666.930922	2542.606765
667.271545	2544.172044
667.612118	2540.413863
667.952639	2541.979142
668.293109	2543.002496
668.633528	2541.527958
668.973896	2540.050900
669.314213	2542.573998
669.654480	2540.948226
669.994695	2542.843700
670.334859	2542.054759
670.674973	2542.137938
671.015035	2542.135418
671.355047	2542.677342
671.695008	2541.812784
672.034918	2541.722043
672.374777	2543.027702
672.714585	2540.965870
673.054342	2543.743546
673.394049	2542.269008
673.733705	2542.339584
674.073310	2542.861344
674.412864	2541.147351
674.752368	2541.270860
675.091820	2543.511652
675.431223	2542.039636
675.770574	2540.544933
676.109875	2537.237937
676.449125	2538.072247
676.788324	2536.814480
677.127473	2540.091230
677.466571	2538.281455
677.805619	2540.197094
678.144616	2543.287321
678.483562	2542.205994
678.822458	2540.839841
679.161303	2543.113401
679.500098	2543.085675
679.838842	2540.860006
680.177535	2541.119625
680.516179	2542.188350
680.854771	2539.569470
681.193314	2540.144162
681.531805	2542.420243
681.870247	2543.062990
682.208638	2542.208514
682.546978	2542.319420
682.885268	2540.847403
683.223508	2541.739687
683.561697	2542.397558
683.899836	2540.363452
684.237925	2540.676003
684.575963	2540.786909
684.913951	2539.977804
685.251889	2540.907897
685.589776	2541.865716
685.927614	2537.860519
686.265401	2539.060314
686.603137	2543.511653
686.940824	2538.399922
687.278460	2541.311189
687.616046	2541.918648
687.953582	2541.044008
688.291068	2539.647608
688.628504	2542.236241
688.965889	2540.217258
689.303224	2540.796991
689.640510	2540.416384
689.977745	2539.158616
690.314930	2541.666590
690.652065	2539.813966
690.989150	2542.216076
691.326185	2539.743390
691.663170	2539.355221
692.000105	2540.517207
692.336990	2538.898997
692.673825	2541.149872
693.010610	2540.217258
693.347345	2536.406146
693.684030	2534.603934
694.020665	2537.875642
694.357251	2534.107380
694.693786	2539.458565
695.030272	2539.234233
695.366707	2537.477391
695.703093	2538.634336
696.039429	2538.488143
696.375716	2541.119625
696.711952	2538.997299
697.048139	2540.892773
697.384276	2538.659542
697.720363	2539.907227
698.056400	2541.974101
698.392388	2540.234903
698.728326	2537.749614
699.064214	2535.902031
699.400053	2539.123328
699.735842	2538.591486
700.071581	2538.251208
700.407270	2536.217103
700.742910	2537.089223
701.078501	2539.292207
701.414042	2537.769778
701.749533	2541.301107
702.084974	2537.555529
702.420366	2540.103832
702.755709	2537.991589
703.091002	2538.909079
703.426246	2537.358924
703.761440	2539.317412
704.096584	2538.200797
704.431679	2536.955632
704.766725	2538.236085
705.101721	2539.206507
705.436668	2536.963194
705.771565	2539.635005
706.106413	2538.266332
706.441212	2538.450334
706.775961	2540.396219
707.110661	2536.824562
707.445311	2540.716333
707.779913	2539.524100
708.114465	2541.074255
708.448967	2537.628626
708.783421	2539.229192
709.117825	2541.510314
709.452180	2538.954449
709.786485	2537.348842
710.120742	2541.399409
710.454949	2537.497556
710.789107	2538.188194
711.123216	2534.500590
711.457275	2536.448996
711.791286	2534.258615
712.125247	2535.390354
712.459159	2539.251877
712.793023	2540.174409
713.126837	2539.554347
713.460602	2538.793132
713.794318	2541.694317
714.127985	2541.653987
714.461602	2537.585776
714.795171	2538.420087
715.128691	2539.178781
715.462162	2539.511497
715.795584	2539.554347
716.128957	2536.086033
716.462281	2539.861857
716.795556	2537.268183
717.128782	2539.047711
717.461960	2540.676003
717.795088	2536.512010
718.128167	2536.958153
718.461198	2536.943029
718.794180	2535.372710
719.127113	2536.277597
719.459997	2540.371014
719.792833	2534.092257
720.125619	2537.643749
720.458357	2536.915303
720.791046	2538.286497
721.123686	2533.484798
721.456278	2536.484284
721.788821	2536.756506
722.121315	2539.287166
722.453761	2537.696682
722.786158	2534.470343
723.118506	2537.610982
723.450805	2539.609799
723.783056	2536.590148
724.115259	2535.894469
724.447412	2533.908254
724.779518	2537.472350
725.111574	2539.133410
725.443582	2535.637370
725.775542	2537.371527
726.107453	2537.469830
726.439315	2535.750796
726.771129	2541.386806
727.102895	2535.377751
727.434612	2538.437731
727.766281	2537.174922
728.097901	2537.142155
728.429473	2533.562935
728.760996	2535.299613
729.092471	2533.167205
729.423897	2536.890097
729.755276	2535.511341
730.086606	2539.443441
730.417887	2536.328008
730.749120	2537.240457
731.080305	2537.789943
731.411442	2536.136444
731.742530	2538.115097
732.073570	2540.912938
732.404562	2537.023688
732.735506	2538.215920
733.066401	2538.004192
733.397249	2540.156765
733.728048	2539.246836
734.058798	2536.373379
734.389501	2535.307175
734.720156	2536.748945
735.050762	2537.996630
735.381320	2538.684748
735.711831	2534.888759
736.042293	2537.399253
736.372707	2533.792308
736.703073	2536.093595
737.033391	2534.974458
737.363661	2537.409336
737.693883	2537.235416
738.024056	2536.567463
738.354182	2536.416228
738.684260	2536.945550
739.014290	2536.166691
739.344272	2537.356404
739.674207	2536.002854
740.004093	2538.982176
740.333931	2536.895138
740.663722	2537.295910
740.993464	2536.746424
741.323159	2537.573173
741.652806	2537.550488
741.982405	2539.140972
742.311956	2539.289686
742.641460	2538.009233
742.970915	2534.021680
743.300323	2539.327495
743.629683	2536.817000
743.958996	2534.692154
744.288260	2535.034952
744.617477	2536.297761
744.946647	2531.861546
745.275768	2533.598223
745.604842	2534.611495
745.933869	2535.410518
746.262847	2530.006401
746.591778	2537.497556
746.920662	2534.495549
747.249498	2536.847247
747.578286	2534.820703
747.907027	2536.126362
748.235720	2536.176774
748.564365	2536.358255
748.892963	2536.166691
749.221514	2534.868594
749.550017	2534.866074
749.878473	2536.088553
750.206881	2536.156609
750.535242	2533.212575
750.863555	2536.842206
751.191821	2534.424973
751.520039	2536.111239
751.848210	2536.244829
752.176334	2536.998482
752.504411	2536.133924
752.832440	2531.629653
753.160421	2535.700385
753.488356	2534.810621
753.816243	2535.052596
754.144082	2536.267514
754.471875	2536.829603
754.799620	2537.182484
755.127318	2533.237781
755.454969	2535.171063
755.782572	2535.619726
756.110129	2535.604603
756.437638	2537.694161
756.765100	2534.056968
757.092515	2536.252391
757.419882	2535.183666
757.747203	2536.275076
758.074477	2537.865560
758.401703	2536.121321
758.728882	2535.236598
759.056014	2535.133255
759.383099	2536.569984
759.710138	2534.568646
760.037129	2536.186856
760.364073	2535.360107
760.690970	2532.476567
761.017820	2536.355735
761.344623	2536.605272
761.671379	2535.158461
761.998088	2531.760723
762.324751	2534.021680
762.651366	2534.193080
762.977935	2535.967566
763.304456	2534.407329
763.630931	2539.831610
763.957359	2535.649973
764.283740	2539.231713
764.610074	2537.157278
764.936362	2538.064686
765.262602	2536.199459
765.588796	2537.303472
765.914943	2539.072917
766.241044	2533.905734
766.567097	2534.147709
766.893104	2532.350538
767.219064	2535.972607
767.544978	2535.665097
767.870845	2535.231557
768.196665	2535.183666
768.522438	2536.481763
768.848165	2531.566638
769.173846	2534.619057
769.499479	2534.538399
769.825066	2533.278110
770.150607	2535.188708
770.476101	2534.487987
770.801548	2535.682741
771.126949	2532.479087
771.452303	2536.194418
771.777611	2532.975641
772.102872	2532.872297
772.428087	2532.647966
772.753256	2536.189377
773.078378	2534.999664
773.403453	2534.334232
773.728482	2536.365817
774.053465	2535.743234
774.378401	2534.616537
774.703291	2534.591331
775.028135	2533.701567
775.352932	2532.834489
775.677683	2533.416742
776.002388	2534.687113
776.327046	2534.309026
776.651658	2532.889941
776.976224	2530.964221
777.300743	2532.035466
777.625216	2531.274252
777.949643	2534.218285
778.274024	2534.533357
778.598359	2533.620909
778.922647	2527.221164
779.246889	2531.485980
779.571086	2529.577903
779.895236	2532.915147
780.219339	2530.487832
780.543397	2534.593851
780.867409	2534.737524
781.191374	2532.229550
781.515294	2532.731145
781.839167	2530.881042
782.162995	2533.996475
782.486776	2532.804242
782.810511	2536.844727
783.134201	2533.535209
783.457844	2533.237781
783.781441	2531.422966
784.104993	2531.846422
784.428498	2530.760054
784.751958	2533.555374
785.075372	2532.002698
785.398739	2531.871628
785.722061	2533.973789
786.045337	2535.836496
786.368568	2534.523275
786.691752	2533.759540
787.014891	2533.152081
787.337983	2532.469005
787.661030	2532.761392
787.984031	2534.563604
788.306987	2534.568646
788.629897	2534.195600
788.952760	2533.593182
789.275579	2535.143337
789.598351	2533.071423
789.921078	2532.322812
790.243759	2533.303316
790.566395	2534.167874
790.888984	2531.528830
791.211529	2532.821886
791.534027	2536.544778
791.856480	2533.396577
792.178888	2536.063348
792.501249	2530.994467
792.823566	2534.122503
793.145836	2532.380785
793.468062	2533.880528
793.790241	2531.780888
794.112375	2531.337266
794.434464	2531.851464
794.756507	2532.307688
795.078505	2531.637215
795.400457	2531.065044
795.722364	2528.383150
796.044226	2532.239632
796.366042	2530.397091
796.687812	2529.030938
797.009538	2531.249046
797.331218	2533.487318
797.652852	2530.137471
797.974442	2531.024714
798.295986	2532.274921
798.617484	2530.792821
798.938938	2533.484798
799.260346	2533.104190
799.581709	2533.391536
799.903026	2533.073943
800.224299	2530.661751
800.545526	2531.291896
800.866708	2533.888090
801.187845	2531.158305
801.508936	2531.947246
801.829983	2532.854653
802.150984	2531.796011
802.471940	2530.311391
802.792851	2531.816176
803.113717	2531.574200
803.434538	2533.903213
803.755314	2534.871115
804.076045	2531.175949
804.396731	2532.514375
804.717372	2528.725948
805.037967	2530.792821
805.358518	2533.101670
805.679024	2534.152750
805.999485	2531.012112
806.319901	2531.090249
806.640272	2534.064530
806.960598	2531.478418
807.280879	2531.619571
807.601115	2532.607637
807.921306	2530.838192
808.241453	2534.276259
808.561554	2530.961700
808.881611	2533.446989
809.201623	2533.005888
809.521590	2530.913809
809.841513	2533.446989
810.161390	2532.428676
810.481223	2532.078316
810.801011	2530.507996
811.120755	2531.440610
811.440453	2532.829447
811.760107	2531.939684
812.079716	2531.395239
812.399281	2527.778211
812.718801	2528.680578
813.038276	2530.082019
813.357707	2534.087215
813.677093	2533.721732
813.996434	2531.916999
814.315731	2530.830630
814.634983	2532.060672
814.954191	2531.168387
815.273354	2531.859025
815.592473	2533.943542
815.911547	2533.086546
816.230577	2531.168387
816.549562	2534.619057
816.868502	2533.225178
817.187399	2533.318439
817.506250	2535.498738
817.825058	2532.801721
818.143821	2531.496062
818.462539	2530.356762
818.781213	2531.309540
819.099843	2533.361289
819.418429	2531.778367
819.736970	2535.234078
820.055466	2532.698378
820.373919	2531.075126
820.692327	2535.619726
821.010691	2532.897503
821.329011	2540.418905
821.647286	2546.858979
821.965517	2548.638506
822.283704	2554.776111
822.601847	2554.108158
822.919945	2552.268137
823.237999	2546.493495
823.556010	2547.894936
823.873976	2538.203317
824.191897	2540.396219
824.509775	2540.502084
824.827609	2537.308513
825.145398	2536.917823
825.463144	2535.488656
825.780845	2536.779192
826.098502	2537.308513
826.416116	2538.493184
826.733685	2539.246836
827.051210	2535.707946
827.368692	2542.034594
827.686129	2540.814635
828.003522	2536.897659
828.320872	2531.478418
828.638177	2532.501773
828.955439	2531.165867
829.272656	2529.903058
829.589830	2527.695032
829.906960	2533.215096
830.224046	2533.925898
830.541088	2531.367513
830.858086	2534.616537
831.175041	2533.973789
831.491952	2533.757020
831.808819	2535.057638
832.125642	2534.424973
832.442421	2533.883049
832.759157	2534.208203
833.075849	2534.366999
833.392497	2534.258615
833.709101	2534.785415
834.025662	2536.580066
834.342179	2534.543440
834.658653	2536.330529
834.975083	2535.105528
835.291469	2535.639891
835.607811	2535.009747
835.924110	2530.996988
836.240366	2530.520599
836.556578	2528.574714
836.872746	2533.071423
837.188871	2532.085877
837.504952	2535.405477
837.820990	2529.197296
838.136984	2531.942204
838.452935	2529.872811
838.768842	2531.796011
839.084706	2532.204344
839.400526	2532.453882
839.716303	2531.065044
840.032037	2533.005888
840.347727	2533.883049
840.663373	2534.392205
840.978977	2531.012112
841.294537	2532.607637
841.610054	2533.268028
841.925527	2530.661751
842.240957	2532.496731
842.556344	2532.973120
842.871687	2530.634025
843.186987	2530.818027
843.502244	2528.589837
843.817458	2531.720394
844.132629	2530.823068
844.447756	2533.099149
844.762840	2526.775022
845.077881	2528.877183
845.392879	2524.975330
845.707833	2527.561442
846.022745	2524.035155
846.337613	2531.768285
846.652438	2529.575383
846.967221	2529.303160
847.281960	2531.186031
847.596656	2531.637215
847.911309	2534.533358
848.225919	2529.882893
848.540485	2532.080836
848.855009	2530.031607
849.169490	2530.195445
849.483928	2527.848787
849.798323	2529.562780
850.112675	2531.143182
850.426984	2530.732328
850.741251	2530.127389
851.055474	2530.457585
851.369654	2531.140661
851.683792	2531.349869
851.997887	2532.106042
852.311938	2531.942204
852.625947	2530.533202
852.939914	2531.947246
853.253837	2532.436237
853.567718	2531.518748
853.881555	2528.950280
854.195350	2531.004550
854.509103	2531.183511
854.822812	2530.823068
855.136479	2531.488501
855.450103	2532.035466
855.763685	2529.524971
856.077224	2530.502955
856.390720	2531.150743
856.704173	2530.180321
857.017584	2530.598737
857.330953	2530.296268
857.644278	2531.496062
857.957561	2532.317770
858.270802	2530.225692
858.584000	2532.325332
858.897155	2531.838861
859.210268	2529.872811
859.523339	2531.370033
859.836367	2531.871628
860.149352	2530.094622
860.462295	2530.439941
860.775195	2527.974816
861.088054	2528.597399
861.400869	2526.840557
861.713642	2527.344672
862.026373	2528.592358
862.339062	2530.003881
862.651708	2527.833664
862.964312	2530.530681
863.276873	2529.088911
863.589392	2529.187214
863.901869	2528.708304
864.214303	2532.491690
864.526696	2530.271062
864.839045	2535.080323
865.151353	2529.862728
865.463619	2528.877183
865.775842	2530.281144
866.088023	2530.150074
866.400162	2530.918850
866.712258	2529.598068
867.024313	2531.344828
867.336325	2528.700743
867.648296	2530.296268
867.960224	2528.073119
868.272110	2530.830630
868.583954	2531.138140
868.895755	2531.435568
869.207515	2529.441792
869.519233	2529.711494
869.830909	2531.831299
870.142542	2529.371216
870.454134	2528.448685
870.765684	2530.364323
871.077191	2529.464477
871.388657	2532.978162
871.700081	2530.865918
872.011463	2530.954138
872.322803	2529.628315
872.634101	2529.177132
872.945357	2529.716535
873.256571	2530.054292
873.567744	2529.088911
873.878874	2530.800383
874.189963	2530.371885
874.501010	2531.554036
874.812015	2526.918695
875.122979	2531.543953
875.433900	2529.469518
875.744780	2531.924560
876.055618	2529.648479
876.366415	2529.051103
876.677169	2530.540764
876.987882	2526.510361
877.298554	2528.010104
877.609183	2529.973634
877.919771	2527.213602
878.230317	2528.821730
878.540822	2531.271731
878.851285	2531.841381
879.161707	2529.295599
879.472087	2529.640918
879.782425	2531.564118
880.092722	2530.994468
880.402977	2533.283151
880.713191	2535.584438
881.023363	2539.229192
881.333494	2541.094419
881.643583	2542.289173
881.953631	2541.132228
882.263637	2539.105684
882.573602	2537.590817
882.883526	2537.177443
883.193408	2538.291538
883.503248	2536.625436
883.813048	2533.706608
884.122806	2536.806918
884.432522	2534.135106
884.742197	2532.244674
885.051831	2532.090918
885.361424	2532.194262
885.670975	2531.954807
885.980485	2534.813142
886.289954	2532.174097
886.599382	2532.106042
886.908768	2531.581762
887.218113	2528.000022
887.527417	2531.846422
887.836680	2530.621422
888.145901	2529.209899
888.455082	2530.760054
888.764221	2531.377595
889.073319	2529.587986
889.382376	2530.291227
889.691392	2530.203006
890.000366	2531.221319
890.309300	2527.884076
890.618193	2530.182842
890.927044	2531.211237
891.235855	2527.291740
891.544625	2529.741741
891.853353	2530.036648
892.162041	2531.007070
892.470687	2530.011443
892.779293	2528.057995
893.087858	2526.263345
893.396381	2525.880217
893.704864	2530.124868
894.013306	2525.098838
894.321707	2530.717204
894.630068	2529.497245
894.938387	2536.083512
895.246665	2532.239633
895.554903	2533.401618
895.863100	2528.909950
896.171256	2532.388347
896.479371	2529.560259
896.787446	2532.252235
897.095480	2531.347348
897.403473	2532.196783
897.711425	2529.943387
898.019336	2530.913809
898.327207	2529.068747
898.635038	2529.388860
898.942827	2530.034128
899.250576	2530.051772
899.558284	2528.090763
899.865952	2528.955321
900.173579	2531.080167
900.481165	2529.731658
900.788711	2529.252749
901.096216	2528.776360
901.403681	2529.376257
901.711105	2527.639580
902.018489	2528.017666
902.325832	2530.177801
902.633135	2532.463964
902.940397	2528.151257
903.247619	2529.141843
903.554800	2528.683098
903.861941	2531.231402
904.169041	2534.314067
904.476101	2533.169725
904.783121	2534.233409
905.090100	2533.711649
905.397039	2533.356248
905.703938	2531.881711
906.010796	2530.805424
906.317614	2530.933974
906.624391	2531.637215
906.931129	2528.068078
907.237826	2529.668644
907.544483	2529.267872
907.851099	2529.015815
908.157675	2531.478418
908.464211	2529.464477
908.770707	2526.860721
909.077163	2528.007584
909.383578	2523.762932
909.689954	2527.440454
909.996289	2523.468025
910.302584	2529.146885
910.608839	2529.288037
910.915054	2528.451205
911.221229	2528.264683
911.527363	2527.228726
911.833458	2528.156298
912.139513	2526.923736
912.445527	2528.776360
912.751502	2528.630166
913.057436	2526.437264
913.363331	2528.226874
913.669186	2528.365506
913.975000	2529.131761
914.280775	2530.376926
914.586510	2530.855836
914.892205	2529.666123
915.197859	2531.138140
915.503475	2532.698377
915.809050	2535.173584
916.114585	2533.290713
916.420081	2534.576207
916.725536	2531.937163
917.030952	2532.932791
917.336328	2529.683768
917.641665	2531.700229
917.946961	2530.996988
918.252218	2531.019673
918.557435	2532.426155
918.862612	2528.148736
919.167750	2528.864580
919.472848	2530.356762
919.777906	2528.317615
920.082925	2532.221988
920.387904	2530.127389
920.692843	2529.900537
920.997743	2529.658562
921.302603	2528.955321
921.607423	2525.451719
921.912204	2528.446164
922.216946	2527.319466
922.521647	2529.935825
922.826310	2527.321987
923.130932	2531.836340
923.435516	2531.128058
923.740059	2528.234436
924.044564	2529.043541
924.349028	2529.035979
924.653454	2525.391225
924.957840	2526.308715
925.262186	2524.705628
925.566493	2529.197296
925.870761	2523.962058
926.174989	2527.974816
926.479178	2524.204033
926.783328	2525.930628
927.087438	2528.554549
927.391509	2531.808614
927.695541	2527.107738
927.999533	2528.231915
928.303486	2527.894158
928.607400	2528.005063
928.911275	2527.243849
929.215110	2526.134795
929.518906	2528.673016
929.822663	2528.118489
930.126381	2528.489014
930.430060	2529.761905
930.733699	2527.614374
931.037299	2527.528674
931.340861	2527.357275
931.644383	2528.040351
931.947866	2526.858201
932.251309	2529.630835
932.554714	2526.245701
932.858080	2529.376257
933.161407	2527.037162
933.464694	2527.652182
933.767943	2528.320135
934.071153	2528.181504
934.374323	2528.932636
934.677455	2528.032790
934.980548	2524.249404
935.283602	2526.928777
935.586617	2528.224353
935.889593	2527.957172
936.192530	2527.480783
936.495428	2526.578417
936.798287	2527.826102
937.101108	2524.594723
937.403890	2525.744106
937.706632	2527.551359
938.009336	2527.503468
938.312002	2525.499610
938.614628	2525.633200
938.917216	2525.214785
939.219765	2531.168387
939.522275	2527.485824
939.824747	2527.223684
940.127179	2523.914167
940.429573	2524.123375
940.731929	2527.256452
941.034246	2521.141532
941.336524	2527.271575
941.638763	2526.127233
941.940964	2526.704446
942.243126	2527.745444
942.545250	2529.199817
942.847335	2528.010104
943.149381	2526.401976
943.451389	2527.700073
943.753359	2527.163191
944.055290	2526.452388
944.357182	2528.781401
944.659036	2524.267048
944.960851	2528.907430
945.262628	2525.625639
945.564367	2526.651513
945.866067	2527.647141
946.167729	2528.226874
946.469352	2525.701256
946.770937	2529.005732
947.072484	2524.750998
947.373992	2529.845084
947.675462	2527.478263
947.976893	2528.947759
948.278286	2526.691843
948.579641	2528.055475
948.880958	2526.540608
949.182236	2526.956503
949.483476	2528.950280
949.784678	2528.458767
950.085841	2526.951462
950.386967	2529.328366
950.688054	2526.873324
950.989103	2528.690660
951.290114	2525.736544
951.591087	2529.409025
951.892021	2523.304187
952.192917	2529.872811
952.493776	2528.340300
952.794596	2526.238139
953.095378	2528.362985
953.396122	2528.433561
953.696828	2525.539939
953.997496	2528.995650
954.298126	2527.569003
954.598718	2530.263500
954.899272	2525.398787
955.199788	2527.873993
955.500266	2528.554549
955.800706	2522.469876
956.101108	2523.437778
956.401472	2525.136647
956.701798	2522.789990
957.002087	2524.811492
957.302337	2527.390043
957.602550	2527.926925
957.902724	2525.116482
958.202861	2527.765608
958.502960	2526.896009
958.803022	2526.946421
959.103045	2525.769312
959.403031	2526.288550
959.702979	2525.978519
960.002889	2529.018335
960.302762	2524.884589
960.602596	2529.184693
960.902393	2527.304343
961.202153	2526.414579
961.501875	2526.714528
961.801559	2524.506503
962.101205	2525.890299
962.400814	2526.470032
962.700385	2529.353572
962.999918	2527.105217
963.299414	2527.102697
963.598873	2526.618746
963.898293	2526.510361
964.197677	2527.402645
964.497022	2523.558766
964.796331	2526.593540
965.095601	2526.976668
965.394835	2529.318284
965.694030	2528.799045
965.993189	2530.147554
966.292309	2525.930628
966.591393	2526.427182
966.890439	2526.850639
967.189447	2527.231246
967.488419	2526.233098
967.787353	2526.628828
968.086249	2524.987933
968.385108	2526.706966
968.683930	2525.507172
968.982714	2525.832326
969.281462	2523.866276
969.580172	2525.134126
969.878844	2527.395084
970.177480	2528.226874
970.476078	2526.142357
970.774639	2526.659075
971.073162	2523.601615
971.371649	2523.528519
971.670098	2522.747140
971.968510	2525.343334
972.266885	2520.937366
972.565223	2524.655217
972.863524	2526.495238
973.161788	2523.941893
973.460014	2525.280320
973.758204	2525.557583
974.056356	2527.122861
974.354471	2526.510361
974.652550	2523.178158
974.950591	2526.530526
975.248595	2525.262676
975.546563	2523.740247
975.844493	2527.279137
976.142386	2526.681760
976.440243	2526.858201
976.738062	2526.066740
977.035845	2528.531864
977.333590	2527.064888
977.631299	2524.829136
977.928971	2523.609177
978.226606	2524.327542
978.524204	2525.902902
978.821765	2525.623118
979.119290	2525.857532
979.416777	2523.876358
979.714228	2527.140505
980.011642	2525.270237
980.309020	2527.831143
980.606360	2524.362830
980.903664	2526.832995
981.200931	2524.009949
981.498162	2525.686132
981.795356	2525.590351
982.092513	2526.563293
982.389633	2525.902902
982.686717	2526.754857
982.983764	2522.197654
983.280775	2526.533046
983.577749	2523.894002
983.874686	2528.274765
984.171587	2526.749816
984.468451	2524.113292
984.765279	2525.925587
985.062070	2525.345855
985.358824	2524.819054
985.655543	2525.398787
985.952224	2526.752337
986.248869	2527.861390
986.545478	2520.403003
986.842050	2523.049609
987.138586	2521.801923
987.435086	2523.662109
987.731549	2522.371574
988.027975	2525.817202
988.324366	2526.230577
988.620719	2523.901564
988.917037	2525.194620
989.213318	2524.922398
989.509563	2526.838036
989.805772	2525.476925
990.101944	2523.674712
990.398080	2526.049096
990.694180	2525.799558
990.990244	2525.378622
991.286271	2523.687315
991.582262	2525.555063
991.878217	2527.926925
992.174136	2524.007428
992.470019	2525.905423
992.765865	2523.967099
993.061676	2525.769312
993.357450	2522.878210
993.653188	2525.814682
993.948890	2524.793848
994.244556	2523.775535
994.540186	2524.340144
994.835780	2525.902902
995.131337	2527.400125
995.426859	2525.988602
995.722345	2525.202182
996.017795	2527.722759
996.313208	2529.212420
996.608586	2526.220495
996.903928	2526.628828
997.199234	2525.169414
997.494504	2525.527336
997.789738	2524.829136
998.084936	2525.262676
998.380099	2524.582120
998.675225	2525.852491
998.970316	2524.728313
999.265371	2527.435413
999.560390	2525.408869
999.855373	2526.769981
1000.150320	2525.615556
1000.445232	2525.217305
1000.740108	2525.350896
1001.034948	2524.113292
1001.329752	2524.705628
1001.624521	2525.643283
1001.919254	2517.365708
1002.213951	2521.796882
1002.508613	2520.844104
1002.803239	2523.548683
1003.097829	2520.334948
1003.392384	2526.953983
1003.686903	2525.567665
1003.981386	2524.365350
1004.275834	2523.359640
1004.570246	2525.040865
1004.864623	2523.795700
1005.158964	2526.394415
1005.453270	2525.734023
1005.747540	2526.918695
1006.041775	2522.951307
1006.335974	2525.658406
1006.630138	2527.115300
1006.924266	2524.630011
1007.218359	2523.115144
1007.512416	2524.856863
1007.806438	2527.763088
1008.100425	2524.882068
1008.394376	2526.215454
1008.688292	2523.611698
1008.982172	2523.949455
1009.276017	2526.230577
1009.569827	2522.739578
1009.863602	2528.002543
1010.157341	2524.002387
1010.451045	2525.877696
1010.744714	2525.723941
1011.038347	2522.898374
1011.331945	2523.974661
1011.625508	2525.839888
1011.919036	2523.488189
1012.212528	2525.948272
1012.505986	2524.443488
1012.799408	2523.793179
1013.092795	2525.018180
1013.386147	2525.829805
1013.679464	2526.739734
1013.972745	2526.268386
1014.265992	2523.931811
1014.559204	2527.768129
1014.852380	2524.808972
1015.145521	2524.924918
1015.438628	2525.219826
1015.731699	2525.960875
1016.024736	2523.596574
1016.317737	2527.871473
1016.610703	2522.537932
1016.903635	2521.018024
1017.196531	2522.114475
1017.489393	2522.588343
1017.782219	2520.750843
1018.075011	2521.978364
1018.367768	2525.214785
1018.660490	2524.894671
1018.953177	2524.894671
1019.245829	2524.894671
