Dividing Wavelength (nm)	Counts (n)	Blue Motor Position (mm): 0.000000	Red Motor Position (mm): 29.700000	
326.493990	2128.649897
326.888308	2128.649897
327.282561	2128.649897
327.676750	2095.509351
328.070874	2094.012129
328.464933	2095.867273
328.858929	2099.990937
329.252859	2113.670108
329.646726	2124.314504
330.040528	2137.121556
330.434265	2153.187713
330.827938	2171.960970
331.221547	2188.369926
331.615091	2206.724767
332.008571	2227.312839
332.401986	2247.898391
332.795338	2265.262645
333.188625	2286.012035
333.581847	2302.688172
333.975006	2322.575523
334.368100	2341.580673
334.761129	2359.723786
335.154095	2374.229706
335.546996	2393.267624
335.939833	2410.094995
336.332606	2426.700556
336.725315	2435.363779
337.117960	2445.665377
337.510540	2456.372788
337.903056	2467.062554
338.295508	2473.316106
338.687896	2484.147025
339.080220	2491.887717
339.472480	2497.294354
339.864676	2503.900786
340.256807	2506.698627
340.648875	2511.250788
341.040879	2512.039729
341.432818	2513.801612
341.824694	2515.510563
342.216506	2515.220697
342.608253	2516.024761
342.999937	2515.868485
343.391557	2516.518794
343.783113	2516.607014
344.174605	2514.593073
344.566033	2511.155007
344.957397	2512.942096
345.348697	2505.516476
345.739934	2507.858092
346.131106	2506.406240
346.522215	2507.797598
346.913260	2504.404902
347.304241	2500.303923
347.695159	2499.295692
348.086012	2497.561535
348.476802	2495.202275
348.867528	2493.173211
349.258191	2493.644559
349.648789	2491.950731
350.039324	2490.370329
350.429796	2490.017448
350.820203	2489.402428
351.210548	2485.067035
351.600828	2485.051912
351.991045	2486.859166
352.381198	2484.172231
352.771288	2484.593167
353.161314	2483.690800
353.551276	2484.421768
353.941175	2483.320276
354.331010	2484.542755
354.720782	2485.427478
355.110490	2484.651140
355.500135	2483.539566
355.889717	2485.568630
356.279235	2484.212560
356.668689	2486.652478
357.058080	2490.617346
357.447408	2487.166676
357.836672	2486.166007
358.225873	2484.094093
358.615010	2482.712817
359.004084	2488.936121
359.393095	2486.637355
359.782043	2490.440905
360.170927	2492.603560
360.559748	2491.975937
360.948505	2491.880155
361.337199	2493.510968
361.725830	2494.173880
362.114398	2493.513489
362.502903	2497.571617
362.891344	2493.999960
363.279722	2494.869559
363.668037	2497.800990
364.056289	2496.767553
364.444478	2499.499859
364.832603	2498.264776
365.220665	2498.942811
365.608665	2499.658655
365.996601	2499.701505
366.384474	2499.154540
366.772284	2502.953049
367.160031	2503.036228
367.547715	2506.413801
367.935336	2506.519666
368.322893	2514.033505
368.710388	2515.049298
369.097820	2522.053981
369.485189	2523.049609
369.872495	2531.485980
370.259738	2534.606454
370.646918	2544.184647
371.034035	2551.179248
371.421090	2559.275341
371.808081	2571.079202
372.195010	2581.209401
372.581875	2593.219950
372.968678	2605.548092
373.355418	2618.778600
373.742096	2634.302833
374.128710	2650.333702
374.515262	2666.851043
374.901751	2680.573064
375.288177	2695.598223
375.674540	2716.564382
376.060841	2733.575755
376.447079	2752.694331
376.833254	2774.749379
377.219367	2786.079373
377.605417	2821.415341
377.991404	2831.769871
378.377329	2854.908767
378.763191	2871.128679
379.148991	2911.278949
379.534727	2933.243256
379.920402	2963.565797
380.306013	2974.875625
380.691563	3025.811444
381.077049	3044.340205
381.462474	3066.591858
381.847835	3104.178701
382.233134	3126.475724
382.618371	3125.797689
383.003545	3192.592978
383.388657	3198.977599
383.773706	3233.693505
384.158693	3248.713623
384.543618	3274.461316
384.928480	3310.656801
385.313280	3358.567927
385.698017	3355.996938
386.082692	3408.656832
386.467305	3414.766710
386.851856	3446.518418
387.236344	3467.282930
387.620770	3501.419103
388.005133	3527.668392
388.389435	3555.261147
388.773674	3560.498906
389.157851	3601.155812
389.541965	3622.558030
389.926018	3587.801795
390.310008	3657.858710
390.693936	3677.486443
391.077802	3716.729305
391.461606	3706.727656
391.845348	3770.899023
392.229027	3768.685957
392.612645	3781.876136
392.996200	3859.741798
393.379694	3899.221595
393.763125	3966.110144
394.146494	3930.083538
394.529801	3991.262982
394.913047	4037.318963
395.296230	4005.738655
395.679351	4061.196388
396.062410	4081.958380
396.445408	4066.892892
396.828343	4097.959003
397.211217	4125.844145
397.594028	4041.394736
397.976778	4108.038790
398.359466	4137.698418
398.742092	4162.889064
399.124656	4087.054987
399.507158	4163.912418
399.889598	4190.141542
400.271977	4252.424998
400.654294	4224.534814
401.036549	4234.392790
401.418742	4205.842216
401.800874	4302.816372
402.182944	4325.279753
402.564952	4392.359867
402.946898	4378.625243
403.328783	4373.233729
403.710606	4288.804484
404.092367	4480.010409
404.474067	4439.587917
404.855705	4454.398827
405.237282	4380.417373
405.618797	4486.720184
406.000250	4524.475906
406.381642	4601.436681
406.762972	4567.020724
407.144240	4578.615378
407.525447	4578.449020
407.906593	4634.690653
408.287677	4680.439124
408.668700	4606.974389
409.049661	4657.695958
409.430560	4699.439233
409.811399	4629.979694
410.192176	4788.075320
410.572891	4726.989138
410.953545	4830.252134
411.334138	4711.714442
411.714669	4777.090646
412.095139	4674.142723
412.475547	4814.375020
412.855894	4797.305673
413.236180	4806.893947
413.616405	4759.302935
413.996568	4849.955484
414.376670	4791.087410
414.756711	4744.159308
415.136691	4774.617960
415.516609	4852.178632
415.896466	4890.362852
416.276262	4923.868881
416.655997	4903.704266
417.035670	5085.427780
417.415283	5182.908572
417.794834	5121.610662
418.174324	5075.723559
418.553753	4979.989527
418.933121	5167.636396
419.312428	5232.382456
419.691674	5174.479763
420.070859	5299.676818
420.449983	5211.474270
420.829045	5329.182692
421.208047	5231.386828
421.586988	5304.793589
421.965867	5318.505528
422.344686	5447.238953
422.723444	5302.560358
423.102141	5122.376917
423.480777	5421.012350
423.859352	5184.415877
424.237866	5447.274241
424.616319	5435.576244
424.994712	5550.098656
425.373044	5428.090130
425.751314	5567.077262
426.129524	5370.394124
426.507673	5563.780348
426.885762	5650.314274
427.263789	5579.584365
427.641756	5459.988031
428.019662	5582.188121
428.397508	5591.736066
428.775292	5536.434609
429.153016	5636.287263
429.530679	5556.200973
429.908282	5648.212113
430.285824	5516.776629
430.663305	5794.927334
431.040726	5524.610582
431.418086	5528.373804
431.795385	5632.912211
432.172624	5643.904447
432.549802	5638.293643
432.926920	5653.084388
433.303977	5658.274256
433.680974	5696.980235
434.057910	5713.938677
434.434786	5721.954111
434.811601	5690.653587
435.188355	5923.973311
435.565050	5802.189116
435.941683	5785.959121
436.318257	5996.674311
436.694770	5981.896168
437.071222	6007.772411
437.447614	5944.692453
437.823946	5859.081058
438.200218	6009.110837
438.576429	5872.848449
438.952580	5973.230425
439.328670	6018.767167
439.704700	5923.897693
440.080670	5913.275982
440.456580	6181.876221
440.832429	6068.301545
441.208218	5911.763636
441.583947	6065.165948
441.959616	6072.268933
442.335224	6000.997100
442.710773	6135.346371
443.086261	6162.135062
443.461689	5957.862467
443.837057	6102.846052
444.212365	6259.099136
444.587612	6151.929246
444.962800	6309.084697
445.337927	6281.547394
445.712995	5898.066821
446.088002	6474.391693
446.462949	6303.814171
446.837837	6241.934007
447.212664	6409.512043
447.587431	6552.574948
447.962139	7089.145281
448.336786	8017.168772
448.711374	7753.372753
449.085901	6833.929306
449.460369	6755.075578
449.834776	6687.108221
450.209124	7079.418375
450.583412	7232.109884
450.957640	7375.029116
451.331808	7139.340050
451.705917	6693.177770
452.079965	6614.437468
452.453954	6827.534603
452.827883	6697.528286
453.201752	6798.258102
453.575562	6593.395692
453.949311	6798.348842
454.323001	6684.602768
454.696632	6761.175374
455.070202	6899.615541
455.443713	7054.943573
455.817164	7154.738255
456.190556	7231.948567
456.563888	7307.366749
456.937160	7349.518357
457.310373	7008.265009
457.683526	7031.587907
458.056619	6924.201248
458.429653	6910.277581
458.802628	6840.392065
459.175542	6944.607839
459.548398	7297.299565
459.921194	7460.985830
460.293930	7453.348482
460.666607	7981.734502
461.039224	8284.657437
461.411782	8409.607476
461.784280	8422.222963
462.156719	8312.134246
462.529099	8176.880088
462.901419	7776.584746
463.273680	7660.718866
463.645882	7668.731780
464.018024	7535.300000
464.390106	7692.810852
464.762130	8071.217503
465.134094	8519.267695
465.505999	9505.914764
465.877845	10685.746411
466.249631	11318.817031
466.621358	10944.529002
466.993026	10312.350666
467.364634	10058.014372
467.736184	9689.271612
468.107674	9350.899284
468.479105	9367.025935
468.850477	9130.595819
469.221790	8895.572186
469.593043	8566.652021
469.964238	8410.698886
470.335373	8414.711644
470.706449	8451.617931
471.077467	8422.742202
471.448425	9638.073654
471.819324	10628.254572
472.190164	10635.130705
472.560945	9441.793808
472.931667	8670.305706
473.302330	8529.037452
473.672934	8167.256525
474.043479	8479.235893
474.413965	8399.046258
474.784393	8264.891072
475.154761	8383.285091
475.525070	8432.499355
475.895321	8245.739729
476.265513	8383.930359
476.635645	8503.748503
477.005719	8462.695867
477.375734	8531.558028
477.745691	8705.019091
478.115588	8780.545658
478.485427	8953.966392
478.855207	9368.964258
479.224928	9989.747067
479.594591	10482.005657
479.964194	10267.708728
480.333739	10186.611686
480.703226	10048.695799
481.072653	10063.443695
481.442022	10176.274800
481.811333	10270.158729
482.180584	10057.384228
482.549777	9749.526003
482.918912	9549.152741
483.287988	9491.209719
483.657005	9436.903889
484.025964	9123.525601
484.394864	9154.115323
484.763706	9061.658041
485.132489	8824.892688
485.501213	8725.579437
485.869879	8716.923776
486.238487	8516.646295
486.607036	8538.948360
486.975527	8295.228736
487.343959	8360.385650
487.712333	8312.343453
488.080648	8196.122172
488.448905	8136.530692
488.817104	8029.506996
489.185244	8119.315152
489.553326	8134.226885
489.921350	8378.362404
490.289315	8914.564733
490.657222	9038.894710
491.025070	8880.305052
491.392861	8724.934169
491.760593	8418.207684
492.128267	8128.792521
492.495883	7851.292126
492.863440	7568.806029
493.230939	7290.809079
493.598380	7171.905904
493.965763	7007.521439
494.333088	6890.612040
494.700354	6753.293530
495.067563	6723.006278
495.434713	6541.335696
495.801805	6530.305651
496.168839	6418.858342
496.535815	6298.218490
496.902733	6235.985446
497.269593	6113.729903
497.636395	6086.447178
498.003139	5989.165512
498.369825	5867.270412
498.736453	5852.434296
499.103023	5755.510552
499.469535	5684.135375
499.835989	5609.513695
500.202385	5520.181929
500.568723	5400.648609
500.935003	5416.349283
501.301226	5257.003451
501.667390	5285.095281
502.033497	5248.262090
502.399546	5138.095235
502.765537	5038.860121
503.131470	4986.041432
503.497345	4964.866065
503.863163	4801.187361
504.228923	4815.547088
504.594625	4774.554946
504.960269	4645.692971
505.325856	4635.172083
505.691385	4523.263509
506.056856	4502.435982
506.422270	4446.577476
506.787625	4374.453688
507.152924	4329.461390
507.518164	4277.398874
507.883347	4199.056823
508.248472	4135.356803
508.613540	4127.175010
508.978550	4051.552661
509.343503	3999.984178
509.708398	3965.401862
510.073236	3939.434879
510.438016	3890.195409
510.802738	3834.079805
511.167403	3797.304587
511.532010	3738.307964
511.896561	3733.808734
512.261053	3699.443188
512.625488	3634.664361
512.989866	3589.911518
513.354186	3552.024726
513.718449	3497.300481
514.082655	3489.206908
514.446803	3442.785443
514.810894	3418.628234
515.174927	3370.386912
515.538904	3343.210052
515.902822	3324.530056
516.266684	3282.703603
516.630488	3248.552306
516.994235	3227.518092
517.357925	3200.086653
517.721558	3183.657532
518.085133	3155.336330
518.448651	3134.576859
518.812112	3098.570417
519.175516	3075.824731
519.538863	3058.702452
519.902152	3038.048845
520.265385	3019.814991
520.628560	2998.732886
520.991678	2974.268166
521.354739	2961.864407
521.717743	2937.911365
522.080690	2922.258582
522.443580	2907.130079
522.806413	2892.548542
523.169189	2881.034547
523.531908	2868.388812
523.894569	2845.166737
524.257174	2838.162054
524.619722	2823.353664
524.982213	2816.795123
525.344647	2803.892290
525.707025	2793.005918
526.069345	2787.437964
526.431608	2773.239554
526.793815	2764.888882
527.155964	2755.754312
527.518057	2747.892632
527.880093	2739.879718
528.242072	2732.902761
528.603995	2723.760629
528.965860	2716.924824
529.327669	2713.146479
529.689421	2705.007537
530.051117	2700.243646
530.412755	2695.588141
530.774337	2690.920032
531.135862	2686.816533
531.497331	2680.094154
531.858743	2672.431600
532.220098	2673.079389
532.581396	2665.366423
532.942638	2665.142092
533.303824	2664.411125
533.664953	2662.561021
534.026025	2658.792759
534.387040	2656.136071
534.747999	2655.929383
535.108902	2656.491472
535.469748	2647.573671
535.830537	2648.511325
536.191270	2646.746922
536.551947	2645.063176
536.912567	2641.249543
537.273131	2640.405150
537.633638	2639.144862
537.994089	2638.257618
538.354483	2634.103708
538.714821	2634.983389
539.075103	2637.251908
539.435328	2632.039355
539.795497	2632.336783
540.155609	2630.600106
540.515665	2633.541619
540.875665	2630.151443
541.235609	2628.359313
541.595496	2630.824437
541.955328	2625.551390
542.315102	2629.034827
542.674821	2627.582975
543.034483	2627.905609
543.394090	2625.495937
543.753640	2621.624331
544.113134	2625.437964
544.472571	2621.374794
544.831953	2621.589043
545.191278	2621.435288
545.550548	2621.954527
545.909761	2619.723816
546.268918	2618.939917
546.628019	2621.110134
546.987064	2617.934207
547.346053	2616.552931
547.704986	2615.154010
548.063863	2618.282046
548.422684	2616.011007
548.781449	2616.426902
549.140158	2617.853548
549.498811	2614.624689
549.857408	2612.867847
550.215949	2613.379524
550.574434	2610.017075
550.932864	2610.707713
551.291237	2609.013885
551.649555	2612.527569
552.007817	2615.353136
552.366022	2614.420522
552.724173	2613.193002
553.082267	2612.900615
553.440305	2613.944133
553.798288	2611.927672
554.156215	2610.647219
554.514086	2613.593773
554.871902	2610.511108
555.229661	2610.624534
555.587365	2609.691920
555.945014	2608.807198
556.302606	2612.121756
556.660143	2610.543875
557.017625	2610.319544
557.375050	2609.326437
557.732421	2610.430449
558.089735	2609.989348
558.446994	2610.929523
558.804197	2610.024636
559.161345	2612.305758
559.518437	2609.845675
559.875474	2608.940788
560.232455	2609.439862
560.589381	2610.813577
560.946251	2610.584204
561.303065	2608.724019
561.659825	2609.583535
562.016528	2611.156375
562.373177	2608.895418
562.729770	2611.473968
563.086307	2606.883997
563.442789	2608.590428
563.799216	2605.737135
564.155587	2607.012547
564.511904	2609.951540
564.868164	2608.550099
565.224370	2608.582866
565.580520	2606.924327
565.936615	2607.660335
566.292654	2608.595469
566.648638	2607.811570
567.004567	2607.156220
567.360441	2606.226127
567.716260	2605.172526
568.072023	2605.144799
568.427732	2603.715632
568.783385	2601.331167
569.138982	2602.253698
569.494525	2605.953905
569.850013	2597.895620
570.205445	2605.338884
570.560823	2607.123452
570.916145	2606.949532
571.271412	2603.244284
571.626625	2606.256374
571.981782	2604.111363
572.336884	2603.594645
572.691931	2605.409460
573.046923	2600.365786
573.401860	2605.185129
573.756743	2602.987186
574.111570	2601.580704
574.466342	2604.784357
574.821059	2603.483739
575.175722	2602.954418
575.530330	2598.067019
575.884882	2602.031887
576.239380	2603.403081
576.593823	2601.603389
576.948211	2603.440889
577.302544	2601.709253
577.656823	2601.212699
578.011047	2602.783019
578.365216	2602.662031
578.719330	2600.988368
579.073389	2597.825044
579.427394	2596.894951
579.781344	2598.669437
580.135239	2599.372678
580.489080	2600.544747
580.842866	2603.206476
581.196597	2598.656834
581.550273	2599.781012
581.903895	2599.627257
582.257463	2601.121959
582.610975	2598.994592
582.964434	2599.080291
583.317837	2599.654983
583.671186	2598.866042
584.024481	2597.661207
584.377721	2596.912595
584.730906	2598.026690
585.084037	2596.400918
585.437113	2597.567945
585.790135	2595.919488
586.143103	2598.089705
586.496016	2594.785228
586.848874	2593.469487
587.201679	2596.113572
587.554428	2593.330855
587.907124	2594.702049
588.259765	2591.521081
588.612352	2594.893613
588.964884	2594.621391
589.317362	2597.073912
589.669786	2592.272213
590.022155	2595.559045
590.374470	2595.165835
590.726731	2596.499221
591.078937	2595.745568
591.431090	2593.141812
591.783188	2592.783890
592.135232	2593.804724
592.487222	2596.070722
592.839157	2593.608119
593.191038	2593.461925
593.542866	2592.181472
593.894639	2592.362954
594.246358	2592.549477
594.598022	2588.914805
594.949633	2591.279106
595.301190	2592.511668
595.652692	2590.747264
596.004141	2592.529312
596.355535	2591.395052
596.706876	2591.541246
597.058162	2589.436564
597.409395	2588.839187
597.760573	2592.105855
598.111698	2593.494693
598.462768	2590.454877
598.813785	2592.887234
599.164748	2590.510330
599.515657	2591.667275
599.866511	2591.022007
600.217312	2592.206678
600.568060	2590.596029
600.918753	2591.465628
601.269392	2590.041502
601.619978	2590.089393
601.970510	2591.168200
602.320988	2590.144846
602.671412	2590.321287
603.021783	2589.270206
603.372100	2591.639548
603.722363	2589.171903
604.072572	2589.784404
604.422728	2591.347161
604.772830	2585.373394
605.122878	2584.004721
605.472872	2585.416244
605.822813	2584.196285
606.172701	2584.743250
606.522534	2591.238777
606.872314	2589.192068
607.222041	2587.001687
607.571714	2589.716348
607.921333	2590.565782
608.270899	2588.917325
608.620411	2590.976637
608.969870	2590.273396
609.319276	2591.095104
609.668627	2593.184662
610.017926	2595.133068
610.367171	2595.866556
610.716362	2596.529467
611.065500	2592.007553
611.414585	2593.961000
611.763616	2593.567790
612.112594	2593.104003
612.461518	2593.439240
612.810389	2591.679877
613.159207	2593.358582
613.507971	2589.335741
613.856682	2592.380598
614.205340	2591.284147
614.553945	2590.714497
614.902496	2588.057808
615.250994	2589.736513
615.599439	2591.871441
615.947830	2590.623756
616.296169	2590.749785
616.644454	2590.628797
616.992686	2588.763570
617.340864	2592.252048
617.688990	2589.625607
618.037063	2590.530494
618.385082	2591.427820
618.733048	2592.171390
619.080961	2592.635176
619.428821	2588.670309
619.776628	2590.222984
620.124382	2589.204671
620.472083	2588.670309
620.819731	2589.461770
621.167326	2587.573858
621.514868	2591.112748
621.862357	2587.112592
622.209793	2589.068560
622.557176	2589.819692
622.904506	2582.089082
623.251783	2582.620924
623.599007	2584.130750
623.946179	2582.225193
624.293297	2585.459094
624.640363	2584.569330
624.987376	2588.148549
625.334336	2585.491861
625.681243	2584.460945
626.028097	2587.006728
626.374899	2583.062025
626.721647	2582.837694
627.068343	2585.194433
627.414987	2583.205698
627.761577	2583.029258
628.108115	2584.977663
628.454600	2583.626634
628.801032	2583.437591
629.147412	2583.014134
629.493739	2583.188054
629.840014	2582.368866
630.186236	2584.924731
630.532405	2582.716706
630.878521	2583.026737
631.224585	2583.639237
631.570597	2579.286201
631.916556	2581.952971
632.262462	2582.326017
632.608316	2579.664287
632.954117	2579.248392
633.299866	2582.414237
633.645562	2578.048597
633.991206	2578.721592
634.336797	2578.051118
634.682336	2580.256623
635.027823	2577.403330
635.373257	2576.473237
635.718639	2575.762434
636.063968	2578.416602
636.409245	2577.617579
636.754470	2576.042218
637.099642	2577.778896
637.444762	2578.101530
637.789829	2575.162537
638.134845	2576.485840
638.479808	2575.951478
638.824719	2573.695561
639.169577	2573.687999
639.514383	2574.088771
639.859137	2575.008782
640.203839	2573.766137
640.548489	2573.239337
640.893086	2574.524831
641.237632	2570.164233
641.582125	2568.475446
641.926566	2572.347052
642.270955	2572.112639
642.615292	2576.420305
642.959576	2574.149265
643.303809	2573.864440
643.647990	2574.466858
643.992118	2572.657083
644.336195	2571.207752
644.680219	2572.528534
645.024192	2571.401836
645.368112	2572.523493
645.711981	2574.368555
646.055797	2574.363514
646.399562	2575.152455
646.743274	2575.117167
647.086935	2575.205387
647.430544	2574.968452
647.774101	2576.526169
648.117606	2575.548185
648.461059	2575.444842
648.804460	2579.525656
649.147810	2577.209245
649.491108	2574.582804
649.834354	2577.363001
650.177548	2572.173133
650.520690	2572.654563
650.863781	2574.343349
651.206820	2576.924420
651.549807	2570.600293
651.892742	2572.641960
652.235626	2569.755899
652.578458	2572.586507
652.921238	2572.278997
653.263967	2571.462330
653.606644	2569.725653
653.949269	2573.521641
654.291843	2571.137176
654.634365	2571.472412
654.976836	2568.077195
655.319255	2570.522155
655.661622	2569.203893
656.003938	2571.414439
656.346203	2570.897721
656.688416	2569.559294
657.030577	2568.296485
657.372687	2569.879408
657.714746	2569.133317
658.056753	2569.176167
658.398708	2561.168294
658.740612	2568.384706
659.082465	2566.655590
659.424266	2566.736248
659.766016	2566.375806
660.107715	2568.064592
660.449362	2569.178687
660.790958	2571.580797
661.132503	2568.949315
661.473996	2571.500139
661.815438	2567.689026
662.156829	2570.012998
662.498168	2569.173646
662.839456	2572.132803
663.180693	2570.549881
663.521879	2573.393092
663.863013	2571.883266
664.204097	2569.816393
664.545129	2571.202711
664.886110	2571.064079
665.227040	2569.493759
665.567918	2572.170612
665.908746	2569.884449
666.249522	2569.705488
666.590248	2571.926116
666.930922	2570.678431
667.271545	2569.236661
667.612118	2574.358473
667.952639	2570.542319
668.293109	2569.755899
668.633528	2570.723801
668.973896	2567.810014
669.314213	2567.394119
669.654480	2570.444017
669.994695	2570.512072
670.334859	2568.611557
670.674973	2570.602813
671.015035	2569.622309
671.355047	2569.186249
671.695008	2568.354459
672.034918	2570.668348
672.374777	2568.606516
672.714585	2568.351938
673.054342	2566.325394
673.394049	2568.079716
673.733705	2571.245560
674.073310	2568.677092
674.412864	2571.575756
674.752368	2568.392267
675.091820	2569.261866
675.431223	2568.462843
675.770574	2568.568708
676.109875	2562.912533
676.449125	2566.128789
676.788324	2563.429251
677.127473	2566.600137
677.466571	2561.112841
677.805619	2570.461661
678.144616	2567.678944
678.483562	2564.104766
678.822458	2566.254818
679.161303	2563.734241
679.500098	2566.756413
679.838842	2567.666341
680.177535	2565.067626
680.516179	2566.610219
680.854771	2566.146433
681.193314	2566.794222
681.531805	2569.846640
681.870247	2567.225240
682.208638	2571.648853
682.546978	2572.299162
682.885268	2570.501990
683.223508	2570.791857
683.561697	2567.880590
683.899836	2568.563667
684.237925	2566.625343
684.575963	2569.488718
684.913951	2568.679613
685.251889	2569.067782
685.589776	2567.893193
685.927614	2568.369582
686.265401	2567.925961
686.603137	2571.434604
686.940824	2566.577452
687.278460	2572.405026
687.616046	2571.046435
687.953582	2570.418811
688.291068	2568.218348
688.628504	2569.468554
688.965889	2570.539799
689.303224	2569.874367
689.640510	2565.186093
689.977745	2568.349417
690.314930	2569.965107
690.652065	2568.840930
690.989150	2566.428738
691.326185	2567.043759
691.663170	2568.238512
692.000105	2564.213151
692.336990	2562.952862
692.673825	2561.745506
693.010610	2565.949828
693.347345	2559.587892
693.684030	2558.110834
694.020665	2558.453632
694.357251	2557.389949
694.693786	2559.199723
695.030272	2562.368088
695.366707	2559.272820
695.703093	2559.451781
696.039429	2560.749878
696.375716	2559.529919
696.711952	2556.744681
697.048139	2561.281720
697.384276	2560.339024
697.720363	2561.062430
698.056400	2559.126627
698.392388	2558.425906
698.728326	2559.925649
699.064214	2557.601677
699.400053	2561.196020
699.735842	2559.466904
700.071581	2557.634445
700.407270	2553.775442
700.742910	2560.490259
701.078501	2559.807182
701.414042	2556.293498
701.749533	2556.550597
702.084974	2558.889692
702.420366	2556.023796
702.755709	2558.700649
703.091002	2557.367264
703.426246	2556.096893
703.761440	2557.140412
704.096584	2555.325597
704.431679	2555.766697
704.766725	2555.993549
705.101721	2553.906512
705.436668	2555.933056
705.771565	2554.879454
706.106413	2555.489434
706.441212	2554.455998
706.775961	2556.129661
707.110661	2557.079918
707.445311	2556.396842
707.779913	2554.342572
708.114465	2555.970864
708.448967	2557.820968
708.783421	2558.740978
709.117825	2557.334496
709.452180	2558.481359
709.786485	2555.928014
710.120742	2561.866494
710.454949	2559.449260
710.789107	2557.329455
711.123216	2558.125957
711.457275	2560.018911
711.791286	2556.905998
712.125247	2558.927501
712.459159	2561.422872
712.793023	2561.732903
713.126837	2559.171997
713.460602	2560.770043
713.794318	2561.919426
714.127985	2561.485887
714.461602	2558.887172
714.795171	2558.098231
715.128691	2557.233673
715.462162	2561.369940
715.795584	2558.730896
716.128957	2556.401883
716.462281	2556.618653
716.795556	2557.745350
717.128782	2555.628066
717.461960	2554.826522
717.795088	2553.183106
718.128167	2557.009342
718.461198	2551.741336
718.794180	2555.784342
719.127113	2554.236707
719.459997	2554.367777
719.792833	2555.595298
720.125619	2553.840977
720.458357	2554.138405
720.791046	2554.561862
721.123686	2554.186296
721.456278	2553.903991
721.788821	2550.297046
722.121315	2553.914073
722.453761	2547.484082
722.786158	2552.217725
723.118506	2552.273178
723.450805	2552.568085
723.783056	2550.337375
724.115259	2550.907025
724.447412	2551.355688
724.779518	2551.723692
725.111574	2550.869217
725.443582	2554.922304
725.775542	2553.591440
726.107453	2554.100596
726.439315	2552.547921
726.771129	2559.731565
727.102895	2556.038920
727.434612	2555.151677
727.766281	2557.445402
728.097901	2551.983312
728.429473	2550.488609
728.760996	2549.238403
729.092471	2549.997097
729.423897	2553.278888
729.755276	2554.662685
730.086606	2554.382901
730.417887	2553.604042
730.749120	2556.785011
731.080305	2555.386090
731.411442	2557.992367
731.742530	2554.692932
732.073570	2558.360371
732.404562	2554.420709
732.735506	2557.999929
733.066401	2559.018242
733.397249	2557.271482
733.728048	2557.952038
734.058798	2552.074052
734.389501	2554.193857
734.720156	2552.631100
735.050762	2552.812581
735.381320	2552.913404
735.711831	2553.389793
736.042293	2551.338044
736.372707	2551.091027
736.703073	2553.467931
737.033391	2553.238559
737.363661	2552.411810
737.693883	2551.285112
738.024056	2551.806871
738.354182	2554.463559
738.684260	2553.568754
739.014290	2554.035061
739.344272	2551.075904
739.674207	2553.881306
740.004093	2555.865000
740.333931	2555.262582
740.663722	2552.948692
740.993464	2554.496327
741.323159	2552.676470
741.652806	2552.757129
741.982405	2552.626059
742.311956	2552.837787
742.641460	2553.213353
742.970915	2552.051367
743.300323	2552.605894
743.629683	2549.888712
743.958996	2549.581202
744.288260	2551.025492
744.617477	2549.140101
744.946647	2544.693803
745.275768	2547.652960
745.604842	2545.167672
745.933869	2547.572302
746.262847	2545.001313
746.591778	2549.356870
746.920662	2547.663043
747.249498	2549.770245
747.578286	2548.794782
747.907027	2549.679504
748.235720	2549.162786
748.564365	2552.547921
748.892963	2548.146993
749.221514	2552.467262
749.550017	2549.387117
749.878473	2549.717313
750.206881	2548.827549
750.535242	2550.859134
750.863555	2548.835111
751.191821	2549.387117
751.520039	2550.236552
751.848210	2550.710420
752.176334	2546.465769
752.504411	2552.850390
752.832440	2549.987015
753.160421	2547.416026
753.488356	2548.913249
753.816243	2549.094730
754.144082	2548.081458
754.471875	2548.913249
754.799620	2548.139432
755.127318	2545.671787
755.454969	2547.957950
755.782572	2547.524411
756.110129	2547.058104
756.437638	2548.265461
756.765100	2547.799154
757.092515	2547.544576
757.419882	2547.784030
757.747203	2547.345450
758.074477	2549.482899
758.401703	2548.399051
758.728882	2548.290666
759.056014	2547.673125
759.383099	2547.428629
759.710138	2551.834597
760.037129	2548.451983
760.364073	2548.240255
760.690970	2548.847714
761.017820	2549.225800
761.344623	2548.676315
761.671379	2549.694628
761.998088	2546.072559
762.324751	2548.454504
762.651366	2553.972047
762.977935	2564.339180
763.304456	2567.464695
763.630931	2568.770354
763.957359	2569.382854
764.283740	2562.083263
764.610074	2561.276679
764.936362	2556.192675
765.262602	2553.533466
765.588796	2552.159752
765.914943	2551.995914
766.241044	2547.249668
766.567097	2547.721016
766.893104	2549.099772
767.219064	2546.490974
767.544978	2545.671787
767.870845	2544.736653
768.196665	2545.311344
768.522438	2543.698175
768.848165	2545.787733
769.173846	2542.750438
769.499479	2545.081972
769.825066	2543.768751
770.150607	2546.289328
770.476101	2544.966025
770.801548	2542.901673
771.126949	2542.780685
771.452303	2544.625747
771.777611	2540.789429
772.102872	2544.998793
772.428087	2541.144831
772.753256	2542.392516
773.078378	2540.602907
773.403453	2541.792619
773.728482	2540.098791
774.053465	2541.122146
774.378401	2541.036446
774.703291	2542.468134
775.028135	2541.772454
775.352932	2541.568288
775.677683	2543.189019
776.002388	2545.265974
776.327046	2540.388658
776.651658	2543.194060
776.976224	2539.413194
777.300743	2543.005017
777.625216	2543.609955
777.949643	2539.703061
778.274024	2543.332692
778.598359	2538.530993
778.922647	2535.594520
779.246889	2540.681045
779.571086	2537.210210
779.895236	2539.350180
780.219339	2540.388658
780.543397	2537.618544
780.867409	2541.255736
781.191374	2540.983514
781.515294	2538.982176
781.839167	2539.531662
782.162995	2539.284645
782.486776	2540.305479
782.810511	2542.304296
783.134201	2542.531148
783.457844	2538.765406
783.781441	2539.022505
784.104993	2543.478885
784.428498	2540.272711
784.751958	2541.913607
785.075372	2542.700027
785.398739	2541.659028
785.722061	2539.725746
786.045337	2543.146169
786.368568	2542.853782
786.691752	2541.739687
787.014891	2543.433515
787.337983	2541.739687
787.661030	2541.149872
787.984031	2542.395037
788.306987	2543.504091
788.629897	2544.313196
788.952760	2543.761190
789.275579	2544.613145
789.598351	2545.432332
789.921078	2541.795140
790.243759	2539.340098
790.566395	2542.200952
790.888984	2540.746580
791.211529	2539.279604
791.534027	2539.824048
791.856480	2539.151054
792.178888	2541.071734
792.501249	2540.973432
792.823566	2540.907897
793.145836	2538.833462
793.468062	2541.417053
793.790241	2536.595189
794.112375	2540.176929
794.434464	2538.372196
794.756507	2543.105840
795.078505	2540.615510
795.400457	2539.571991
795.722364	2538.324305
796.044226	2542.208514
796.366042	2538.452855
796.687812	2536.562422
797.009538	2540.287835
797.331218	2539.703061
797.652852	2543.075593
797.974442	2540.207176
798.295986	2539.864378
798.617484	2540.350849
798.938938	2541.011240
799.260346	2540.643236
799.581709	2539.798843
799.903026	2541.303627
800.224299	2539.662732
800.545526	2539.128369
800.866708	2540.618030
801.187845	2538.893956
801.508936	2534.903882
801.829983	2539.428318
802.150984	2540.393699
802.471940	2540.892773
802.792851	2538.042001
803.113717	2538.760365
803.434538	2539.456044
803.755314	2538.667104
804.076045	2541.885880
804.396731	2538.392361
804.717372	2536.451517
805.037967	2539.960160
805.358518	2538.594007
805.679024	2542.246323
805.999485	2538.858668
806.319901	2537.558050
806.640272	2538.450334
806.960598	2538.478060
807.280879	2538.137782
807.601115	2537.444624
807.921306	2537.182484
808.241453	2536.675848
808.561554	2541.422094
808.881611	2537.585776
809.201623	2539.876981
809.521590	2538.155427
809.841513	2539.723225
810.161390	2539.289686
810.481223	2538.039480
810.801011	2538.331867
811.120755	2539.390509
811.440453	2539.677855
811.760107	2538.848585
812.079716	2537.353883
812.399281	2534.016639
812.718801	2536.307844
813.038276	2535.082843
813.357707	2539.826569
813.677093	2540.817156
813.996434	2538.223482
814.315731	2539.829090
814.634983	2538.551157
814.954191	2535.685261
815.273354	2540.050900
815.592473	2537.021167
815.911547	2539.526620
816.230577	2538.024357
816.549562	2541.447300
816.868502	2538.967052
817.187399	2538.460416
817.506250	2540.786909
817.825058	2541.931251
818.143821	2542.677342
818.462539	2539.617361
818.781213	2542.352187
819.099843	2543.862013
819.418429	2541.164995
819.736970	2548.474668
820.055466	2548.477189
820.373919	2550.836449
820.692327	2554.168652
821.010691	2560.129816
821.329011	2575.563309
821.647286	2604.796960
821.965517	2633.813841
822.283704	2654.056595
822.601847	2662.145126
822.919945	2649.005358
823.237999	2625.891668
823.556010	2610.556478
823.873976	2595.221288
824.191897	2584.813826
824.509775	2571.784964
824.827609	2567.459654
825.145398	2563.550239
825.463144	2564.671896
825.780845	2562.199210
826.098502	2568.387226
826.416116	2575.656570
826.733685	2586.169896
827.051210	2590.475042
827.368692	2587.147880
827.686129	2575.240675
828.003522	2567.507545
828.320872	2556.258210
828.638177	2553.097407
828.955439	2550.488609
829.272656	2544.025850
829.589830	2540.439069
829.906960	2544.061138
830.224046	2544.088865
830.541088	2542.705068
830.858086	2542.016950
831.175041	2543.249513
831.491952	2545.777651
831.808819	2541.296065
832.125642	2541.875798
832.442421	2544.618186
832.759157	2546.712785
833.075849	2554.057746
833.392497	2558.304918
833.709101	2567.898234
834.025662	2563.509910
834.342179	2560.006308
834.658653	2553.823333
834.975083	2552.129505
835.291469	2552.197561
835.607811	2547.761345
835.924110	2542.032074
836.240366	2539.690458
836.556578	2541.225489
836.872746	2539.612320
837.188871	2537.144675
837.504952	2537.663914
837.820990	2536.610313
838.136984	2538.283976
838.452935	2537.210210
838.768842	2539.511497
839.084706	2536.080992
839.400526	2539.173740
839.716303	2543.315047
840.032037	2547.050542
840.347727	2548.731767
840.663373	2545.578526
840.978977	2540.560057
841.294537	2540.844882
841.610054	2537.908410
841.925527	2537.553009
842.240957	2536.219623
842.556344	2536.438914
842.871687	2535.302133
843.186987	2534.677030
843.502244	2533.973789
843.817458	2535.055117
844.132629	2533.184849
844.447756	2534.190559
844.762840	2528.000022
845.077881	2533.855322
845.392879	2531.899355
845.707833	2531.710311
846.022745	2529.247708
846.337613	2534.145189
846.652438	2536.005374
846.967221	2532.877338
847.281960	2533.356248
847.596656	2533.885569
847.911309	2535.234078
848.225919	2532.920188
848.540485	2533.918337
848.855009	2533.570497
849.169490	2534.261135
849.483928	2531.488501
849.798323	2532.683254
850.112675	2535.453368
850.426984	2532.584952
850.741251	2535.014788
851.055474	2534.258615
851.369654	2533.366330
851.683792	2531.382636
851.997887	2533.603265
852.311938	2534.225847
852.625947	2533.930940
852.939914	2532.862215
853.253837	2538.289017
853.567718	2535.155940
853.881555	2532.801721
854.195350	2534.619057
854.509103	2532.350538
854.822812	2533.237781
855.136479	2533.378933
855.450103	2533.051258
855.763685	2534.999664
856.077224	2531.914478
856.390720	2534.172915
856.704173	2533.089067
857.017584	2534.498069
857.330953	2534.956814
857.644278	2534.281300
857.957561	2538.921682
858.270802	2532.942873
858.584000	2535.763399
858.897155	2535.307175
859.210268	2534.588810
859.523339	2533.187369
859.836367	2534.888759
860.149352	2535.644932
860.462295	2536.270035
860.775195	2530.109745
861.088054	2527.251411
861.400869	2530.691998
861.713642	2529.366175
862.026373	2532.549663
862.339062	2533.084026
862.651708	2533.444468
862.964312	2533.147040
863.276873	2532.940353
863.589392	2535.735673
863.901869	2532.290044
864.214303	2537.023687
864.526696	2533.802390
864.839045	2533.751979
865.151353	2533.827596
865.463619	2534.792977
865.775842	2535.891948
866.088023	2533.630991
866.400162	2533.094108
866.712258	2534.283820
867.024313	2533.943542
867.336325	2533.777184
867.648296	2536.421270
867.960224	2536.204500
868.272110	2535.360107
868.583954	2533.454551
868.895755	2536.360776
869.207515	2534.966897
869.519233	2533.018491
869.830909	2535.239119
870.142542	2535.778523
870.454134	2534.301464
870.765684	2534.858512
871.077191	2535.095446
871.388657	2535.839016
871.700081	2534.132586
872.011463	2535.569315
872.322803	2532.647966
872.634101	2535.213913
872.945357	2535.060158
873.256571	2534.132586
873.567744	2537.948739
873.878874	2535.695343
874.189963	2534.810621
874.501010	2535.503780
874.812015	2534.437576
875.122979	2536.461599
875.433900	2536.675848
875.744780	2535.680220
876.055618	2536.542257
876.366415	2536.075951
876.677169	2539.302289
876.987882	2535.760878
877.298554	2531.775846
877.609183	2534.493028
877.919771	2532.320291
878.230317	2535.528985
878.540822	2539.304810
878.851285	2536.708615
879.161707	2540.781868
879.472087	2546.218752
879.782425	2545.646581
880.092722	2551.441387
880.402977	2559.960937
880.713191	2575.288566
881.023363	2590.711976
881.333494	2603.841661
881.643583	2605.482557
881.953631	2604.171857
882.263637	2600.537185
882.573602	2595.632142
882.883526	2590.311204
883.193408	2580.995152
883.503248	2570.375961
883.813048	2564.384550
884.122806	2560.911195
884.432522	2560.835578
884.742197	2552.782334
885.051831	2551.824515
885.361424	2545.109698
885.670975	2544.787064
885.980485	2541.744728
886.289954	2542.074924
886.599382	2540.711292
886.908768	2542.079965
887.218113	2541.235572
887.527417	2538.790612
887.836680	2540.534851
888.145901	2539.433359
888.455082	2537.598379
888.764221	2535.448327
889.073319	2538.097453
889.382376	2533.799870
889.691392	2534.694674
890.000366	2540.658359
890.309300	2539.178781
890.618193	2535.387833
890.927044	2538.573842
891.235855	2536.161650
891.544625	2535.849099
891.853353	2539.579553
892.162041	2538.278935
892.470687	2540.116435
892.779293	2539.821528
893.087858	2538.931764
893.396381	2540.602907
893.704864	2542.135417
894.013306	2543.289842
894.321707	2551.277550
894.630068	2560.102090
894.938387	2559.542522
895.246665	2560.182748
895.554903	2557.296688
895.863100	2549.871068
896.171256	2549.863506
896.479371	2545.205480
896.787446	2545.031560
897.095480	2540.791950
897.403473	2541.958977
897.711425	2541.222969
898.019336	2541.283462
898.327207	2542.684903
898.635038	2538.379758
898.942827	2539.002340
899.250576	2537.502597
899.558284	2537.101825
899.865952	2537.164840
900.173579	2532.486649
900.481165	2536.290200
900.788711	2537.048893
901.096216	2536.806918
901.403681	2534.228368
901.711105	2534.631660
902.018489	2536.307844
902.325832	2539.826569
902.633135	2535.339942
902.940397	2537.600900
903.247619	2542.311858
903.554800	2541.573329
903.861941	2550.725544
904.169041	2564.752554
904.476101	2566.161557
904.783121	2568.435117
905.090100	2561.102759
905.397039	2561.349775
905.703938	2551.542211
906.010796	2548.293187
906.317614	2544.958464
906.624391	2539.962680
906.931129	2538.523431
907.237826	2539.496373
907.544483	2537.525282
907.851099	2535.155940
908.157675	2538.760365
908.464211	2535.723070
908.770707	2528.975485
909.077163	2528.307532
909.383578	2526.860721
909.689954	2530.359282
909.996289	2528.935156
910.302584	2530.928932
910.608839	2535.970086
910.915054	2532.607637
911.221229	2532.965559
911.527363	2533.154602
911.833458	2531.581762
912.139513	2533.167205
912.445527	2531.158305
912.751502	2535.176105
913.057436	2534.064530
913.363331	2533.351207
913.669186	2533.744417
913.975000	2537.245498
914.280775	2538.117618
914.586510	2543.458720
914.892205	2543.630120
915.197859	2549.041798
915.503475	2554.609753
915.809050	2557.193344
916.114585	2562.363047
916.420081	2567.038718
916.725536	2563.272976
917.030952	2562.791545
917.336328	2556.651420
917.641665	2554.345092
917.946961	2550.849052
918.252218	2547.615152
918.557435	2546.324616
918.862612	2541.512835
919.167750	2542.092568
919.472848	2540.630633
919.777906	2538.145344
920.082925	2539.481250
920.387904	2538.079809
920.692843	2538.175591
920.997743	2538.349511
921.302603	2534.303985
921.607423	2535.622247
921.912204	2532.287523
922.216946	2535.292051
922.521647	2535.113090
922.826310	2533.333563
923.130932	2533.121834
923.435516	2532.650487
923.740059	2532.529499
924.044564	2533.757020
924.349028	2531.622091
924.653454	2527.957172
924.957840	2530.087060
925.262186	2526.142357
925.566493	2531.758202
925.870761	2527.445495
926.174989	2531.775846
926.479178	2529.998840
926.783328	2531.052441
927.087438	2530.795342
927.391509	2531.818696
927.695541	2530.581093
927.999533	2530.684437
928.303486	2531.145702
928.607400	2532.688295
928.911275	2530.104704
929.215110	2530.422297
929.518906	2530.944056
929.822663	2532.930271
930.126381	2528.872142
930.430060	2530.056813
930.733699	2530.588655
931.037299	2529.257790
931.340861	2529.368695
931.644383	2530.321473
931.947866	2529.842564
932.251309	2530.477749
932.554714	2530.472708
932.858080	2531.286854
933.161407	2528.204189
933.464694	2530.041689
933.767943	2529.356092
934.071153	2529.207378
934.374323	2529.129241
934.677455	2531.329704
934.980548	2531.498583
935.283602	2527.140505
935.586617	2528.814168
935.889593	2531.528830
936.192530	2531.581762
936.495428	2531.725435
936.798287	2530.550846
937.101108	2529.429189
937.403890	2530.505476
937.706632	2528.675537
938.009336	2528.327697
938.312002	2532.156453
938.614628	2531.919519
938.917216	2533.613347
939.219765	2529.953469
939.522275	2533.867925
939.824747	2532.443799
940.127179	2528.216792
940.429573	2531.052441
940.731929	2530.563449
941.034246	2526.913653
941.336524	2531.105373
941.638763	2530.807945
941.940964	2532.446320
942.243126	2529.630835
942.545250	2530.003881
942.847335	2530.749972
943.149381	2530.258459
943.451389	2527.901720
943.753359	2527.538757
944.055290	2529.288037
944.357182	2529.555218
944.659036	2530.918850
944.960851	2531.206196
945.262628	2532.325332
945.564367	2530.379447
945.866067	2533.935981
946.167729	2530.127389
946.469352	2527.195958
946.770937	2531.634694
947.072484	2529.618232
947.373992	2527.372398
947.675462	2528.700742
947.976893	2531.120496
948.278286	2528.282327
948.579641	2527.753006
948.880958	2526.124713
949.182236	2527.435413
949.483476	2530.203006
949.784678	2528.418438
950.085841	2529.373737
950.386967	2529.323325
950.688054	2528.090763
950.989103	2531.415404
951.290114	2528.594878
951.591087	2530.157636
951.892021	2528.504138
952.192917	2528.914992
952.493776	2531.967410
952.794596	2529.046062
953.095378	2530.308871
953.396122	2531.004550
953.696828	2529.812317
953.997496	2534.435055
954.298126	2524.937521
954.598718	2532.433717
954.899272	2528.368026
955.199788	2527.871473
955.500266	2527.276617
955.800706	2528.057995
956.101108	2524.982892
956.401472	2528.758716
956.701798	2525.595392
957.002087	2529.098994
957.302337	2527.528674
957.602550	2529.913140
957.902724	2526.946421
958.202861	2529.141843
958.502960	2529.083870
958.803022	2528.524302
959.103045	2528.526823
959.403031	2528.473891
959.702979	2527.253931
960.002889	2528.597399
960.302762	2526.525485
960.602596	2530.041689
960.902393	2527.153108
961.202153	2527.614374
961.501875	2528.559590
961.801559	2530.008922
962.101205	2524.236801
962.400814	2526.936339
962.700385	2528.839374
962.999918	2526.984230
963.299414	2528.892306
963.598873	2527.385001
963.898293	2527.800897
964.197677	2527.092614
964.497022	2527.054806
964.796331	2527.740403
965.095601	2524.940042
965.394835	2527.498427
965.694030	2528.486493
965.993189	2528.768798
966.292309	2527.014477
966.591393	2526.142357
966.890439	2526.412059
967.189447	2526.903571
967.488419	2525.877696
967.787353	2529.086391
968.086249	2527.624456
968.385108	2528.514220
968.683930	2526.495238
968.982714	2527.826102
969.281462	2526.096987
969.580172	2527.689991
969.878844	2523.858714
970.177480	2529.925743
970.476078	2525.436595
970.774639	2527.952131
971.073162	2527.258972
971.371649	2525.466842
971.670098	2522.316121
971.968510	2526.696884
972.266885	2520.400483
972.565223	2527.853829
972.863524	2524.740916
973.161788	2527.296781
973.460014	2527.677388
973.758204	2524.146060
974.056356	2525.736544
974.354471	2529.290557
974.652550	2525.209743
974.950591	2527.599250
975.248595	2526.212933
975.546563	2528.955321
975.844493	2527.989940
976.142386	2525.416431
976.440243	2528.264683
976.738062	2526.401976
977.035845	2527.569003
977.333590	2523.591533
977.631299	2525.340813
977.928971	2527.518592
978.226606	2525.068591
978.524204	2526.845598
978.821765	2526.263345
979.119290	2529.618232
979.416777	2524.670340
979.714228	2528.768798
980.011642	2528.557070
980.309020	2527.458098
980.606360	2527.062367
980.903664	2529.091432
981.200931	2527.644621
981.498162	2526.538087
981.795356	2525.000536
982.092513	2529.252749
982.389633	2527.193438
982.686717	2526.807789
982.983764	2529.101514
983.280775	2529.429189
983.577749	2527.574045
983.874686	2528.733510
984.171587	2528.957841
984.468451	2527.926925
984.765279	2529.464477
985.062070	2526.769981
985.358824	2527.306863
985.655543	2526.170083
985.952224	2528.226874
986.248869	2527.730320
986.545478	2521.950638
986.842050	2524.841739
987.138586	2521.653209
987.435086	2522.537932
987.731549	2521.444002
988.027975	2528.239477
988.324366	2527.127902
988.620719	2526.626308
988.917037	2527.231246
989.213318	2527.279137
989.509563	2523.818385
989.805772	2525.746626
990.101944	2526.056657
990.398080	2527.306863
990.694180	2525.822244
990.990244	2526.722090
991.286271	2524.347706
991.582262	2526.076822
991.878217	2526.510361
992.174136	2526.522964
992.470019	2524.962727
992.765865	2526.676719
993.061676	2526.223015
993.357450	2526.386853
993.653188	2526.643952
993.948890	2527.400125
994.244556	2527.538757
994.540186	2525.867614
994.835780	2526.407017
995.131337	2524.423323
995.426859	2525.038344
995.722345	2523.505833
996.017795	2524.055319
996.313208	2527.445495
996.608586	2527.788294
996.903928	2523.783097
997.199234	2524.927439
997.494504	2528.662934
997.789738	2526.157480
998.084936	2522.681605
998.380099	2526.107069
998.675225	2525.797038
998.970316	2525.320649
999.265371	2525.179497
999.560390	2527.788294
999.855373	2525.857532
1000.150320	2525.786956
1000.445232	2526.880886
1000.740108	2524.012469
1001.034948	2528.536905
1001.329752	2525.058509
1001.624521	2522.835360
1001.919254	2523.039527
1002.213951	2521.769156
1002.508613	2521.050792
1002.803239	2524.299815
1003.097829	2519.682118
1003.392384	2522.074146
1003.686903	2523.412572
1003.981386	2525.534898
1004.275834	2525.572707
1004.570246	2527.163191
1004.864623	2523.909126
1005.158964	2525.570186
1005.453270	2522.177489
1005.747540	2526.117151
1006.041775	2526.338962
1006.335974	2525.166894
1006.630138	2525.197141
1006.924266	2524.105731
1007.218359	2523.662109
1007.512416	2527.611853
1007.806438	2523.447860
1008.100425	2524.844260
1008.394376	2527.440454
1008.688292	2524.380474
1008.982172	2526.318797
1009.276017	2525.184538
1009.569827	2527.432892
1009.863602	2526.444826
1010.157341	2524.186389
1010.451045	2524.801410
1010.744714	2522.275792
1011.038347	2522.996677
1011.331945	2524.733354
1011.625508	2527.863911
1011.919036	2523.641945
1012.212528	2526.848118
1012.505986	2522.343847
1012.799408	2526.500279
1013.092795	2525.645803
1013.386147	2523.536080
1013.679464	2524.410721
1013.972745	2526.888448
1014.265992	2523.936852
1014.559204	2526.598581
1014.852380	2526.031452
1015.145521	2525.572707
1015.438628	2525.005577
1015.731699	2524.622449
1016.024736	2523.558766
1016.317737	2525.411390
1016.610703	2527.130423
1016.903635	2523.914167
1017.196531	2520.022396
1017.489393	2523.636903
1017.782219	2518.865451
1018.075011	2522.631193
1018.367768	2524.514064
1018.660490	2525.716379
1018.953177	2525.716379
1019.245829	2525.716379
