Dividing Wavelength (nm)	Counts (n)	Blue Motor Position (mm): 0.000000	Red Motor Position (mm): 24.500000	
326.493990	2128.329783
326.888308	2128.329783
327.282561	2128.329783
327.676750	2095.043045
328.070874	2095.406008
328.464933	2098.070258
328.858929	2104.908583
329.252859	2113.710437
329.646726	2126.598147
330.040528	2139.821094
330.434265	2155.612508
330.827938	2170.088181
331.221547	2190.063753
331.615091	2207.843903
332.008571	2230.206462
332.401986	2248.329410
332.795338	2265.943201
333.188625	2286.853907
333.581847	2304.865950
333.975006	2323.908909
334.368100	2341.646208
334.761129	2360.353930
335.154095	2374.748945
335.546996	2392.788714
335.939833	2410.175654
336.332606	2426.317428
336.725315	2436.462751
337.117960	2447.631427
337.510540	2452.874227
337.903056	2467.856536
338.295508	2473.946250
338.687896	2484.318424
339.080220	2491.081132
339.472480	2493.047182
339.864676	2502.910199
340.256807	2505.130828
340.648875	2508.999913
341.040879	2512.420336
341.432818	2514.628362
341.824694	2513.151303
342.216506	2513.151303
342.608253	2515.785306
342.999937	2514.376304
343.391557	2516.095337
343.783113	2514.714061
344.174605	2509.798936
344.566033	2510.050994
344.957397	2508.480674
345.348697	2507.003616
345.739934	2506.113853
346.131106	2504.989675
346.522215	2504.684686
346.913260	2499.716628
347.304241	2499.351145
347.695159	2497.528768
348.086012	2495.401401
348.476802	2492.845536
348.867528	2491.973416
349.258191	2493.251349
349.648789	2492.298571
350.039324	2488.409320
350.429796	2490.347644
350.820203	2486.493682
351.210548	2485.659371
351.600828	2486.392859
351.991045	2484.230204
352.381198	2483.461428
352.771288	2483.010245
353.161314	2482.178454
353.551276	2481.601242
353.941175	2481.117291
354.331010	2485.747591
354.720782	2480.724081
355.110490	2481.785244
355.500135	2483.655512
355.889717	2483.375728
356.279235	2483.295070
356.668689	2486.166007
357.058080	2484.494864
357.447408	2479.582260
357.836672	2479.967908
358.225873	2484.575523
358.615010	2483.685759
359.004084	2488.374032
359.393095	2487.509474
359.782043	2488.704228
360.170927	2487.897643
360.559748	2488.283292
360.948505	2489.891420
361.337199	2491.005515
361.725830	2490.093066
362.114398	2493.803355
362.502903	2492.505258
362.891344	2492.694301
363.279722	2491.171873
363.668037	2494.798983
364.056289	2495.724035
364.444478	2496.823006
364.832603	2494.809065
365.220665	2495.250166
365.608665	2497.816113
365.996601	2498.852071
366.384474	2498.549601
366.772284	2500.437513
367.160031	2501.516320
367.547715	2502.491784
367.935336	2505.322392
368.322893	2505.602176
368.710388	2508.672238
369.097820	2520.211439
369.485189	2521.340658
369.872495	2527.425331
370.259738	2534.712318
370.646918	2540.696168
371.034035	2550.816284
371.421090	2556.046482
371.808081	2566.184242
372.195010	2578.661098
372.581875	2591.384970
372.968678	2604.255036
373.355418	2615.890019
373.742096	2632.848460
374.128710	2647.941675
374.515262	2664.133861
374.901751	2679.159020
375.288177	2690.625125
375.674540	2714.235369
376.060841	2730.515775
376.447079	2753.216091
376.833254	2771.543206
377.219367	2783.357150
377.605417	2822.504230
377.991404	2834.902948
378.377329	2851.543797
378.763191	2870.380068
379.148991	2909.509504
379.534727	2936.048658
379.920402	2961.143522
380.306013	2971.175418
380.691563	3024.508306
381.077049	3044.493960
381.462474	3063.292423
381.847835	3101.524533
382.233134	3123.745940
382.618371	3121.774848
383.003545	3191.887216
383.388657	3197.888710
383.773706	3234.968917
384.158693	3246.046852
384.543618	3273.364865
384.928480	3311.352480
385.313280	3354.620703
385.698017	3352.659695
386.082692	3405.851429
386.467305	3412.364600
386.851856	3443.254270
387.236344	3464.906026
387.620770	3501.809793
388.005133	3523.625386
388.389435	3549.932647
388.773674	3559.858679
389.157851	3606.297789
389.541965	3621.554841
389.926018	3586.039912
390.310008	3657.596570
390.693936	3673.297244
391.077802	3714.251578
391.461606	3703.932336
391.845348	3767.261831
392.229027	3765.610853
392.612645	3778.160806
392.996200	3856.830532
393.379694	3895.254207
393.763125	3962.198209
394.146494	3927.378959
394.529801	3988.210563
394.913047	4038.052451
395.296230	4006.013398
395.679351	4063.908529
396.062410	4084.075665
396.445408	4068.594282
396.828343	4100.497224
397.211217	4120.830718
397.594028	4040.154612
397.976778	4109.016774
398.359466	4135.175321
398.742092	4165.581040
399.124656	4085.028443
399.507158	4166.095238
399.889598	4192.387376
400.271977	4253.859206
400.654294	4223.352663
401.036549	4229.646544
401.418742	4198.532543
401.800874	4302.962565
402.182944	4322.587777
402.564952	4387.706882
402.946898	4377.513669
403.328783	4371.028224
403.710606	4284.716109
404.092367	4478.924040
404.474067	4442.191673
404.855705	4450.214669
405.237282	4377.117938
405.618797	4485.860668
406.000250	4524.201163
406.381642	4597.436526
406.762972	4564.570723
407.144240	4571.325869
407.525447	4571.996343
407.906593	4634.148729
408.287677	4672.834543
408.668700	4604.844501
409.049661	4658.550434
409.430560	4696.883368
409.811399	4622.450731
410.192176	4782.013333
410.572891	4725.191967
410.953545	4824.081762
411.334138	4708.057085
411.714669	4773.352630
412.095139	4668.415972
412.475547	4810.241274
412.855894	4789.748983
413.236180	4801.051250
413.616405	4756.580712
413.996568	4842.187066
414.376670	4786.361328
414.756711	4740.630501
415.136691	4773.491262
415.516609	4850.033622
415.896466	4886.327409
416.276262	4917.060803
416.655997	4898.065735
417.035670	5083.020629
417.415283	5170.114123
417.794834	5111.556080
418.174324	5070.137960
418.553753	4977.569773
418.933121	5162.547351
419.312428	5228.805757
419.691674	5165.088093
420.070859	5296.430315
420.449983	5203.146284
420.829045	5320.055683
421.208047	5224.598914
421.586988	5295.850582
421.965867	5311.755423
422.344686	5440.806441
422.723444	5297.788906
423.102141	5114.976503
423.480777	5413.201082
423.859352	5181.870094
424.237866	5438.943734
424.616319	5431.931489
424.994712	5540.757398
425.373044	5416.132513
425.751314	5560.647271
426.129524	5364.395151
426.507673	5554.043359
426.885762	5637.222397
427.263789	5571.069856
427.641756	5451.097956
428.019662	5571.435340
428.397508	5576.675619
428.775292	5523.083113
429.153016	5621.206652
429.530679	5548.989602
429.908282	5626.469616
430.285824	5497.274926
430.663305	5767.556389
431.040726	5500.163507
431.418086	5497.779041
431.795385	5595.363177
432.172624	5602.927428
432.549802	5595.027940
432.926920	5599.040698
433.303977	5607.489672
433.680974	5635.818436
434.057910	5646.934180
434.434786	5643.947297
434.811601	5605.405155
435.188355	5833.003169
435.565050	5696.153486
435.941683	5666.105688
436.318257	5858.148444
436.694770	5832.751111
437.071222	5853.503021
437.447614	5776.940497
437.823946	5675.436864
438.200218	5807.139529
438.576429	5667.739022
438.952580	5740.006483
439.328670	5767.750473
439.704700	5663.272560
440.080670	5634.333816
440.456580	5856.787333
440.832429	5727.905193
441.208218	5570.633796
441.583947	5687.646539
441.959616	5662.166027
442.335224	5577.817441
442.710773	5671.303118
443.086261	5659.143855
443.461689	5458.475685
443.837057	5559.036622
444.212365	5653.805273
444.587612	5537.581471
444.962800	5630.557992
445.337927	5576.683181
445.712995	5227.676538
446.088002	5653.790150
446.462949	5482.521989
446.837837	5386.735025
447.212664	5488.836034
447.587431	5542.579775
447.962139	5888.425614
448.336786	6509.284040
448.711374	6279.311642
449.085901	5575.753088
449.460369	5460.713957
449.834776	5363.822980
450.209124	5569.378549
450.583412	5605.087562
450.957640	5656.572867
451.331808	5448.269869
451.705917	5109.438796
452.079965	5012.520092
452.453954	5073.850770
452.827883	4953.830979
453.201752	4951.423828
453.575562	4785.010299
453.949311	4829.737936
454.323001	4729.240014
454.696632	4715.054207
455.070202	4723.369590
455.443713	4743.113269
455.817164	4735.430551
456.190556	4706.975758
456.563888	4681.555739
456.937160	4639.048730
457.310373	4435.645734
457.683526	4383.878125
458.056619	4281.245274
458.429653	4223.541707
458.802628	4148.738545
459.175542	4136.276813
459.548398	4203.969427
459.921194	4208.680385
460.293930	4161.291018
460.666607	4268.811268
461.039224	4313.007064
461.411782	4288.537303
461.784280	4226.132860
462.156719	4128.236173
462.529099	4028.058363
462.901419	3855.918083
463.273680	3772.471863
463.645882	3726.678022
464.018024	3638.246101
464.390106	3623.914101
464.762130	3661.894154
465.134094	3713.076989
465.505999	3890.394534
465.877845	4082.762444
466.249631	4128.359681
466.621358	3965.409424
466.993026	3773.268366
467.364634	3668.452695
467.736184	3552.811146
468.107674	3456.998976
468.479105	3407.860329
468.850477	3344.253571
469.221790	3272.238167
469.593043	3190.085004
469.964238	3139.131541
470.335373	3108.715739
470.706449	3081.528797
471.077467	3052.007800
471.448425	3130.617032
471.819324	3184.280115
472.190164	3155.384221
472.560945	3031.558359
472.931667	2949.367387
473.302330	2915.561409
473.672934	2872.378885
474.043479	2871.645398
474.413965	2846.837879
474.784393	2819.862665
475.154761	2809.084678
475.525070	2795.191258
475.895321	2775.245933
476.265513	2767.651435
476.635645	2763.505086
477.005719	2746.239134
477.375734	2737.908627
477.745691	2732.111300
478.115588	2726.011504
478.485427	2720.708210
478.855207	2724.058057
479.224928	2733.875704
479.594591	2736.366034
479.964194	2724.015207
480.333739	2711.160265
480.703226	2699.487473
481.072653	2693.680064
481.442022	2689.178313
481.811333	2690.126050
482.180584	2677.177847
482.549777	2670.599141
482.918912	2660.748726
483.287988	2657.761843
483.657005	2652.226656
484.025964	2645.196767
484.394864	2642.386323
484.763706	2639.475057
485.132489	2633.070271
485.501213	2634.627988
485.869879	2628.571041
486.238487	2626.171452
486.607036	2625.412758
486.975527	2618.755915
487.343959	2620.225411
487.712333	2619.585185
488.080648	2618.241717
488.448905	2619.449073
488.817104	2615.161572
489.185244	2616.371449
489.553326	2616.084103
489.921350	2617.956892
490.289315	2623.353447
490.657222	2629.337297
491.025070	2627.386370
491.392861	2626.761267
491.760593	2618.498816
492.128267	2617.447735
492.495883	2610.440532
492.863440	2608.416508
493.230939	2605.185129
493.598380	2605.888370
493.965763	2599.652462
494.333088	2600.622884
494.700354	2600.564911
495.067563	2598.089705
495.434713	2593.454364
495.801805	2600.398553
496.168839	2597.610795
496.535815	2596.824375
496.902733	2597.729262
497.269593	2595.266658
497.636395	2597.522575
498.003139	2596.408480
498.369825	2595.070053
498.736453	2596.234560
499.103023	2595.128027
499.469535	2595.140630
499.835989	2595.901844
500.202385	2593.509816
500.568723	2591.967223
500.935003	2595.261617
501.301226	2594.336566
501.667390	2592.604929
502.033497	2597.391505
502.399546	2592.428489
502.765537	2588.501430
503.131470	2593.451843
503.497345	2592.690629
503.863163	2592.499065
504.228923	2590.104517
504.594625	2592.183993
504.960269	2590.545618
505.325856	2591.682398
505.691385	2588.100658
506.056856	2591.793303
506.422270	2588.945052
506.787625	2589.255083
507.152924	2589.837336
507.518164	2587.861203
507.883347	2589.837336
508.248472	2587.236100
508.613540	2587.052098
508.978550	2590.568303
509.343503	2588.970257
509.708398	2590.782552
510.073236	2589.572675
510.438016	2588.272057
510.802738	2588.612335
511.167403	2591.311873
511.532010	2587.155442
511.896561	2593.436720
512.261053	2592.423448
512.625488	2586.210226
512.989866	2585.590164
513.354186	2587.790627
513.718449	2582.346181
514.082655	2588.020000
514.446803	2590.235587
514.810894	2591.566452
515.174927	2589.237438
515.538904	2589.025710
515.902822	2591.306832
516.266684	2590.275916
516.630488	2590.732141
516.994235	2590.961513
517.357925	2592.463777
517.721558	2593.275403
518.085133	2593.151894
518.448651	2594.286154
518.812112	2592.118458
519.175516	2589.519743
519.538863	2594.941504
519.902152	2590.351533
520.265385	2592.249528
520.628560	2592.899837
520.991678	2592.647779
521.354739	2593.840012
521.717743	2593.101483
522.080690	2593.366143
522.443580	2592.539394
522.806413	2594.878490
523.169189	2592.622573
523.531908	2594.444950
523.894569	2594.412183
524.257174	2591.344641
524.619722	2591.684919
524.982213	2594.744899
525.344647	2592.110896
525.707025	2593.212388
526.069345	2591.735330
526.431608	2594.311360
526.793815	2593.862697
527.155964	2591.634507
527.518057	2591.541246
527.880093	2592.118458
528.242072	2594.633994
528.603995	2592.055443
528.965860	2590.626276
529.327669	2590.782552
529.689421	2591.324476
530.051117	2595.677512
530.412755	2593.351020
530.774337	2591.417737
531.135862	2590.505289
531.497331	2589.963365
531.858743	2586.744588
532.220098	2587.435226
532.581396	2587.052098
532.942638	2588.042685
533.303824	2592.907398
533.664953	2592.166349
534.026025	2591.435382
534.387040	2592.410845
534.747999	2590.033941
535.108902	2591.163159
535.469748	2589.512181
535.830537	2592.983016
536.191270	2589.000504
536.551947	2593.310691
536.912567	2589.993612
537.273131	2592.655341
537.633638	2587.644434
537.994089	2592.030238
538.354483	2589.829774
538.714821	2592.168869
539.075103	2592.695670
539.435328	2592.322625
539.795497	2590.341451
540.155609	2591.732810
540.515665	2592.420927
540.875665	2589.607963
541.235609	2589.643251
541.595496	2587.450349
541.955328	2593.930753
542.315102	2594.235743
542.674821	2587.538570
543.034483	2592.856987
543.394090	2593.139292
543.753640	2589.817171
544.113134	2590.628797
544.472571	2591.508478
544.831953	2593.230032
545.191278	2590.270875
545.550548	2591.037130
545.909761	2591.405135
546.268918	2593.040989
546.628019	2591.337079
546.987064	2590.623756
547.346053	2590.202819
547.704986	2592.945207
548.063863	2593.199785
548.422684	2591.155597
548.781449	2589.930597
549.140158	2593.217429
549.498811	2591.531163
549.857408	2591.054774
550.215949	2591.470670
550.574434	2586.910946
550.932864	2587.457911
551.291237	2587.117633
551.649555	2593.270362
552.007817	2593.356061
552.366022	2593.393870
552.724173	2595.211206
553.082267	2591.062336
553.440305	2591.024527
553.798288	2595.594333
554.156215	2594.034096
554.514086	2592.345310
554.871902	2594.001329
555.229661	2593.073757
555.587365	2591.450505
555.945014	2593.713983
556.302606	2592.609970
556.660143	2592.030238
557.017625	2595.284302
557.375050	2589.895309
557.732421	2594.732296
558.089735	2591.508478
558.446994	2590.964034
558.804197	2593.262800
559.161345	2590.802717
559.518437	2590.767429
559.875474	2590.991760
560.232455	2591.263982
560.589381	2590.079311
560.946251	2595.886720
561.303065	2592.862028
561.659825	2595.755650
562.016528	2591.140474
562.373177	2591.440423
562.729770	2590.013776
563.086307	2592.617532
563.442789	2593.227512
563.799216	2591.576534
564.155587	2590.356575
564.511904	2592.972933
564.868164	2594.376895
565.224370	2593.015783
565.580520	2590.593509
565.936615	2594.964189
566.292654	2590.291040
566.648638	2591.695001
567.004567	2590.764908
567.360441	2593.083839
567.716260	2589.436564
568.072023	2592.138622
568.427732	2587.208374
568.783385	2589.570155
569.138982	2587.568817
569.494525	2587.427664
569.850013	2586.190061
570.205445	2591.097624
570.560823	2590.235587
570.916145	2590.170052
571.271412	2592.662902
571.626625	2591.253900
571.981782	2588.776173
572.336884	2589.900350
572.691931	2589.713827
573.046923	2587.924218
573.401860	2591.400093
573.756743	2588.342634
574.111570	2588.156111
574.466342	2588.181317
574.821059	2589.812130
575.175722	2590.270875
575.530330	2587.770463
575.884882	2588.756008
576.239380	2589.542428
576.593823	2587.944382
576.948211	2589.925556
577.302544	2589.708786
577.656823	2585.827098
578.011047	2588.637541
578.365216	2585.113775
578.719330	2585.665781
579.073389	2587.893971
579.427394	2588.813982
579.781344	2586.653847
580.135239	2587.488158
580.489080	2585.948086
580.842866	2586.691656
581.196597	2587.641913
581.550273	2587.553693
581.903895	2585.103692
582.257463	2586.240472
582.610975	2587.289032
582.964434	2586.845411
583.317837	2585.151583
583.671186	2586.931111
584.024481	2585.711151
584.377721	2583.871130
584.730906	2585.471697
585.084037	2584.100503
585.437113	2584.992787
585.790135	2585.494382
586.143103	2582.767117
586.496016	2583.500605
586.848874	2583.089751
587.201679	2585.123857
587.554428	2581.065728
587.907124	2582.822570
588.259765	2580.191088
588.612352	2585.766604
588.964884	2583.135122
589.317362	2580.947261
589.669786	2584.508836
590.022155	2585.759042
590.374470	2585.943044
590.726731	2585.983374
591.078937	2583.959350
591.431090	2584.579412
591.783188	2582.648650
592.135232	2582.784762
592.487222	2581.325347
592.839157	2582.237796
593.191038	2583.175451
593.542866	2583.689649
593.894639	2580.685121
594.246358	2581.776531
594.598022	2582.114288
594.949633	2579.036664
595.301190	2579.921386
595.652692	2580.198650
596.004141	2583.296439
596.355535	2583.563620
596.706876	2583.162848
597.058162	2580.057497
597.409395	2580.664956
597.760573	2579.651684
598.111698	2578.882908
598.462768	2582.751994
598.813785	2581.020358
599.164748	2579.656726
599.515657	2581.083372
599.866511	2580.748135
600.217312	2578.708989
600.568060	2580.629668
600.918753	2582.686459
601.269392	2578.887950
601.619978	2578.681262
601.970510	2579.853331
602.320988	2580.347364
602.671412	2580.667477
603.021783	2579.563464
603.372100	2579.452559
603.722363	2582.285687
604.072572	2580.165882
604.422728	2579.442477
604.772830	2576.067424
605.122878	2572.682289
605.472872	2574.923082
605.822813	2576.034657
606.172701	2578.535069
606.522534	2580.584298
606.872314	2577.806622
607.222041	2578.711509
607.571714	2578.056159
607.921333	2578.908114
608.270899	2579.795357
608.620411	2577.075655
608.969870	2581.451376
609.319276	2579.933989
609.668627	2583.293918
610.017926	2585.595205
610.367171	2587.246183
610.716362	2587.954465
611.065500	2584.844073
611.414585	2584.155955
611.763616	2583.719896
612.112594	2581.307703
612.461518	2582.142014
612.810389	2582.338619
613.159207	2578.991293
613.507971	2581.753846
613.856682	2579.775193
614.205340	2578.338464
614.553945	2578.688824
614.902496	2579.543300
615.250994	2579.439956
615.599439	2581.063208
615.947830	2578.867785
616.296169	2579.031623
616.644454	2580.997672
616.992686	2578.880388
617.340864	2579.621437
617.688990	2578.101530
618.037063	2579.807960
618.385082	2579.460121
618.733048	2579.472723
619.080961	2579.936510
619.428821	2581.963053
619.776628	2581.068249
620.124382	2578.935841
620.472083	2577.995665
620.819731	2581.385841
621.167326	2577.587332
621.514868	2579.747466
621.862357	2579.263516
622.209793	2579.255954
622.557176	2577.279822
622.904506	2573.481312
623.251783	2569.823955
623.599007	2572.334450
623.946179	2573.609862
624.293297	2575.747311
624.640363	2575.820407
624.987376	2577.370562
625.334336	2576.400140
625.681243	2573.514080
626.028097	2574.643298
626.374899	2575.132290
626.721647	2570.728842
627.068343	2573.642629
627.414987	2573.491394
627.761577	2572.367217
628.108115	2573.962742
628.454600	2572.873853
628.801032	2573.163719
629.147412	2573.718246
629.493739	2572.087433
629.840014	2572.213462
630.186236	2571.686661
630.532405	2571.921075
630.878521	2571.391754
631.224585	2575.081878
631.570597	2572.800756
631.916556	2572.652042
632.262462	2572.765468
632.608316	2572.410067
632.954117	2570.779254
633.299866	2568.233471
633.645562	2570.267577
633.991206	2568.601475
634.336797	2570.653225
634.682336	2571.243040
635.027823	2567.421845
635.373257	2569.773543
635.718639	2568.077195
636.063968	2565.198696
636.409245	2567.827658
636.754470	2567.956207
637.099642	2568.029304
637.444762	2567.154664
637.789829	2568.145251
638.134845	2565.992678
638.479808	2565.085270
638.824719	2566.736248
639.169577	2566.116186
639.514383	2565.498645
639.859137	2563.288099
640.203839	2569.140879
640.548489	2565.017215
640.893086	2563.315825
641.237632	2560.553273
641.582125	2562.715928
641.926566	2561.627039
642.270955	2566.786660
642.615292	2562.055537
642.959576	2566.327915
643.303809	2567.247925
643.647990	2564.550908
643.992118	2565.291958
644.336195	2564.339180
644.680219	2563.973696
645.024192	2566.015363
645.368112	2564.785322
645.711981	2563.734241
646.055797	2565.511248
646.399562	2566.494273
646.743274	2566.811866
647.086935	2566.350600
647.430544	2567.066444
647.774101	2563.305743
648.117606	2568.404870
648.461059	2568.092319
648.804460	2567.497462
649.147810	2565.017215
649.491108	2565.922102
649.834354	2564.503017
650.177548	2564.319015
650.520690	2564.992009
650.863781	2564.881104
651.206820	2566.521999
651.549807	2565.188614
651.892742	2563.310784
652.235626	2562.103428
652.578458	2563.721638
652.921238	2561.443037
653.263967	2563.353634
653.606644	2560.260886
653.949269	2562.231977
654.291843	2562.778942
654.634365	2562.733572
654.976836	2561.977399
655.319255	2563.020918
655.661622	2560.011349
656.003938	2562.894889
656.346203	2562.400856
656.688416	2560.951524
657.030577	2560.722152
657.372687	2561.319528
657.714746	2562.632749
658.056753	2558.614949
658.398708	2558.007490
658.740612	2559.711400
659.082465	2556.898437
659.424266	2556.825340
659.766016	2554.647561
660.107715	2560.200392
660.449362	2562.854560
660.790958	2561.450598
661.132503	2560.555794
661.473996	2560.439847
661.815438	2560.286092
662.156829	2562.531926
662.498168	2560.102090
662.839456	2559.403890
663.180693	2561.314487
663.521879	2559.650907
663.863013	2559.025803
664.204097	2561.916905
664.545129	2561.722821
664.886110	2561.821123
665.227040	2560.152501
665.567918	2562.136195
665.908746	2560.538150
666.249522	2559.325752
666.590248	2561.458160
666.930922	2563.963614
667.271545	2560.707028
667.612118	2562.695763
667.952639	2560.281051
668.293109	2561.029662
668.633528	2562.521844
668.973896	2558.592264
669.314213	2557.725186
669.654480	2562.756257
669.994695	2559.731565
670.334859	2561.672409
670.674973	2560.979251
671.015035	2559.844991
671.355047	2559.449260
671.695008	2560.984292
672.034918	2558.345248
672.374777	2561.080074
672.714585	2560.664178
673.054342	2560.286092
673.394049	2559.103941
673.733705	2560.361709
674.073310	2561.059909
674.412864	2560.066802
674.752368	2559.333314
675.091820	2561.569066
675.431223	2559.386246
675.770574	2559.807182
676.109875	2552.550441
676.449125	2555.426420
676.788324	2553.956923
677.127473	2557.047151
677.466571	2555.481872
677.805619	2558.143602
678.144616	2558.544373
678.483562	2557.712583
678.822458	2557.911708
679.161303	2559.202244
679.500098	2560.041596
679.838842	2559.996226
680.177535	2556.628735
680.516179	2559.902964
680.854771	2558.239383
681.193314	2556.106975
681.531805	2559.643345
681.870247	2560.155022
682.208638	2562.862122
682.546978	2562.781463
682.885268	2558.683005
683.223508	2560.437327
683.561697	2557.911708
683.899836	2559.512275
684.237925	2558.105793
684.575963	2560.689384
684.913951	2558.209137
685.251889	2561.049827
685.589776	2559.111503
685.927614	2559.814744
686.265401	2557.775597
686.603137	2562.264745
686.940824	2558.748540
687.278460	2559.270299
687.616046	2561.569066
687.953582	2558.962789
688.291068	2558.524209
688.628504	2560.394477
688.965889	2559.567727
689.303224	2561.425393
689.640510	2559.424055
689.977745	2561.014539
690.314930	2558.254507
690.652065	2559.696277
690.989150	2557.674774
691.326185	2557.868859
691.663170	2555.842315
692.000105	2555.355843
692.336990	2556.240566
692.673825	2553.445246
693.010610	2556.001111
693.347345	2553.820812
693.684030	2550.801161
694.020665	2554.622356
694.357251	2550.836449
694.693786	2552.540359
695.030272	2553.062118
695.366707	2555.111347
695.703093	2554.377860
696.039429	2550.506253
696.375716	2553.717468
696.711952	2548.915769
697.048139	2549.712272
697.384276	2552.825184
697.720363	2552.260575
698.056400	2551.030533
698.392388	2551.108671
698.728326	2550.907025
699.064214	2554.652603
699.400053	2554.196378
699.735842	2548.767055
700.071581	2552.716799
700.407270	2548.454504
700.742910	2551.590102
701.078501	2552.111861
701.414042	2551.824515
701.749533	2550.642365
702.084974	2551.101110
702.420366	2551.113712
702.755709	2551.388455
703.091002	2552.374001
703.426246	2550.365101
703.761440	2549.974412
704.096584	2552.621017
704.431679	2548.376366
704.766725	2550.017262
705.101721	2550.412992
705.436668	2549.460214
705.771565	2549.268650
706.106413	2547.065666
706.441212	2547.630275
706.775961	2551.088507
707.110661	2550.110523
707.445311	2553.122612
707.779913	2551.751418
708.114465	2550.586912
708.448967	2551.660678
708.783421	2549.974412
709.117825	2548.746891
709.452180	2551.693445
709.786485	2551.600184
710.120742	2550.108002
710.454949	2552.288301
710.789107	2551.098589
711.123216	2547.771428
711.457275	2550.133208
711.791286	2550.357539
712.125247	2550.473486
712.459159	2553.031872
712.793023	2554.478683
713.126837	2554.491286
713.460602	2553.863662
713.794318	2555.244938
714.127985	2551.640513
714.461602	2551.564896
714.795171	2552.661347
715.128691	2551.068342
715.462162	2551.743857
715.795584	2549.019113
716.128957	2550.412992
716.462281	2550.914587
716.795556	2551.154042
717.128782	2550.060111
717.461960	2550.289484
717.795088	2547.627755
718.128167	2548.013403
718.461198	2546.964843
718.794180	2548.083979
719.127113	2546.685059
719.459997	2549.336706
719.792833	2549.598846
720.125619	2547.978115
720.458357	2547.990718
720.791046	2549.261088
721.123686	2547.526932
721.456278	2547.605069
721.788821	2546.034750
722.121315	2547.398382
722.453761	2546.652291
722.786158	2545.452497
723.118506	2548.240255
723.450805	2548.177240
723.783056	2546.702703
724.115259	2544.091385
724.447412	2545.172713
724.779518	2546.916952
725.111574	2545.114739
725.443582	2548.081458
725.775542	2547.504246
726.107453	2548.951057
726.439315	2546.128011
726.771129	2551.007848
727.102895	2548.739329
727.434612	2548.754452
727.766281	2550.884340
728.097901	2548.041129
728.429473	2543.239430
728.760996	2547.816798
729.092471	2541.507794
729.423897	2550.770914
729.755276	2548.691438
730.086606	2549.409802
730.417887	2548.958619
730.749120	2549.288815
731.080305	2550.259237
731.411442	2551.922818
731.742530	2551.353167
732.073570	2550.483568
732.404562	2549.911397
732.735506	2550.753270
733.066401	2551.259906
733.397249	2551.600184
733.728048	2547.897456
734.058798	2546.730429
734.389501	2548.746891
734.720156	2546.352343
735.050762	2545.533155
735.381320	2545.462579
735.711831	2549.190512
736.042293	2545.160110
736.372707	2545.031560
736.703073	2547.017775
737.033391	2547.892415
737.363661	2547.393341
737.693883	2548.562889
738.024056	2548.396531
738.354182	2544.681200
738.684260	2543.957795
739.014290	2546.198587
739.344272	2546.183464
739.674207	2548.434339
740.004093	2548.802343
740.333931	2548.953578
740.663722	2547.910059
740.993464	2546.057435
741.323159	2547.332847
741.652806	2546.901828
741.982405	2548.628424
742.311956	2548.199926
742.641460	2544.277908
742.970915	2547.920142
743.300323	2544.119112
743.629683	2546.551468
743.958996	2548.756973
744.288260	2547.244627
744.617477	2543.753628
744.946647	2540.446631
745.275768	2543.327650
745.604842	2541.482588
745.933869	2543.173895
746.262847	2538.568801
746.591778	2544.325799
746.920662	2541.926210
747.249498	2544.000644
747.578286	2545.744884
747.907027	2544.219935
748.235720	2544.615665
748.564365	2544.151879
748.892963	2544.653474
749.221514	2546.513660
749.550017	2545.959133
749.878473	2546.919472
750.206881	2544.897970
750.535242	2546.531304
750.863555	2544.683721
751.191821	2545.081972
751.520039	2543.373021
751.848210	2544.638350
752.176334	2544.565254
752.504411	2543.579708
752.832440	2543.884698
753.160421	2542.954605
753.488356	2543.705737
753.816243	2542.440407
754.144082	2541.913607
754.471875	2543.420912
754.799620	2542.926879
755.127318	2543.257074
755.454969	2541.356559
755.782572	2543.095757
756.110129	2542.667259
756.437638	2545.306303
756.765100	2542.831097
757.092515	2543.199101
757.419882	2544.414019
757.747203	2545.255892
758.074477	2543.239430
758.401703	2544.862682
758.728882	2545.139945
759.056014	2543.236910
759.383099	2543.183978
759.710138	2544.799667
760.037129	2544.136756
760.364073	2543.824204
760.690970	2544.779503
761.017820	2542.458051
761.344623	2544.282949
761.671379	2546.848896
761.998088	2539.282124
762.324751	2547.388300
762.651366	2545.518032
762.977935	2556.069167
763.304456	2554.695452
763.630931	2556.149825
763.957359	2556.457336
764.283740	2553.079762
764.610074	2551.842159
764.936362	2547.925183
765.262602	2549.896274
765.588796	2547.874771
765.914943	2544.376210
766.241044	2543.748587
766.567097	2543.972918
766.893104	2543.814122
767.219064	2543.546941
767.544978	2543.171375
767.870845	2542.082485
768.196665	2544.930737
768.522438	2540.242464
768.848165	2541.948895
769.173846	2540.852444
769.499479	2543.514173
769.825066	2540.101312
770.150607	2541.190201
770.476101	2538.571322
770.801548	2545.011396
771.126949	2537.908410
771.452303	2540.255067
771.777611	2539.287166
772.102872	2537.759696
772.428087	2540.376055
772.753256	2539.934954
773.078378	2537.091743
773.403453	2537.865560
773.728482	2537.046373
774.053465	2540.244985
774.378401	2539.672814
774.703291	2542.818494
775.028135	2537.800025
775.352932	2540.744059
775.677683	2538.125180
776.002388	2539.559388
776.327046	2539.420756
776.651658	2537.479912
776.976224	2538.268853
777.300743	2539.803884
777.625216	2538.783050
777.949643	2539.869419
778.274024	2538.331867
778.598359	2535.135775
778.922647	2533.988913
779.246889	2534.805580
779.571086	2534.838347
779.895236	2537.638708
780.219339	2537.729449
780.543397	2538.639377
780.867409	2540.116435
781.191374	2537.517721
781.515294	2538.591486
781.839167	2535.967566
782.162995	2539.193904
782.486776	2539.287166
782.810511	2537.999151
783.134201	2541.412012
783.457844	2537.326157
783.781441	2539.803884
784.104993	2539.088040
784.428498	2540.534851
784.751958	2538.636857
785.075372	2538.399923
785.398739	2539.929913
785.722061	2539.529141
786.045337	2535.783564
786.368568	2538.974614
786.691752	2538.714995
787.014891	2539.753472
787.337983	2538.397402
787.661030	2540.837320
787.984031	2538.178112
788.306987	2538.578883
788.629897	2540.149203
788.952760	2539.571991
789.275579	2542.639533
789.598351	2540.383617
789.921078	2538.357073
790.243759	2540.010571
790.566395	2538.094933
790.888984	2535.407998
791.211529	2539.188863
791.534027	2538.450334
791.856480	2536.660724
792.178888	2536.872453
792.501249	2536.451517
792.823566	2539.133410
793.145836	2536.587628
793.468062	2536.247350
793.790241	2537.134593
794.112375	2538.420087
794.434464	2537.694161
794.756507	2537.242978
795.078505	2540.134079
795.400457	2537.232895
795.722364	2535.551671
796.044226	2535.995292
796.366042	2537.578214
796.687812	2535.108049
797.009538	2540.877650
797.331218	2539.816487
797.652852	2539.057793
797.974442	2538.881353
798.295986	2538.856147
798.617484	2535.213913
798.938938	2538.868750
799.260346	2537.931095
799.581709	2536.529654
799.903026	2540.693648
800.224299	2537.729449
800.545526	2536.852288
800.866708	2537.280786
801.187845	2539.100643
801.508936	2537.384130
801.829983	2535.153419
802.150984	2534.399767
802.471940	2541.147351
802.792851	2537.452186
803.113717	2537.525282
803.434538	2534.740045
803.755314	2537.358924
804.076045	2535.909592
804.396731	2535.629808
804.717372	2537.149716
805.037967	2537.842875
805.358518	2535.022349
805.679024	2537.245498
805.999485	2537.290869
806.319901	2535.707946
806.640272	2536.859850
806.960598	2536.698533
807.280879	2539.158616
807.601115	2535.423121
807.921306	2535.982689
808.241453	2538.780530
808.561554	2533.217616
808.881611	2537.232895
809.201623	2536.398584
809.521590	2535.743234
809.841513	2538.145344
810.161390	2534.964376
810.481223	2538.407484
810.801011	2536.166691
811.120755	2536.040663
811.440453	2534.462781
811.760107	2538.843544
812.079716	2532.990764
812.399281	2530.848274
812.718801	2535.034952
813.038276	2529.472039
813.357707	2536.950591
813.677093	2536.585107
813.996434	2535.985210
814.315731	2535.637370
814.634983	2534.586290
814.954191	2535.226516
815.273354	2536.799356
815.592473	2535.455889
815.911547	2535.458409
816.230577	2538.203318
816.549562	2539.602238
816.868502	2535.841537
817.187399	2539.272042
817.506250	2536.973276
817.825058	2540.890253
818.143821	2535.627288
818.462539	2536.580066
818.781213	2538.750283
819.099843	2538.120138
819.418429	2539.975283
819.736970	2541.913607
820.055466	2542.884029
820.373919	2543.052907
820.692327	2548.557847
821.010691	2552.578168
821.329011	2563.504869
821.647286	2583.150245
821.965517	2604.625561
822.283704	2618.448404
822.601847	2622.945114
822.919945	2614.402878
823.237999	2598.908892
823.556010	2585.806933
823.873976	2573.665314
824.191897	2566.753892
824.509775	2562.627708
824.827609	2558.569579
825.145398	2553.878785
825.463144	2555.970864
825.780845	2553.684701
826.098502	2559.260217
826.416116	2561.937070
826.733685	2569.231619
827.051210	2574.396282
827.368692	2572.160530
827.686129	2560.608726
828.003522	2554.478683
828.320872	2548.691438
828.638177	2544.779503
828.955439	2540.960829
829.272656	2541.916127
829.589830	2535.755837
829.906960	2541.454862
830.224046	2537.449665
830.541088	2539.526620
830.858086	2536.774150
831.175041	2538.117618
831.491952	2539.148534
831.808819	2537.195087
832.125642	2539.400592
832.442421	2540.955788
832.759157	2545.283618
833.075849	2546.894267
833.392497	2551.496840
833.709101	2553.621687
834.025662	2555.635627
834.342179	2553.288970
834.658653	2548.572971
834.975083	2547.446273
835.291469	2547.383259
835.607811	2539.264480
835.924110	2535.607123
836.240366	2542.354708
836.556578	2536.461599
836.872746	2539.440921
837.188871	2534.505631
837.504952	2534.656866
837.820990	2532.209386
838.136984	2534.472864
838.452935	2536.718698
838.768842	2535.344983
839.084706	2534.271217
839.400526	2537.487474
839.716303	2539.826569
840.032037	2544.681200
840.347727	2542.692465
840.663373	2541.608617
840.978977	2539.345139
841.294537	2539.181301
841.610054	2535.672658
841.925527	2538.117618
842.240957	2534.684592
842.556344	2537.311033
842.871687	2531.881711
843.186987	2533.746938
843.502244	2533.265507
843.817458	2534.215765
844.132629	2532.171577
844.447756	2535.342463
844.762840	2530.061854
845.077881	2528.574714
845.392879	2529.081350
845.707833	2532.297606
846.022745	2528.108407
846.337613	2532.380785
846.652438	2532.499252
846.967221	2531.985054
847.281960	2532.360620
847.596656	2534.548481
847.911309	2532.905065
848.225919	2532.940353
848.540485	2533.872966
848.855009	2531.594365
849.169490	2532.413552
849.483928	2532.433717
849.798323	2531.929602
850.112675	2530.104704
850.426984	2532.900024
850.741251	2532.791639
851.055474	2532.587472
851.369654	2530.845753
851.683792	2533.789787
851.997887	2532.421114
852.311938	2532.383305
852.625947	2532.209386
852.939914	2533.076464
853.253837	2535.254242
853.567718	2531.934643
853.881555	2531.758202
854.195350	2531.516227
854.509103	2531.488501
854.822812	2532.496731
855.136479	2535.528985
855.450103	2533.552853
855.763685	2531.647297
856.077224	2530.218130
856.390720	2533.015970
856.704173	2532.799201
857.017584	2532.877338
857.330953	2531.745599
857.644278	2531.480939
857.957561	2534.044366
858.270802	2536.086033
858.584000	2531.309540
858.897155	2531.823737
859.210268	2532.161495
859.523339	2535.818852
859.836367	2532.358100
860.149352	2532.693336
860.462295	2533.469674
860.775195	2530.016484
861.088054	2528.126051
861.400869	2529.658562
861.713642	2525.388704
862.026373	2531.833820
862.339062	2534.770292
862.651708	2532.597554
862.964312	2533.217616
863.276873	2530.782739
863.589392	2531.669982
863.901869	2533.131917
864.214303	2533.225178
864.526696	2533.328522
864.839045	2533.227699
865.151353	2532.211906
865.463619	2532.237112
865.775842	2531.357431
866.088023	2531.680064
866.400162	2533.177287
866.712258	2532.005219
867.024313	2531.170908
867.336325	2534.314067
867.648296	2534.230888
867.960224	2531.370033
868.272110	2531.758202
868.583954	2531.687626
868.895755	2532.365661
869.207515	2532.504293
869.519233	2532.161495
869.830909	2528.947759
870.142542	2534.193080
870.454134	2534.228368
870.765684	2534.198121
871.077191	2535.294572
871.388657	2534.445137
871.700081	2532.620240
872.011463	2533.971269
872.322803	2532.577390
872.634101	2536.965714
872.945357	2534.377082
873.256571	2534.649304
873.567744	2533.721732
873.878874	2535.327339
874.189963	2531.982534
874.501010	2537.149716
874.812015	2532.063192
875.122979	2534.445137
875.433900	2532.617719
875.744780	2535.667617
876.055618	2533.089067
876.366415	2533.512524
876.677169	2535.145858
876.987882	2531.778367
877.298554	2531.990095
877.609183	2532.174098
877.919771	2531.755682
878.230317	2530.921371
878.540822	2535.065199
878.851285	2537.235416
879.161707	2538.510828
879.472087	2538.533513
879.782425	2541.137269
880.092722	2545.016437
880.402977	2552.515153
880.713191	2562.365568
881.023363	2573.831672
881.333494	2584.508836
881.643583	2584.304669
881.953631	2583.079669
882.263637	2579.523135
882.573602	2578.998855
882.883526	2570.408729
883.193408	2564.497976
883.503248	2557.556307
883.813048	2555.733930
884.122806	2553.208312
884.432522	2548.880481
884.742197	2544.449307
885.051831	2543.549461
885.361424	2540.668442
885.670975	2542.032074
885.980485	2540.486960
886.289954	2536.229706
886.599382	2536.723739
886.908768	2538.198276
887.218113	2539.755993
887.527417	2536.658204
887.836680	2535.876825
888.145901	2535.052596
888.455082	2533.804911
888.764221	2537.053934
889.073319	2536.416228
889.382376	2533.247863
889.691392	2534.866074
890.000366	2535.299613
890.309300	2533.399098
890.618193	2536.254912
890.927044	2533.630991
891.235855	2535.246681
891.544625	2536.902700
891.853353	2535.155940
892.162041	2535.166022
892.470687	2534.629139
892.779293	2539.957639
893.087858	2535.173584
893.396381	2536.391023
893.704864	2538.835982
894.013306	2535.864222
894.321707	2544.300593
894.630068	2548.754452
894.938387	2553.389793
895.246665	2549.548434
895.554903	2550.690256
895.863100	2544.978628
896.171256	2544.298073
896.479371	2541.023843
896.787446	2540.860006
897.095480	2540.111394
897.403473	2539.645088
897.711425	2538.785571
898.019336	2535.788605
898.327207	2538.208359
898.635038	2535.007226
898.942827	2535.155940
899.250576	2534.384643
899.558284	2531.750641
899.865952	2534.190559
900.173579	2533.328522
900.481165	2535.667617
900.788711	2536.764068
901.096216	2533.038655
901.403681	2532.768954
901.711105	2536.801877
902.018489	2531.642256
902.325832	2534.742565
902.633135	2532.673172
902.940397	2533.358769
903.247619	2537.547968
903.554800	2539.062834
903.861941	2543.985521
904.169041	2554.929866
904.476101	2558.120916
904.783121	2557.389949
905.090100	2553.631769
905.397039	2549.697148
905.703938	2543.546941
906.010796	2540.149203
906.317614	2539.370345
906.624391	2537.996630
906.931129	2538.349511
907.237826	2534.243491
907.544483	2536.655683
907.851099	2533.439427
908.157675	2532.670651
908.464211	2532.017822
908.770707	2528.264683
909.077163	2529.275434
909.383578	2527.634538
909.689954	2528.146216
909.996289	2528.746113
910.302584	2533.046217
910.608839	2531.203675
910.915054	2532.146371
911.221229	2531.140661
911.527363	2532.005219
911.833458	2531.458254
912.139513	2533.376413
912.445527	2531.002029
912.751502	2532.612678
913.057436	2530.636546
913.363331	2530.603778
913.669186	2530.936494
913.975000	2533.804911
914.280775	2535.377751
914.586510	2536.375899
914.892205	2540.121477
915.197859	2541.437218
915.503475	2545.775131
915.809050	2552.263096
916.114585	2552.706717
916.420081	2555.549928
916.725536	2557.367264
917.030952	2551.975750
917.336328	2547.635316
917.641665	2546.133052
917.946961	2544.547610
918.252218	2540.605427
918.557435	2538.561239
918.862612	2537.270704
919.167750	2539.904707
919.472848	2536.360776
919.777906	2536.454037
920.082925	2533.895652
920.387904	2531.962369
920.692843	2535.370189
920.997743	2532.993285
921.302603	2533.038655
921.607423	2532.605116
921.912204	2532.983203
922.216946	2532.839530
922.521647	2531.206196
922.826310	2532.658048
923.130932	2532.474046
923.435516	2530.354241
923.740059	2531.082688
924.044564	2529.000691
924.349028	2530.898686
924.653454	2529.401463
924.957840	2528.075639
925.262186	2527.911802
925.566493	2529.719056
925.870761	2525.582789
926.174989	2527.324507
926.479178	2532.474046
926.783328	2528.410876
927.087438	2532.491690
927.391509	2532.685775
927.695541	2527.644621
927.999533	2530.329035
928.303486	2529.048582
928.607400	2531.455733
928.911275	2528.473891
929.215110	2530.560928
929.518906	2528.872142
929.822663	2528.761236
930.126381	2530.271062
930.430060	2531.140661
930.733699	2527.125382
931.037299	2527.816020
931.340861	2530.611340
931.644383	2529.396422
931.947866	2530.843233
932.251309	2529.872811
932.554714	2527.873993
932.858080	2533.348686
933.161407	2528.912471
933.464694	2527.957172
933.767943	2526.449867
934.071153	2533.008408
934.374323	2527.805938
934.677455	2531.808614
934.980548	2528.131092
935.283602	2524.357788
935.586617	2528.032790
935.889593	2529.126720
936.192530	2530.026566
936.495428	2528.834333
936.798287	2528.428520
937.101108	2529.948428
937.403890	2526.734693
937.706632	2530.780218
938.009336	2528.698222
938.312002	2531.669982
938.614628	2530.898686
938.917216	2530.434899
939.219765	2532.312729
939.522275	2530.397091
939.824747	2534.684592
940.127179	2528.831813
940.429573	2524.808972
940.731929	2526.104548
941.034246	2526.767460
941.336524	2529.645959
941.638763	2529.164529
941.940964	2528.546987
942.243126	2530.392050
942.545250	2529.139323
942.847335	2529.028417
943.149381	2531.344828
943.451389	2527.727800
943.753359	2529.477080
944.055290	2530.233253
944.357182	2530.767616
944.659036	2527.926925
944.960851	2531.153264
945.262628	2530.732328
945.564367	2529.572862
945.866067	2529.184693
946.167729	2529.663603
946.469352	2525.875176
946.770937	2530.046731
947.072484	2529.819879
947.373992	2529.807276
947.675462	2530.369364
947.976893	2530.218130
948.278286	2528.975485
948.579641	2530.124868
948.880958	2528.184024
949.182236	2527.765608
949.483476	2530.147554
949.784678	2530.321473
950.085841	2530.976823
950.386967	2529.953469
950.688054	2528.690660
950.989103	2529.454395
951.290114	2526.694363
951.591087	2530.192924
951.892021	2527.332069
952.192917	2530.460105
952.493776	2531.790970
952.794596	2528.950280
953.095378	2530.152595
953.396122	2529.933305
953.696828	2528.763757
953.997496	2528.703263
954.298126	2528.607481
954.598718	2531.042358
954.899272	2530.926412
955.199788	2526.144877
955.500266	2530.999509
955.800706	2527.463139
956.101108	2524.350227
956.401472	2524.151101
956.701798	2523.203364
957.002087	2523.962058
957.302337	2526.921215
957.602550	2529.187214
957.902724	2528.796524
958.202861	2528.637728
958.502960	2529.958510
958.803022	2526.313756
959.103045	2528.355423
959.403031	2527.332069
959.702979	2526.162522
960.002889	2527.606812
960.302762	2526.999353
960.602596	2527.803417
960.902393	2525.219826
961.202153	2527.548839
961.501875	2527.800897
961.801559	2527.425331
962.101205	2529.487163
962.400814	2526.127233
962.700385	2527.321987
962.999918	2526.356606
963.299414	2526.459950
963.598873	2530.190403
963.898293	2525.736544
964.197677	2526.737213
964.497022	2528.158818
964.796331	2527.258973
965.095601	2526.843077
965.394835	2527.798376
965.694030	2528.370547
965.993189	2525.426513
966.292309	2526.752337
966.591393	2527.304343
966.890439	2529.187214
967.189447	2529.245187
967.488419	2528.962883
967.787353	2527.190917
968.086249	2525.847449
968.385108	2529.401463
968.683930	2529.189734
968.982714	2528.365506
969.281462	2528.201668
969.580172	2528.511699
969.878844	2524.856863
970.177480	2530.099663
970.476078	2526.994312
970.774639	2526.228057
971.073162	2525.381143
971.371649	2525.481966
971.670098	2523.268899
971.968510	2523.221008
972.266885	2522.086749
972.565223	2523.798220
972.863524	2530.646628
973.161788	2526.412059
973.460014	2525.572707
973.758204	2528.756195
974.056356	2528.128572
974.354471	2527.044723
974.652550	2526.217974
974.950591	2528.093283
975.248595	2526.598581
975.546563	2527.511030
975.844493	2527.145547
976.142386	2525.514733
976.440243	2527.115300
976.738062	2528.579755
977.035845	2528.108407
977.333590	2527.448016
977.631299	2530.381967
977.928971	2527.069929
978.226606	2524.937521
978.524204	2527.097656
978.821765	2526.467511
979.119290	2527.901720
979.416777	2525.507172
979.714228	2527.160670
980.011642	2527.311905
980.309020	2526.626308
980.606360	2525.953314
980.903664	2527.836185
981.200931	2526.336441
981.498162	2527.558921
981.795356	2528.373068
982.092513	2529.240146
982.389633	2525.643283
982.686717	2528.940197
982.983764	2527.672347
983.280775	2529.194776
983.577749	2528.473891
983.874686	2530.165198
984.171587	2526.795186
984.468451	2527.200999
984.765279	2528.063037
985.062070	2526.946421
985.358824	2527.243849
985.655543	2525.809641
985.952224	2525.640762
986.248869	2526.321318
986.545478	2523.233611
986.842050	2525.557583
987.138586	2520.266892
987.435086	2522.679084
987.731549	2520.665143
988.027975	2525.696215
988.324366	2525.837367
988.620719	2530.487832
988.917037	2524.710669
989.213318	2529.300640
989.509563	2526.742254
989.805772	2524.844260
990.101944	2526.119672
990.398080	2526.835516
990.694180	2526.379291
990.990244	2528.413397
991.286271	2524.201513
991.582262	2524.902233
991.878217	2524.067922
992.174136	2527.387522
992.470019	2523.944414
992.765865	2527.427851
993.061676	2526.550690
993.357450	2529.940866
993.653188	2527.256452
993.948890	2525.986081
994.244556	2523.775535
994.540186	2524.947603
994.835780	2526.165042
995.131337	2528.705784
995.426859	2527.521112
995.722345	2526.187727
996.017795	2528.990609
996.313208	2526.709487
996.608586	2527.931967
996.903928	2525.721421
997.199234	2528.725948
997.494504	2525.607995
997.789738	2525.640762
998.084936	2528.204189
998.380099	2526.717048
998.675225	2526.984230
998.970316	2524.554393
999.265371	2526.462470
999.560390	2524.554393
999.855373	2527.445495
1000.150320	2527.321987
1000.445232	2527.453057
1000.740108	2526.117151
1001.034948	2525.567665
1001.329752	2523.649506
1001.624521	2526.349044
1001.919254	2521.779238
1002.213951	2521.839732
1002.508613	2522.656399
1002.803239	2525.497089
1003.097829	2520.027437
1003.392384	2525.025741
1003.686903	2526.959024
1003.981386	2526.470032
1004.275834	2527.458098
1004.570246	2528.655372
1004.864623	2524.892151
1005.158964	2527.359796
1005.453270	2524.418282
1005.747540	2528.438603
1006.041775	2525.930628
1006.335974	2525.212264
1006.630138	2524.274609
1006.924266	2525.900382
1007.218359	2521.996008
1007.512416	2527.165711
1007.806438	2526.906092
1008.100425	2522.774866
1008.394376	2523.609177
1008.688292	2525.981040
1008.982172	2523.876358
1009.276017	2525.423993
1009.569827	2526.759898
1009.863602	2525.607995
1010.157341	2527.614374
1010.451045	2527.100176
1010.744714	2524.007428
1011.038347	2523.810823
1011.331945	2526.948942
1011.625508	2525.847449
1011.919036	2525.832326
1012.212528	2524.168745
1012.505986	2523.881399
1012.799408	2526.880886
1013.092795	2525.582789
1013.386147	2523.520957
1013.679464	2524.614887
1013.972745	2525.131606
1014.265992	2523.957017
1014.559204	2525.585309
1014.852380	2525.842408
1015.145521	2525.131606
1015.438628	2525.197141
1015.731699	2527.463139
1016.024736	2525.061029
1016.317737	2524.551873
1016.610703	2525.252593
1016.903635	2523.578930
1017.196531	2521.285205
1017.489393	2521.658251
1017.782219	2519.674557
1018.075011	2525.749147
1018.367768	2523.420134
1018.660490	2525.464322
1018.953177	2525.464322
1019.245829	2525.464322
