Dividing Wavelength (nm)	Counts (n)	Blue Motor Position (mm): 0.000000	Red Motor Position (mm): 43.800000	
326.493990	2129.544702
326.888308	2129.544702
327.282561	2129.544702
327.676750	2097.568663
328.070874	2094.559094
328.464933	2097.677048
328.858929	2103.285331
329.252859	2112.591301
329.646726	2126.429268
330.040528	2137.600465
330.434265	2158.952273
330.827938	2171.983655
331.221547	2189.184072
331.615091	2209.313399
332.008571	2228.207644
332.401986	2248.992321
332.795338	2267.553850
333.188625	2290.392797
333.581847	2306.867288
333.975006	2322.199958
334.368100	2342.394820
334.761129	2362.428365
335.154095	2379.291025
335.546996	2396.960269
335.939833	2420.343661
336.332606	2434.171546
336.725315	2448.163269
337.117960	2459.750361
337.510540	2464.282358
337.903056	2478.206025
338.295508	2485.487972
338.687896	2496.399549
339.080220	2500.303923
339.472480	2507.779954
339.864676	2512.004441
340.256807	2518.222704
340.648875	2517.194309
341.040879	2523.909126
341.432818	2522.749660
341.824694	2524.577079
342.216506	2527.309384
342.608253	2525.325690
342.999937	2528.201668
343.391557	2522.999198
343.783113	2525.441637
344.174605	2524.861904
344.566033	2521.527181
344.957397	2519.117509
345.348697	2521.721265
345.739934	2517.617766
346.131106	2516.014679
346.522215	2512.150634
346.913260	2513.940244
347.304241	2510.676097
347.695159	2505.183760
348.086012	2508.745335
348.476802	2507.427073
348.867528	2506.242402
349.258191	2504.120076
349.648789	2504.931702
350.039324	2501.405415
350.429796	2500.656804
350.820203	2498.312667
351.210548	2496.767553
351.600828	2498.007677
351.991045	2495.567759
352.381198	2497.700167
352.771288	2495.212357
353.161314	2494.544405
353.551276	2493.352172
353.941175	2493.495845
354.331010	2496.165136
354.720782	2495.277893
355.110490	2493.846205
355.500135	2494.914929
355.889717	2495.310660
356.279235	2496.097080
356.668689	2496.709580
357.058080	2497.869046
357.447408	2495.325783
357.836672	2494.380567
358.225873	2498.042965
358.615010	2492.848056
359.004084	2497.206134
359.393095	2499.015908
359.782043	2499.691423
360.170927	2499.930878
360.559748	2500.359376
360.948505	2499.620847
361.337199	2500.545898
361.725830	2503.003461
362.114398	2504.835920
362.502903	2504.069665
362.891344	2501.700323
363.279722	2502.922802
363.668037	2503.575632
364.056289	2505.629902
364.444478	2508.551251
364.832603	2506.731394
365.220665	2506.527227
365.608665	2508.662156
365.996601	2509.486385
366.384474	2510.817249
366.772284	2511.853206
367.160031	2512.196005
367.547715	2517.222035
367.935336	2515.687004
368.322893	2521.849814
368.710388	2523.755371
369.097820	2529.194776
369.485189	2534.298944
369.872495	2538.538554
370.259738	2546.334699
370.646918	2555.136553
371.034035	2560.442368
371.421090	2570.184397
371.808081	2583.145204
372.195010	2591.304312
372.581875	2603.511466
372.968678	2615.842128
373.355418	2627.751854
373.742096	2645.436222
374.128710	2659.697646
374.515262	2675.025274
374.901751	2687.771832
375.288177	2702.446630
375.674540	2727.412945
376.060841	2744.366345
376.447079	2761.707914
376.833254	2782.676594
377.219367	2791.221350
377.605417	2834.613081
377.991404	2845.154134
378.377329	2863.947556
378.763191	2882.027654
379.148991	2918.265988
379.534727	2945.657098
379.920402	2973.932930
380.306013	2984.383242
380.691563	3036.579348
381.077049	3053.941082
381.462474	3073.697364
381.847835	3112.655401
382.233134	3133.150212
382.618371	3137.838485
383.003545	3203.706201
383.388657	3208.790205
383.773706	3245.031060
384.158693	3258.808533
384.543618	3287.217956
384.928480	3323.211794
385.313280	3369.121583
385.698017	3363.006663
386.082692	3420.417843
386.467305	3426.520160
386.851856	3458.516364
387.236344	3479.744663
387.620770	3509.752131
388.005133	3536.830689
388.389435	3564.685584
388.773674	3573.162284
389.157851	3615.918831
389.541965	3636.350627
389.926018	3595.925615
390.310008	3670.065864
390.693936	3690.343906
391.077802	3728.999473
391.461606	3718.221486
391.845348	3780.172226
392.229027	3781.533337
392.612645	3792.754946
392.996200	3870.988612
393.379694	3909.482863
393.763125	3975.254797
394.146494	3942.706588
394.529801	4005.935260
394.913047	4051.464441
395.296230	4019.342208
395.679351	4074.444541
396.062410	4096.882716
396.445408	4077.622988
396.828343	4111.280252
397.211217	4135.215650
397.594028	4056.613979
397.976778	4121.042446
398.359466	4146.210407
398.742092	4176.686702
399.124656	4099.534363
399.507158	4178.614944
399.889598	4204.894479
400.271977	4267.815640
400.654294	4236.348758
401.036549	4243.653390
401.418742	4215.982497
401.800874	4316.341787
402.182944	4340.705684
402.564952	4404.398142
402.946898	4390.144280
403.328783	4388.720154
403.710606	4304.071619
404.092367	4494.526411
404.474067	4458.782110
404.855705	4465.817040
405.237282	4393.809198
405.618797	4500.706866
406.000250	4536.501579
406.381642	4614.916727
406.762972	4579.792487
407.144240	4589.942851
407.525447	4592.977625
407.906593	4651.598683
408.287677	4690.135783
408.668700	4623.285042
409.049661	4672.839584
409.430560	4712.170667
409.811399	4640.094770
410.192176	4803.050068
410.572891	4743.796345
410.953545	4845.942725
411.334138	4725.345722
411.714669	4790.621103
412.095139	4689.172923
412.475547	4829.380014
412.855894	4810.420235
413.236180	4818.062624
413.616405	4771.139564
413.996568	4860.209191
414.376670	4799.029747
414.756711	4758.322430
415.136691	4788.597080
415.516609	4864.163976
415.896466	4902.396087
416.276262	4935.269451
416.655997	4921.275208
417.035670	5102.333289
417.415283	5193.006003
417.794834	5133.205315
418.174324	5095.147124
418.553753	4995.488554
418.933121	5182.217934
419.312428	5248.075567
419.691674	5187.528789
420.070859	5314.054189
420.449983	5227.248040
420.829045	5340.840360
421.208047	5247.909209
421.586988	5319.120549
421.965867	5333.409699
422.344686	5461.714626
422.723444	5320.406043
423.102141	5136.323269
423.480777	5436.962561
423.859352	5204.918249
424.237866	5461.457527
424.616319	5451.050065
424.994712	5568.559362
425.373044	5446.412204
425.751314	5582.964459
426.129524	5387.289552
426.507673	5580.171659
426.885762	5664.976470
427.263789	5597.558599
427.641756	5476.548222
428.019662	5599.000369
428.397508	5608.606288
428.775292	5557.370521
429.153016	5651.047762
429.530679	5579.392801
429.908282	5666.047715
430.285824	5533.977046
430.663305	5810.398635
431.040726	5543.222522
431.418086	5544.157656
431.795385	5648.209592
432.172624	5659.128732
432.549802	5653.381816
432.926920	5667.277757
433.303977	5677.218912
433.680974	5713.903389
434.057910	5732.485082
434.434786	5736.737295
434.811601	5707.007090
435.188355	5946.003153
435.565050	5812.639428
435.941683	5795.444052
436.318257	6013.438668
436.694770	5995.416543
437.071222	6026.570874
437.447614	5958.666531
437.823946	5874.345672
438.200218	6025.035842
438.576429	5895.508435
438.952580	5995.187170
439.328670	6034.631679
439.704700	5943.225477
440.080670	5933.790958
440.456580	6202.161824
440.832429	6088.410708
441.208218	5932.422284
441.583947	6089.358445
441.959616	6088.471202
442.335224	6018.270614
442.710773	6152.725749
443.086261	6183.101221
443.461689	5978.198482
443.837057	6124.459999
444.212365	6280.219050
444.587612	6171.501526
444.962800	6327.757131
445.337927	6308.777187
445.712995	5919.025418
446.088002	6495.085630
446.462949	6322.446275
446.837837	6252.757364
447.212664	6429.008706
447.587431	6573.253761
447.962139	7112.853828
448.336786	8044.385962
448.711374	7782.702186
449.085901	6857.975610
449.460369	6777.687673
449.834776	6714.627880
450.209124	7100.520645
450.583412	7253.330621
450.957640	7401.936275
451.331808	7165.785943
451.705917	6713.647375
452.079965	6635.811960
452.453954	6848.473035
452.827883	6726.784622
453.201752	6819.569579
453.575562	6621.459795
453.949311	6820.529919
454.323001	6713.453291
454.696632	6786.968438
455.070202	6926.310971
455.443713	7076.310504
455.817164	7180.982502
456.190556	7262.926457
456.563888	7339.864547
456.937160	7376.957357
457.310373	7040.724999
457.683526	7057.043214
458.056619	6951.872142
458.429653	6942.989628
458.802628	6881.154835
459.175542	6983.114693
459.548398	7340.981163
459.921194	7504.354877
460.293930	7504.397727
460.666607	8037.895476
461.039224	8345.993155
461.411782	8471.656518
461.784280	8490.659147
462.156719	8377.066828
462.529099	8252.545287
462.901419	7844.158893
463.273680	7737.649394
463.645882	7751.600788
464.018024	7621.450798
464.390106	7782.208153
464.762130	8172.726177
465.134094	8639.111046
465.505999	9662.049381
465.877845	10887.437935
466.249631	11535.778210
466.621358	11155.607155
466.993026	10522.539055
467.364634	10264.658830
467.736184	9900.778263
468.107674	9573.390609
468.479105	9600.466646
468.850477	9367.290595
469.221790	9139.926995
469.593043	8808.304772
469.964238	8672.279318
470.335373	8682.802726
470.706449	8738.278104
471.077467	8722.242193
471.448425	10035.740034
471.819324	11107.431368
472.190164	11131.397013
472.560945	9885.460717
472.931667	9092.852701
473.302330	8954.357081
473.672934	8600.546219
474.043479	8964.593144
474.413965	8903.575018
474.784393	8781.816029
475.154761	8936.397970
475.525070	9027.554635
475.895321	8853.712965
476.265513	9032.144605
476.635645	9197.070995
477.005719	9201.847488
477.375734	9315.815373
477.745691	9553.273884
478.115588	9682.390437
478.485427	9926.498230
478.855207	10472.976951
479.224928	11282.097267
479.594591	11910.303174
479.964194	11720.614637
480.333739	11658.099288
480.703226	11571.189796
481.072653	11671.760815
481.442022	11901.395455
481.811333	12104.208636
482.180584	11900.851010
482.549777	11613.187648
482.918912	11439.134250
483.287988	11460.735594
483.657005	11467.599125
484.025964	11147.826134
484.394864	11287.955087
484.763706	11250.335477
485.132489	11007.946718
485.501213	10969.918773
485.869879	11044.704291
486.238487	10885.842410
486.607036	10996.336940
486.975527	10772.749164
487.343959	10967.229318
487.712333	11016.715805
488.080648	10945.748961
488.448905	10989.244037
488.817104	10932.498288
489.185244	11193.902280
489.553326	11346.755106
489.921350	11889.730225
490.289315	12956.864356
490.657222	13294.772898
491.025070	13209.980691
491.392861	13073.554465
491.760593	12699.548740
492.128267	12343.113958
492.495883	12025.546471
492.863440	11685.445027
493.230939	11343.067502
493.598380	11279.768253
493.965763	11148.625157
494.333088	11048.875846
494.700354	10971.025307
495.067563	11029.162413
495.434713	10852.855619
495.801805	10987.590538
496.168839	10904.966027
496.535815	10846.344969
496.902733	10846.400422
497.269593	10778.856522
497.636395	10878.293282
498.003139	10862.781651
498.369825	10737.002342
498.736453	10888.705785
499.103023	10811.523199
499.469535	10844.900679
499.835989	10831.821405
500.202385	10793.337237
500.568723	10649.888683
500.935003	10868.657116
501.301226	10671.762250
501.667390	10931.883268
502.033497	11027.052691
502.399546	10887.299303
502.765537	10796.520725
503.131470	10874.124247
503.497345	11052.654190
503.863163	10658.809005
504.228923	10969.190327
504.594625	11035.279854
504.960269	10786.065372
505.325856	11004.087714
505.691385	10795.028544
506.056856	10949.282810
506.422270	10974.055040
506.787625	10866.839780
507.152924	10983.716412
507.518164	10961.260592
507.883347	10884.375434
508.248472	10803.154884
508.613540	11031.360357
508.978550	10919.643346
509.343503	10900.091231
509.708398	11012.564414
510.073236	11124.785540
510.438016	11128.445418
510.802738	11078.467419
511.167403	11126.774275
511.532010	11026.798112
511.896561	11253.828996
512.261053	11327.296252
512.625488	11204.158508
512.989866	11179.497183
513.354186	11175.539877
513.718449	11074.774773
514.082655	11266.318455
514.446803	11156.771661
514.810894	11282.046855
515.174927	11150.313943
515.538904	11179.550115
515.902822	11329.375728
516.266684	11213.046062
516.630488	11158.183184
516.994235	11209.736544
517.357925	11278.402101
517.721558	11363.035512
518.085133	11383.149716
518.448651	11384.346990
518.812112	11273.613005
519.175516	11288.391147
519.538863	11412.877400
519.902152	11317.723101
520.265385	11493.165337
520.628560	11388.115252
520.991678	11377.233922
521.354739	11432.502612
521.717743	11365.556089
522.080690	11347.856598
522.443580	11485.921199
522.806413	11435.242479
523.169189	11465.073507
523.531908	11521.453772
523.894569	11342.679333
524.257174	11345.212513
524.619722	11469.615587
524.982213	11415.271948
525.344647	11466.232973
525.707025	11411.518809
526.069345	11508.064467
526.431608	11427.418608
526.793815	11535.049764
527.155964	11325.224338
527.518057	11382.937987
527.880093	11328.133083
528.242072	11391.800336
528.603995	11301.687190
528.965860	11219.123173
529.327669	11277.275403
529.689421	11229.301262
530.051117	11200.024761
530.412755	11298.730554
530.774337	11192.281549
531.135862	11173.127685
531.497331	11191.636281
531.858743	11043.925433
532.220098	11215.339787
532.581396	11081.323232
532.942638	11066.391335
533.303824	11033.439833
533.664953	11037.250945
534.026025	10959.902001
534.387040	11055.409181
534.747999	11051.845085
535.108902	11110.645104
535.469748	10870.000584
535.830537	10978.188786
536.191270	10944.962541
536.551947	10974.836419
536.912567	10969.712086
537.273131	10899.040150
537.633638	10878.305885
537.994089	10864.803154
538.354483	10815.881277
538.714821	10959.057607
539.075103	10966.165634
539.435328	10934.913001
539.795497	10762.707186
540.155609	10908.943497
540.515665	11004.327169
540.875665	10746.341080
541.235609	10803.157404
541.595496	10811.069495
541.955328	10960.143976
542.315102	10843.103507
542.674821	10798.030551
543.034483	10792.659201
543.394090	10806.938270
543.753640	10733.765922
544.113134	10952.098295
544.472571	10801.458535
544.831953	10945.330546
545.191278	10751.669579
545.550548	10780.167222
545.909761	10919.020764
546.268918	10899.377908
546.628019	10974.705349
546.987064	10838.848773
547.346053	10754.444735
547.704986	10860.649243
548.063863	10843.733652
548.422684	10832.842239
548.781449	10753.005485
549.140158	10859.091527
549.498811	10725.306865
549.857408	10584.721687
550.215949	10815.901441
550.574434	10668.616570
550.932864	10772.781932
551.291237	10823.775723
551.649555	10773.132292
552.007817	10786.503953
552.366022	10747.069527
552.724173	10744.249001
553.082267	10723.786958
553.440305	10866.113854
553.798288	10662.337813
554.156215	10820.123408
554.514086	10789.858840
554.871902	10640.456684
555.229661	10679.825575
555.587365	10659.857565
555.945014	10555.203211
556.302606	10678.154433
556.660143	10574.198279
557.017625	10725.082534
557.375050	10628.423450
557.732421	10758.396999
558.089735	10668.535911
558.446994	10673.057826
558.804197	10709.326408
559.161345	10714.957377
559.518437	10561.754191
559.875474	10647.778960
560.232455	10675.404483
560.589381	10633.474686
560.946251	10624.115784
561.303065	10736.127702
561.659825	10667.820068
562.016528	10596.515467
562.373177	10478.877621
562.729770	10592.096896
563.086307	10502.944090
563.442789	10600.412279
563.799216	10480.515996
564.155587	10527.766731
564.511904	10478.466767
564.868164	10474.552311
565.224370	10486.840124
565.580520	10409.523947
565.936615	10419.550802
566.292654	10283.953846
566.648638	10414.822200
567.004567	10370.583554
567.360441	10356.738025
567.716260	10268.906002
568.072023	10360.236586
568.427732	10315.047683
568.783385	10221.413292
569.138982	10295.193099
569.494525	10307.188524
569.850013	10183.569350
570.205445	10262.165979
570.560823	10165.118727
570.916145	10080.661756
571.271412	10147.946036
571.626625	10094.713972
571.981782	10074.050282
572.336884	10045.088853
572.691931	10051.455831
573.046923	10001.989509
573.401860	9954.358167
573.756743	9883.522393
574.111570	9937.929046
574.466342	9918.182847
574.821059	9950.242064
575.175722	9835.649076
575.530330	9849.033339
575.884882	9843.727525
576.239380	9764.478066
576.593823	9745.896373
576.948211	9764.072253
577.302544	9638.474425
577.656823	9656.980501
578.011047	9660.279936
578.365216	9633.700453
578.719330	9549.364469
579.073389	9561.004494
579.427394	9511.891052
579.781344	9490.579574
580.135239	9438.852295
580.489080	9446.880332
580.842866	9347.078089
581.196597	9352.126805
581.550273	9392.408144
581.903895	9361.142908
582.257463	9428.016335
582.610975	9304.437489
582.964434	9333.187190
583.317837	9259.243545
583.671186	9230.992919
584.024481	9230.176252
584.377721	9154.599273
584.730906	9125.572310
585.084037	9158.612032
585.437113	9097.881252
585.790135	9114.869940
586.143103	9017.666412
586.496016	8990.376125
586.848874	9043.905617
587.201679	9030.581848
587.554428	8918.174199
587.907124	8966.297054
588.259765	8935.939225
588.612352	8936.539123
588.964884	8816.284918
589.317362	8833.913833
589.669786	8833.528185
590.022155	8883.712872
590.374470	8896.887927
590.726731	8830.606836
591.078937	8683.145525
591.431090	8797.741034
591.783188	8674.343670
592.135232	8666.237495
592.487222	8665.521651
592.839157	8717.989980
593.191038	8648.341398
593.542866	8596.367102
593.894639	8490.155032
594.246358	8543.145121
594.598022	8563.932318
594.949633	8456.278478
595.301190	8432.295189
595.652692	8461.606978
596.004141	8579.554854
596.355535	8347.944082
596.706876	8327.348448
597.058162	8264.076926
597.409395	8342.000562
597.760573	8397.727997
598.111698	8310.614338
598.462768	8293.310577
598.813785	8258.075432
599.164748	8222.230308
599.515657	8224.145946
599.866511	8126.460988
600.217312	8256.139629
600.568060	8109.926003
600.918753	8217.226963
601.269392	8185.064401
601.619978	8094.278262
601.970510	8157.829568
602.320988	8161.703694
602.671412	8216.077580
603.021783	8150.053588
603.372100	8123.436295
603.722363	8134.713357
604.072572	8104.836958
604.422728	8113.225438
604.772830	8038.651649
605.122878	8047.602218
605.472872	8046.896457
605.822813	8075.557937
606.172701	8021.733537
606.522534	8095.450330
606.872314	8093.111234
607.222041	8066.824138
607.571714	8119.675595
607.921333	8075.391579
608.270899	8081.874502
608.620411	8173.555447
608.969870	8079.679080
609.319276	8068.971669
609.668627	8081.980367
610.017926	8122.503682
610.367171	8160.569435
610.716362	8138.148903
611.065500	8133.664797
611.414585	8159.389805
611.763616	8148.024523
612.112594	8131.131617
612.461518	8145.584605
612.810389	8202.519396
613.159207	8145.186354
613.507971	8089.615194
613.856682	8204.646763
614.205340	8161.539857
614.553945	8241.782423
614.902496	8139.383986
615.250994	8193.374743
615.599439	8177.401847
615.947830	8191.035648
616.296169	8161.335690
616.644454	8178.977208
616.992686	8168.027822
617.340864	8230.013849
617.688990	8129.646997
618.037063	8230.132317
618.385082	8169.144437
618.733048	8258.987881
619.080961	8193.629322
619.428821	8213.415850
619.776628	8218.076397
620.124382	8167.196031
620.472083	8150.950913
620.819731	8180.804626
621.167326	8074.504336
621.514868	8081.987928
621.862357	7968.672872
622.209793	7990.768250
622.557176	7914.102382
622.904506	7889.410810
623.251783	7822.282806
623.599007	7774.301103
623.946179	7777.908049
624.293297	7739.000424
624.640363	7650.823081
624.987376	7637.280021
625.334336	7583.001918
625.681243	7530.039556
626.028097	7521.666199
626.374899	7493.443299
626.721647	7489.813668
627.068343	7419.237515
627.414987	7391.488483
627.761577	7344.338571
628.108115	7382.129581
628.454600	7271.539269
628.801032	7326.389543
629.147412	7286.927391
629.493739	7273.956502
629.840014	7210.707665
630.186236	7262.593741
630.532405	7147.957903
630.878521	7199.760800
631.224585	7152.968810
631.570597	7075.755977
631.916556	7105.771007
632.262462	7101.851510
632.608316	7063.563946
632.954117	7034.990686
633.299866	7028.323760
633.645562	7014.498396
633.991206	6935.591735
634.336797	6878.682149
634.682336	6834.773699
635.027823	6804.103319
635.373257	6794.968749
635.718639	6723.588531
636.063968	6734.109419
636.409245	6639.383618
636.754470	6625.522965
637.099642	6586.224650
637.444762	6533.262288
637.789829	6539.939296
638.134845	6482.596171
638.479808	6461.440969
638.824719	6468.929603
639.169577	6393.168622
639.514383	6414.401962
639.859137	6343.183062
640.203839	6351.342169
640.548489	6334.771896
640.893086	6312.767260
641.237632	6279.866169
641.582125	6295.173633
641.926566	6268.654643
642.270955	6282.031345
642.615292	6278.419358
642.959576	6284.483866
643.303809	6274.303256
643.647990	6277.832064
643.992118	6273.237052
644.336195	6220.083126
644.680219	6233.520321
645.024192	6229.202573
645.368112	6319.635832
645.711981	6333.047822
646.055797	6409.156642
646.399562	6364.103850
646.743274	6484.564742
647.086935	6535.558533
647.430544	6523.464805
647.774101	6541.426437
648.117606	6545.681170
648.461059	6536.029881
648.804460	6493.139744
649.147810	6405.113637
649.491108	6375.035592
649.834354	6348.262024
650.177548	6269.614983
650.520690	6181.326735
650.863781	6156.262118
651.206820	6173.031516
651.549807	6089.139155
651.892742	6032.327871
652.235626	6036.408685
652.578458	6021.476788
652.921238	5928.603610
653.263967	5964.244568
653.606644	5908.070991
653.949269	5902.026647
654.291843	5845.651424
654.634365	5889.973248
654.976836	5837.998952
655.319255	5837.482234
655.661622	5810.479293
656.003938	5798.756090
656.346203	5761.219659
656.688416	5793.667045
657.030577	5742.963120
657.372687	5714.062185
657.714746	5701.250093
658.056753	5740.626545
658.398708	5677.511299
658.740612	5669.069887
659.082465	5705.356112
659.424266	5694.560481
659.766016	5690.693916
660.107715	5665.984701
660.449362	5674.441236
660.790958	5671.237583
661.132503	5652.267721
661.473996	5679.006001
661.815438	5664.366490
662.156829	5658.009595
662.498168	5647.579448
662.839456	5623.712105
663.180693	5653.044059
663.521879	5651.503986
663.863013	5633.312983
664.204097	5648.743955
664.545129	5684.135375
664.886110	5674.945352
665.227040	5699.243713
665.567918	5666.335061
665.908746	5688.269121
666.249522	5682.602864
666.590248	5668.215411
666.930922	5688.347259
667.271545	5694.419329
667.612118	5699.336975
667.952639	5668.807747
668.293109	5680.641856
668.633528	5641.908150
668.973896	5641.124251
669.314213	5629.542200
669.654480	5602.551862
669.994695	5596.784782
670.334859	5587.733390
670.674973	5568.186316
671.015035	5574.782666
671.355047	5559.820521
671.695008	5547.089087
672.034918	5525.603690
672.374777	5523.488926
672.714585	5505.290360
673.054342	5501.663250
673.394049	5495.301314
673.733705	5512.688253
674.073310	5491.298638
674.412864	5461.759997
674.752368	5443.654693
675.091820	5442.336431
675.431223	5388.307865
675.770574	5383.175970
676.109875	5334.150749
676.449125	5337.545966
676.788324	5299.213032
677.127473	5244.483745
677.466571	5243.725052
677.805619	5225.571857
678.144616	5206.009659
678.483562	5185.303120
678.822458	5155.804808
679.161303	5136.456860
679.500098	5125.283142
679.838842	5113.872490
680.177535	5110.845278
680.516179	5118.212924
680.854771	5123.554026
681.193314	5186.946536
681.531805	5273.692191
681.870247	5386.969438
682.208638	5465.704700
682.546978	5479.162060
682.885268	5455.876970
683.223508	5376.335124
683.561697	5328.295449
683.899836	5294.600376
684.237925	5251.382564
684.575963	5217.261515
684.913951	5181.086195
685.251889	5216.606165
685.589776	5193.507598
685.927614	5167.742260
686.265401	5210.695412
686.603137	5195.710582
686.940824	5245.865022
687.278460	5264.779431
687.616046	5258.939254
687.953582	5310.898427
688.291068	5291.167351
688.628504	5328.640768
688.965889	5298.993742
689.303224	5250.502883
689.640510	5201.359195
689.977745	5137.391994
690.314930	5053.953336
690.652065	5005.744782
690.989150	4927.566568
691.326185	4857.131566
691.663170	4808.567611
692.000105	4746.460595
692.336990	4683.935164
692.673825	4647.684227
693.010610	4596.246813
693.347345	4544.146488
693.684030	4514.824617
694.020665	4479.433197
694.357251	4406.694388
694.693786	4411.208741
695.030272	4378.516858
695.366707	4345.658618
695.703093	4318.340605
696.039429	4331.765198
696.375716	4307.628153
696.711952	4289.883291
697.048139	4278.454996
697.384276	4254.217128
697.720363	4255.938682
698.056400	4254.993466
698.392388	4218.359401
698.728326	4204.569324
699.064214	4185.617106
699.400053	4170.589427
699.735842	4138.159684
700.071581	4119.489771
700.407270	4095.440946
700.742910	4081.723967
701.078501	4039.037997
701.414042	4028.486862
701.749533	3998.532325
702.084974	3959.347437
702.420366	3987.403978
702.755709	3944.266825
703.091002	3901.893406
703.426246	3922.577260
703.761440	3899.387953
704.096584	3873.703274
704.431679	3875.099673
704.766725	3861.317159
705.101721	3847.184284
705.436668	3858.806664
705.771565	3833.807582
706.106413	3848.734439
706.441212	3858.428578
706.775961	3858.070656
707.110661	3852.280891
707.445311	3874.245198
707.779913	3871.565825
708.114465	3885.358422
708.448967	3904.524888
708.783421	3937.637707
709.117825	3963.095534
709.452180	3966.092500
709.786485	4001.720855
710.120742	4053.478382
710.454949	4042.465981
710.789107	4085.580449
711.123216	4127.069146
711.457275	4127.111995
711.791286	4170.778470
712.125247	4168.262934
712.459159	4120.061942
712.793023	4174.534130
713.126837	4112.553143
713.460602	4108.366465
713.794318	4071.921443
714.127985	4058.890060
714.461602	3986.824246
714.795171	3977.150271
715.128691	3923.126746
715.462162	3876.846433
715.795584	3836.446626
716.128957	3819.780572
716.462281	3793.667395
716.795556	3765.706635
717.128782	3728.210533
717.461960	3680.601876
717.795088	3682.522555
718.128167	3653.969460
718.461198	3618.010910
718.794180	3612.667287
719.127113	3587.136363
719.459997	3571.584403
719.792833	3544.336967
720.125619	3536.863456
720.458357	3508.678365
720.791046	3506.198117
721.123686	3487.102227
721.456278	3463.837302
721.788821	3464.684215
722.121315	3445.535393
722.453761	3436.610030
722.786158	3428.105603
723.118506	3442.462809
723.450805	3419.533121
723.783056	3433.156839
724.115259	3427.266251
724.447412	3426.656271
724.779518	3430.532919
725.111574	3426.018565
725.443582	3443.324847
725.775542	3432.108279
726.107453	3461.281437
726.439315	3456.983853
726.771129	3475.772233
727.102895	3496.793845
727.434612	3514.458048
727.766281	3523.743853
728.097901	3525.956920
728.429473	3522.985160
728.760996	3524.300901
729.092471	3521.583719
729.423897	3508.670803
729.755276	3499.049761
730.086606	3500.562107
730.417887	3529.561345
730.749120	3564.819175
731.080305	3586.140735
731.411442	3606.322994
731.742530	3589.518308
732.073570	3592.555603
732.404562	3615.371866
732.735506	3603.590689
733.066401	3585.734922
733.397249	3543.936195
733.728048	3492.523988
734.058798	3428.269441
734.389501	3384.280332
734.720156	3354.030888
735.050762	3323.713389
735.381320	3313.278201
735.711831	3286.416413
736.042293	3269.417642
736.372707	3269.679782
736.703073	3252.988521
737.033391	3255.930035
737.363661	3262.912033
737.693883	3268.411932
738.024056	3277.422994
738.354182	3281.559261
738.684260	3306.432314
739.014290	3321.230621
739.344272	3318.412616
739.674207	3339.335925
740.004093	3345.166019
740.333931	3340.001357
740.663722	3332.789987
740.993464	3333.599092
741.323159	3319.579643
741.652806	3292.707773
741.982405	3276.813014
742.311956	3257.414654
742.641460	3249.268150
742.970915	3229.774008
743.300323	3205.853733
743.629683	3189.399407
743.958996	3172.211593
744.288260	3155.845487
744.617477	3135.796818
744.946647	3128.023359
745.275768	3110.616254
745.604842	3101.458998
745.933869	3086.138932
746.262847	3077.069896
746.591778	3085.223962
746.920662	3074.635019
747.249498	3064.431723
747.578286	3075.272725
747.907027	3088.934252
748.235720	3097.524378
748.564365	3100.909513
748.892963	3094.013214
749.221514	3089.508943
749.550017	3082.461410
749.878473	3071.136458
750.206881	3054.142728
750.535242	3049.908159
750.863555	3043.737787
751.191821	3041.018084
751.520039	3038.706715
751.848210	3029.274717
752.176334	3033.214378
752.504411	3033.005170
752.832440	3018.126205
753.160421	3013.684948
753.488356	3010.640091
753.816243	3008.769823
754.144082	2995.735920
754.471875	2988.627893
754.799620	2995.912360
755.127318	2988.191833
755.454969	2985.928355
755.782572	2988.983294
756.110129	2980.786378
756.437638	2977.058445
756.765100	2974.847899
757.092515	2977.703713
757.419882	2979.087509
757.747203	2969.806745
758.074477	2975.384782
758.401703	2976.839155
758.728882	2985.245279
759.056014	2984.988180
759.383099	2987.796103
759.710138	2990.215857
760.037129	3000.900582
760.364073	2999.839419
760.690970	2996.408914
761.017820	2989.111844
761.344623	2994.523523
761.671379	3009.399968
761.998088	3025.551824
762.324751	3085.294539
762.651366	3212.578632
762.977935	3458.637351
763.304456	3655.229748
763.630931	3670.673323
763.957359	3502.205523
764.283740	3340.109742
764.610074	3237.829772
764.936362	3136.258083
765.262602	3073.319278
765.588796	3020.966895
765.914943	2978.033908
766.241044	2944.522838
766.567097	2924.325455
766.893104	2904.803587
767.219064	2889.531411
767.544978	2876.860471
767.870845	2854.626462
768.196665	2848.067921
768.522438	2840.934688
768.848165	2835.003771
769.173846	2822.035402
769.499479	2817.132880
769.825066	2809.682055
770.150607	2802.906744
770.476101	2802.768112
770.801548	2795.975158
771.126949	2783.697427
771.452303	2777.027981
771.777611	2776.047477
772.102872	2773.567229
772.428087	2766.315529
772.753256	2762.201947
773.078378	2754.166348
773.403453	2742.624627
773.728482	2738.170767
774.053465	2740.958525
774.378401	2735.998030
774.703291	2727.034858
775.028135	2726.591237
775.352932	2720.831718
775.677683	2714.184957
776.002388	2714.421891
776.327046	2713.960626
776.651658	2710.388968
776.976224	2706.373689
777.300743	2705.867053
777.625216	2701.592155
777.949643	2697.758357
778.274024	2697.891948
778.598359	2690.741071
778.922647	2692.737368
779.246889	2693.203675
779.571086	2686.163703
779.895236	2688.464990
780.219339	2690.950279
780.543397	2692.381967
780.867409	2693.806093
781.191374	2695.656196
781.515294	2688.898529
781.839167	2689.853828
782.162995	2687.721420
782.486776	2689.372398
782.810511	2686.234280
783.134201	2681.026768
783.457844	2682.231603
783.781441	2676.202383
784.104993	2670.261384
784.428498	2669.157371
784.751958	2674.700120
785.075372	2671.967814
785.398739	2670.117711
785.722061	2669.243071
786.045337	2673.127280
786.368568	2670.652073
786.691752	2667.647545
787.014891	2680.978877
787.337983	2693.246525
787.661030	2710.454503
787.984031	2735.362844
788.306987	2749.573857
788.629897	2742.266705
788.952760	2733.807648
789.275579	2724.849518
789.598351	2704.861343
789.921078	2689.899198
790.243759	2679.469051
790.566395	2674.420336
790.888984	2665.908347
791.211529	2661.399035
791.534027	2657.159425
791.856480	2653.018117
792.178888	2649.673311
792.501249	2647.077117
792.823566	2646.623413
793.145836	2643.323978
793.468062	2642.754328
793.790241	2641.965387
794.112375	2639.288534
794.434464	2644.876653
794.756507	2645.388331
795.078505	2651.687252
795.400457	2655.626914
795.722364	2665.265600
796.044226	2675.867147
796.366042	2678.261695
796.687812	2673.918741
797.009538	2677.124915
797.331218	2672.416477
797.652852	2669.061589
797.974442	2658.432316
798.295986	2658.218067
798.617484	2655.069867
798.938938	2651.465442
799.260346	2645.032929
799.581709	2645.607621
799.903026	2641.269708
800.224299	2637.428349
800.545526	2633.057668
800.866708	2630.821917
801.187845	2630.153964
801.508936	2628.951648
801.829983	2629.647328
802.150984	2623.338324
802.471940	2622.380504
802.792851	2621.586523
803.113717	2623.474435
803.434538	2623.597943
803.755314	2621.014352
804.076045	2621.372274
804.396731	2617.752725
804.717372	2620.540483
805.037967	2617.518312
805.358518	2621.226080
805.679024	2625.011987
805.999485	2621.909157
806.319901	2625.823612
806.640272	2623.068622
806.960598	2624.210443
807.280879	2625.006946
807.601115	2627.840074
807.921306	2623.373612
808.241453	2622.352778
808.561554	2620.963940
808.881611	2623.023252
809.201623	2622.377984
809.521590	2620.101903
809.841513	2616.565533
810.161390	2617.941768
810.481223	2615.751387
810.801011	2614.244082
811.120755	2613.883640
811.440453	2612.313320
811.760107	2610.722836
812.079716	2606.571446
812.399281	2605.318719
812.718801	2603.408122
813.038276	2599.506269
813.357707	2603.786208
813.677093	2604.181939
813.996434	2601.358893
814.315731	2604.194542
814.634983	2599.483584
814.954191	2599.788573
815.273354	2602.518358
815.592473	2605.853082
815.911547	2607.206631
816.230577	2607.894749
816.549562	2609.417177
816.868502	2610.400202
817.187399	2613.808022
817.506250	2613.339195
817.825058	2612.943464
818.143821	2614.851541
818.462539	2618.279526
818.781213	2621.573920
819.099843	2633.294602
819.418429	2651.609114
819.736970	2667.541681
820.055466	2685.278981
820.373919	2706.056097
820.692327	2731.743296
821.010691	2777.930347
821.329011	2919.065011
821.647286	3251.317379
821.965517	3751.417484
822.283704	4021.945964
822.601847	3981.399964
822.919945	3707.221689
823.237999	3465.281592
823.556010	3253.434663
823.873976	3095.215529
824.191897	2976.236737
824.509775	2892.185579
824.827609	2826.496824
825.145398	2793.948614
825.463144	2787.959723
825.780845	2808.925882
826.098502	2840.889318
826.416116	2928.363419
826.733685	3019.603263
827.051210	3037.733773
827.368692	2990.218377
827.686129	2902.472053
828.003522	2819.305618
828.320872	2755.353540
828.638177	2714.699155
828.955439	2680.542817
829.272656	2657.557676
829.589830	2642.434214
829.906960	2635.041362
830.224046	2623.592902
830.541088	2615.746346
830.858086	2617.311624
831.175041	2608.764348
831.491952	2606.009357
831.808819	2608.267794
832.125642	2610.319544
832.442421	2624.328910
832.759157	2644.455717
833.075849	2687.703776
833.392497	2751.797006
833.709101	2797.948769
834.025662	2786.459980
834.342179	2747.605287
834.658653	2702.991075
834.975083	2667.082936
835.291469	2645.489154
835.607811	2625.453088
835.924110	2614.559154
836.240366	2601.863008
836.556578	2595.241453
836.872746	2589.494537
837.188871	2585.680904
837.504952	2581.872313
837.820990	2578.676221
838.136984	2575.316292
838.452935	2576.994996
838.768842	2574.497105
839.084706	2580.901891
839.400526	2595.841350
839.716303	2629.730507
840.032037	2649.673311
840.347727	2644.677528
840.663373	2629.072636
840.978977	2606.770572
841.294537	2591.437902
841.610054	2581.809298
841.925527	2576.712692
842.240957	2573.168761
842.556344	2568.694737
842.871687	2567.913358
843.186987	2563.986299
843.502244	2559.459343
843.817458	2558.849363
844.132629	2559.650907
844.447756	2558.481359
844.762840	2553.888868
845.077881	2553.062118
845.392879	2551.305276
845.707833	2553.268806
846.022745	2550.223949
846.337613	2553.377191
846.652438	2553.508261
846.967221	2552.487427
847.281960	2553.916594
847.596656	2554.929866
847.911309	2551.799309
848.225919	2556.308622
848.540485	2551.486758
848.855009	2552.560524
849.169490	2553.611604
849.483928	2549.823177
849.798323	2553.135215
850.112675	2550.433157
850.426984	2551.716130
850.741251	2553.173024
851.055474	2552.023641
851.369654	2548.509957
851.683792	2551.529608
851.997887	2550.163455
852.311938	2552.086655
852.625947	2552.295863
852.939914	2548.696479
853.253837	2552.815102
853.567718	2551.542211
853.881555	2549.492982
854.195350	2550.425595
854.509103	2550.602035
854.822812	2549.979453
855.136479	2552.626059
855.450103	2550.435677
855.763685	2550.133208
856.077224	2551.257385
856.390720	2549.518187
856.704173	2551.514484
857.017584	2551.854762
857.330953	2548.915769
857.644278	2552.671429
857.957561	2552.762170
858.270802	2552.361398
858.584000	2549.598846
858.897155	2552.547921
859.210268	2551.980791
859.523339	2548.283105
859.836367	2549.024154
860.149352	2551.194371
860.462295	2552.217725
860.775195	2547.804195
861.088054	2546.185985
861.400869	2549.480379
861.713642	2545.245809
862.026373	2549.994576
862.339062	2551.085986
862.651708	2552.212684
862.964312	2551.028013
863.276873	2552.310987
863.589392	2550.909546
863.901869	2552.464742
864.214303	2555.433981
864.526696	2554.143446
864.839045	2554.095555
865.151353	2552.051367
865.463619	2552.777293
865.775842	2553.261244
866.088023	2554.118240
866.400162	2553.788045
866.712258	2553.525905
867.024313	2553.243600
867.336325	2553.770401
867.648296	2552.255534
867.960224	2554.697973
868.272110	2552.850390
868.583954	2553.054557
868.895755	2555.030689
869.207515	2551.648075
869.519233	2554.861810
869.830909	2554.529094
870.142542	2556.036399
870.454134	2553.538508
870.765684	2555.411296
871.077191	2553.967006
871.388657	2558.060423
871.700081	2556.482541
872.011463	2556.918601
872.322803	2555.386090
872.634101	2557.183262
872.945357	2556.464897
873.256571	2561.448078
873.567744	2558.493962
873.878874	2557.268961
874.189963	2560.817934
874.501010	2560.442368
874.812015	2560.812892
875.122979	2556.038920
875.433900	2560.212995
875.744780	2559.650907
876.055618	2559.633262
876.366415	2560.172666
876.677169	2558.791390
876.987882	2560.112172
877.298554	2558.801472
877.609183	2561.440516
877.919771	2555.948179
878.230317	2558.980433
878.540822	2564.296330
878.851285	2567.673903
879.161707	2572.503328
879.472087	2578.217476
879.782425	2589.333220
880.092722	2609.465068
880.402977	2647.835811
880.713191	2714.734443
881.023363	2807.509318
881.333494	2869.704553
881.643583	2894.857390
881.953631	2874.586911
882.263637	2828.568738
882.573602	2784.151131
882.883526	2744.510018
883.193408	2712.528938
883.503248	2685.858714
883.813048	2660.484066
884.122806	2642.713998
884.432522	2627.315794
884.742197	2611.035388
885.051831	2603.178749
885.361424	2593.731627
885.670975	2586.328693
885.980485	2581.456417
886.289954	2577.811663
886.599382	2572.553740
886.908768	2574.113977
887.218113	2568.180539
887.527417	2566.837071
887.836680	2564.215671
888.145901	2563.005794
888.455082	2561.967317
888.764221	2558.985474
889.073319	2562.640311
889.382376	2556.558159
889.691392	2558.849363
890.000366	2559.456822
890.309300	2559.660989
890.618193	2561.586710
890.927044	2559.408931
891.235855	2557.997408
891.544625	2560.281051
891.853353	2562.481514
892.162041	2558.551935
892.470687	2564.208110
892.779293	2563.053685
893.087858	2569.980231
893.396381	2575.361662
893.704864	2582.958681
894.013306	2590.248190
894.321707	2612.814915
894.630068	2626.534415
894.938387	2632.573717
895.246665	2626.400825
895.554903	2619.028137
895.863100	2607.720829
896.171256	2598.009046
896.479371	2587.704928
896.787446	2582.383990
897.095480	2576.228741
897.403473	2573.846796
897.711425	2568.929150
898.019336	2567.116855
898.327207	2565.428069
898.635038	2563.635939
898.942827	2563.542677
899.250576	2560.270968
899.558284	2559.522357
899.865952	2560.497820
900.173579	2557.924311
900.481165	2559.724003
900.788711	2554.002294
901.096216	2558.045299
901.403681	2554.019938
901.711105	2555.013045
902.018489	2557.231153
902.325832	2555.123950
902.633135	2556.787531
902.940397	2559.519837
903.247619	2566.887483
903.554800	2579.180337
903.861941	2607.887187
904.169041	2638.499594
904.476101	2649.217087
904.783121	2649.774134
905.090100	2636.488173
905.397039	2618.677777
905.703938	2601.472319
906.010796	2591.999991
906.317614	2579.639082
906.624391	2571.240519
906.931129	2565.763306
907.237826	2561.218705
907.544483	2557.183262
907.851099	2557.165618
908.157675	2551.421223
908.464211	2552.943651
908.770707	2544.328319
909.077163	2545.671787
909.383578	2544.814791
909.689954	2545.586087
909.996289	2544.222455
910.302584	2547.264792
910.608839	2548.023485
910.915054	2548.678835
911.221229	2546.206149
911.527363	2547.809236
911.833458	2546.266643
912.139513	2547.340409
912.445527	2546.531304
912.751502	2549.704710
913.057436	2546.352343
913.363331	2552.936090
913.669186	2551.753939
913.975000	2553.853580
914.280775	2561.397666
914.586510	2566.529561
914.892205	2576.309399
915.197859	2588.365319
915.503475	2603.647577
915.809050	2615.307766
916.114585	2627.341000
916.420081	2632.553553
916.725536	2627.608181
917.030952	2621.001749
917.336328	2610.654781
917.641665	2599.828903
917.946961	2591.879003
918.252218	2583.634196
918.557435	2579.313927
918.862612	2574.255129
919.167750	2566.191804
919.472848	2562.932698
919.777906	2560.230639
920.082925	2561.619477
920.387904	2557.102603
920.692843	2555.310473
920.997743	2554.254351
921.302603	2552.794937
921.607423	2551.653116
921.912204	2553.140256
922.216946	2549.679504
922.521647	2548.671273
922.826310	2550.639844
923.130932	2547.234545
923.435516	2546.312013
923.740059	2545.341591
924.044564	2543.796478
924.349028	2543.430994
924.653454	2540.055942
924.957840	2542.878988
925.262186	2540.421425
925.566493	2540.398740
925.870761	2538.866229
926.174989	2543.209183
926.479178	2544.466951
926.783328	2542.480737
927.087438	2541.127187
927.391509	2541.291024
927.695541	2540.050900
927.999533	2541.903524
928.303486	2540.486960
928.607400	2539.299768
928.911275	2539.002340
929.215110	2541.540561
929.518906	2539.788760
929.822663	2539.566950
930.126381	2542.899152
930.430060	2542.047197
930.733699	2539.819007
931.037299	2540.577701
931.340861	2538.193235
931.644383	2539.677855
931.947866	2540.050900
932.251309	2540.197094
932.554714	2540.060983
932.858080	2540.882691
933.161407	2541.260777
933.464694	2539.360262
933.767943	2539.607279
934.071153	2539.647608
934.374323	2538.689789
934.677455	2540.343287
934.980548	2538.546116
935.283602	2538.694830
935.586617	2537.598379
935.889593	2539.345139
936.192530	2535.770961
936.495428	2540.181970
936.798287	2541.903524
937.101108	2541.250695
937.403890	2536.955632
937.706632	2540.975952
938.009336	2542.044677
938.312002	2544.592980
938.614628	2544.535007
938.917216	2544.943340
939.219765	2543.564585
939.522275	2544.013247
939.824747	2543.257074
940.127179	2540.751621
940.429573	2535.155940
940.731929	2542.057280
941.034246	2536.169212
941.336524	2542.581560
941.638763	2542.453010
941.940964	2543.105840
942.243126	2542.836138
942.545250	2541.212886
942.847335	2542.148020
943.149381	2539.791281
943.451389	2538.994779
943.753359	2538.089892
944.055290	2540.434028
944.357182	2542.460572
944.659036	2539.130890
944.960851	2538.200797
945.262628	2540.403781
945.564367	2540.484440
945.866067	2537.232895
946.167729	2538.364634
946.469352	2539.519059
946.770937	2537.525282
947.072484	2540.928061
947.373992	2540.328164
947.675462	2541.230530
947.976893	2540.287835
948.278286	2539.035108
948.579641	2540.348328
948.880958	2540.960829
949.182236	2538.094933
949.483476	2536.612833
949.784678	2538.039480
950.085841	2538.820859
950.386967	2539.607279
950.688054	2539.574511
950.989103	2541.646426
951.290114	2538.168029
951.591087	2538.785571
951.892021	2539.380427
952.192917	2538.788091
952.493776	2539.304810
952.794596	2538.893956
953.095378	2542.584080
953.396122	2538.921682
953.696828	2539.912269
953.997496	2541.525438
954.298126	2537.918492
954.598718	2539.279604
954.899272	2539.655170
955.199788	2538.699871
955.500266	2540.527289
955.800706	2537.875642
956.101108	2533.124355
956.401472	2533.918337
956.701798	2530.749972
957.002087	2533.391536
957.302337	2535.047555
957.602550	2535.839016
957.902724	2533.510003
958.202861	2534.341794
958.502960	2535.118131
958.803022	2534.823224
959.103045	2536.491846
959.403031	2534.941691
959.702979	2533.457071
960.002889	2535.544109
960.302762	2535.463450
960.602596	2536.622916
960.902393	2534.803059
961.202153	2535.491177
961.501875	2534.767771
961.801559	2535.019829
962.101205	2532.663089
962.400814	2534.414890
962.700385	2535.927237
962.999918	2532.131248
963.299414	2534.346835
963.598873	2534.495549
963.898293	2532.826927
964.197677	2533.464633
964.497022	2534.281300
964.796331	2532.181659
965.095601	2533.300795
965.394835	2535.148378
965.694030	2532.567307
965.993189	2532.685775
966.292309	2532.418593
966.591393	2534.873635
966.890439	2531.906916
967.189447	2534.450178
967.488419	2531.697708
967.787353	2532.980682
968.086249	2531.092770
968.385108	2534.223327
968.683930	2530.966741
968.982714	2531.329704
969.281462	2534.803059
969.580172	2531.841381
969.878844	2533.157123
970.177480	2533.759540
970.476078	2532.111083
970.774639	2534.424973
971.073162	2531.700229
971.371649	2531.198634
971.670098	2529.250228
971.968510	2530.230733
972.266885	2529.734179
972.565223	2532.544622
972.863524	2531.911957
973.161788	2532.330373
973.460014	2531.927081
973.758204	2531.969931
974.056356	2531.092770
974.354471	2533.169725
974.652550	2532.665610
974.950591	2534.772812
975.248595	2533.394057
975.546563	2534.515713
975.844493	2529.116638
976.142386	2536.897659
976.440243	2533.817514
976.738062	2533.643594
977.035845	2533.298275
977.333590	2531.548994
977.631299	2532.138809
977.928971	2529.076308
978.226606	2531.120496
978.524204	2533.595703
978.821765	2532.678213
979.119290	2532.879859
979.416777	2531.458254
979.714228	2534.893800
980.011642	2532.829447
980.309020	2535.521424
980.606360	2532.395908
980.903664	2529.310722
981.200931	2532.645445
981.498162	2534.808100
981.795356	2532.874818
982.092513	2536.123842
982.389633	2534.863553
982.686717	2534.722401
982.983764	2533.867925
983.280775	2537.777340
983.577749	2536.209541
983.874686	2533.749458
984.171587	2535.168543
984.468451	2535.617206
984.765279	2534.283820
985.062070	2534.374561
985.358824	2531.841381
985.655543	2533.673841
985.952224	2532.267359
986.248869	2530.364323
986.545478	2528.128572
986.842050	2529.197296
987.138586	2527.258973
987.435086	2529.136802
987.731549	2528.287368
988.027975	2533.363810
988.324366	2530.467667
988.620719	2530.024045
988.917037	2530.568490
989.213318	2532.647966
989.509563	2529.714014
989.805772	2529.958510
990.101944	2531.097811
990.398080	2530.117307
990.694180	2529.335928
990.990244	2532.290044
991.286271	2531.284334
991.582262	2532.148892
991.878217	2531.808614
992.174136	2532.418593
992.470019	2531.546474
992.765865	2532.448840
993.061676	2529.509848
993.357450	2531.894313
993.653188	2529.822399
993.948890	2530.704601
994.244556	2531.896834
994.540186	2529.882893
994.835780	2531.465815
995.131337	2530.460105
995.426859	2531.428007
995.722345	2529.981196
996.017795	2531.120496
996.313208	2531.400280
996.608586	2532.516896
996.903928	2531.309540
997.199234	2531.962369
997.494504	2530.878521
997.789738	2529.098994
998.084936	2531.601927
998.380099	2528.846936
998.675225	2531.420445
998.970316	2532.592513
999.265371	2530.210568
999.560390	2530.452543
999.855373	2531.712832
1000.150320	2529.288037
1000.445232	2529.212420
1000.740108	2528.604961
1001.034948	2530.739889
1001.329752	2528.914992
1001.624521	2529.711494
1001.919254	2526.210412
1002.213951	2529.577903
1002.508613	2526.011287
1002.803239	2530.772657
1003.097829	2524.216636
1003.392384	2528.509179
1003.686903	2531.337266
1003.981386	2529.842564
1004.275834	2530.475229
1004.570246	2534.775333
1004.864623	2527.397604
1005.158964	2531.317101
1005.453270	2528.695701
1005.747540	2530.379447
1006.041775	2526.848118
1006.335974	2528.322656
1006.630138	2529.162008
1006.924266	2530.840712
1007.218359	2530.475229
1007.512416	2530.079498
1007.806438	2529.348531
1008.100425	2530.944056
1008.394376	2530.268541
1008.688292	2529.436751
1008.982172	2529.746782
1009.276017	2530.790301
1009.569827	2527.047244
1009.863602	2532.869777
1010.157341	2527.740403
1010.451045	2526.137316
1010.744714	2526.787625
1011.038347	2529.111597
1011.331945	2529.928263
1011.625508	2526.883407
1011.919036	2527.180835
1012.212528	2528.257121
1012.505986	2527.485824
1012.799408	2531.047400
1013.092795	2525.912984
1013.386147	2529.071267
1013.679464	2530.916330
1013.972745	2530.134951
1014.265992	2528.652852
1014.559204	2529.787111
1014.852380	2526.643952
1015.145521	2527.581606
1015.438628	2530.288706
1015.731699	2528.110928
1016.024736	2526.999353
1016.317737	2531.533871
1016.610703	2529.711494
1016.903635	2525.081194
1017.196531	2526.795186
1017.489393	2526.772501
1017.782219	2523.097500
1018.075011	2525.169414
1018.367768	2530.407173
1018.660490	2530.782739
1018.953177	2530.782739
1019.245829	2530.782739
