Dividing Wavelength (nm)	Counts (n)	Blue Motor Position (mm): 0.000000	Red Motor Position (mm): 16.800000	
326.493990	2131.160391
326.888308	2131.160391
327.282561	2131.160391
327.676750	2097.684609
328.070874	2096.109249
328.464933	2098.443303
328.858929	2103.791967
329.252859	2112.979470
329.646726	2123.664196
330.040528	2140.673049
330.434265	2158.687612
330.827938	2176.137566
331.221547	2190.971161
331.615091	2209.852803
332.008571	2228.126986
332.401986	2249.239338
332.795338	2269.807246
333.188625	2288.696449
333.581847	2305.450724
333.975006	2324.718014
334.368100	2342.762824
334.761129	2362.549353
335.154095	2374.731301
335.546996	2395.500855
335.939833	2410.825963
336.332606	2424.469846
336.725315	2436.659356
337.117960	2448.649740
337.510540	2453.340534
337.903056	2465.081381
338.295508	2472.217134
338.687896	2480.666108
339.080220	2491.847387
339.472480	2496.036586
339.864676	2503.051352
340.256807	2506.499501
340.648875	2510.081241
341.040879	2510.653412
341.432818	2512.188443
341.824694	2514.739267
342.216506	2514.217508
342.608253	2512.826149
342.999937	2512.380007
343.391557	2514.741788
343.783113	2511.785151
344.174605	2513.027795
344.566033	2510.532424
344.957397	2509.670387
345.348697	2508.510921
345.739934	2507.863133
346.131106	2504.843482
346.522215	2503.038749
346.913260	2500.195538
347.304241	2498.322749
347.695159	2498.373161
348.086012	2492.911071
348.476802	2495.333345
348.867528	2491.996101
349.258191	2493.763026
349.648789	2492.013745
350.039324	2489.339413
350.429796	2487.345637
350.820203	2486.382777
351.210548	2485.987046
351.600828	2487.506954
351.991045	2482.138125
352.381198	2484.888074
352.771288	2481.933958
353.161314	2483.257261
353.551276	2483.043012
353.941175	2482.894298
354.331010	2481.535707
354.720782	2482.458238
355.110490	2485.220791
355.500135	2482.138125
355.889717	2484.847745
356.279235	2483.763897
356.668689	2486.075266
357.058080	2482.995121
357.447408	2482.601911
357.836672	2480.323310
358.225873	2484.464617
358.615010	2482.601911
359.004084	2487.184320
359.393095	2484.235245
359.782043	2487.264978
360.170927	2486.266830
360.559748	2488.409320
360.948505	2488.051398
361.337199	2489.359578
361.725830	2492.532984
362.114398	2492.628766
362.502903	2492.096924
362.891344	2491.986019
363.279722	2493.581544
363.668037	2494.375526
364.056289	2495.489621
364.444478	2494.761174
364.832603	2494.352841
365.220665	2495.537512
365.608665	2492.782521
365.996601	2497.753099
366.384474	2496.797800
366.772284	2502.053203
367.160031	2498.582369
367.547715	2502.796773
367.935336	2505.254336
368.322893	2506.885149
368.710388	2512.632065
369.097820	2520.380318
369.485189	2520.188754
369.872495	2527.314425
370.259738	2531.158305
370.646918	2539.672814
371.034035	2547.678166
371.421090	2556.043961
371.808081	2566.834551
372.195010	2577.592373
372.581875	2590.643920
372.968678	2602.944336
373.355418	2613.699638
373.742096	2631.666310
374.128710	2648.236582
374.515262	2662.210661
374.901751	2678.642302
375.288177	2690.181503
375.674540	2711.568598
376.060841	2731.624829
376.447079	2749.208373
376.833254	2769.685540
377.219367	2779.878753
377.605417	2819.696307
377.991404	2828.903975
378.377329	2851.349712
378.763191	2868.648432
379.148991	2905.907600
379.534727	2931.241918
379.920402	2959.240487
380.306013	2972.949905
380.691563	3020.634179
381.077049	3040.917261
381.462474	3058.992318
381.847835	3099.339193
382.233134	3122.846094
382.618371	3124.585292
383.003545	3185.363963
383.388657	3195.458874
383.773706	3227.369377
384.158693	3242.187849
384.543618	3267.786828
384.928480	3308.347952
385.313280	3353.176413
385.698017	3352.100127
386.082692	3405.649783
386.467305	3409.836462
386.851856	3441.815021
387.236344	3461.838484
387.620770	3497.381139
388.005133	3518.427957
388.389435	3547.795198
388.773674	3558.449677
389.157851	3597.173300
389.541965	3613.448665
389.926018	3580.318202
390.310008	3650.755724
390.693936	3670.096111
391.077802	3709.263356
391.461606	3696.796582
391.845348	3762.233280
392.229027	3759.611880
392.612645	3773.540588
392.996200	3853.001776
393.379694	3890.497878
393.763125	3955.649750
394.146494	3923.449380
394.529801	3984.565809
394.913047	4031.675391
395.296230	3998.116430
395.679351	4052.553330
396.062410	4074.391608
396.445408	4055.590625
396.828343	4086.777723
397.211217	4105.853450
397.594028	4029.810164
397.976778	4093.726954
398.359466	4120.976911
398.742092	4145.184532
399.124656	4067.092018
399.507158	4140.876866
399.889598	4159.168693
400.271977	4219.067683
400.654294	4181.624513
401.036549	4184.956715
401.418742	4149.895490
401.800874	4235.227101
402.182944	4248.959204
402.564952	4301.583809
402.946898	4278.336528
403.328783	4258.978498
403.710606	4164.585413
404.092367	4325.993076
404.474067	4278.142444
404.855705	4269.020476
405.237282	4183.129297
405.618797	4259.200308
406.000250	4268.662554
406.381642	4316.858506
406.762972	4256.830966
407.144240	4243.776898
407.525447	4217.668763
407.906593	4240.903441
408.287677	4249.233947
408.668700	4156.375893
409.049661	4167.002646
409.430560	4167.045496
409.811399	4079.626847
410.192176	4160.348323
410.572891	4085.008278
410.953545	4113.258905
411.334138	3998.459229
411.714669	4006.000795
412.095139	3900.905340
412.475547	3949.323102
412.855894	3893.688928
413.236180	3861.491079
413.616405	3794.342909
413.996568	3800.135195
414.376670	3729.223805
414.756711	3665.218795
415.136691	3639.798777
415.516609	3636.146461
415.896466	3614.875312
416.276262	3583.688214
416.655997	3533.014535
417.035670	3563.740368
417.415283	3553.557237
417.794834	3487.891167
418.174324	3434.948969
418.553753	3358.028523
418.933121	3377.237840
419.312428	3354.925693
419.691674	3292.032258
420.070859	3285.841721
420.449983	3224.216136
420.829045	3211.724157
421.208047	3154.134015
421.586988	3128.441774
421.965867	3096.967330
422.344686	3083.809919
422.723444	3028.279089
423.102141	2962.187041
423.480777	2982.802840
423.859352	2916.526790
424.237866	2923.513829
424.616319	2893.967627
424.994712	2884.507902
425.373044	2841.469051
425.751314	2829.518995
426.129524	2790.213119
426.507673	2781.602828
426.885762	2770.388781
427.263789	2742.609503
427.641756	2719.868858
428.019662	2709.879812
428.397508	2695.091587
428.775292	2674.924451
429.153016	2664.675785
429.530679	2649.476706
429.908282	2642.787095
430.285824	2627.958541
430.663305	2626.083232
431.040726	2608.383741
431.418086	2599.223964
431.795385	2596.610126
432.172624	2588.839187
432.549802	2584.334916
432.926920	2578.242682
433.303977	2575.170099
433.680974	2568.735066
434.057910	2565.536454
434.434786	2560.830537
434.811601	2561.690053
435.188355	2558.534291
435.565050	2556.071687
435.941683	2550.970040
436.318257	2553.450287
436.694770	2548.494833
437.071222	2548.436860
437.447614	2545.313865
437.823946	2544.378731
438.200218	2547.834442
438.576429	2545.507949
438.952580	2545.442414
439.328670	2545.139945
439.704700	2543.025181
440.080670	2541.747249
440.456580	2541.371683
440.832429	2545.583567
441.208218	2542.750438
441.583947	2541.596014
441.959616	2542.085006
442.335224	2541.807743
442.710773	2541.878319
443.086261	2541.147351
443.461689	2540.403781
443.837057	2541.895963
444.212365	2542.478216
444.587612	2538.460416
444.962800	2541.830428
445.337927	2540.476878
445.712995	2541.648946
446.088002	2538.581404
446.462949	2541.873277
446.837837	2541.041487
447.212664	2539.556867
447.587431	2540.935623
447.962139	2544.615665
448.336786	2547.239586
448.711374	2546.485933
449.085901	2543.839328
449.460369	2542.526107
449.834776	2542.710109
450.209124	2543.136087
450.583412	2543.635161
450.957640	2547.537014
451.331808	2542.188350
451.705917	2539.927392
452.079965	2543.415871
452.453954	2541.719522
452.827883	2543.753628
453.201752	2546.150697
453.575562	2541.432177
453.949311	2541.424615
454.323001	2543.123484
454.696632	2543.176416
455.070202	2543.224307
455.443713	2545.447456
455.817164	2543.206663
456.190556	2541.472506
456.563888	2545.202960
456.937160	2540.721374
457.310373	2546.024668
457.683526	2544.719009
458.056619	2545.424770
458.429653	2544.378731
458.802628	2543.730943
459.175542	2542.967208
459.548398	2548.454504
459.921194	2545.281097
460.293930	2545.835624
460.666607	2550.476007
461.039224	2550.173537
461.411782	2552.313507
461.784280	2550.506253
462.156719	2550.798640
462.529099	2548.260419
462.901419	2549.170348
463.273680	2548.106664
463.645882	2551.302756
464.018024	2550.637323
464.390106	2548.532642
464.762130	2552.772252
465.134094	2552.013558
465.505999	2558.289795
465.877845	2561.455640
466.249631	2566.446382
466.621358	2563.898079
466.993026	2562.761298
467.364634	2566.101063
467.736184	2559.703839
468.107674	2558.619991
468.479105	2561.153170
468.850477	2559.766853
469.221790	2560.974209
469.593043	2557.221070
469.964238	2556.903478
470.335373	2559.262738
470.706449	2558.829198
471.077467	2557.200906
471.448425	2565.049982
471.819324	2569.266907
472.190164	2567.389078
472.560945	2565.738100
472.931667	2560.031514
473.302330	2558.133519
473.672934	2558.584702
474.043479	2558.413303
474.413965	2559.958417
474.784393	2553.846018
475.154761	2556.197716
475.525070	2552.757129
475.895321	2556.006152
476.265513	2557.490772
476.635645	2560.197872
477.005719	2558.746019
477.375734	2561.208623
477.745691	2560.996895
478.115588	2563.341031
478.485427	2564.921433
478.855207	2564.989488
479.224928	2570.761610
479.594591	2574.487022
479.964194	2572.815880
480.333739	2570.872515
480.703226	2573.057855
481.072653	2572.939388
481.442022	2574.910479
481.811333	2572.626837
482.180584	2571.084243
482.549777	2571.432083
482.918912	2569.960066
483.287988	2569.035014
483.657005	2569.327401
484.025964	2569.922257
484.394864	2567.689026
484.763706	2571.301013
485.132489	2567.532751
485.501213	2565.914540
485.869879	2566.685837
486.238487	2565.798594
486.607036	2566.327915
486.975527	2568.367062
487.343959	2564.863460
487.712333	2566.267421
488.080648	2565.289437
488.448905	2565.780950
488.817104	2564.482852
489.185244	2563.923284
489.553326	2565.125600
489.921350	2570.819583
490.289315	2573.398133
490.657222	2572.858730
491.025070	2574.265212
491.392861	2571.691702
491.760593	2572.347052
492.128267	2571.510221
492.495883	2570.691033
492.863440	2567.810014
493.230939	2565.246587
493.598380	2569.294634
493.965763	2562.597461
494.333088	2564.203068
494.700354	2562.746175
495.067563	2565.833882
495.434713	2561.659806
495.801805	2566.002760
496.168839	2567.366392
496.535815	2564.147616
496.902733	2563.991340
497.269593	2566.043090
497.636395	2565.685168
498.003139	2564.843295
498.369825	2567.562997
498.736453	2566.380847
499.103023	2566.579972
499.469535	2564.896227
499.835989	2564.719787
500.202385	2564.714746
500.568723	2563.227605
500.935003	2568.291444
501.301226	2566.519479
501.667390	2565.841443
502.033497	2568.810683
502.399546	2567.772205
502.765537	2564.263562
503.131470	2564.540826
503.497345	2566.085939
503.863163	2565.710373
504.228923	2567.157185
504.594625	2566.937894
504.960269	2564.495455
505.325856	2567.194993
505.691385	2564.712225
506.056856	2567.384037
506.422270	2566.978224
506.787625	2562.917574
507.152924	2564.457647
507.518164	2567.822617
507.883347	2563.454457
508.248472	2566.123748
508.613540	2567.525189
508.978550	2567.149623
509.343503	2567.636094
509.708398	2569.690364
510.073236	2570.287741
510.438016	2569.634912
510.802738	2566.506876
511.167403	2566.416135
511.532010	2563.363716
511.896561	2571.537947
512.261053	2568.079716
512.625488	2567.353790
512.989866	2566.088460
513.354186	2564.981927
513.718449	2563.388922
514.082655	2566.325394
514.446803	2569.546692
514.810894	2568.518296
515.174927	2570.819583
515.538904	2567.825137
515.902822	2568.803121
516.266684	2567.724314
516.630488	2566.169118
516.994235	2572.268915
517.357925	2569.652556
517.721558	2567.694068
518.085133	2571.943760
518.448651	2567.689026
518.812112	2567.915878
519.175516	2569.350087
519.538863	2566.274983
519.902152	2570.343194
520.265385	2568.997206
520.628560	2567.457133
520.991678	2569.768502
521.354739	2568.843451
521.717743	2568.707339
522.080690	2571.351425
522.443580	2568.586352
522.806413	2567.794891
523.169189	2570.542319
523.531908	2567.235322
523.894569	2571.031311
524.257174	2568.563667
524.619722	2570.113821
524.982213	2570.703636
525.344647	2571.076682
525.707025	2572.624316
526.069345	2571.258163
526.431608	2566.706001
526.793815	2570.565005
527.155964	2570.159192
527.518057	2569.463512
527.880093	2569.231619
528.242072	2569.869325
528.603995	2569.826476
528.965860	2568.170457
529.327669	2570.275138
529.689421	2567.646177
530.051117	2569.859243
530.412755	2569.531568
530.774337	2568.866136
531.135862	2568.661969
531.497331	2567.384037
531.858743	2566.990827
532.220098	2568.193142
532.581396	2564.021587
532.942638	2566.980744
533.303824	2568.268759
533.664953	2569.839078
534.026025	2570.897721
534.387040	2569.602144
534.747999	2569.977710
535.108902	2567.202555
535.469748	2564.934036
535.830537	2571.424521
536.191270	2566.181721
536.551947	2569.617268
536.912567	2568.833368
537.273131	2566.721125
537.633638	2566.479149
537.994089	2568.457802
538.354483	2565.702812
538.714821	2568.997206
539.075103	2571.318657
539.435328	2570.060889
539.795497	2569.375292
540.155609	2567.101732
540.515665	2568.598955
540.875665	2566.532082
541.235609	2568.220868
541.595496	2568.634243
541.955328	2567.303378
542.315102	2570.073492
542.674821	2570.401167
543.034483	2569.067782
543.394090	2570.822103
543.753640	2569.017370
544.113134	2567.447051
544.472571	2569.213975
544.831953	2568.714901
545.191278	2567.005950
545.550548	2568.198183
545.909761	2567.008471
546.268918	2569.501321
546.628019	2569.670200
546.987064	2566.917730
547.346053	2569.917216
547.704986	2569.536609
548.063863	2566.277503
548.422684	2568.956877
548.781449	2567.328584
549.140158	2568.876218
549.498811	2566.259859
549.857408	2564.939077
550.215949	2565.637277
550.574434	2562.078222
550.932864	2565.559139
551.291237	2563.177194
551.649555	2567.895714
552.007817	2565.511248
552.366022	2570.171795
552.724173	2569.118193
553.082267	2566.368244
553.440305	2565.914540
553.798288	2568.793039
554.156215	2568.170457
554.514086	2568.477967
554.871902	2568.775395
555.229661	2568.223389
555.587365	2567.200034
555.945014	2567.570559
556.302606	2570.653225
556.660143	2565.070147
557.017625	2567.946125
557.375050	2570.685992
557.732421	2567.832699
558.089735	2569.483677
558.446994	2568.440158
558.804197	2568.694737
559.161345	2569.652556
559.518437	2568.044428
559.875474	2566.438820
560.232455	2567.129458
560.589381	2565.496124
560.946251	2570.091136
561.303065	2568.319171
561.659825	2567.885631
562.016528	2564.901268
562.373177	2564.654252
562.729770	2568.102401
563.086307	2569.392936
563.442789	2566.756413
563.799216	2567.661300
564.155587	2568.311609
564.511904	2568.404870
564.868164	2566.680796
565.224370	2569.256825
565.580520	2567.247925
565.936615	2566.537123
566.292654	2565.400342
566.648638	2565.796073
567.004567	2569.276990
567.360441	2568.737586
567.716260	2563.651062
568.072023	2566.932853
568.427732	2565.657441
568.783385	2563.792214
569.138982	2562.423541
569.494525	2565.019735
569.850013	2563.015877
570.205445	2564.510579
570.560823	2566.068295
570.916145	2565.332287
571.271412	2564.550908
571.626625	2565.339849
571.981782	2565.037379
572.336884	2568.135168
572.691931	2567.447051
573.046923	2563.635939
573.401860	2565.128120
573.756743	2564.331618
574.111570	2563.895558
574.466342	2568.331773
574.821059	2565.385219
575.175722	2563.714077
575.530330	2566.000240
575.884882	2567.615930
576.239380	2564.954200
576.593823	2566.532082
576.948211	2564.795404
577.302544	2565.728018
577.656823	2562.892368
578.011047	2564.066957
578.365216	2562.957903
578.719330	2566.176680
579.073389	2563.310784
579.427394	2561.170814
579.781344	2563.136864
580.135239	2564.671896
580.489080	2567.298337
580.842866	2561.949673
581.196597	2566.917730
581.550273	2564.434962
581.903895	2564.069478
582.257463	2566.287586
582.610975	2564.127451
582.964434	2563.547718
583.317837	2566.716084
583.671186	2564.200548
584.024481	2562.277348
584.377721	2560.984292
584.730906	2562.153839
585.084037	2563.696433
585.437113	2558.541853
585.790135	2561.523695
586.143103	2561.977399
586.496016	2564.245918
586.848874	2556.374157
587.201679	2561.034703
587.554428	2558.123437
587.907124	2561.259035
588.259765	2556.734599
588.612352	2563.141906
588.964884	2561.896741
589.317362	2564.717266
589.669786	2562.657955
590.022155	2563.819941
590.374470	2563.179714
590.726731	2562.118551
591.078937	2562.726010
591.431090	2565.002091
591.783188	2561.611915
592.135232	2560.044117
592.487222	2561.455640
592.839157	2565.208779
593.191038	2560.994374
593.542866	2558.274672
593.894639	2559.177038
594.246358	2561.407749
594.598022	2558.549414
594.949633	2561.475804
595.301190	2558.942624
595.652692	2563.673747
596.004141	2562.403377
596.355535	2558.695608
596.706876	2558.473797
597.058162	2557.818447
597.409395	2559.897923
597.760573	2559.592933
598.111698	2560.104610
598.462768	2559.398849
598.813785	2561.687533
599.164748	2560.752399
599.515657	2556.875751
599.866511	2559.958417
600.217312	2558.877089
600.568060	2559.764333
600.918753	2560.505382
601.269392	2561.032183
601.619978	2558.685526
601.970510	2557.372305
602.320988	2559.809703
602.671412	2560.447409
603.021783	2557.503375
603.372100	2561.306926
603.722363	2559.262738
604.072572	2559.802141
604.422728	2560.727193
604.772830	2557.379867
605.122878	2552.046326
605.472872	2555.991029
605.822813	2556.432130
606.172701	2556.984136
606.522534	2558.751061
606.872314	2560.056719
607.222041	2557.727706
607.571714	2558.022614
607.921333	2559.681153
608.270899	2559.096380
608.620411	2557.400031
608.969870	2559.794579
609.319276	2562.579817
609.668627	2565.274314
610.017926	2566.605178
610.367171	2565.985116
610.716362	2567.610888
611.065500	2562.927657
611.414585	2562.791545
611.763616	2563.719118
612.112594	2562.519323
612.461518	2562.632749
612.810389	2563.651062
613.159207	2560.379353
613.507971	2560.855742
613.856682	2559.693756
614.205340	2559.406411
614.553945	2563.628377
614.902496	2559.587892
615.250994	2560.586041
615.599439	2559.633262
615.947830	2560.248283
616.296169	2558.932542
616.644454	2562.284909
616.992686	2557.770556
617.340864	2560.724672
617.688990	2559.978582
618.037063	2561.569066
618.385082	2559.270299
618.733048	2560.646534
619.080961	2559.048489
619.428821	2559.897923
619.776628	2560.376833
620.124382	2560.152501
620.472083	2558.030176
620.819731	2557.873900
621.167326	2556.205278
621.514868	2559.963458
621.862357	2559.136709
622.209793	2558.022614
622.557176	2558.803993
622.904506	2555.703683
623.251783	2553.341903
623.599007	2554.342572
623.946179	2555.638148
624.293297	2555.249979
624.640363	2558.670402
624.987376	2556.341389
625.334336	2556.931204
625.681243	2555.126471
626.028097	2553.599001
626.374899	2556.633776
626.721647	2553.712427
627.068343	2555.323076
627.414987	2555.071018
627.761577	2556.323745
628.108115	2554.934907
628.454600	2555.610422
628.801032	2555.058415
629.147412	2556.613611
629.493739	2557.258879
629.840014	2556.442212
630.186236	2558.435988
630.532405	2556.066646
630.878521	2554.889537
631.224585	2556.429609
631.570597	2551.035575
631.916556	2554.899619
632.262462	2557.011862
632.608316	2558.756102
632.954117	2554.849207
633.299866	2555.249979
633.645562	2554.075390
633.991206	2555.386090
634.336797	2552.676470
634.682336	2555.350802
635.027823	2552.053888
635.373257	2553.465411
635.718639	2553.989691
636.063968	2553.263765
636.409245	2553.636810
636.754470	2552.069011
637.099642	2551.005328
637.444762	2555.837274
637.789829	2552.071532
638.134845	2550.634803
638.479808	2552.099258
638.824719	2553.495658
639.169577	2552.608415
639.514383	2549.462735
639.859137	2553.377191
640.203839	2550.720503
640.548489	2551.852242
640.893086	2548.260419
641.237632	2548.482230
641.582125	2548.220090
641.926566	2547.589946
642.270955	2551.348126
642.615292	2551.479196
642.959576	2552.101779
643.303809	2549.896274
643.647990	2549.911397
643.992118	2552.890719
644.336195	2555.673436
644.680219	2550.758311
645.024192	2553.719989
645.368112	2550.594474
645.711981	2553.558672
646.055797	2551.980791
646.399562	2552.222766
646.743274	2550.176058
647.086935	2552.144628
647.430544	2550.584391
647.774101	2552.525236
648.117606	2555.194527
648.461059	2552.144628
648.804460	2556.394321
649.147810	2552.157231
649.491108	2551.932900
649.834354	2550.513815
650.177548	2550.609597
650.520690	2552.442057
650.863781	2551.080945
651.206820	2551.932900
651.549807	2552.479865
651.892742	2550.959957
652.235626	2548.782179
652.578458	2548.925852
652.921238	2551.809392
653.263967	2552.217725
653.606644	2547.758825
653.949269	2552.885678
654.291843	2548.787220
654.634365	2550.886861
654.976836	2550.964998
655.319255	2551.166645
655.661622	2549.190512
656.003938	2548.830070
656.346203	2549.203115
656.688416	2551.118754
657.030577	2550.712941
657.372687	2548.598177
657.714746	2549.745039
658.056753	2549.886192
658.398708	2543.995603
658.740612	2546.793444
659.082465	2546.405275
659.424266	2549.422405
659.766016	2548.333516
660.107715	2549.140101
660.449362	2549.253527
660.790958	2549.994576
661.132503	2549.061963
661.473996	2551.693445
661.815438	2551.234700
662.156829	2551.864844
662.498168	2549.573640
662.839456	2549.356870
663.180693	2547.347971
663.521879	2548.336037
663.863013	2546.097764
664.204097	2549.359391
664.545129	2549.929041
664.886110	2549.089689
665.227040	2550.448280
665.567918	2551.882488
665.908746	2550.118085
666.249522	2550.221428
666.590248	2551.169165
666.930922	2549.767724
667.271545	2548.416695
667.612118	2551.829556
667.952639	2549.283774
668.293109	2551.068342
668.633528	2550.402910
668.973896	2547.209339
669.314213	2548.620862
669.654480	2550.052550
669.994695	2547.710934
670.334859	2551.728733
670.674973	2550.954916
671.015035	2550.453321
671.355047	2547.393341
671.695008	2550.294525
672.034918	2546.594318
672.374777	2549.016593
672.714585	2548.736808
673.054342	2549.989535
673.394049	2551.217056
673.733705	2551.141439
674.073310	2550.634803
674.412864	2547.559699
674.752368	2546.211190
675.091820	2550.798640
675.431223	2549.498023
675.770574	2547.501726
676.109875	2546.801005
676.449125	2548.562889
676.788324	2547.322765
677.127473	2547.161448
677.466571	2545.437373
677.805619	2548.709082
678.144616	2552.164793
678.483562	2550.213867
678.822458	2546.064997
679.161303	2548.772097
679.500098	2548.325954
679.838842	2547.592467
680.177535	2549.210677
680.516179	2549.490461
680.854771	2548.502395
681.193314	2548.399051
681.531805	2544.890408
681.870247	2549.581202
682.208638	2550.168496
682.546978	2550.034906
682.885268	2549.198074
683.223508	2549.498023
683.561697	2548.504915
683.899836	2549.883671
684.237925	2548.184802
684.575963	2548.825029
684.913951	2549.866027
685.251889	2552.442057
685.589776	2550.347457
685.927614	2549.687066
686.265401	2549.510626
686.603137	2548.459545
686.940824	2546.702703
687.278460	2549.109854
687.616046	2549.392158
687.953582	2552.714279
688.291068	2550.730585
688.628504	2548.378887
688.965889	2548.441901
689.303224	2547.153886
689.640510	2549.361912
689.977745	2550.211346
690.314930	2550.430636
690.652065	2553.294012
690.989150	2547.912580
691.326185	2549.407282
691.663170	2547.988197
692.000105	2548.900646
692.336990	2544.726571
692.673825	2548.235214
693.010610	2545.817980
693.347345	2543.103319
693.684030	2546.410316
694.020665	2547.731098
694.357251	2540.847403
694.693786	2543.587270
695.030272	2546.029709
695.366707	2546.995090
695.703093	2546.304452
696.039429	2543.236910
696.375716	2545.059287
696.711952	2540.653318
697.048139	2545.328988
697.384276	2546.594318
697.720363	2543.786395
698.056400	2544.587939
698.392388	2547.224462
698.728326	2546.402754
699.064214	2546.949719
699.400053	2544.492157
699.735842	2543.985521
700.071581	2547.738660
700.407270	2543.849410
700.742910	2542.566436
701.078501	2546.997610
701.414042	2544.540048
701.749533	2546.571633
702.084974	2546.932075
702.420366	2544.852599
702.755709	2542.488298
703.091002	2544.880326
703.426246	2541.774975
703.761440	2542.813453
704.096584	2545.394523
704.431679	2542.344625
704.766725	2544.449307
705.101721	2543.607434
705.436668	2543.005017
705.771565	2546.574153
706.106413	2544.053577
706.441212	2547.035419
706.775961	2546.669935
707.110661	2543.869574
707.445311	2543.315047
707.779913	2545.744884
708.114465	2547.146324
708.448967	2542.788247
708.783421	2542.742877
709.117825	2542.629451
709.452180	2545.762528
709.786485	2545.661705
710.120742	2545.344112
710.454949	2545.782692
710.789107	2541.096940
711.123216	2543.471323
711.457275	2542.642053
711.791286	2543.478885
712.125247	2543.476364
712.459159	2544.862682
712.793023	2547.254709
713.126837	2546.571633
713.460602	2548.305790
713.794318	2543.168854
714.127985	2546.785882
714.461602	2545.714637
714.795171	2546.987528
715.128691	2544.661036
715.462162	2545.565923
715.795584	2545.397044
716.128957	2547.413506
716.462281	2545.283618
716.795556	2545.591128
717.128782	2544.088865
717.461960	2542.967208
717.795088	2544.179605
718.128167	2543.632640
718.461198	2543.057949
718.794180	2542.692465
719.127113	2543.683052
719.459997	2543.841848
719.792833	2541.021323
720.125619	2544.971067
720.458357	2542.475695
720.791046	2543.115922
721.123686	2541.399409
721.456278	2542.513504
721.788821	2540.428987
722.121315	2546.269164
722.453761	2542.432846
722.786158	2543.430994
723.118506	2541.827907
723.450805	2541.255736
723.783056	2541.951415
724.115259	2542.785726
724.447412	2541.454862
724.779518	2544.867723
725.111574	2543.005017
725.443582	2542.674821
725.775542	2545.308824
726.107453	2542.485778
726.439315	2541.104502
726.771129	2548.139432
727.102895	2543.672969
727.434612	2545.427291
727.766281	2543.897301
728.097901	2543.662887
728.429473	2540.058462
728.760996	2542.049718
729.092471	2539.990407
729.423897	2544.310675
729.755276	2544.638350
730.086606	2541.303627
730.417887	2543.685572
730.749120	2542.397557
731.080305	2543.955274
731.411442	2543.448638
731.742530	2542.231199
732.073570	2545.961653
732.404562	2542.679862
732.735506	2545.036602
733.066401	2544.005686
733.397249	2543.383103
733.728048	2541.641384
734.058798	2541.192722
734.389501	2540.265149
734.720156	2544.993752
735.050762	2540.376055
735.381320	2538.795653
735.711831	2543.821683
736.042293	2541.984183
736.372707	2544.156920
736.703073	2544.177085
737.033391	2540.839841
737.363661	2543.859492
737.693883	2543.352856
738.024056	2544.328319
738.354182	2544.219935
738.684260	2543.609955
739.014290	2542.460572
739.344272	2543.579708
739.674207	2542.775644
740.004093	2544.872764
740.333931	2540.857485
740.663722	2543.481406
740.993464	2541.122146
741.323159	2543.206663
741.652806	2543.405788
741.982405	2542.989893
742.311956	2539.571991
742.641460	2542.286652
742.970915	2539.887063
743.300323	2542.732794
743.629683	2542.891591
743.958996	2543.436035
744.288260	2538.745242
744.617477	2540.640715
744.946647	2536.045704
745.275768	2539.748431
745.604842	2537.376568
745.933869	2537.938657
746.262847	2536.978317
746.591778	2541.669111
746.920662	2538.097453
747.249498	2542.246323
747.578286	2540.524769
747.907027	2542.425284
748.235720	2539.924872
748.564365	2540.670962
748.892963	2543.504091
749.221514	2544.151879
749.550017	2539.506456
749.878473	2538.951929
750.206881	2540.340767
750.535242	2540.020653
750.863555	2539.763555
751.191821	2540.605427
751.520039	2538.115097
751.848210	2540.481919
752.176334	2542.702547
752.504411	2540.222300
752.832440	2539.876981
753.160421	2538.309182
753.488356	2539.090561
753.816243	2540.436549
754.144082	2539.140972
754.471875	2541.865716
754.799620	2538.619213
755.127318	2541.318751
755.454969	2540.406302
755.782572	2539.904707
756.110129	2540.791950
756.437638	2541.540561
756.765100	2538.765406
757.092515	2541.719522
757.419882	2540.176929
757.747203	2539.904707
758.074477	2537.560570
758.401703	2544.892929
758.728882	2542.329502
759.056014	2542.337064
759.383099	2540.328164
759.710138	2541.815304
760.037129	2539.390509
760.364073	2541.117104
760.690970	2540.123997
761.017820	2543.257074
761.344623	2539.345139
761.671379	2538.767927
761.998088	2534.659386
762.324751	2538.846065
762.651366	2539.161137
762.977935	2547.189174
763.304456	2546.072559
763.630931	2550.410472
763.957359	2550.254196
764.283740	2546.090203
764.610074	2539.705581
764.936362	2544.542568
765.262602	2539.929913
765.588796	2541.812784
765.914943	2541.230530
766.241044	2541.848072
766.567097	2540.018133
766.893104	2541.331353
767.219064	2540.915458
767.544978	2540.108874
767.870845	2537.472350
768.196665	2539.652649
768.522438	2539.801363
768.848165	2541.109543
769.173846	2536.837165
769.499479	2540.000489
769.825066	2538.296579
770.150607	2539.161137
770.476101	2540.723894
770.801548	2538.672145
771.126949	2536.254912
771.452303	2539.811446
771.777611	2538.667104
772.102872	2538.226003
772.428087	2535.947401
772.753256	2536.123842
773.078378	2538.488143
773.403453	2539.090561
773.728482	2539.602238
774.053465	2536.753986
774.378401	2535.740714
774.703291	2538.699871
775.028135	2537.719367
775.352932	2536.312885
775.677683	2536.083512
776.002388	2540.139121
776.327046	2537.583256
776.651658	2537.164840
776.976224	2539.501415
777.300743	2535.760878
777.625216	2537.210210
777.949643	2539.332536
778.274024	2536.932947
778.598359	2535.513862
778.922647	2535.518903
779.246889	2534.697195
779.571086	2532.158974
779.895236	2536.438914
780.219339	2538.644418
780.543397	2537.976466
780.867409	2538.901517
781.191374	2540.494522
781.515294	2536.751465
781.839167	2536.481763
782.162995	2535.501259
782.486776	2537.815149
782.810511	2539.546785
783.134201	2536.254912
783.457844	2538.503266
783.781441	2537.860519
784.104993	2537.467309
784.428498	2538.969573
784.751958	2535.150899
785.075372	2537.613503
785.398739	2535.828934
785.722061	2535.476053
786.045337	2535.627288
786.368568	2540.471837
786.691752	2537.079140
787.014891	2538.410005
787.337983	2537.232895
787.661030	2534.455220
787.984031	2539.493853
788.306987	2539.108205
788.629897	2539.052752
788.952760	2537.903369
789.275579	2538.021836
789.598351	2539.430838
789.921078	2540.534851
790.243759	2536.348173
790.566395	2536.277597
790.888984	2536.791794
791.211529	2536.534696
791.534027	2536.842206
791.856480	2536.932947
792.178888	2536.890097
792.501249	2536.774150
792.823566	2538.571322
793.145836	2538.336908
793.468062	2535.508821
793.790241	2537.797505
794.112375	2535.710467
794.434464	2535.274407
794.756507	2535.844058
795.078505	2540.544933
795.400457	2536.648122
795.722364	2531.964890
796.044226	2535.929757
796.366042	2531.906916
796.687812	2533.981351
797.009538	2539.299768
797.331218	2537.318595
797.652852	2534.256094
797.974442	2538.057124
798.295986	2535.745755
798.617484	2536.169212
798.938938	2538.014274
799.260346	2536.690971
799.581709	2538.021836
799.903026	2534.838347
800.224299	2534.626619
800.545526	2534.535878
800.866708	2538.248688
801.187845	2534.072092
801.508936	2536.070909
801.829983	2536.605272
802.150984	2536.552340
802.471940	2536.201979
802.792851	2537.008564
803.113717	2536.559901
803.434538	2535.692823
803.755314	2538.830941
804.076045	2536.428831
804.396731	2538.783050
804.717372	2536.660724
805.037967	2534.140147
805.358518	2535.216434
805.679024	2537.457227
805.999485	2534.276259
806.319901	2536.615354
806.640272	2534.966897
806.960598	2537.076620
807.280879	2540.643236
807.601115	2536.549819
807.921306	2536.343132
808.241453	2536.028060
808.561554	2533.827596
808.881611	2533.683923
809.201623	2536.900179
809.521590	2530.482790
809.841513	2534.989582
810.161390	2538.228523
810.481223	2536.945550
810.801011	2539.740869
811.120755	2535.851619
811.440453	2537.510159
811.760107	2534.588810
812.079716	2533.053779
812.399281	2533.731814
812.718801	2533.245343
813.038276	2530.281144
813.357707	2534.064530
813.677093	2537.792463
813.996434	2536.272556
814.315731	2536.814480
814.634983	2536.517052
814.954191	2535.355066
815.273354	2534.936650
815.592473	2534.919006
815.911547	2536.660724
816.230577	2535.554191
816.549562	2537.280786
816.868502	2535.423121
817.187399	2537.164840
817.506250	2537.268183
817.825058	2535.637370
818.143821	2533.515044
818.462539	2537.394212
818.781213	2538.881353
819.099843	2537.358924
819.418429	2536.000333
819.736970	2539.705581
820.055466	2538.417567
820.373919	2540.776827
820.692327	2541.079296
821.010691	2545.664225
821.329011	2551.915256
821.647286	2561.526216
821.965517	2575.621282
822.283704	2585.423806
822.601847	2586.404310
822.919945	2578.530028
823.237999	2571.202711
823.556010	2565.128120
823.873976	2559.794579
824.191897	2555.570093
824.509775	2550.428116
824.827609	2548.366284
825.145398	2544.305634
825.463144	2547.819318
825.780845	2545.966694
826.098502	2547.574823
826.416116	2550.947354
826.733685	2554.385421
827.051210	2554.589588
827.368692	2553.120092
827.686129	2550.478527
828.003522	2546.279246
828.320872	2539.670293
828.638177	2539.380427
828.955439	2535.758358
829.272656	2538.624254
829.589830	2535.327339
829.906960	2537.676517
830.224046	2536.945550
830.541088	2539.120808
830.858086	2538.389840
831.175041	2537.091743
831.491952	2535.155940
831.808819	2536.713657
832.125642	2538.097453
832.442421	2539.196425
832.759157	2540.247505
833.075849	2540.547454
833.392497	2545.820501
833.709101	2545.576005
834.025662	2544.172044
834.342179	2545.626417
834.658653	2540.791950
834.975083	2542.700027
835.291469	2543.030222
835.607811	2540.955788
835.924110	2535.705426
836.240366	2538.606610
836.556578	2537.570653
836.872746	2536.499407
837.188871	2533.462112
837.504952	2537.689120
837.820990	2535.087884
838.136984	2534.354397
838.452935	2533.298275
838.768842	2536.912782
839.084706	2535.445806
839.400526	2536.393543
839.716303	2534.440096
840.032037	2536.476722
840.347727	2538.896476
840.663373	2538.372196
840.978977	2536.335570
841.294537	2535.798687
841.610054	2535.392874
841.925527	2536.159130
842.240957	2533.336083
842.556344	2535.097967
842.871687	2535.062679
843.186987	2534.230888
843.502244	2533.313398
843.817458	2534.634181
844.132629	2536.025539
844.447756	2532.955476
844.762840	2531.622091
845.077881	2531.249046
845.392879	2529.419107
845.707833	2531.985054
846.022745	2528.418438
846.337613	2534.379602
846.652438	2531.498583
846.967221	2534.089736
847.281960	2532.209386
847.596656	2532.474046
847.911309	2533.421783
848.225919	2533.918337
848.540485	2532.968079
848.855009	2535.231557
849.169490	2533.207534
849.483928	2532.501773
849.798323	2530.989426
850.112675	2535.395395
850.426984	2531.803573
850.741251	2532.897503
851.055474	2533.588141
851.369654	2533.678882
851.683792	2534.654345
851.997887	2532.688295
852.311938	2530.208047
852.625947	2534.344314
852.939914	2534.855991
853.253837	2535.085364
853.567718	2530.691998
853.881555	2534.389685
854.195350	2534.795498
854.509103	2532.416073
854.822812	2534.251053
855.136479	2534.177956
855.450103	2533.875487
855.763685	2532.927750
856.077224	2535.513862
856.390720	2531.105373
856.704173	2535.395395
857.017584	2533.885569
857.330953	2534.583769
857.644278	2534.790456
857.957561	2535.516382
858.270802	2534.157792
858.584000	2536.070909
858.897155	2534.997144
859.210268	2534.588810
859.523339	2533.827596
859.836367	2533.386495
860.149352	2531.589324
860.462295	2536.852288
860.775195	2529.708973
861.088054	2529.996319
861.400869	2531.899355
861.713642	2530.253418
862.026373	2530.122348
862.339062	2532.083357
862.651708	2534.740045
862.964312	2532.963038
863.276873	2531.649818
863.589392	2532.456402
863.901869	2532.126207
864.214303	2533.310878
864.526696	2532.378264
864.839045	2533.036135
865.151353	2534.266176
865.463619	2532.232071
865.775842	2536.350693
866.088023	2532.718542
866.400162	2532.877338
866.712258	2532.486649
867.024313	2536.839685
867.336325	2532.282482
867.648296	2531.871628
867.960224	2533.119314
868.272110	2533.036135
868.583954	2534.157792
868.895755	2532.484128
869.207515	2533.303316
869.519233	2534.908923
869.830909	2532.637884
870.142542	2534.319108
870.454134	2531.601927
870.765684	2534.193080
871.077191	2533.812473
871.388657	2534.951773
871.700081	2532.441279
872.011463	2533.212575
872.322803	2533.356248
872.634101	2534.150230
872.945357	2531.672503
873.256571	2535.271887
873.567744	2530.898686
873.878874	2536.196938
874.189963	2533.089067
874.501010	2533.598223
874.812015	2532.559746
875.122979	2535.128214
875.433900	2532.431196
875.744780	2537.414377
876.055618	2534.505631
876.366415	2533.688964
876.677169	2531.680064
876.987882	2530.419776
877.298554	2531.496062
877.609183	2533.434386
877.919771	2528.988088
878.230317	2533.419262
878.540822	2535.365148
878.851285	2534.863553
879.161707	2537.356404
879.472087	2538.684748
879.782425	2539.695499
880.092722	2541.064172
880.402977	2543.418391
880.713191	2548.860317
881.023363	2557.372305
881.333494	2561.180897
881.643583	2563.328428
881.953631	2562.189127
882.263637	2561.317008
882.573602	2556.747202
882.883526	2555.217212
883.193408	2550.760832
883.503248	2547.887374
883.813048	2546.364946
884.122806	2542.284132
884.432522	2541.603576
884.742197	2542.510983
885.051831	2540.945705
885.361424	2539.375386
885.670975	2539.251877
885.980485	2536.849768
886.289954	2536.615354
886.599382	2533.872966
886.908768	2537.512679
887.218113	2533.779705
887.527417	2538.982176
887.836680	2534.339273
888.145901	2536.161650
888.455082	2531.032276
888.764221	2536.302803
889.073319	2531.612009
889.382376	2531.554036
889.691392	2534.339273
890.000366	2533.522606
890.309300	2533.661238
890.618193	2533.129396
890.927044	2537.663914
891.235855	2533.026052
891.544625	2533.590662
891.853353	2532.612678
892.162041	2535.947401
892.470687	2533.933460
892.779293	2536.489325
893.087858	2532.078316
893.396381	2532.726104
893.704864	2535.828934
894.013306	2531.246525
894.321707	2539.957639
894.630068	2541.475026
894.938387	2545.921324
895.246665	2540.665921
895.554903	2543.516694
895.863100	2541.727084
896.171256	2539.861857
896.479371	2539.085519
896.787446	2536.189377
897.095480	2536.128883
897.403473	2535.871784
897.711425	2536.448996
898.019336	2535.821372
898.327207	2536.519572
898.635038	2534.329191
898.942827	2534.412370
899.250576	2533.320960
899.558284	2535.080323
899.865952	2536.443955
900.173579	2532.552184
900.481165	2532.645445
900.788711	2532.751310
901.096216	2534.049407
901.403681	2533.104190
901.711105	2534.223327
902.018489	2532.965559
902.325832	2536.138965
902.633135	2529.862728
902.940397	2533.590662
903.247619	2533.724252
903.554800	2537.225334
903.861941	2537.270704
904.169041	2545.023999
904.476101	2545.069369
904.783121	2551.504402
905.090100	2544.257743
905.397039	2542.568957
905.703938	2541.192722
906.010796	2538.268852
906.317614	2538.215920
906.624391	2539.864378
906.931129	2532.058151
907.237826	2534.278779
907.544483	2533.958666
907.851099	2533.739376
908.157675	2532.131248
908.464211	2532.650487
908.770707	2528.733510
909.077163	2530.921371
909.383578	2530.200486
909.689954	2528.320135
909.996289	2527.967255
910.302584	2534.009078
910.608839	2528.794004
910.915054	2533.474715
911.221229	2532.705939
911.527363	2533.293234
911.833458	2532.302647
912.139513	2532.489170
912.445527	2533.943542
912.751502	2531.672503
913.057436	2532.506814
913.363331	2536.000333
913.669186	2533.840199
913.975000	2534.475384
914.280775	2530.076977
914.586510	2534.135106
914.892205	2536.794315
915.197859	2537.507638
915.503475	2541.038967
915.809050	2543.751107
916.114585	2545.223124
916.420081	2547.360573
916.725536	2541.638864
917.030952	2542.987372
917.336328	2541.094419
917.641665	2543.476364
917.946961	2538.289017
918.252218	2536.504449
918.557435	2536.902700
918.862612	2536.930426
919.167750	2535.821372
919.472848	2535.085364
919.777906	2532.768954
920.082925	2533.532688
920.387904	2530.321473
920.692843	2534.770292
920.997743	2532.186700
921.302603	2532.123686
921.607423	2536.219623
921.912204	2531.249046
922.216946	2532.204344
922.521647	2532.489170
922.826310	2532.012781
923.130932	2535.145858
923.435516	2530.891124
923.740059	2534.180477
924.044564	2529.545136
924.349028	2532.113604
924.653454	2529.887934
924.957840	2529.461957
925.262186	2526.298633
925.566493	2525.449198
925.870761	2529.562780
926.174989	2529.688809
926.479178	2529.270393
926.783328	2531.576721
927.087438	2531.314581
927.391509	2535.483615
927.695541	2531.279293
927.999533	2529.245187
928.303486	2527.722759
928.607400	2531.299457
928.911275	2530.780218
929.215110	2532.645445
929.518906	2531.987575
929.822663	2530.989426
930.126381	2527.901720
930.430060	2531.697708
930.733699	2528.093283
931.037299	2532.552184
931.340861	2529.714014
931.644383	2530.984385
931.947866	2530.792821
932.251309	2532.244674
932.554714	2529.151926
932.858080	2529.199817
933.161407	2526.984230
933.464694	2530.621422
933.767943	2530.923891
934.071153	2529.875331
934.374323	2528.118489
934.677455	2531.367513
934.980548	2531.473377
935.283602	2529.585465
935.586617	2530.308871
935.889593	2530.495393
936.192530	2528.796524
936.495428	2530.273582
936.798287	2529.550177
937.101108	2529.638397
937.403890	2528.998171
937.706632	2530.616381
938.009336	2529.638397
938.312002	2531.579241
938.614628	2529.857687
938.917216	2530.946577
939.219765	2530.016484
939.522275	2532.973120
939.824747	2532.189221
940.127179	2529.290558
940.429573	2526.233098
940.731929	2529.603109
941.034246	2526.452388
941.336524	2530.029087
941.638763	2531.506145
941.940964	2531.526309
942.243126	2531.380116
942.545250	2531.778367
942.847335	2529.184693
943.149381	2530.573531
943.451389	2533.051258
943.753359	2529.535053
944.055290	2529.353572
944.357182	2529.577903
944.659036	2529.842564
944.960851	2529.872811
945.262628	2532.516896
945.564367	2528.841895
945.866067	2527.417769
946.167729	2532.700898
946.469352	2528.947759
946.770937	2529.398942
947.072484	2529.298119
947.373992	2528.612522
947.675462	2533.320960
947.976893	2532.090918
948.278286	2531.009591
948.579641	2528.670496
948.880958	2528.799045
949.182236	2529.474560
949.483476	2528.509179
949.784678	2532.206865
950.085841	2529.290557
950.386967	2530.712163
950.688054	2529.499765
950.989103	2534.349355
951.290114	2530.618902
951.591087	2531.969931
951.892021	2529.550177
952.192917	2532.688295
952.493776	2528.773839
952.794596	2530.268541
953.095378	2532.005219
953.396122	2532.902544
953.696828	2532.564787
953.997496	2530.424817
954.298126	2529.046062
954.598718	2531.057482
954.899272	2531.443130
955.199788	2526.850639
955.500266	2531.667462
955.800706	2528.998171
956.101108	2528.083201
956.401472	2527.805938
956.701798	2525.010618
957.002087	2526.419620
957.302337	2529.822399
957.602550	2528.902389
957.902724	2528.589837
958.202861	2529.288037
958.502960	2526.691843
958.803022	2530.712163
959.103045	2529.151926
959.403031	2530.707122
959.702979	2528.720907
960.002889	2530.371885
960.302762	2526.795186
960.602596	2527.904240
960.902393	2527.710156
961.202153	2528.531864
961.501875	2526.379291
961.801559	2528.352903
962.101205	2528.758716
962.400814	2529.645959
962.700385	2527.440454
962.999918	2528.073119
963.299414	2529.056144
963.598873	2526.979188
963.898293	2528.794004
964.197677	2528.350382
964.497022	2528.932636
964.796331	2531.223840
965.095601	2526.951462
965.394835	2528.955321
965.694030	2526.515402
965.993189	2528.599919
966.292309	2530.573531
966.591393	2530.724766
966.890439	2526.404497
967.189447	2529.429189
967.488419	2530.165198
967.787353	2527.430372
968.086249	2528.357944
968.385108	2528.947759
968.683930	2528.098325
968.982714	2530.240815
969.281462	2527.821061
969.580172	2526.076822
969.878844	2527.231246
970.177480	2529.940866
970.476078	2528.950280
970.774639	2529.524971
971.073162	2531.150743
971.371649	2526.424662
971.670098	2526.538087
971.968510	2525.353416
972.266885	2526.807789
972.565223	2531.717873
972.863524	2530.548325
973.161788	2528.824251
973.460014	2526.452388
973.758204	2529.792152
974.056356	2525.749147
974.354471	2527.586648
974.652550	2529.048582
974.950591	2528.362985
975.248595	2529.003212
975.546563	2531.221319
975.844493	2524.345186
976.142386	2529.903058
976.440243	2526.303674
976.738062	2528.388191
977.035845	2528.219312
977.333590	2528.330218
977.631299	2528.552028
977.928971	2527.962213
978.226606	2530.082019
978.524204	2525.310567
978.821765	2528.047913
979.119290	2530.661751
979.416777	2529.088911
979.714228	2529.187214
980.011642	2529.325846
980.309020	2529.908099
980.606360	2527.412728
980.903664	2531.057482
981.200931	2530.485311
981.498162	2530.026566
981.795356	2526.404497
982.092513	2528.763757
982.389633	2526.298633
982.686717	2529.739220
982.983764	2528.322656
983.280775	2531.249046
983.577749	2529.419107
983.874686	2529.439272
984.171587	2530.450023
984.468451	2530.709642
984.765279	2529.325846
985.062070	2527.679909
985.358824	2529.288037
985.655543	2528.229395
985.952224	2527.132944
986.248869	2528.370547
986.545478	2525.028262
986.842050	2523.170597
987.138586	2525.169414
987.435086	2524.133457
987.731549	2521.370905
988.027975	2528.191586
988.324366	2527.009435
988.620719	2527.808458
988.917037	2526.245701
989.213318	2529.144364
989.509563	2529.119158
989.805772	2525.345855
990.101944	2528.746113
990.398080	2528.675537
990.694180	2527.314425
990.990244	2531.329704
991.286271	2527.269055
991.582262	2527.964734
991.878217	2528.320135
992.174136	2525.842408
992.470019	2526.976668
992.765865	2526.651513
993.061676	2526.858201
993.357450	2524.680422
993.653188	2524.095648
993.948890	2528.216792
994.244556	2528.310053
994.540186	2526.391894
994.835780	2527.793335
995.131337	2528.269724
995.426859	2529.333407
995.722345	2526.497758
996.017795	2530.029087
996.313208	2528.741072
996.608586	2527.634538
996.903928	2528.975485
997.199234	2528.872142
997.494504	2528.640249
997.789738	2527.639580
998.084936	2523.883920
998.380099	2530.286185
998.675225	2527.710156
998.970316	2527.034641
999.265371	2527.740403
999.560390	2527.828623
999.855373	2526.220495
1000.150320	2529.046062
1000.445232	2528.952800
1000.740108	2528.083201
1001.034948	2525.847449
1001.329752	2526.268386
1001.624521	2525.613036
1001.919254	2520.559279
1002.213951	2522.744619
1002.508613	2524.307377
1002.803239	2526.724610
1003.097829	2523.105062
1003.392384	2527.775691
1003.686903	2527.029600
1003.981386	2530.177801
1004.275834	2527.629497
1004.570246	2529.093952
1004.864623	2526.477594
1005.158964	2526.223015
1005.453270	2527.120341
1005.747540	2528.763757
1006.041775	2527.586647
1006.335974	2529.139323
1006.630138	2527.054806
1006.924266	2529.514889
1007.218359	2528.589837
1007.512416	2528.075639
1007.806438	2529.396422
1008.100425	2527.241328
1008.394376	2524.750998
1008.688292	2527.765608
1008.982172	2526.384332
1009.276017	2528.869621
1009.569827	2529.799714
1009.863602	2529.000691
1010.157341	2526.870804
1010.451045	2528.380629
1010.744714	2527.402645
1011.038347	2527.581606
1011.331945	2526.454908
1011.625508	2527.821061
1011.919036	2523.634383
1012.212528	2526.039013
1012.505986	2525.630680
1012.799408	2526.059178
1013.092795	2526.157480
1013.386147	2527.400125
1013.679464	2527.619415
1013.972745	2525.398787
1014.265992	2529.976154
1014.559204	2529.230064
1014.852380	2528.272244
1015.145521	2532.345497
1015.438628	2523.520957
1015.731699	2526.631349
1016.024736	2524.032634
1016.317737	2528.269724
1016.610703	2527.415248
1016.903635	2524.314939
1017.196531	2519.185565
1017.489393	2528.471370
1017.782219	2522.064063
1018.075011	2529.530012
1018.367768	2526.449867
1018.660490	2527.188396
1018.953177	2527.188396
1019.245829	2527.188396
