Dividing Wavelength (nm)	Counts (n)	Blue Motor Position (mm): 0.000000	Red Motor Position (mm): 38.700000	
326.493990	2128.191152
326.888308	2128.191152
327.282561	2128.191152
327.676750	2095.446337
328.070874	2094.405339
328.464933	2096.323498
328.858929	2104.681731
329.252859	2111.764552
329.646726	2125.063116
330.040528	2137.449231
330.434265	2154.299288
330.827938	2171.189673
331.221547	2190.429237
331.615091	2207.911959
332.008571	2228.124465
332.401986	2248.440315
332.795338	2266.517893
333.188625	2285.265944
333.581847	2306.400981
333.975006	2324.806234
334.368100	2342.359532
334.761129	2359.761595
335.154095	2374.481764
335.546996	2397.509755
335.939833	2413.853176
336.332606	2430.468819
336.725315	2441.801332
337.117960	2450.575461
337.510540	2461.061061
337.903056	2473.691672
338.295508	2482.294401
338.687896	2490.350165
339.080220	2500.324088
339.472480	2503.875580
339.864676	2509.050325
340.256807	2513.625172
340.648875	2517.002745
341.040879	2518.840246
341.432818	2518.915863
341.824694	2521.837212
342.216506	2521.708662
342.608253	2521.214629
342.999937	2523.432737
343.391557	2520.566841
343.783113	2520.324865
344.174605	2519.835873
344.566033	2518.273116
344.957397	2517.844618
345.348697	2515.656757
345.739934	2515.266067
346.131106	2510.976046
346.522215	2511.724657
346.913260	2508.750376
347.304241	2506.955725
347.695159	2505.947495
348.086012	2503.618482
348.476802	2502.244767
348.867528	2497.727893
349.258191	2499.560353
349.648789	2497.644714
350.039324	2498.070692
350.429796	2493.894096
350.820203	2494.872080
351.210548	2495.214878
351.600828	2490.045175
351.991045	2491.854949
352.381198	2492.969044
352.771288	2487.645586
353.161314	2492.628766
353.551276	2491.055926
353.941175	2489.357057
354.331010	2489.959475
354.720782	2491.002994
355.110490	2489.457880
355.500135	2490.090545
355.889717	2490.448467
356.279235	2490.335041
356.668689	2493.001812
357.058080	2488.492499
357.447408	2488.573158
357.836672	2488.384115
358.225873	2491.915443
358.615010	2487.527118
359.004084	2493.158087
359.393095	2491.151708
359.782043	2496.139930
360.170927	2496.961638
360.559748	2495.494662
360.948505	2497.853922
361.337199	2495.754282
361.725830	2499.547750
362.114398	2499.149499
362.502903	2501.302071
362.891344	2500.046824
363.279722	2502.658142
363.668037	2502.559839
364.056289	2499.424242
364.444478	2505.892042
364.832603	2502.801815
365.220665	2503.278204
365.608665	2505.483708
365.996601	2506.630571
366.384474	2505.806342
366.772284	2507.217865
367.160031	2508.626868
367.547715	2510.862620
367.935336	2513.360511
368.322893	2517.075842
368.710388	2520.428209
369.097820	2526.901051
369.485189	2527.574045
369.872495	2537.064017
370.259738	2540.827238
370.646918	2546.191026
371.034035	2556.648899
371.421090	2567.867987
371.808081	2574.870150
372.195010	2585.806933
372.581875	2600.270004
372.968678	2614.087806
373.355418	2620.225411
373.742096	2640.337094
374.128710	2654.001142
374.515262	2671.693071
374.901751	2685.273940
375.288177	2696.427493
375.674540	2721.965978
376.060841	2738.884090
376.447079	2756.394538
376.833254	2777.116201
377.219367	2789.656071
377.605417	2829.135868
377.991404	2837.874708
378.377329	2863.677854
378.763191	2875.985831
379.148991	2915.586615
379.534727	2941.896397
379.920402	2969.874801
380.306013	2979.669763
380.691563	3030.787063
381.077049	3051.523849
381.462474	3072.237950
381.847835	3107.762961
382.233134	3130.133082
382.618371	3132.363792
383.003545	3201.447764
383.388657	3208.044114
383.773706	3241.875298
384.158693	3255.902308
384.543618	3281.627316
384.928480	3319.017554
385.313280	3363.089842
385.698017	3363.173021
386.082692	3416.604211
386.467305	3421.030344
386.851856	3451.620065
387.236344	3475.263077
387.620770	3510.077285
388.005133	3530.950183
388.389435	3560.816499
388.773674	3569.998960
389.157851	3613.670476
389.541965	3630.233187
389.926018	3596.381839
390.310008	3665.944721
390.693936	3686.668904
391.077802	3724.651478
391.461606	3713.868450
391.845348	3777.432359
392.229027	3779.073254
392.612645	3791.411478
392.996200	3870.126575
393.379694	3908.424221
393.763125	3971.887307
394.146494	3938.935805
394.529801	4000.276565
394.913047	4052.213052
395.296230	4015.752907
395.679351	4070.772060
396.062410	4094.964557
396.445408	4076.269438
396.828343	4108.852936
397.211217	4135.301350
397.594028	4056.308990
397.976778	4120.104792
398.359466	4142.681599
398.742092	4175.686033
399.124656	4098.180813
399.507158	4176.845499
399.889598	4205.338100
400.271977	4262.630814
400.654294	4235.872369
401.036549	4242.332608
401.418742	4212.027711
401.800874	4315.893125
402.182944	4336.902133
402.564952	4404.035179
402.946898	4387.464906
403.328783	4383.787385
403.710606	4298.239004
404.092367	4488.845031
404.474067	4458.701451
404.855705	4465.930466
405.237282	4392.256523
405.618797	4502.700642
406.000250	4537.499727
406.381642	4616.083754
406.762972	4578.421293
407.144240	4588.738015
407.525447	4591.210701
407.906593	4648.694978
408.287677	4691.131411
408.668700	4618.354794
409.049661	4666.984284
409.430560	4713.012539
409.811399	4637.629645
410.192176	4801.535201
410.572891	4734.785283
410.953545	4844.700081
411.334138	4720.866657
411.714669	4788.060197
412.095139	4683.355431
412.475547	4828.228111
412.855894	4807.871931
413.236180	4817.767716
413.616405	4769.964975
413.996568	4859.934448
414.376670	4798.770128
414.756711	4756.711782
415.136691	4783.765134
415.516609	4868.353175
415.896466	4900.137650
416.276262	4934.094862
416.655997	4918.449641
417.035670	5101.262044
417.415283	5191.138255
417.794834	5133.187671
418.174324	5089.823666
418.553753	4992.746166
418.933121	5181.227347
419.312428	5251.168315
419.691674	5183.390002
420.070859	5313.950845
420.449983	5224.679573
420.829045	5339.877500
421.208047	5247.221092
421.586988	5320.176670
421.965867	5328.965922
422.344686	5458.841169
422.723444	5315.445547
423.102141	5135.181448
423.480777	5432.455769
423.859352	5202.939597
424.237866	5462.357373
424.616319	5455.216579
424.994712	5560.269184
425.373044	5438.842911
425.751314	5587.650211
426.129524	5385.222678
426.507673	5579.372637
426.885762	5663.219628
427.263789	5597.397282
427.641756	5475.910516
428.019662	5601.163024
428.397508	5606.408345
428.775292	5556.674841
429.153016	5651.955170
429.530679	5574.780145
429.908282	5665.200801
430.285824	5532.678949
430.663305	5804.497964
431.040726	5541.964754
431.418086	5544.278644
431.795385	5648.048275
432.172624	5659.267363
432.549802	5653.033977
432.926920	5666.040153
433.303977	5675.071381
433.680974	5713.303491
434.057910	5731.905349
434.434786	5740.929014
434.811601	5704.829312
435.188355	5943.684222
435.565050	5814.408873
435.941683	5797.939423
436.318257	6012.246435
436.694770	5994.181460
437.071222	6027.500967
437.447614	5958.323733
437.823946	5875.807606
438.200218	6027.460637
438.576429	5888.705398
438.952580	5989.150389
439.328670	6033.343664
439.704700	5942.900323
440.080670	5935.411689
440.456580	6200.347008
440.832429	6083.833340
441.208218	5928.845586
441.583947	6082.812507
441.959616	6088.249391
442.335224	6019.603999
442.710773	6151.523433
443.086261	6181.049472
443.461689	5973.323686
443.837057	6118.468588
444.212365	6281.081087
444.587612	6169.517832
444.962800	6329.521535
445.337927	6304.464479
445.712995	5914.773205
446.088002	6491.884497
446.462949	6322.952911
446.837837	6254.075626
447.212664	6423.405463
447.587431	6573.094965
447.962139	7109.970288
448.336786	8036.103346
448.711374	7785.799975
449.085901	6854.514858
449.460369	6768.669049
449.834776	6705.944492
450.209124	7098.075685
450.583412	7252.423213
450.957640	7401.170019
451.331808	7162.473905
451.705917	6719.316153
452.079965	6633.931610
452.453954	6852.006884
452.827883	6725.829324
453.201752	6817.893396
453.575562	6620.267562
453.949311	6818.563869
454.323001	6711.875410
454.696632	6786.323170
455.070202	6921.673109
455.443713	7077.270843
455.817164	7178.598036
456.190556	7257.832371
456.563888	7340.678694
456.937160	7381.675877
457.310373	7035.363732
457.683526	7059.125210
458.056619	6955.829447
458.429653	6944.943076
458.802628	6873.935903
459.175542	6982.164435
459.548398	7336.897828
459.921194	7498.484453
460.293930	7500.253898
460.666607	8033.832306
461.039224	8344.495933
461.411782	8466.869942
461.784280	8488.272161
462.156719	8379.559678
462.529099	8253.969413
462.901419	7844.509253
463.273680	7737.931699
463.645882	7751.366374
464.018024	7616.732278
464.390106	7780.184130
464.762130	8168.824324
465.134094	8644.016088
465.505999	9664.030555
465.877845	10882.837882
466.249631	11541.308356
466.621358	11153.736887
466.993026	10524.621051
467.364634	10265.825857
467.736184	9903.402183
468.107674	9566.053209
468.479105	9601.048899
468.850477	9361.291622
469.221790	9139.753075
469.593043	8809.305441
469.964238	8672.307044
470.335373	8681.423971
470.706449	8736.685099
471.077467	8720.704641
471.448425	10030.756853
471.819324	11110.072933
472.190164	11131.959102
472.560945	9885.841324
472.931667	9092.310777
473.302330	8959.604922
473.672934	8595.074046
474.043479	8955.909756
474.413965	8896.240139
474.784393	8782.370556
475.154761	8939.168084
475.525070	9024.456846
475.895321	8853.050053
476.265513	9026.228811
476.635645	9197.222229
477.005719	9193.491775
477.375734	9310.915372
477.745691	9545.586125
478.115588	9685.931848
478.485427	9922.021685
478.855207	10460.608480
479.224928	11278.989395
479.594591	11907.812844
479.964194	11725.176881
480.333739	11661.081130
480.703226	11575.671381
481.072653	11667.493478
481.442022	11899.094168
481.811333	12104.506064
482.180584	11905.998028
482.549777	11608.665733
482.918912	11431.131418
483.287988	11457.418515
483.657005	11468.680453
484.025964	11152.814356
484.394864	11276.546956
484.763706	11251.144582
485.132489	11005.784063
485.501213	10964.633124
485.869879	11048.535568
486.238487	10881.406194
486.607036	10992.067083
486.975527	10779.007757
487.343959	10964.794441
487.712333	11007.964362
488.080648	10942.590678
488.448905	10978.990330
488.817104	10922.904973
489.185244	11185.430621
489.553326	11348.781650
489.921350	11882.097918
490.289315	12942.635699
490.657222	13294.301551
491.025070	13192.515613
491.392861	13075.787696
491.760593	12690.149509
492.128267	12343.975995
492.495883	12014.808813
492.863440	11674.530929
493.230939	11339.808396
493.598380	11270.439598
493.965763	11138.046295
494.333088	11044.212778
494.700354	10959.528955
495.067563	11024.527072
495.434713	10855.098933
495.801805	10985.493418
496.168839	10908.575493
496.535815	10841.041675
496.902733	10836.837353
497.269593	10774.238825
497.636395	10879.241019
498.003139	10855.285456
498.369825	10725.276618
498.736453	10887.064889
499.103023	10805.012549
499.469535	10839.836840
499.835989	10829.724285
500.202385	10787.925558
500.568723	10635.229008
500.935003	10859.565395
501.301226	10665.251600
501.667390	10932.495768
502.033497	11027.085458
502.399546	10886.470033
502.765537	10790.431011
503.131470	10865.428257
503.497345	11040.681450
503.863163	10654.360187
504.228923	10963.818977
504.594625	11025.550427
504.960269	10775.715883
505.325856	10995.427012
505.691385	10791.146855
506.056856	10940.733013
506.422270	10964.507095
506.787625	10857.032215
507.152924	10976.847839
507.518164	10955.460744
507.883347	10873.983095
508.248472	10793.370004
508.613540	11028.862465
508.978550	10912.437017
509.343503	10880.506348
509.708398	11000.367343
510.073236	11116.608789
510.438016	11121.544078
510.802738	11067.172713
511.167403	11121.695313
511.532010	11016.597338
511.896561	11251.134500
512.261053	11320.800725
512.625488	11190.799450
512.989866	11171.464104
513.354186	11157.268215
513.718449	11061.773638
514.082655	11252.692216
514.446803	11149.093984
514.810894	11273.323138
515.174927	11141.070988
515.538904	11163.980511
515.902822	11309.453088
516.266684	11196.644668
516.630488	11143.886472
516.994235	11203.994670
517.357925	11263.757549
517.721558	11349.252997
518.085133	11365.513239
518.448651	11374.436082
518.812112	11253.478636
519.175516	11277.383788
519.538863	11397.141438
519.902152	11317.143368
520.265385	11467.147942
520.628560	11385.077957
520.991678	11354.185767
521.354739	11419.022567
521.717743	11349.535302
522.080690	11330.058804
522.443580	11468.451080
522.806413	11417.182546
523.169189	11453.839296
523.531908	11501.815957
523.894569	11324.246354
524.257174	11333.648106
524.619722	11450.310488
524.982213	11395.077086
525.344647	11445.682709
525.707025	11401.038250
526.069345	11495.070893
526.431608	11406.578478
526.793815	11520.934533
527.155964	11305.115175
527.518057	11361.354287
527.880093	11310.075670
528.242072	11377.042358
528.603995	11283.755806
528.965860	11204.841584
529.327669	11258.996179
529.689421	11203.800586
530.051117	11174.720690
530.412755	11277.318253
530.774337	11171.005359
531.135862	11147.866463
531.497331	11168.608291
531.858743	11024.774089
532.220098	11189.536641
532.581396	11065.680532
532.942638	11037.981912
533.303824	11005.574855
533.664953	11014.245639
534.026025	10934.088773
534.387040	11026.702330
534.747999	11028.751559
535.108902	11081.096380
535.469748	10844.293220
535.830537	10950.754827
536.191270	10923.338512
536.551947	10950.989241
536.912567	10943.447675
537.273131	10871.593588
537.633638	10845.349341
537.994089	10840.416572
538.354483	10787.219796
538.714821	10925.070148
539.075103	10932.941910
539.435328	10901.225491
539.795497	10729.659902
540.155609	10884.839220
540.515665	10970.506068
540.875665	10712.225071
541.235609	10778.027252
541.595496	10773.878383
541.955328	10928.112485
542.315102	10808.601850
542.674821	10756.529252
543.034483	10756.342729
543.394090	10761.351115
543.753640	10686.837820
544.113134	10906.737992
544.472571	10763.906980
544.831953	10906.266644
545.191278	10706.737775
545.550548	10729.014634
545.909761	10870.345903
546.268918	10835.723258
546.628019	10920.026474
546.987064	10786.042687
547.346053	10710.581655
547.704986	10800.999790
548.063863	10783.713674
548.422684	10770.586509
548.781449	10690.343943
549.140158	10785.089909
549.498811	10662.012658
549.857408	10512.232416
550.215949	10733.256765
550.574434	10590.297204
550.932864	10685.418736
551.291237	10740.057282
551.649555	10687.117604
552.007817	10697.719151
552.366022	10656.691720
552.724173	10644.519854
553.082267	10627.999993
553.440305	10755.158058
553.798288	10556.823942
554.156215	10702.649399
554.514086	10677.478918
554.871902	10529.342092
555.229661	10557.068438
555.587365	10530.642710
555.945014	10420.014588
556.302606	10538.401045
556.660143	10430.669067
557.017625	10576.749103
557.375050	10467.721548
557.732421	10592.626217
558.089735	10504.156487
558.446994	10495.107616
558.804197	10524.368994
559.161345	10523.060814
559.518437	10369.250169
559.875474	10450.206059
560.232455	10472.094749
560.589381	10416.793291
560.946251	10396.850487
561.303065	10496.561989
561.659825	10432.844325
562.016528	10347.064051
562.373177	10231.278830
562.729770	10332.442184
563.086307	10238.354089
563.442789	10318.231172
563.799216	10194.725423
564.155587	10228.682635
564.511904	10172.904789
564.868164	10152.490636
565.224370	10166.971351
565.580520	10072.739582
565.936615	10075.829810
566.292654	9928.121481
566.648638	10049.096571
567.004567	9992.363425
567.360441	9972.929777
567.716260	9866.982367
568.072023	9946.619995
568.427732	9882.894770
568.783385	9789.295666
569.138982	9838.711577
569.494525	9837.473973
569.850013	9711.611485
570.205445	9771.059292
570.560823	9667.347634
570.916145	9572.684847
571.271412	9622.597311
571.626625	9556.170027
571.981782	9520.881950
572.336884	9481.593718
572.691931	9472.131472
573.046923	9401.073888
573.401860	9348.106484
573.756743	9272.718549
574.111570	9285.639027
574.466342	9262.767312
574.821059	9266.175132
575.175722	9155.645313
575.530330	9140.526893
575.884882	9123.016445
576.239380	9031.605202
576.593823	9000.851643
576.948211	8988.974684
577.302544	8871.503197
577.656823	8857.140950
578.011047	8842.531686
578.365216	8796.563924
578.719330	8707.844658
579.073389	8696.151702
579.427394	8634.306826
579.781344	8595.454653
580.135239	8526.595013
580.489080	8521.589147
580.842866	8404.667145
581.196597	8388.553097
581.550273	8399.252946
581.903895	8346.645985
582.257463	8384.706696
582.610975	8255.640555
582.964434	8264.681864
583.317837	8169.272987
583.671186	8137.571691
584.024481	8099.992409
584.377721	8017.204060
584.730906	7978.188050
585.084037	7976.189233
585.437113	7904.798932
585.790135	7895.009012
586.143103	7785.147146
586.496016	7744.333964
586.848874	7758.653362
587.201679	7729.195379
587.554428	7610.577029
587.907124	7620.558514
588.259765	7580.325065
588.612352	7546.254427
588.964884	7437.431039
589.317362	7413.109992
589.669786	7392.083339
590.022155	7409.029178
590.374470	7390.099645
590.726731	7325.441806
591.078937	7181.254724
591.431090	7234.186839
591.783188	7125.882690
592.135232	7090.314829
592.487222	7074.122643
592.839157	7084.744354
593.191038	7014.904209
593.542866	6947.672860
593.894639	6850.839857
594.246358	6863.278904
594.598022	6849.932449
594.949633	6751.592140
595.301190	6705.979780
595.652692	6707.913063
596.004141	6759.289982
596.355535	6586.113745
596.706876	6544.499020
597.058162	6469.574871
597.409395	6502.390262
597.760573	6517.833837
598.111698	6432.645898
598.462768	6398.537451
598.813785	6355.917016
599.164748	6304.703934
599.515657	6282.235512
599.866511	6186.128434
600.217312	6256.634012
600.568060	6134.940558
600.918753	6176.532598
601.269392	6137.123378
601.619978	6053.609102
601.970510	6072.944448
602.320988	6043.952772
602.671412	6049.311519
603.021783	5992.041490
603.372100	5950.567918
603.722363	5919.368217
604.072572	5883.316405
604.422728	5868.099682
604.772830	5797.699968
605.122878	5770.145022
605.472872	5750.789511
605.822813	5739.547738
606.172701	5685.327608
606.522534	5706.893664
606.872314	5683.177556
607.222041	5638.502851
607.571714	5646.457791
607.921333	5604.359116
608.270899	5575.932049
608.620411	5598.798723
608.969870	5526.773237
609.319276	5500.153424
609.668627	5482.287575
610.017926	5480.344210
610.367171	5475.855063
610.716362	5442.522954
611.065500	5414.131175
611.414585	5398.145676
611.763616	5379.216144
612.112594	5335.738712
612.461518	5318.931505
612.810389	5327.070448
613.159207	5268.497282
613.507971	5223.923399
613.856682	5252.131176
614.205340	5215.575249
614.553945	5224.510694
614.902496	5151.870188
615.250994	5156.382020
615.599439	5121.645950
615.947830	5104.143063
616.296169	5068.280295
616.644454	5048.667686
616.992686	5028.586250
617.340864	5030.743863
617.688990	4958.539417
618.037063	4985.272656
618.385082	4940.633238
618.733048	4949.079692
619.080961	4901.478597
619.428821	4894.027771
619.776628	4866.112382
620.124382	4825.596628
620.472083	4791.314262
620.819731	4785.867295
621.167326	4716.627047
621.514868	4699.860169
621.862357	4639.439420
622.209793	4620.275473
622.557176	4577.052620
622.904506	4538.298750
623.251783	4499.859952
623.599007	4458.197336
623.946179	4436.177576
624.293297	4399.044437
624.640363	4351.478630
624.987376	4328.904343
625.334336	4298.725475
625.681243	4252.258640
626.028097	4229.170155
626.374899	4207.984706
626.721647	4180.245757
627.068343	4146.641425
627.414987	4115.986169
627.761577	4084.219338
628.108115	4083.747990
628.454600	4030.659599
628.801032	4021.091489
629.147412	4003.056761
629.493739	3975.597596
629.840014	3947.939305
630.186236	3945.388482
630.532405	3892.481572
630.878521	3895.332344
631.224585	3866.817058
631.570597	3835.826564
631.916556	3824.236952
632.262462	3811.623985
632.608316	3783.897639
632.954117	3761.774535
633.299866	3751.062083
633.645562	3729.218763
633.991206	3696.022765
634.336797	3664.747447
634.682336	3641.880773
635.027823	3618.578039
635.373257	3599.870317
635.718639	3570.291347
636.063968	3559.115109
636.409245	3520.215046
636.754470	3502.394567
637.099642	3484.634582
637.444762	3458.009728
637.789829	3445.424487
638.134845	3421.655447
638.479808	3407.681368
638.824719	3395.388515
639.169577	3372.549567
639.514383	3357.660519
639.859137	3335.481963
640.203839	3332.172445
640.548489	3311.445741
640.893086	3299.735141
641.237632	3281.733181
641.582125	3276.870988
641.926566	3257.850714
642.270955	3255.395672
642.615292	3243.954774
642.959576	3238.061665
643.303809	3226.267885
643.647990	3219.989128
643.992118	3207.071172
644.336195	3194.017104
644.680219	3184.489323
645.024192	3177.845082
645.368112	3185.464786
645.711981	3178.770134
646.055797	3187.801361
646.399562	3175.163188
646.743274	3186.901515
647.086935	3190.815971
647.430544	3185.805064
647.774101	3180.537058
648.117606	3171.261335
648.461059	3160.879079
648.804460	3146.111019
649.147810	3121.731999
649.491108	3105.761623
649.834354	3094.827361
650.177548	3072.384144
650.520690	3052.012841
650.863781	3041.076058
651.206820	3036.821324
651.549807	3019.260464
651.892742	3006.224041
652.235626	2998.301867
652.578458	2987.309631
652.921238	2969.957980
653.263967	2968.990078
653.606644	2956.540949
653.949269	2950.121039
654.291843	2940.207610
654.634365	2936.078905
654.976836	2926.556166
655.319255	2922.379570
655.661622	2913.277767
656.003938	2902.976169
656.346203	2897.256980
656.688416	2896.223543
657.030577	2883.391286
657.372687	2876.638660
657.714746	2868.567773
658.056753	2870.503576
658.398708	2854.460104
658.740612	2850.709486
659.082465	2852.899867
659.424266	2847.034484
659.766016	2838.608196
660.107715	2838.628360
660.449362	2835.034018
660.790958	2829.803821
661.132503	2826.481700
661.473996	2821.896771
661.815438	2817.770586
662.156829	2814.022488
662.498168	2808.883032
662.839456	2803.630150
663.180693	2798.495735
663.521879	2800.998667
663.863013	2795.770991
664.204097	2791.302008
664.545129	2792.532050
664.886110	2788.040382
665.227040	2787.697583
665.567918	2783.813374
665.908746	2780.697941
666.249522	2779.382200
666.590248	2774.157044
666.930922	2773.713422
667.271545	2770.837444
667.612118	2770.718977
667.952639	2765.559356
668.293109	2763.089191
668.633528	2754.337747
668.973896	2751.698703
669.314213	2748.860534
669.654480	2743.973135
669.994695	2736.965931
670.334859	2735.637587
670.674973	2731.357648
671.015035	2731.655076
671.355047	2727.758264
671.695008	2723.800958
672.034918	2720.204095
672.374777	2719.362222
672.714585	2718.810216
673.054342	2716.569423
673.394049	2712.365101
673.733705	2711.432487
674.073310	2709.481561
674.412864	2705.589790
674.752368	2701.539223
675.091820	2699.830272
675.431223	2693.601926
675.770574	2692.192923
676.109875	2681.039371
676.449125	2682.551717
676.788324	2680.686490
677.127473	2674.483350
677.466571	2669.147289
677.805619	2672.023267
678.144616	2668.396157
678.483562	2668.219716
678.822458	2662.571103
679.161303	2661.416679
679.500098	2660.506751
679.838842	2659.417862
680.177535	2655.644558
680.516179	2656.476348
680.854771	2652.151038
681.193314	2656.045330
681.531805	2662.082112
681.870247	2668.575118
682.208638	2668.794408
682.546978	2668.199552
682.885268	2663.705363
683.223508	2659.264107
683.561697	2657.335865
683.899836	2653.129022
684.237925	2653.101296
684.575963	2650.449649
684.913951	2649.842190
685.251889	2648.271871
685.589776	2647.419916
685.927614	2643.409678
686.265401	2646.746922
686.603137	2643.669297
686.940824	2647.240955
687.278460	2649.905204
687.616046	2649.302787
687.953582	2650.610966
688.291068	2648.034936
688.628504	2651.951913
688.965889	2650.220277
689.303224	2646.131901
689.640510	2643.202990
689.977745	2637.902217
690.314930	2636.135293
690.652065	2632.089767
690.989150	2628.225722
691.326185	2625.342182
691.663170	2618.377828
692.000105	2616.817591
692.336990	2614.453290
692.673825	2613.843310
693.010610	2613.808022
693.347345	2604.789398
693.684030	2600.738831
694.020665	2603.045159
694.357251	2597.797318
694.693786	2602.674634
695.030272	2600.895107
695.366707	2597.769591
695.703093	2599.102977
696.039429	2597.779674
696.375716	2599.564242
696.711952	2596.151381
697.048139	2595.773294
697.384276	2593.529981
697.720363	2594.228181
698.056400	2594.250866
698.392388	2593.545104
698.728326	2594.787749
699.064214	2591.047213
699.400053	2590.210381
699.735842	2587.019331
700.071581	2586.653847
700.407270	2589.408838
700.742910	2586.222828
701.078501	2584.844073
701.414042	2580.828794
701.749533	2583.994638
702.084974	2581.101016
702.420366	2579.530697
702.755709	2582.061356
703.091002	2578.950964
703.426246	2580.964905
703.761440	2579.981880
704.096584	2580.402816
704.431679	2578.429205
704.766725	2579.795357
705.101721	2578.809812
705.436668	2576.175809
705.771565	2576.569019
706.106413	2577.773855
706.441212	2576.163206
706.775961	2578.719071
707.110661	2577.632702
707.445311	2577.771334
707.779913	2578.257805
708.114465	2578.298135
708.448967	2579.245872
708.783421	2577.622620
709.117825	2580.188567
709.452180	2576.561457
709.786485	2581.249730
710.120742	2582.978846
710.454949	2583.210739
710.789107	2579.253433
711.123216	2581.647981
711.457275	2581.433732
711.791286	2581.060687
712.125247	2585.355750
712.459159	2583.687128
712.793023	2588.829105
713.126837	2583.324165
713.460602	2585.585122
713.794318	2582.520101
714.127985	2584.203846
714.461602	2577.657908
714.795171	2582.215111
715.128691	2576.712692
715.462162	2579.513053
715.795584	2574.635736
716.128957	2576.493402
716.462281	2573.473750
716.795556	2574.529872
717.128782	2572.447876
717.461960	2570.789336
717.795088	2571.094326
718.128167	2571.084243
718.461198	2570.338153
718.794180	2571.923596
719.127113	2572.825962
719.459997	2570.663307
719.792833	2567.661300
720.125619	2569.687844
720.458357	2567.893193
720.791046	2565.697771
721.123686	2563.499828
721.456278	2567.673903
721.788821	2566.262380
722.121315	2567.557956
722.453761	2566.849674
722.786158	2563.824982
723.118506	2566.650549
723.450805	2563.288099
723.783056	2566.259859
724.115259	2563.824982
724.447412	2564.261042
724.779518	2564.976886
725.111574	2568.576269
725.443582	2569.408060
725.775542	2566.690878
726.107453	2564.795404
726.439315	2565.969993
726.771129	2571.137176
727.102895	2568.732545
727.434612	2567.174829
727.766281	2566.433779
728.097901	2565.748182
728.429473	2566.655590
728.760996	2566.998388
729.092471	2563.250290
729.423897	2567.036197
729.755276	2564.835733
730.086606	2568.636763
730.417887	2569.521486
730.749120	2569.473595
731.080305	2567.076526
731.411442	2571.106929
731.742530	2570.282700
732.073570	2571.540468
732.404562	2572.160530
732.735506	2570.801939
733.066401	2569.541650
733.397249	2572.495767
733.728048	2570.040725
734.058798	2565.554098
734.389501	2566.794222
734.720156	2563.376319
735.050762	2562.322718
735.381320	2565.569221
735.711831	2564.329097
736.042293	2561.863973
736.372707	2560.051678
736.703073	2562.461350
737.033391	2563.759447
737.363661	2561.417831
737.693883	2564.727348
738.024056	2565.816238
738.354182	2563.948490
738.684260	2562.552091
739.014290	2563.726679
739.344272	2563.474622
739.674207	2564.308933
740.004093	2568.609037
740.333931	2565.944787
740.663722	2567.436969
740.993464	2564.066957
741.323159	2565.236505
741.652806	2563.673747
741.982405	2560.825495
742.311956	2563.441854
742.641460	2563.038562
742.970915	2561.193500
743.300323	2563.068809
743.629683	2564.256001
743.958996	2559.280382
744.288260	2559.338355
744.617477	2557.841132
744.946647	2556.079249
745.275768	2556.863148
745.604842	2556.222922
745.933869	2555.675957
746.262847	2555.645710
746.591778	2556.676626
746.920662	2558.004970
747.249498	2557.223591
747.578286	2555.623025
747.907027	2560.666699
748.235720	2560.870866
748.564365	2560.812893
748.892963	2559.718962
749.221514	2558.027655
749.550017	2558.244425
749.878473	2558.047820
750.206881	2556.485062
750.535242	2558.350289
750.863555	2557.808365
751.191821	2556.432130
751.520039	2557.987326
751.848210	2558.055381
752.176334	2557.568910
752.504411	2559.358520
752.832440	2556.908519
753.160421	2558.012532
753.488356	2557.692418
753.816243	2556.979095
754.144082	2557.599157
754.471875	2559.726524
754.799620	2557.941955
755.127318	2556.742161
755.454969	2556.936245
755.782572	2557.768036
756.110129	2556.792572
756.437638	2556.323745
756.765100	2556.447253
757.092515	2557.223591
757.419882	2555.093703
757.747203	2555.764177
758.074477	2555.217212
758.401703	2555.353323
758.728882	2555.633107
759.056014	2557.165618
759.383099	2559.320711
759.710138	2558.667882
760.037129	2557.364743
760.364073	2559.252655
760.690970	2557.268961
761.017820	2556.611091
761.344623	2557.528581
761.671379	2558.539332
761.998088	2554.942469
762.324751	2561.490928
762.651366	2563.076371
762.977935	2578.083886
763.304456	2580.183526
763.630931	2587.858683
763.957359	2583.722416
764.283740	2575.008782
764.610074	2570.197000
764.936362	2566.151474
765.262602	2564.848336
765.588796	2560.197872
765.914943	2558.103272
766.241044	2555.983467
766.567097	2557.347099
766.893104	2552.079093
767.219064	2557.087480
767.544978	2554.148487
767.870845	2553.629248
768.196665	2552.525236
768.522438	2552.608415
768.848165	2553.278888
769.173846	2552.452139
769.499479	2551.408620
769.825066	2550.990204
770.150607	2552.716799
770.476101	2552.134546
770.801548	2552.658826
771.126949	2554.617314
771.452303	2550.826367
771.777611	2548.951058
772.102872	2549.722354
772.428087	2549.359391
772.753256	2548.633465
773.078378	2548.850234
773.403453	2549.273691
773.728482	2549.031716
774.053465	2550.959957
774.378401	2549.669422
774.703291	2550.463404
775.028135	2545.689431
775.352932	2546.695141
775.677683	2545.749925
776.002388	2548.588094
776.327046	2548.240255
776.651658	2548.550286
776.976224	2544.678680
777.300743	2549.233362
777.625216	2548.666232
777.949643	2544.487116
778.274024	2547.688248
778.598359	2544.877805
778.922647	2542.034594
779.246889	2545.817980
779.571086	2542.037115
779.895236	2544.411498
780.219339	2546.775800
780.543397	2544.749256
780.867409	2544.270346
781.191374	2545.664225
781.515294	2544.832435
781.839167	2548.383928
782.162995	2546.430481
782.486776	2545.732281
782.810511	2547.037940
783.134201	2548.131870
783.457844	2546.496016
783.781441	2546.773279
784.104993	2544.852599
784.428498	2546.548948
784.751958	2546.801005
785.075372	2545.823022
785.398739	2545.820501
785.722061	2546.647250
786.045337	2546.420398
786.368568	2545.480223
786.691752	2546.919473
787.014891	2546.445604
787.337983	2545.621375
787.661030	2548.832590
787.984031	2550.244113
788.306987	2551.708569
788.629897	2552.474824
788.952760	2550.899463
789.275579	2552.099258
789.598351	2552.242931
789.921078	2548.716644
790.243759	2549.924000
790.566395	2547.373176
790.888984	2546.334699
791.211529	2545.865871
791.534027	2545.180274
791.856480	2546.682538
792.178888	2547.655481
792.501249	2547.746222
792.823566	2547.509288
793.145836	2543.219266
793.468062	2546.072559
793.790241	2543.650284
794.112375	2548.066335
794.434464	2547.068187
794.756507	2548.900646
795.078505	2546.238917
795.400457	2544.802188
795.722364	2543.214224
796.044226	2545.031560
796.366042	2544.827394
796.687812	2545.465100
797.009538	2548.459545
797.331218	2547.100954
797.652852	2546.438042
797.974442	2547.922662
798.295986	2548.363763
798.617484	2545.696993
798.938938	2546.352343
799.260346	2546.518701
799.581709	2547.617672
799.903026	2546.448125
800.224299	2547.254709
800.545526	2547.254709
800.866708	2543.657846
801.187845	2544.661036
801.508936	2542.841179
801.829983	2546.072559
802.150984	2548.053732
802.471940	2544.282949
802.792851	2544.834955
803.113717	2545.099616
803.434538	2542.793288
803.755314	2544.272867
804.076045	2544.280428
804.396731	2544.991231
804.717372	2544.784544
805.037967	2543.834286
805.358518	2545.916283
805.679024	2543.841848
805.999485	2543.189019
806.319901	2543.433515
806.640272	2542.904193
806.960598	2543.196580
807.280879	2542.939482
807.601115	2544.724050
807.921306	2545.039122
808.241453	2546.183464
808.561554	2541.343956
808.881611	2547.138763
809.201623	2543.705737
809.521590	2542.949564
809.841513	2545.018957
810.161390	2545.087013
810.481223	2542.871426
810.801011	2545.639019
811.120755	2543.793957
811.440453	2544.426622
811.760107	2543.466282
812.079716	2541.878319
812.399281	2543.284801
812.718801	2541.780016
813.038276	2537.918492
813.357707	2544.303114
813.677093	2544.295552
813.996434	2542.831097
814.315731	2544.739173
814.634983	2543.947712
814.954191	2545.518032
815.273354	2543.955274
815.592473	2546.536345
815.911547	2544.167003
816.230577	2543.395706
816.549562	2546.879143
816.868502	2542.886549
817.187399	2546.095244
817.506250	2542.740356
817.825058	2548.676315
818.143821	2545.507949
818.462539	2547.131201
818.781213	2549.593805
819.099843	2550.344937
819.418429	2553.503219
819.736970	2556.931204
820.055466	2557.521019
820.373919	2561.359858
820.692327	2563.799776
821.010691	2575.170099
821.329011	2593.832450
821.647286	2629.833850
821.965517	2670.349604
822.283704	2696.727441
822.601847	2705.332691
822.919945	2687.091276
823.237999	2659.309477
823.556010	2637.118318
823.873976	2620.674074
824.191897	2603.385437
824.509775	2594.142481
824.827609	2584.793661
825.145398	2581.960533
825.463144	2577.108422
825.780845	2577.738567
826.098502	2584.188723
826.416116	2594.873448
826.733685	2604.928030
827.051210	2610.770727
827.368692	2606.183277
827.686129	2593.666092
828.003522	2581.650502
828.320872	2570.441496
828.638177	2565.170970
828.955439	2558.105793
829.272656	2555.159238
829.589830	2550.982642
829.906960	2553.097407
830.224046	2552.515153
830.541088	2550.760832
830.858086	2548.031047
831.175041	2547.927703
831.491952	2545.717157
831.808819	2551.244783
832.125642	2549.099772
832.442421	2553.399876
832.759157	2555.277706
833.075849	2563.446895
833.392497	2571.714388
833.709101	2575.593556
834.025662	2578.005748
834.342179	2574.343349
834.658653	2564.510579
834.975083	2562.456309
835.291469	2561.344734
835.607811	2552.636141
835.924110	2551.229659
836.240366	2549.414844
836.556578	2546.768238
836.872746	2547.292518
837.188871	2544.207332
837.504952	2542.889070
837.820990	2545.313865
838.136984	2540.655839
838.452935	2543.486447
838.768842	2542.770603
839.084706	2545.291180
839.400526	2545.651622
839.716303	2550.667570
840.032037	2556.197716
840.347727	2555.103786
840.663373	2553.450287
840.978977	2549.407282
841.294537	2547.957950
841.610054	2542.639533
841.925527	2541.394368
842.240957	2540.391178
842.556344	2541.732125
842.871687	2541.038967
843.186987	2540.330684
843.502244	2540.524769
843.817458	2540.555016
844.132629	2540.035777
844.447756	2539.483771
844.762840	2532.421114
845.077881	2537.467309
845.392879	2534.356917
845.707833	2537.961342
846.022745	2533.419262
846.337613	2538.646939
846.652438	2539.095602
846.967221	2537.442103
847.281960	2540.015612
847.596656	2539.597197
847.911309	2535.181146
848.225919	2538.329346
848.540485	2539.750952
848.855009	2537.411856
849.169490	2539.395550
849.483928	2535.876825
849.798323	2537.487474
850.112675	2537.278266
850.426984	2539.377906
850.741251	2537.908410
851.055474	2537.951260
851.369654	2537.784902
851.683792	2537.870601
851.997887	2538.379758
852.311938	2537.323636
852.625947	2535.105528
852.939914	2538.644418
853.253837	2540.923020
853.567718	2536.764068
853.881555	2540.524769
854.195350	2536.731301
854.509103	2537.341280
854.822812	2537.038811
855.136479	2539.367824
855.450103	2537.603420
855.763685	2537.759696
856.077224	2539.211548
856.390720	2537.114428
856.704173	2537.978986
857.017584	2539.738349
857.330953	2536.559901
857.644278	2538.747762
857.957561	2538.299099
858.270802	2540.328164
858.584000	2539.025026
858.897155	2540.076106
859.210268	2536.363296
859.523339	2540.416384
859.836367	2538.440252
860.149352	2540.010571
860.462295	2537.560570
860.775195	2533.699047
861.088054	2533.262987
861.400869	2535.123173
861.713642	2534.654345
862.026373	2536.154088
862.339062	2534.248532
862.651708	2538.079809
862.964312	2536.980838
863.276873	2539.093081
863.589392	2537.245498
863.901869	2538.188194
864.214303	2539.491332
864.526696	2541.056611
864.839045	2540.376055
865.151353	2540.386137
865.463619	2539.985365
865.775842	2541.091899
866.088023	2538.868750
866.400162	2540.141641
866.712258	2538.808256
867.024313	2541.727084
867.336325	2539.564429
867.648296	2541.439738
867.960224	2539.140972
868.272110	2541.626261
868.583954	2539.206507
868.895755	2540.310520
869.207515	2540.214738
869.519233	2538.999820
869.830909	2539.839172
870.142542	2540.887732
870.454134	2540.910417
870.765684	2539.952598
871.077191	2539.768596
871.388657	2542.697506
871.700081	2540.096271
872.011463	2541.979142
872.322803	2539.811446
872.634101	2540.670962
872.945357	2539.733308
873.256571	2539.743390
873.567744	2542.853782
873.878874	2542.127856
874.189963	2541.666590
874.501010	2545.011396
874.812015	2542.027033
875.122979	2543.085675
875.433900	2540.232382
875.744780	2544.814791
876.055618	2540.393699
876.366415	2543.856972
876.677169	2542.211035
876.987882	2539.443441
877.298554	2539.980324
877.609183	2540.577701
877.919771	2541.462423
878.230317	2539.201466
878.540822	2544.897970
878.851285	2549.460214
879.161707	2549.404761
879.472087	2552.643703
879.782425	2555.257541
880.092722	2562.506720
880.402977	2574.240006
880.713191	2595.286823
881.023363	2617.319186
881.333494	2632.571197
881.643583	2634.396095
881.953631	2634.796866
882.263637	2628.351751
882.573602	2619.721296
882.883526	2611.489092
883.193408	2598.009046
883.503248	2587.687284
883.813048	2580.624627
884.122806	2575.102043
884.432522	2569.496280
884.742197	2561.977399
885.051831	2561.261555
885.361424	2555.078580
885.670975	2552.409289
885.980485	2554.070349
886.289954	2552.389124
886.599382	2547.975594
886.908768	2549.114895
887.218113	2546.322096
887.527417	2547.146324
887.836680	2546.982487
888.145901	2544.083823
888.455082	2544.103988
888.764221	2547.249668
889.073319	2543.055428
889.382376	2542.551313
889.691392	2542.473175
890.000366	2542.395037
890.309300	2542.568957
890.618193	2543.118442
890.927044	2542.163144
891.235855	2543.985521
891.544625	2542.233720
891.853353	2544.721529
892.162041	2542.737835
892.470687	2547.380738
892.779293	2546.677497
893.087858	2546.788402
893.396381	2548.245296
893.704864	2548.635985
894.013306	2556.200237
894.321707	2566.403532
894.630068	2573.004923
894.938387	2574.744121
895.246665	2572.175653
895.554903	2568.639284
895.863100	2563.925805
896.171256	2559.035886
896.479371	2557.450443
896.787446	2556.066646
897.095480	2551.481717
897.403473	2548.545245
897.711425	2547.108516
898.019336	2550.919628
898.327207	2545.472661
898.635038	2546.501057
898.942827	2547.418547
899.250576	2544.159441
899.558284	2541.326312
899.865952	2544.474513
900.173579	2542.508463
900.481165	2541.903524
900.788711	2543.241951
901.096216	2540.645757
901.403681	2538.488143
901.711105	2541.197763
902.018489	2541.225489
902.325832	2544.784544
902.633135	2547.254709
902.940397	2545.230686
903.247619	2546.672456
903.554800	2551.509443
903.861941	2563.373799
904.169041	2577.816704
904.476101	2586.404310
904.783121	2585.721234
905.090100	2577.720922
905.397039	2573.708164
905.703938	2565.581824
906.010796	2558.730896
906.317614	2553.644372
906.624391	2551.675801
906.931129	2548.618341
907.237826	2546.213711
907.544483	2543.612476
907.851099	2543.158772
908.157675	2537.694161
908.464211	2542.281611
908.770707	2536.285158
909.077163	2538.079809
909.383578	2536.282638
909.689954	2537.502597
909.996289	2534.372041
910.302584	2539.178781
910.608839	2537.283307
910.915054	2538.210879
911.221229	2538.563760
911.527363	2540.247505
911.833458	2536.829603
912.139513	2536.993441
912.445527	2537.555529
912.751502	2540.060983
913.057436	2538.594007
913.363331	2536.418749
913.669186	2540.232382
913.975000	2543.746066
914.280775	2546.218752
914.586510	2549.745039
914.892205	2552.588250
915.197859	2558.894733
915.503475	2564.054354
915.809050	2570.265056
916.114585	2580.899370
916.420081	2584.082859
916.725536	2580.352405
917.030952	2576.405181
917.336328	2570.456620
917.641665	2566.595096
917.946961	2562.796587
918.252218	2560.422203
918.557435	2555.093703
918.862612	2549.813095
919.167750	2548.318393
919.472848	2548.192364
919.777906	2545.049204
920.082925	2544.862682
920.387904	2546.720347
920.692843	2541.936292
920.997743	2543.524255
921.302603	2542.516025
921.607423	2542.979811
921.912204	2542.049718
922.216946	2538.727597
922.521647	2541.908566
922.826310	2539.627443
923.130932	2542.702547
923.435516	2538.594007
923.740059	2536.741383
924.044564	2539.304810
924.349028	2539.516538
924.653454	2530.450023
924.957840	2535.788605
925.262186	2529.305681
925.566493	2536.897659
925.870761	2531.223840
926.174989	2535.105528
926.479178	2537.827752
926.783328	2537.840354
927.087438	2531.969931
927.391509	2536.272556
927.695541	2536.877494
927.999533	2533.860363
928.303486	2531.228881
928.607400	2535.178625
928.911275	2537.366486
929.215110	2531.609488
929.518906	2533.378933
929.822663	2533.620909
930.126381	2535.234078
930.430060	2532.995806
930.733699	2535.014788
931.037299	2535.382792
931.340861	2532.181659
931.644383	2536.766589
931.947866	2531.881711
932.251309	2534.414890
932.554714	2532.360620
932.858080	2533.837678
933.161407	2534.719880
933.464694	2533.797349
933.767943	2529.928263
934.071153	2536.393543
934.374323	2531.546474
934.677455	2536.446475
934.980548	2532.809283
935.283602	2532.025383
935.586617	2535.405477
935.889593	2534.508152
936.192530	2532.060672
936.495428	2534.293903
936.798287	2534.964376
937.101108	2534.172915
937.403890	2536.554860
937.706632	2535.501259
938.009336	2532.521937
938.312002	2539.014943
938.614628	2533.268028
938.917216	2538.110056
939.219765	2537.676517
939.522275	2536.360776
939.824747	2538.974614
940.127179	2534.903882
940.429573	2531.705270
940.731929	2533.159643
941.034246	2531.740558
941.336524	2532.544622
941.638763	2535.266845
941.940964	2536.990920
942.243126	2533.141999
942.545250	2533.920857
942.847335	2536.028060
943.149381	2535.954963
943.451389	2534.593851
943.753359	2538.649460
944.055290	2532.199303
944.357182	2535.980169
944.659036	2535.854140
944.960851	2536.426311
945.262628	2532.534540
945.564367	2532.022863
945.866067	2535.249201
946.167729	2532.032945
946.469352	2536.111239
946.770937	2532.075795
947.072484	2533.232740
947.373992	2533.247863
947.675462	2534.407329
947.976893	2535.355066
948.278286	2534.737524
948.579641	2532.612678
948.880958	2534.089736
949.182236	2534.949253
949.483476	2534.339273
949.784678	2533.205013
950.085841	2532.784077
950.386967	2532.952956
950.688054	2534.777853
950.989103	2533.749458
951.290114	2533.857843
951.591087	2532.703419
951.892021	2533.812472
952.192917	2535.720549
952.493776	2532.577390
952.794596	2537.069058
953.095378	2536.597710
953.396122	2533.988913
953.696828	2533.215096
953.997496	2533.452030
954.298126	2536.590148
954.598718	2533.361289
954.899272	2531.175949
955.199788	2528.632687
955.500266	2532.332894
955.800706	2531.359951
956.101108	2530.455064
956.401472	2531.695188
956.701798	2527.717717
957.002087	2529.267872
957.302337	2532.957997
957.602550	2532.244674
957.902724	2531.407842
958.202861	2529.890455
958.502960	2532.350538
958.803022	2532.143851
959.103045	2530.618902
959.403031	2529.938346
959.702979	2526.928777
960.002889	2534.082174
960.302762	2531.422966
960.602596	2532.776515
960.902393	2531.667462
961.202153	2532.327853
961.501875	2531.080167
961.801559	2530.283665
962.101205	2530.548325
962.400814	2529.714014
962.700385	2530.218130
962.999918	2529.381298
963.299414	2528.947759
963.598873	2527.914323
963.898293	2529.971113
964.197677	2530.165198
964.497022	2529.744261
964.796331	2532.446320
965.095601	2526.444826
965.394835	2532.837009
965.694030	2529.935825
965.993189	2531.357431
966.292309	2527.490866
966.591393	2529.434230
966.890439	2528.877183
967.189447	2529.651000
967.488419	2527.190917
967.787353	2528.186545
968.086249	2529.890455
968.385108	2530.823068
968.683930	2529.398942
968.982714	2530.623943
969.281462	2529.802235
969.580172	2530.939015
969.878844	2528.804086
970.177480	2530.049251
970.476078	2528.809127
970.774639	2530.031607
971.073162	2529.086391
971.371649	2527.695032
971.670098	2526.953983
971.968510	2526.013808
972.266885	2526.041534
972.565223	2531.619571
972.863524	2528.090763
973.161788	2527.959693
973.460014	2528.431041
973.758204	2531.654859
974.056356	2530.850795
974.354471	2530.538243
974.652550	2530.858356
974.950591	2530.913809
975.248595	2530.187883
975.546563	2530.087060
975.844493	2529.184693
976.142386	2528.594878
976.440243	2528.874662
976.738062	2528.794004
977.035845	2529.401463
977.333590	2527.853829
977.631299	2528.229395
977.928971	2531.188552
978.226606	2530.757533
978.524204	2531.120496
978.821765	2530.991947
979.119290	2528.368026
979.416777	2528.909950
979.714228	2530.066895
980.011642	2530.525640
980.309020	2530.281144
980.606360	2527.465660
980.903664	2529.182173
981.200931	2527.453057
981.498162	2530.621422
981.795356	2528.489014
982.092513	2533.154602
982.389633	2530.800383
982.686717	2530.200486
982.983764	2533.141999
983.280775	2530.480270
983.577749	2531.944725
983.874686	2531.780887
984.171587	2528.652852
984.468451	2530.278624
984.765279	2530.346679
985.062070	2528.821730
985.358824	2527.750485
985.655543	2528.909950
985.952224	2528.746113
986.248869	2529.618233
986.545478	2525.330731
986.842050	2525.930628
987.138586	2524.393077
987.435086	2527.027079
987.731549	2523.525998
988.027975	2527.125382
988.324366	2527.011956
988.620719	2528.466329
988.917037	2529.225023
989.213318	2527.737882
989.509563	2529.603109
989.805772	2527.889117
990.101944	2526.359127
990.398080	2528.103366
990.694180	2529.366175
990.990244	2529.008253
991.286271	2527.838705
991.582262	2527.526154
991.878217	2527.566483
992.174136	2528.688140
992.470019	2527.306863
992.765865	2529.225023
993.061676	2528.305012
993.357450	2529.124199
993.653188	2529.018335
993.948890	2528.060516
994.244556	2528.602440
994.540186	2527.574045
994.835780	2527.332069
995.131337	2526.792666
995.426859	2524.198992
995.722345	2528.390712
996.017795	2528.599919
996.313208	2529.711494
996.608586	2530.061854
996.903928	2527.909281
997.199234	2528.153777
997.494504	2528.226874
997.789738	2526.800227
998.084936	2527.044723
998.380099	2528.269724
998.675225	2526.699404
998.970316	2527.682429
999.265371	2527.967255
999.560390	2526.344003
999.855373	2527.505989
1000.150320	2528.506658
1000.445232	2530.051772
1000.740108	2528.998171
1001.034948	2528.267203
1001.329752	2527.823582
1001.624521	2528.405835
1001.919254	2522.928621
1002.213951	2528.063037
1002.508613	2521.184382
1002.803239	2523.533560
1003.097829	2520.100534
1003.392384	2528.012625
1003.686903	2529.504807
1003.981386	2526.021369
1004.275834	2527.009435
1004.570246	2528.622605
1004.864623	2527.294261
1005.158964	2526.727131
1005.453270	2526.311236
1005.747540	2528.168901
1006.041775	2528.504137
1006.335974	2528.083201
1006.630138	2524.776204
1006.924266	2525.297964
1007.218359	2527.533715
1007.512416	2527.132944
1007.806438	2524.624970
1008.100425	2528.433561
1008.394376	2525.139167
1008.688292	2528.302491
1008.982172	2527.258973
1009.276017	2526.510361
1009.569827	2526.149919
1009.863602	2528.998171
1010.157341	2526.492717
1010.451045	2528.594878
1010.744714	2526.797707
1011.038347	2527.997502
1011.331945	2526.986750
1011.625508	2529.020856
1011.919036	2525.494569
1012.212528	2526.049096
1012.505986	2527.944569
1012.799408	2527.228726
1013.092795	2526.086904
1013.386147	2528.209230
1013.679464	2527.261493
1013.972745	2527.148067
1014.265992	2525.252593
1014.559204	2526.805269
1014.852380	2524.017511
1015.145521	2526.991791
1015.438628	2526.238139
1015.731699	2528.496576
1016.024736	2524.569517
1016.317737	2524.025072
1016.610703	2528.857018
1016.903635	2524.367871
1017.196531	2520.276974
1017.489393	2525.388704
1017.782219	2521.343178
1018.075011	2524.927439
1018.367768	2525.257634
1018.660490	2526.394415
1018.953177	2526.394415
1019.245829	2526.394415
