Dividing Wavelength (nm)	Counts (n)	Blue Motor Position (mm): 0.000000	Red Motor Position (mm): 35.400000	
326.493990	2127.523199
326.888308	2127.523199
327.282561	2127.523199
327.676750	2092.005749
328.070874	2093.316449
328.464933	2098.004723
328.858929	2102.728284
329.252859	2112.792947
329.646726	2127.394649
330.040528	2137.192132
330.434265	2153.709473
330.827938	2171.169509
331.221547	2190.772036
331.615091	2209.946064
332.008571	2228.063971
332.401986	2248.715058
332.795338	2267.836154
333.188625	2287.289967
333.581847	2307.683955
333.975006	2323.954279
334.368100	2340.484223
334.761129	2359.015504
335.154095	2375.464789
335.546996	2395.760474
335.939833	2414.851324
336.332606	2431.104004
336.725315	2442.877619
337.117960	2452.115533
337.510540	2458.853035
337.903056	2471.584469
338.295508	2475.599748
338.687896	2486.677684
339.080220	2494.078098
339.472480	2503.227792
339.864676	2504.684686
340.256807	2511.681807
340.648875	2511.472599
341.040879	2516.775893
341.432818	2518.739423
341.824694	2520.004752
342.216506	2518.336130
342.608253	2519.987108
342.999937	2519.735050
343.391557	2518.265554
343.783113	2517.769000
344.174605	2516.266737
344.566033	2514.749349
344.957397	2512.541324
345.348697	2514.363701
345.739934	2512.793382
346.131106	2509.967815
346.522215	2512.276663
346.913260	2507.144769
347.304241	2506.413801
347.695159	2500.840806
348.086012	2500.258553
348.476802	2497.685043
348.867528	2498.350476
349.258191	2498.186638
349.648789	2496.276041
350.039324	2493.480721
350.429796	2494.683036
350.820203	2490.564414
351.210548	2492.908550
351.600828	2489.193220
351.991045	2487.345637
352.381198	2488.258086
352.771288	2488.353868
353.161314	2486.113075
353.551276	2491.181955
353.941175	2486.682725
354.331010	2488.162304
354.720782	2488.517705
355.110490	2490.370329
355.500135	2489.087356
355.889717	2488.011069
356.279235	2488.497541
356.668689	2488.868065
357.058080	2490.503920
357.447408	2486.559217
357.836672	2485.964361
358.225873	2486.743219
358.615010	2486.876810
359.004084	2490.501399
359.393095	2493.662203
359.782043	2493.599188
360.170927	2495.683705
360.559748	2495.776967
360.948505	2493.170690
361.337199	2499.230157
361.725830	2496.543222
362.114398	2499.404077
362.502903	2498.605054
362.891344	2500.450116
363.279722	2497.743017
363.668037	2500.344252
364.056289	2496.941473
364.444478	2499.648573
364.832603	2500.107318
365.220665	2501.281907
365.608665	2502.854747
365.996601	2506.413801
366.384474	2506.300375
366.772284	2506.159223
367.160031	2509.587208
367.547715	2507.288442
367.935336	2510.799605
368.322893	2513.804133
368.710388	2516.730523
369.097820	2524.249404
369.485189	2527.372398
369.872495	2534.170394
370.259738	2542.667259
370.646918	2548.603218
371.034035	2554.937428
371.421090	2565.846485
371.808081	2574.020716
372.195010	2583.747622
372.581875	2600.131372
372.968678	2607.909872
373.355418	2622.236832
373.742096	2640.798360
374.128710	2654.525422
374.515262	2667.496311
374.901751	2685.914166
375.288177	2695.578058
375.674540	2721.171996
376.060841	2736.645818
376.447079	2753.999990
376.833254	2776.231479
377.219367	2787.374949
377.605417	2827.865497
377.991404	2836.629543
378.377329	2859.017307
378.763191	2875.370810
379.148991	2911.077303
379.534727	2938.728032
379.920402	2966.729121
380.306013	2978.938795
380.691563	3027.832947
381.077049	3049.615772
381.462474	3068.855336
381.847835	3106.474947
382.233134	3129.583596
382.618371	3126.160652
383.003545	3199.574976
383.388657	3206.776264
383.773706	3236.710636
384.158693	3252.524735
384.543618	3279.681431
384.928480	3315.748366
385.313280	3360.246631
385.698017	3357.695807
386.082692	3412.157913
386.467305	3419.081938
386.851856	3453.187864
387.236344	3472.606389
387.620770	3505.618385
388.005133	3532.598640
388.389435	3557.030592
388.773674	3569.598189
389.157851	3607.568159
389.541965	3628.506592
389.926018	3590.554265
390.310008	3664.888599
390.693936	3683.198070
391.077802	3721.624265
391.461606	3711.373079
391.845348	3774.263994
392.229027	3771.405659
392.612645	3786.272022
392.996200	3864.125082
393.379694	3905.293664
393.763125	3965.278354
394.146494	3938.474539
394.529801	3997.047706
394.913047	4047.295407
395.296230	4011.914068
395.679351	4065.851894
396.062410	4089.061366
396.445408	4071.455136
396.828343	4108.348821
397.211217	4128.722644
397.594028	4045.962021
397.976778	4112.958956
398.359466	4140.218995
398.742092	4171.360723
399.124656	4091.420626
399.507158	4174.735776
399.889598	4201.106052
400.271977	4258.295421
400.654294	4226.760483
401.036549	4240.611054
401.418742	4209.718863
401.800874	4311.804749
402.182944	4331.621525
402.564952	4396.503695
402.946898	4383.898290
403.328783	4378.678175
403.710606	4290.702479
404.092367	4484.965863
404.474067	4449.398002
404.855705	4461.330413
405.237282	4385.803846
405.618797	4497.089838
406.000250	4528.443294
406.381642	4612.088639
406.762972	4570.473914
407.144240	4583.286007
407.525447	4582.638219
407.906593	4640.896313
408.287677	4684.913148
408.668700	4615.430924
409.049661	4668.476466
409.430560	4710.749061
409.811399	4634.388183
410.192176	4792.579591
410.572891	4730.152462
410.953545	4836.210778
411.334138	4720.803643
411.714669	4788.115649
412.095139	4678.168084
412.475547	4822.425742
412.855894	4805.850429
413.236180	4815.526923
413.616405	4764.210498
413.996568	4850.121842
414.376670	4794.843069
414.756711	4751.274897
415.136691	4782.174650
415.516609	4856.546792
415.896466	4895.913163
416.276262	4934.253658
416.655997	4908.841202
417.035670	5089.957257
417.415283	5181.560063
417.794834	5127.357577
418.174324	5081.087346
418.553753	4992.158872
418.933121	5171.225698
419.312428	5240.597016
419.691674	5179.841030
420.070859	5308.430782
420.449983	5218.383171
420.829045	5335.796686
421.208047	5238.131892
421.586988	5308.887006
421.965867	5326.594059
422.344686	5453.938647
422.723444	5308.269465
423.102141	5131.345130
423.480777	5426.779430
423.859352	5196.128998
424.237866	5454.248677
424.616319	5447.075116
424.994712	5556.085026
425.373044	5432.942241
425.751314	5578.966824
426.129524	5380.491556
426.507673	5572.156225
426.885762	5660.968753
427.263789	5587.080561
427.641756	5469.241069
428.019662	5593.684472
428.397508	5599.592705
428.775292	5541.939549
429.153016	5645.343696
429.530679	5573.051030
429.908282	5655.791488
430.285824	5523.277197
430.663305	5797.402540
431.040726	5534.236666
431.418086	5533.790523
431.795385	5643.296988
432.172624	5655.171426
432.549802	5642.954189
432.926920	5658.362476
433.303977	5669.909239
433.680974	5707.662440
434.057910	5721.618875
434.434786	5731.418878
434.811601	5698.694228
435.188355	5937.735661
435.565050	5813.667823
435.941683	5792.416839
436.318257	6004.110013
436.694770	5987.736345
437.071222	6022.807652
437.447614	5955.167971
437.823946	5863.829825
438.200218	6018.605851
438.576429	5885.874790
438.952580	5981.011446
439.328670	6025.134145
439.704700	5938.103665
440.080670	5923.544813
440.456580	6195.212593
440.832429	6078.288071
441.208218	5920.610861
441.583947	6078.772022
441.959616	6083.044400
442.335224	6012.916908
442.710773	6151.369678
443.086261	6171.743502
443.461689	5965.961081
443.837057	6112.396518
444.212365	6267.175064
444.587612	6163.604559
444.962800	6317.137940
445.337927	6290.971831
445.712995	5904.438839
446.088002	6484.320246
446.462949	6314.158618
446.837837	6242.604481
447.212664	6416.930101
447.587431	6563.118522
447.962139	7101.274297
448.336786	8030.268211
448.711374	7773.726412
449.085901	6844.334248
449.460369	6769.185767
449.834776	6700.333688
450.209124	7092.522854
450.583412	7240.470637
450.957640	7384.362812
451.331808	7155.615415
451.705917	6706.562034
452.079965	6631.537062
452.453954	6841.312076
452.827883	6715.250462
453.201752	6810.669422
453.575562	6611.072498
453.949311	6809.192364
454.323001	6699.489295
454.696632	6775.530059
455.070202	6910.050729
455.443713	7071.700368
455.817164	7168.795512
456.190556	7255.727690
456.563888	7320.630025
456.937160	7370.066100
457.310373	7033.072527
457.683526	7047.923766
458.056619	6940.983249
458.429653	6926.497494
458.802628	6863.795622
459.175542	6966.829245
459.548398	7329.310892
459.921194	7490.111097
460.293930	7492.238463
460.666607	8017.352774
461.039224	8328.825506
461.411782	8457.821071
461.784280	8478.096592
462.156719	8369.006023
462.529099	8241.154799
462.901419	7835.813263
463.273680	7729.132365
463.645882	7738.980259
464.018024	7604.268025
464.390106	7775.833614
464.762130	8156.881831
465.134094	8623.163356
465.505999	9652.178802
465.877845	10865.748370
466.249631	11521.153823
466.621358	11138.000925
466.993026	10503.763277
467.364634	10251.645091
467.736184	9889.780986
468.107674	9551.885046
468.479105	9588.153628
468.850477	9350.311989
469.221790	9126.230180
469.593043	8796.642062
469.964238	8654.191657
470.335373	8666.053492
470.706449	8722.650527
471.077467	8708.643681
471.448425	10019.197487
471.819324	11097.706982
472.190164	11117.881680
472.560945	9869.455053
472.931667	9079.783509
473.302330	8941.507180
473.672934	8586.776307
474.043479	8946.568498
474.413965	8882.782779
474.784393	8765.303729
475.154761	8921.506402
475.525070	9016.300259
475.895321	8841.452879
476.265513	9017.316051
476.635645	9184.150517
477.005719	9181.725722
477.375734	9295.217219
477.745691	9534.687150
478.115588	9669.832923
478.485427	9910.303523
478.855207	10448.832344
479.224928	11262.565316
479.594591	11889.674772
479.964194	11707.376567
480.333739	11640.518264
480.703226	11560.121942
481.072653	11655.717343
481.442022	11881.155222
481.811333	12076.751991
482.180584	11884.300902
482.549777	11597.290370
482.918912	11414.961917
483.287988	11437.387490
483.657005	11453.378030
484.025964	11137.121244
484.394864	11260.977352
484.763706	11231.181613
485.132489	10987.063738
485.501213	10950.134765
485.869879	11037.893692
486.238487	10870.539987
486.607036	10983.156843
486.975527	10758.318861
487.343959	10949.058479
487.712333	10997.849286
488.080648	10930.834708
488.448905	10970.995060
488.817104	10909.069526
489.185244	11175.776811
489.553326	11330.963691
489.921350	11860.184022
490.289315	12925.410077
490.657222	13264.962035
491.025070	13179.010362
491.392861	13056.895972
491.760593	12667.217300
492.128267	12319.453302
492.495883	11994.341729
492.863440	11659.072231
493.230939	11327.586118
493.598380	11252.903945
493.965763	11115.845054
494.333088	11022.767710
494.700354	10946.737028
495.067563	11006.842705
495.434713	10834.122692
495.801805	10960.327978
496.168839	10886.293593
496.535815	10827.947278
496.902733	10823.120373
497.269593	10753.585218
497.636395	10855.298058
498.003139	10847.005360
498.369825	10705.202744
498.736453	10870.093845
499.103023	10789.813470
499.469535	10815.979579
499.835989	10808.284258
500.202385	10769.104410
500.568723	10620.012285
500.935003	10846.637356
501.301226	10648.157047
501.667390	10907.741182
502.033497	10998.091262
502.399546	10856.664211
502.765537	10766.661971
503.131470	10841.729793
503.497345	11014.527944
503.863163	10628.360436
504.228923	10932.931828
504.594625	10999.565799
504.960269	10747.445092
505.325856	10962.367125
505.691385	10749.980793
506.056856	10911.748899
506.422270	10931.583319
506.787625	10821.905455
507.152924	10937.675553
507.518164	10911.877449
507.883347	10831.589512
508.248472	10742.356048
508.613540	10978.879424
508.978550	10863.903308
509.343503	10834.967085
509.708398	10949.124014
510.073236	11059.361446
510.438016	11058.108719
510.802738	10996.483134
511.167403	11042.551718
511.532010	10942.242839
511.896561	11168.497385
512.261053	11238.135884
512.625488	11103.645462
512.989866	11072.695298
513.354186	11058.365818
513.718449	10956.995776
514.082655	11135.790379
514.446803	11033.369256
514.810894	11143.785649
515.174927	11009.103662
515.538904	11029.772393
515.902822	11168.928404
516.266684	11042.859228
516.630488	10983.484518
516.994235	11030.165603
517.357925	11082.049158
517.721558	11158.087403
518.085133	11170.806234
518.448651	11166.241469
518.812112	11046.803931
519.175516	11040.321007
519.538863	11148.380661
519.902152	11058.824563
520.265385	11198.547703
520.628560	11107.068405
520.991678	11067.979298
521.354739	11117.022163
521.717743	11036.252796
522.080690	11010.484938
522.443580	11117.208686
522.806413	11058.708616
523.169189	11078.981616
523.531908	11108.537901
523.894569	10919.686196
524.257174	10906.163301
524.619722	11004.148208
524.982213	10941.471542
525.344647	10964.000459
525.707025	10903.922508
526.069345	10968.726541
526.431608	10869.438495
526.793815	10956.368152
527.155964	10725.412730
527.518057	10754.616134
527.880093	10693.293018
528.242072	10732.092258
528.603995	10614.910637
528.965860	10523.655670
529.327669	10539.636128
529.689421	10471.658689
530.051117	10421.637840
530.412755	10488.327264
530.774337	10365.844870
531.135862	10309.832609
531.497331	10309.396550
531.858743	10141.246343
532.220098	10263.388459
532.581396	10121.696748
532.942638	10077.450541
533.303824	10018.012816
533.664953	9982.964194
534.026025	9879.575170
534.387040	9932.998798
534.747999	9902.966124
535.108902	9926.548641
535.469748	9671.020115
535.830537	9733.543025
536.191270	9678.622175
536.551947	9660.171552
536.912567	9614.289490
537.273131	9529.247745
537.633638	9469.053848
537.994089	9417.298842
538.354483	9340.058282
538.714821	9422.748329
539.075103	9394.228001
539.435328	9321.022885
539.795497	9146.362028
540.155609	9222.034788
540.515665	9266.091953
540.875665	9005.073609
541.235609	9017.598356
541.595496	8979.751893
541.955328	9048.452738
542.315102	8922.696114
542.674821	8837.631684
543.034483	8801.108525
543.394090	8754.508098
543.753640	8661.327411
544.113134	8777.977190
544.472571	8623.105382
544.831953	8680.554372
545.191278	8494.581165
545.550548	8475.144996
545.909761	8530.794294
546.268918	8460.785270
546.628019	8475.084503
546.987064	8321.500709
547.346053	8234.316474
547.704986	8244.686128
548.063863	8191.035648
548.422684	8152.430492
548.781449	8037.560240
549.140158	8057.903816
549.498811	7926.924557
549.857408	7792.358517
550.215949	7879.099130
550.574434	7741.684838
550.932864	7744.402020
551.291237	7747.653564
551.649555	7652.098493
552.007817	7616.092052
552.366022	7544.958850
552.724173	7487.993812
553.082267	7439.586132
553.440305	7451.074922
553.798288	7301.135883
554.156215	7324.539440
554.514086	7267.065245
554.871902	7142.856255
555.229661	7105.158507
555.587365	7046.718931
555.945014	6948.832326
556.302606	6951.098324
556.660143	6861.383430
557.017625	6878.851028
557.375050	6782.307891
557.732421	6803.999976
558.089735	6705.606735
558.446994	6652.969527
558.804197	6632.504963
559.161345	6580.618887
559.518437	6472.987732
559.875474	6444.442198
560.232455	6414.253248
560.589381	6352.287385
560.946251	6288.698271
561.303065	6308.946065
561.659825	6215.961983
562.016528	6139.679243
562.373177	6056.711932
562.729770	6040.156783
563.086307	5968.837059
563.442789	5968.395958
563.799216	5853.349266
564.155587	5837.411658
564.511904	5770.424806
564.868164	5727.179267
565.224370	5693.637950
565.580520	5605.778200
565.936615	5585.744655
566.292654	5476.465042
566.648638	5487.069110
567.004567	5426.648360
567.360441	5382.598758
567.716260	5297.751097
568.072023	5297.751097
568.427732	5228.215942
568.783385	5171.208054
569.138982	5137.886027
569.494525	5110.134475
569.850013	5028.719840
570.205445	5009.349207
570.560823	4951.950629
570.916145	4880.913209
571.271412	4859.072410
571.626625	4810.573990
571.981782	4765.591774
572.336884	4714.240060
572.691931	4691.196946
573.046923	4625.435094
573.401860	4583.222992
573.756743	4529.481772
574.111570	4505.203575
574.466342	4474.507989
574.821059	4436.565745
575.175722	4381.801170
575.530330	4344.660469
575.884882	4317.087878
576.239380	4265.191720
576.593823	4227.234352
576.948211	4199.215619
577.302544	4150.485305
577.656823	4110.939974
578.011047	4092.668312
578.365216	4054.385789
578.719330	4011.170498
579.073389	3982.153617
579.427394	3948.214048
579.781344	3921.019544
580.135239	3883.820870
580.489080	3856.606201
580.842866	3813.524500
581.196597	3789.760501
581.550273	3775.819190
581.903895	3742.114035
582.257463	3733.097931
582.610975	3688.357691
582.964434	3674.663397
583.317837	3634.321563
583.671186	3618.774644
584.024481	3589.122577
584.377721	3558.270716
584.730906	3533.717776
585.084037	3513.800177
585.437113	3488.906960
585.790135	3467.378712
586.143103	3434.896037
586.496016	3415.860640
586.848874	3400.906058
587.201679	3383.446021
587.554428	3347.225331
587.907124	3338.115966
588.259765	3318.909170
588.612352	3301.358393
588.964884	3279.116822
589.317362	3260.877927
589.669786	3247.453334
590.022155	3241.149372
590.374470	3222.595405
590.726731	3205.624360
591.078937	3173.910462
591.431090	3165.794204
591.783188	3143.494660
592.135232	3123.272071
592.487222	3117.794858
592.839157	3105.106273
593.191038	3087.870568
593.542866	3069.480439
593.894639	3048.627706
594.246358	3039.664535
594.598022	3030.479552
594.949633	3010.793847
595.301190	2996.613081
595.652692	2991.639983
596.004141	2983.984990
596.355535	2961.715693
596.706876	2945.941923
597.058162	2930.788214
597.409395	2928.713780
597.760573	2924.199426
598.111698	2906.215110
598.462768	2899.966600
598.813785	2887.285577
599.164748	2879.544886
599.515657	2869.467619
599.866511	2854.689477
600.217312	2854.278622
600.568060	2840.811180
600.918753	2841.247240
601.269392	2833.219202
601.619978	2819.555155
601.970510	2817.639516
602.320988	2810.849082
602.671412	2808.537713
603.021783	2795.939870
603.372100	2789.716565
603.722363	2784.158693
604.072572	2778.510080
604.422728	2773.542023
604.772830	2762.620363
605.122878	2755.270361
605.472872	2751.733992
605.822813	2747.980852
606.172701	2744.467168
606.522534	2741.235789
606.872314	2740.353587
607.222041	2731.639952
607.571714	2731.599623
607.921333	2725.565362
608.270899	2723.440516
608.620411	2720.728375
608.969870	2716.483723
609.319276	2713.181767
609.668627	2713.743856
610.017926	2711.654298
610.367171	2709.486602
610.716362	2706.779502
611.065500	2700.112576
611.414585	2698.585107
611.763616	2692.739889
612.112594	2691.595547
612.461518	2687.466842
612.810389	2686.763601
613.159207	2684.142201
613.507971	2679.085923
613.856682	2678.133145
614.205340	2674.238854
614.553945	2676.731705
614.902496	2670.457989
615.250994	2670.306754
615.599439	2667.342556
615.947830	2667.539161
616.296169	2665.472287
616.644454	2663.249139
616.992686	2659.627070
617.340864	2661.177224
617.688990	2654.545587
618.037063	2656.340237
618.385082	2654.754794
618.733048	2654.996770
619.080961	2651.861172
619.428821	2649.358239
619.776628	2649.446459
620.124382	2648.690286
620.472083	2645.378248
620.819731	2647.233393
621.167326	2640.352218
621.514868	2644.312044
621.862357	2640.780716
622.209793	2636.442803
622.557176	2634.302833
622.904506	2630.711011
623.251783	2629.302009
623.599007	2627.494755
623.946179	2625.322018
624.293297	2621.415123
624.640363	2623.842439
624.987376	2623.471914
625.334336	2622.446039
625.681243	2621.707510
626.028097	2620.739609
626.374899	2618.871861
626.721647	2619.270113
627.068343	2615.746346
627.414987	2616.409258
627.761577	2614.589401
628.108115	2614.208794
628.454600	2613.182919
628.801032	2611.625203
629.147412	2615.741305
629.493739	2612.018413
629.840014	2610.619492
630.186236	2611.204266
630.532405	2608.255191
630.878521	2611.390789
631.224585	2609.364245
631.570597	2606.488267
631.916556	2605.215376
632.262462	2605.185129
632.608316	2605.585900
632.954117	2600.214551
633.299866	2604.328132
633.645562	2602.964500
633.991206	2602.263780
634.336797	2599.786053
634.682336	2601.686568
635.027823	2596.070722
635.373257	2598.545929
635.718639	2597.388984
636.063968	2594.051740
636.409245	2595.957297
636.754470	2593.194744
637.099642	2593.527460
637.444762	2594.114755
637.789829	2593.421596
638.134845	2591.463108
638.479808	2592.181472
638.824719	2588.037644
639.169577	2593.605598
639.514383	2591.964703
639.859137	2588.254413
640.203839	2594.409662
640.548489	2587.720051
640.893086	2586.560586
641.237632	2584.544124
641.582125	2586.553024
641.926566	2585.633013
642.270955	2586.174937
642.615292	2583.709813
642.959576	2588.980340
643.303809	2587.924218
643.647990	2587.016810
643.992118	2585.509505
644.336195	2586.726944
644.680219	2585.910277
645.024192	2587.707448
645.368112	2588.435895
645.711981	2587.248703
646.055797	2587.566296
646.399562	2590.185175
646.743274	2587.604105
647.086935	2590.260793
647.430544	2590.225505
647.774101	2589.013107
648.117606	2588.335072
648.461059	2591.763057
648.804460	2590.638879
649.147810	2591.357244
649.491108	2589.736513
649.834354	2589.124012
650.177548	2584.019844
650.520690	2583.893815
650.863781	2584.544124
651.206820	2585.527149
651.549807	2584.208888
651.892742	2583.820719
652.235626	2584.415575
652.578458	2583.742581
652.921238	2583.193095
653.263967	2583.568661
653.606644	2580.949782
653.949269	2581.600090
654.291843	2581.068249
654.634365	2579.228227
654.976836	2582.326017
655.319255	2581.794175
655.661622	2581.534555
656.003938	2580.102868
656.346203	2579.813001
656.688416	2581.557241
657.030577	2578.202353
657.372687	2579.485326
657.714746	2577.857034
658.056753	2579.543300
658.398708	2574.318144
658.740612	2573.796384
659.082465	2575.643967
659.424266	2577.196642
659.766016	2575.951477
660.107715	2577.080696
660.449362	2578.361149
660.790958	2577.506673
661.132503	2580.128073
661.473996	2577.541962
661.815438	2579.140007
662.156829	2578.421643
662.498168	2578.187229
662.839456	2576.669842
663.180693	2578.819894
663.521879	2577.199163
663.863013	2578.772003
664.204097	2579.490367
664.545129	2576.947105
664.886110	2576.861406
665.227040	2579.729822
665.567918	2580.430543
665.908746	2579.689493
666.249522	2580.518763
666.590248	2580.256623
666.930922	2579.381983
667.271545	2579.147569
667.612118	2578.963567
667.952639	2582.386510
668.293109	2581.577405
668.633528	2580.100347
668.973896	2576.788309
669.314213	2579.140007
669.654480	2575.785119
669.994695	2580.571695
670.334859	2580.022209
670.674973	2577.108422
671.015035	2578.867785
671.355047	2580.042374
671.695008	2579.543300
672.034918	2575.132290
672.374777	2576.301838
672.714585	2575.991807
673.054342	2578.242682
673.394049	2577.481468
673.733705	2580.841397
674.073310	2579.651684
674.412864	2578.318299
674.752368	2578.444328
675.091820	2579.288721
675.431223	2578.338464
675.770574	2577.224369
676.109875	2571.323698
676.449125	2574.252609
676.788324	2572.538616
677.127473	2574.043401
677.466571	2570.471743
677.805619	2575.359142
678.144616	2575.205387
678.483562	2575.762434
678.822458	2573.322516
679.161303	2577.869637
679.500098	2577.098340
679.838842	2573.987948
680.177535	2573.819069
680.516179	2574.245047
680.854771	2574.129100
681.193314	2574.587845
681.531805	2576.843762
681.870247	2578.328382
682.208638	2577.902404
682.546978	2579.588670
682.885268	2579.744946
683.223508	2578.202353
683.561697	2578.933320
683.899836	2579.676890
684.237925	2576.405181
684.575963	2577.710840
684.913951	2574.134142
685.251889	2579.142528
685.589776	2574.600448
685.927614	2577.151272
686.265401	2578.348546
686.603137	2577.554564
686.940824	2578.585480
687.278460	2577.259657
687.616046	2579.500450
687.953582	2580.733012
688.291068	2579.044225
688.628504	2576.682445
688.965889	2577.912486
689.303224	2578.988773
689.640510	2576.253947
689.977745	2577.579770
690.314930	2575.636405
690.652065	2579.394586
690.989150	2574.713874
691.326185	2572.528534
691.663170	2572.311764
692.000105	2573.350242
692.336990	2571.666497
692.673825	2572.359655
693.010610	2571.467371
693.347345	2568.041907
693.684030	2564.190466
694.020665	2562.882286
694.357251	2561.720300
694.693786	2568.810683
695.030272	2567.731876
695.366707	2567.610888
695.703093	2566.179201
696.039429	2568.881259
696.375716	2566.605178
696.711952	2564.440003
697.048139	2565.796073
697.384276	2566.693398
697.720363	2565.049982
698.056400	2567.646177
698.392388	2568.188101
698.728326	2567.431928
699.064214	2565.322205
699.400053	2565.728018
699.735842	2562.816751
700.071581	2561.730383
700.407270	2562.985630
700.742910	2563.109138
701.078501	2561.886658
701.414042	2563.204920
701.749533	2561.420352
702.084974	2562.103428
702.420366	2565.105435
702.755709	2565.864129
703.091002	2560.230639
703.426246	2563.532595
703.761440	2563.404046
704.096584	2562.252142
704.431679	2561.228788
704.766725	2561.468242
705.101721	2559.892882
705.436668	2563.154508
705.771565	2560.908674
706.106413	2563.343552
706.441212	2561.455640
706.775961	2562.110990
707.110661	2560.545711
707.445311	2560.112172
707.779913	2562.473953
708.114465	2563.073850
708.448967	2562.554611
708.783421	2564.336659
709.117825	2564.944118
709.452180	2562.655434
709.786485	2562.458829
710.120742	2565.969993
710.454949	2565.601989
710.789107	2562.463870
711.123216	2562.867163
711.457275	2565.680127
711.791286	2563.628377
712.125247	2565.750703
712.459159	2570.801939
712.793023	2567.918399
713.126837	2564.384550
713.460602	2567.048800
713.794318	2565.559139
714.127985	2566.388409
714.461602	2565.649880
714.795171	2567.779767
715.128691	2561.480845
715.462162	2565.607030
715.795584	2564.603840
716.128957	2564.235836
716.462281	2563.330949
716.795556	2563.623336
717.128782	2562.310115
717.461960	2560.979251
717.795088	2560.434806
718.128167	2560.618808
718.461198	2559.058571
718.794180	2558.730896
719.127113	2557.573951
719.459997	2560.689384
719.792833	2558.194013
720.125619	2556.797613
720.458357	2558.516647
720.791046	2557.117727
721.123686	2556.943807
721.456278	2557.526060
721.788821	2559.300546
722.121315	2557.490772
722.453761	2557.168138
722.786158	2554.687891
723.118506	2557.377346
723.450805	2555.358364
723.783056	2558.050340
724.115259	2557.959599
724.447412	2554.740823
724.779518	2558.882131
725.111574	2556.825340
725.443582	2559.567727
725.775542	2555.461708
726.107453	2558.743499
726.439315	2558.793910
726.771129	2563.666186
727.102895	2561.100238
727.434612	2563.209961
727.766281	2560.568397
728.097901	2559.204764
728.429473	2557.503375
728.760996	2559.028324
729.092471	2557.644527
729.423897	2559.582851
729.755276	2556.792572
730.086606	2561.652245
730.417887	2562.748696
730.749120	2565.221382
731.080305	2563.013356
731.411442	2563.484704
731.742530	2560.500341
732.073570	2564.576114
732.404562	2561.969837
732.735506	2562.289951
733.066401	2563.721638
733.397249	2565.758264
733.728048	2562.375650
734.058798	2561.659806
734.389501	2556.583364
734.720156	2558.577141
735.050762	2558.191493
735.381320	2554.735782
735.711831	2556.243087
736.042293	2554.496327
736.372707	2555.529763
736.703073	2557.057233
737.033391	2555.741492
737.363661	2554.851728
737.693883	2556.384239
738.024056	2555.572613
738.354182	2556.046482
738.684260	2560.623849
739.014290	2558.191492
739.344272	2557.362223
739.674207	2557.949517
740.004093	2559.902964
740.333931	2558.393139
740.663722	2558.962789
740.993464	2558.360371
741.323159	2559.978582
741.652806	2555.975905
741.982405	2558.468756
742.311956	2558.304918
742.641460	2558.897254
742.970915	2554.856769
743.300323	2556.792572
743.629683	2555.459187
743.958996	2555.670916
744.288260	2553.848538
744.617477	2554.561862
744.946647	2550.730585
745.275768	2552.716799
745.604842	2548.343598
745.933869	2550.445760
746.262847	2548.441901
746.591778	2552.386604
746.920662	2551.335523
747.249498	2553.669578
747.578286	2553.170503
747.907027	2555.774259
748.235720	2554.831563
748.564365	2552.515153
748.892963	2552.590771
749.221514	2552.555482
749.550017	2554.544218
749.878473	2555.529763
750.206881	2551.950544
750.535242	2552.336192
750.863555	2552.346275
751.191821	2557.692418
751.520039	2555.769218
751.848210	2554.861810
752.176334	2554.377860
752.504411	2554.561862
752.832440	2551.567416
753.160421	2553.886347
753.488356	2548.807385
753.816243	2554.130843
754.144082	2550.901984
754.471875	2552.578168
754.799620	2549.566078
755.127318	2551.905174
755.454969	2550.765873
755.782572	2550.460883
756.110129	2552.600853
756.437638	2552.610935
756.765100	2550.453321
757.092515	2552.331151
757.419882	2550.460883
757.747203	2551.322920
758.074477	2551.769063
758.401703	2554.680329
758.728882	2552.487427
759.056014	2555.678477
759.383099	2552.641182
759.710138	2555.696121
760.037129	2553.074721
760.364073	2552.545400
760.690970	2552.797458
761.017820	2553.205791
761.344623	2555.093703
761.671379	2552.905843
761.998088	2551.406099
762.324751	2553.898950
762.651366	2559.769374
762.977935	2571.091805
763.304456	2574.986097
763.630931	2576.906776
763.957359	2576.193453
764.283740	2572.215982
764.610074	2565.445713
764.936362	2559.834909
765.262602	2560.056719
765.588796	2558.516647
765.914943	2553.702345
766.241044	2554.395504
766.567097	2552.137067
766.893104	2551.048177
767.219064	2547.665563
767.544978	2549.805533
767.870845	2550.637323
768.196665	2552.104299
768.522438	2548.371325
768.848165	2549.263609
769.173846	2549.326623
769.499479	2549.760163
769.825066	2550.140770
770.150607	2547.562220
770.476101	2547.249668
770.801548	2548.709082
771.126949	2548.545245
771.452303	2548.457024
771.777611	2548.618341
772.102872	2544.638350
772.428087	2545.636499
772.753256	2548.799823
773.078378	2546.188505
773.403453	2546.876623
773.728482	2545.104657
774.053465	2547.383259
774.378401	2544.250182
774.703291	2546.990049
775.028135	2544.187167
775.352932	2545.175233
775.677683	2545.492826
776.002388	2543.990562
776.327046	2549.518187
776.651658	2546.435522
776.976224	2543.761190
777.300743	2546.473330
777.625216	2544.119112
777.949643	2546.685059
778.274024	2543.907383
778.598359	2539.690458
778.922647	2539.345139
779.246889	2542.001827
779.571086	2540.431507
779.895236	2542.369831
780.219339	2542.014430
780.543397	2543.357897
780.867409	2543.720860
781.191374	2543.504091
781.515294	2544.673638
781.839167	2544.925696
782.162995	2544.098947
782.486776	2544.161961
782.810511	2543.967877
783.134201	2543.423432
783.457844	2544.726571
783.781441	2544.628268
784.104993	2544.252702
784.428498	2541.578370
784.751958	2543.345294
785.075372	2541.628782
785.398739	2544.708927
785.722061	2542.921838
786.045337	2542.863864
786.368568	2543.579708
786.691752	2546.024668
787.014891	2546.180943
787.337983	2545.366797
787.661030	2545.734801
787.984031	2545.797816
788.306987	2549.843342
788.629897	2549.014072
788.952760	2545.883515
789.275579	2543.912424
789.598351	2549.112374
789.921078	2546.301931
790.243759	2545.651622
790.566395	2546.569112
790.888984	2546.034750
791.211529	2545.523073
791.534027	2541.752290
791.856480	2544.262784
792.178888	2543.476364
792.501249	2542.687424
792.823566	2541.195242
793.145836	2541.084337
793.468062	2542.637012
793.790241	2542.619368
794.112375	2543.373021
794.434464	2542.896632
794.756507	2543.420912
795.078505	2545.500388
795.400457	2542.142979
795.722364	2538.944367
796.044226	2544.119112
796.366042	2542.921838
796.687812	2542.765562
797.009538	2544.103988
797.331218	2543.262115
797.652852	2545.397044
797.974442	2544.910573
798.295986	2542.427804
798.617484	2540.633154
798.938938	2543.884698
799.260346	2543.191539
799.581709	2543.592311
799.903026	2545.376879
800.224299	2541.364121
800.545526	2541.941333
800.866708	2543.955274
801.187845	2541.366642
801.508936	2542.730274
801.829983	2543.519214
802.150984	2544.855120
802.471940	2543.587270
802.792851	2540.353370
803.113717	2540.696168
803.434538	2540.920499
803.755314	2542.389996
804.076045	2542.122815
804.396731	2542.639533
804.717372	2541.790098
805.037967	2543.836807
805.358518	2542.362269
805.679024	2545.107178
805.999485	2541.192722
806.319901	2541.555685
806.640272	2539.990407
806.960598	2540.585263
807.280879	2541.732125
807.601115	2545.397044
807.921306	2541.008720
808.241453	2543.189019
808.561554	2543.919986
808.881611	2544.535007
809.201623	2541.865716
809.521590	2544.295552
809.841513	2542.924358
810.161390	2543.584749
810.481223	2541.674152
810.801011	2543.030222
811.120755	2541.432177
811.440453	2543.025181
811.760107	2543.090716
812.079716	2539.319933
812.399281	2534.929088
812.718801	2538.699871
813.038276	2537.900848
813.357707	2540.882691
813.677093	2540.307999
813.996434	2541.409491
814.315731	2539.884542
814.634983	2541.318751
814.954191	2540.378575
815.273354	2544.492157
815.592473	2543.090716
815.911547	2540.255067
816.230577	2543.224307
816.549562	2544.040974
816.868502	2543.925027
817.187399	2546.054915
817.506250	2542.672300
817.825058	2542.964687
818.143821	2543.519214
818.462539	2547.688248
818.781213	2543.811601
819.099843	2547.965512
819.418429	2548.933413
819.736970	2550.213867
820.055466	2552.207643
820.373919	2558.002449
820.692327	2559.292985
821.010691	2568.377144
821.329011	2586.873137
821.647286	2619.194495
821.965517	2657.567758
822.283704	2678.294462
822.601847	2687.809640
822.919945	2670.447906
823.237999	2647.666932
823.556010	2625.460649
823.873976	2608.403905
824.191897	2593.726586
824.509775	2589.169383
824.827609	2574.550037
825.145398	2570.156671
825.463144	2572.233627
825.780845	2571.714388
826.098502	2577.441138
826.416116	2587.069742
826.733685	2598.276227
827.051210	2602.407453
827.368692	2598.180445
827.686129	2584.982705
828.003522	2575.810325
828.320872	2564.465208
828.638177	2557.263920
828.955439	2551.774104
829.272656	2551.206974
829.589830	2546.599359
829.906960	2548.646068
830.224046	2547.685728
830.541088	2545.999462
830.858086	2546.435522
831.175041	2549.997097
831.491952	2544.683721
831.808819	2544.756818
832.125642	2545.996941
832.442421	2546.410316
832.759157	2554.627397
833.075849	2559.792059
833.392497	2566.133830
833.709101	2571.371589
834.025662	2571.711867
834.342179	2568.946794
834.658653	2562.660475
834.975083	2556.812737
835.291469	2559.136709
835.607811	2553.583878
835.924110	2543.826725
836.240366	2545.661705
836.556578	2547.126160
836.872746	2543.148689
837.188871	2540.824717
837.504952	2542.465613
837.820990	2540.824717
838.136984	2540.683565
838.452935	2538.447813
838.768842	2540.736497
839.084706	2540.441590
839.400526	2544.126673
839.716303	2546.740512
840.032037	2553.725030
840.347727	2549.752601
840.663373	2547.378218
840.978977	2545.679349
841.294537	2539.682896
841.610054	2543.025181
841.925527	2539.186342
842.240957	2539.153575
842.556344	2543.143648
842.871687	2539.778678
843.186987	2538.820859
843.502244	2539.491332
843.817458	2534.810621
844.132629	2538.016795
844.447756	2536.393543
844.762840	2528.960362
845.077881	2533.275590
845.392879	2532.968079
845.707833	2534.074613
846.022745	2532.816845
846.337613	2537.946219
846.652438	2537.409336
846.967221	2537.414377
847.281960	2536.597710
847.596656	2537.633667
847.911309	2532.751310
848.225919	2537.568132
848.540485	2535.934798
848.855009	2538.972093
849.169490	2535.095446
849.483928	2537.996630
849.798323	2534.311547
850.112675	2532.403470
850.426984	2533.252904
850.741251	2537.038811
851.055474	2532.053110
851.369654	2534.871115
851.683792	2534.810621
851.997887	2531.927081
852.311938	2536.690971
852.625947	2536.489325
852.939914	2537.036290
853.253837	2534.891279
853.567718	2536.474202
853.881555	2535.876825
854.195350	2536.297761
854.509103	2533.883049
854.822812	2532.957997
855.136479	2537.532844
855.450103	2535.206352
855.763685	2534.939170
856.077224	2534.704757
856.390720	2536.804397
856.704173	2534.760209
857.017584	2536.012936
857.330953	2532.670651
857.644278	2536.582587
857.957561	2539.907227
858.270802	2535.276928
858.584000	2536.663245
858.897155	2535.957483
859.210268	2534.792977
859.523339	2536.940508
859.836367	2535.113090
860.149352	2538.654501
860.462295	2536.083512
860.775195	2534.798018
861.088054	2527.997502
861.400869	2531.143182
861.713642	2531.012112
862.026373	2533.356248
862.339062	2533.303316
862.651708	2535.216434
862.964312	2534.777853
863.276873	2536.496887
863.589392	2535.269366
863.901869	2536.746424
864.214303	2535.166022
864.526696	2536.438914
864.839045	2538.223482
865.151353	2534.561084
865.463619	2536.149047
865.775842	2534.674510
866.088023	2536.658204
866.400162	2536.960673
866.712258	2535.844057
867.024313	2537.026208
867.336325	2534.162833
867.648296	2537.936136
867.960224	2535.226516
868.272110	2534.571166
868.583954	2534.167874
868.895755	2538.654501
869.207515	2537.421939
869.519233	2541.195242
869.830909	2534.999664
870.142542	2538.480581
870.454134	2536.151568
870.765684	2535.450848
871.077191	2532.257277
871.388657	2535.488656
871.700081	2535.755837
872.011463	2535.579397
872.322803	2535.793646
872.634101	2539.879501
872.945357	2536.748945
873.256571	2538.624254
873.567744	2537.716846
873.878874	2537.989068
874.189963	2538.886394
874.501010	2538.604089
874.812015	2537.590817
875.122979	2539.536703
875.433900	2536.665766
875.744780	2538.725077
876.055618	2539.882022
876.366415	2539.385468
876.677169	2540.459234
876.987882	2538.674665
877.298554	2536.882535
877.609183	2537.991589
877.919771	2537.663914
878.230317	2538.520910
878.540822	2543.199101
878.851285	2543.020140
879.161707	2545.674308
879.472087	2548.494833
879.782425	2553.515822
880.092722	2556.900957
880.402977	2567.076526
880.713191	2586.111923
881.023363	2607.466251
881.333494	2620.386728
881.643583	2625.221195
881.953631	2623.547532
882.263637	2615.292642
882.573602	2610.223762
882.883526	2601.127000
883.193408	2587.994794
883.503248	2581.307703
883.813048	2576.511046
884.122806	2569.130796
884.432522	2565.102914
884.742197	2559.275341
885.051831	2557.064795
885.361424	2552.840308
885.670975	2548.951058
885.980485	2549.119936
886.289954	2545.810419
886.599382	2545.722198
886.908768	2546.100285
887.218113	2542.853782
887.527417	2542.400078
887.836680	2541.076775
888.145901	2540.454193
888.455082	2540.192053
888.764221	2540.378575
889.073319	2540.073586
889.382376	2537.464788
889.691392	2542.120294
890.000366	2539.546785
890.309300	2538.165509
890.618193	2541.558205
890.927044	2539.753472
891.235855	2539.508976
891.544625	2539.077958
891.853353	2541.510314
892.162041	2542.316899
892.470687	2543.453679
892.779293	2541.064172
893.087858	2543.052908
893.396381	2542.473175
893.704864	2547.310162
894.013306	2550.564227
894.321707	2558.562017
894.630068	2566.796742
894.938387	2571.109449
895.246665	2565.871690
895.554903	2564.291289
895.863100	2561.538819
896.171256	2553.858621
896.479371	2555.131512
896.787446	2550.624721
897.095480	2549.316541
897.403473	2546.909390
897.711425	2545.026519
898.019336	2543.703216
898.327207	2541.906045
898.635038	2542.836138
898.942827	2542.178267
899.250576	2541.855633
899.558284	2540.345808
899.865952	2539.859337
900.173579	2538.228523
900.481165	2536.426311
900.788711	2539.798843
901.096216	2539.599717
901.403681	2538.657021
901.711105	2539.619882
902.018489	2538.563760
902.325832	2541.038967
902.633135	2539.030067
902.940397	2540.353370
903.247619	2543.357897
903.554800	2550.400389
903.861941	2559.852553
904.169041	2571.779923
904.476101	2577.867116
904.783121	2579.843248
905.090100	2574.897876
905.397039	2568.107442
905.703938	2560.898592
906.010796	2553.626728
906.317614	2546.770758
906.624391	2548.837632
906.931129	2546.102806
907.237826	2542.226158
907.544483	2539.884542
907.851099	2537.837834
908.157675	2536.398584
908.464211	2535.667617
908.770707	2534.099818
909.077163	2534.185518
909.383578	2534.182997
909.689954	2530.800383
909.996289	2530.845753
910.302584	2535.410518
910.608839	2538.009233
910.915054	2537.787422
911.221229	2534.835827
911.527363	2533.802390
911.833458	2537.038811
912.139513	2535.917154
912.445527	2534.369520
912.751502	2535.239119
913.057436	2536.181815
913.363331	2538.107536
913.669186	2541.001158
913.975000	2539.191384
914.280775	2540.555016
914.586510	2546.047353
914.892205	2549.951727
915.197859	2552.414330
915.503475	2561.589230
915.809050	2568.059551
916.114585	2577.564647
916.420081	2575.699420
916.725536	2574.071127
917.030952	2570.960735
917.336328	2564.535785
917.641665	2561.546380
917.946961	2559.056050
918.252218	2554.889537
918.557435	2551.784186
918.862612	2550.584391
919.167750	2548.325954
919.472848	2544.971067
919.777906	2543.859492
920.082925	2541.666590
920.387904	2541.291024
920.692843	2538.079809
920.997743	2538.863709
921.302603	2538.528472
921.607423	2536.721218
921.912204	2536.030580
922.216946	2538.301620
922.521647	2536.849768
922.826310	2534.561084
923.130932	2538.372196
923.435516	2531.826258
923.740059	2534.515713
924.044564	2534.230888
924.349028	2533.968748
924.653454	2529.391381
924.957840	2531.382636
925.262186	2529.129241
925.566493	2533.862884
925.870761	2527.458098
926.174989	2535.415559
926.479178	2530.850795
926.783328	2530.250897
927.087438	2530.467667
927.391509	2529.492204
927.695541	2530.245856
927.999533	2532.710980
928.303486	2530.394570
928.607400	2531.980013
928.911275	2530.699560
929.215110	2533.792308
929.518906	2530.339117
929.822663	2533.421783
930.126381	2529.577903
930.430060	2532.741227
930.733699	2531.407842
931.037299	2531.995137
931.340861	2530.868439
931.644383	2532.146371
931.947866	2531.264169
932.251309	2532.055630
932.554714	2532.617719
932.858080	2533.840199
933.161407	2529.174611
933.464694	2529.308202
933.767943	2535.027391
934.071153	2533.857843
934.374323	2531.213758
934.677455	2532.670651
934.980548	2529.686288
935.283602	2529.590506
935.586617	2531.667462
935.889593	2530.568490
936.192530	2531.448171
936.495428	2531.838861
936.798287	2533.729293
937.101108	2530.596216
937.403890	2532.758871
937.706632	2533.978831
938.009336	2530.550846
938.312002	2531.236443
938.614628	2533.109232
938.917216	2533.585621
939.219765	2533.630991
939.522275	2536.149047
939.824747	2533.323481
940.127179	2531.982534
940.429573	2529.890455
940.731929	2530.860877
941.034246	2529.459436
941.336524	2533.968748
941.638763	2531.170908
941.940964	2532.957997
942.243126	2532.126207
942.545250	2531.773326
942.847335	2531.448171
943.149381	2531.259128
943.451389	2530.996988
943.753359	2530.775177
944.055290	2528.862059
944.357182	2531.780888
944.659036	2532.736186
944.960851	2529.313243
945.262628	2532.426155
945.564367	2530.946577
945.866067	2529.081350
946.167729	2532.942873
946.469352	2529.666123
946.770937	2530.084539
947.072484	2531.251566
947.373992	2529.930784
947.675462	2533.086546
947.976893	2532.242153
948.278286	2530.686957
948.579641	2530.981865
948.880958	2531.821217
949.182236	2533.600744
949.483476	2532.264838
949.784678	2532.020342
950.085841	2528.511699
950.386967	2531.372554
950.688054	2532.234591
950.989103	2529.855167
951.290114	2531.738038
951.591087	2527.974816
951.892021	2531.521268
952.192917	2532.262318
952.493776	2531.455733
952.794596	2532.214427
953.095378	2531.874149
953.396122	2532.579910
953.696828	2533.141999
953.997496	2534.689633
954.298126	2530.389529
954.598718	2532.133768
954.899272	2529.373737
955.199788	2531.100332
955.500266	2528.368026
955.800706	2526.636390
956.101108	2526.558252
956.401472	2528.710825
956.701798	2524.138498
957.002087	2525.799558
957.302337	2528.574714
957.602550	2530.409694
957.902724	2530.868439
958.202861	2530.044210
958.502960	2526.976668
958.803022	2528.940197
959.103045	2530.152595
959.403031	2526.049096
959.702979	2528.909950
960.002889	2532.020342
960.302762	2528.415917
960.602596	2526.759898
960.902393	2529.078829
961.202153	2526.893489
961.501875	2527.843746
961.801559	2527.412728
962.101205	2528.849457
962.400814	2527.695032
962.700385	2528.405835
962.999918	2529.373737
963.299414	2526.417100
963.598873	2530.727286
963.898293	2529.444313
964.197677	2530.346679
964.497022	2527.284178
964.796331	2526.417100
965.095601	2527.518592
965.394835	2526.482635
965.694030	2529.729138
965.993189	2529.106555
966.292309	2527.180835
966.591393	2526.896009
966.890439	2527.324507
967.189447	2529.356092
967.488419	2527.511030
967.787353	2529.635877
968.086249	2526.903571
968.385108	2528.352903
968.683930	2525.497089
968.982714	2527.687471
969.281462	2528.799045
969.580172	2527.059847
969.878844	2528.448685
970.177480	2528.151257
970.476078	2526.802748
970.774639	2529.567821
971.073162	2526.333921
971.371649	2525.237470
971.670098	2524.645134
971.968510	2526.832995
972.266885	2524.695546
972.565223	2527.997502
972.863524	2529.174611
973.161788	2527.276617
973.460014	2528.236956
973.758204	2528.650331
974.056356	2527.362316
974.354471	2526.860721
974.652550	2529.507327
974.950591	2527.286699
975.248595	2526.036493
975.546563	2526.573376
975.844493	2529.577903
976.142386	2528.985568
976.440243	2528.249559
976.738062	2527.803417
977.035845	2527.997502
977.333590	2525.950793
977.631299	2526.311236
977.928971	2525.625639
978.226606	2528.655372
978.524204	2525.502130
978.821765	2527.894158
979.119290	2527.750485
979.416777	2524.274609
979.714228	2528.219312
980.011642	2528.247039
980.309020	2527.483304
980.606360	2529.701412
980.903664	2528.264683
981.200931	2530.679395
981.498162	2527.523633
981.795356	2528.514220
982.092513	2528.032790
982.389633	2527.944569
982.686717	2530.800383
982.983764	2529.764426
983.280775	2530.951618
983.577749	2529.943387
983.874686	2530.618902
984.171587	2528.325177
984.468451	2529.562780
984.765279	2528.625125
985.062070	2527.092614
985.358824	2527.206040
985.655543	2528.332738
985.952224	2528.877183
986.248869	2526.291071
986.545478	2522.832839
986.842050	2526.427182
987.138586	2524.322500
987.435086	2523.215967
987.731549	2522.729496
988.027975	2529.197296
988.324366	2527.571524
988.620719	2527.090094
988.917037	2528.489014
989.213318	2527.067409
989.509563	2525.756709
989.805772	2527.818541
990.101944	2527.342152
990.398080	2527.894158
990.694180	2527.029600
990.990244	2525.373581
991.286271	2528.423479
991.582262	2527.027079
991.878217	2529.356092
992.174136	2527.266534
992.470019	2527.342152
992.765865	2526.008766
993.061676	2528.088242
993.357450	2527.942049
993.653188	2529.875331
993.948890	2527.367357
994.244556	2528.761236
994.540186	2528.662934
994.835780	2523.127747
995.131337	2529.494724
995.426859	2525.943231
995.722345	2524.655217
996.017795	2527.616894
996.313208	2527.372398
996.608586	2526.764939
996.903928	2530.644107
997.199234	2522.979033
997.494504	2525.912984
997.789738	2527.967255
998.084936	2526.170083
998.380099	2527.135464
998.675225	2527.349713
998.970316	2525.827285
999.265371	2524.256965
999.560390	2525.360978
999.855373	2527.397604
1000.150320	2525.764270
1000.445232	2526.903571
1000.740108	2526.270906
1001.034948	2526.754857
1001.329752	2528.431041
1001.624521	2529.744261
1001.919254	2523.720082
1002.213951	2522.764784
1002.508613	2522.580782
1002.803239	2522.827798
1003.097829	2521.567510
1003.392384	2528.862059
1003.686903	2524.269568
1003.981386	2529.257790
1004.275834	2526.243180
1004.570246	2524.927439
1004.864623	2529.426669
1005.158964	2526.941380
1005.453270	2527.589168
1005.747540	2528.552028
1006.041775	2524.768643
1006.335974	2528.645290
1006.630138	2522.003570
1006.924266	2524.070443
1007.218359	2525.877696
1007.512416	2525.116482
1007.806438	2522.028775
1008.100425	2526.091945
1008.394376	2527.311905
1008.688292	2526.938859
1008.982172	2525.078673
1009.276017	2527.397604
1009.569827	2523.029444
1009.863602	2527.634538
1010.157341	2527.891637
1010.451045	2527.248890
1010.744714	2522.979033
1011.038347	2526.563293
1011.331945	2526.911133
1011.625508	2528.902389
1011.919036	2525.920546
1012.212528	2527.374919
1012.505986	2523.621780
1012.799408	2528.146216
1013.092795	2524.135978
1013.386147	2527.551359
1013.679464	2526.364168
1013.972745	2525.479445
1014.265992	2526.575896
1014.559204	2523.957017
1014.852380	2524.526667
1015.145521	2525.360978
1015.438628	2525.164373
1015.731699	2524.080525
1016.024736	2525.277799
1016.317737	2527.241328
1016.610703	2528.325177
1016.903635	2525.028262
1017.196531	2522.328724
1017.489393	2523.064733
1017.782219	2523.309228
1018.075011	2526.066740
1018.367768	2524.894671
1018.660490	2526.056657
1018.953177	2526.056657
1019.245829	2526.056657
