Dividing Wavelength (nm)	Counts (n)	Blue Motor Position (mm): 0.000000	Red Motor Position (mm): 25.600000	
326.493990	2127.245935
326.888308	2127.245935
327.282561	2127.245935
327.676750	2093.717221
328.070874	2092.366192
328.464933	2095.622777
328.858929	2104.336412
329.252859	2113.902001
329.646726	2124.294340
330.040528	2137.517286
330.434265	2154.498413
330.827938	2169.896618
331.221547	2189.287416
331.615091	2207.987576
332.008571	2229.311657
332.401986	2245.387896
332.795338	2264.009919
333.188625	2283.728392
333.581847	2303.489715
333.975006	2320.501089
334.368100	2340.136383
334.761129	2357.914012
335.154095	2375.258102
335.546996	2390.258055
335.939833	2410.417629
336.332606	2423.655699
336.725315	2435.144489
337.117960	2445.766200
337.510540	2454.484876
337.903056	2467.049952
338.295508	2475.113277
338.687896	2477.510346
339.080220	2492.911071
339.472480	2495.749240
339.864676	2500.193018
340.256807	2505.768534
340.648875	2508.478154
341.040879	2511.011334
341.432818	2511.951509
341.824694	2514.504853
342.216506	2514.091479
342.608253	2512.874040
342.999937	2514.761952
343.391557	2514.099040
343.783113	2512.889163
344.174605	2513.511746
344.566033	2511.901097
344.957397	2509.705675
345.348697	2506.582680
345.739934	2505.261898
346.131106	2504.064624
346.522215	2502.726197
346.913260	2500.490446
347.304241	2499.204951
347.695159	2496.717142
348.086012	2495.751761
348.476802	2494.748571
348.867528	2492.908550
349.258191	2492.361585
349.648789	2491.822182
350.039324	2486.980153
350.429796	2489.263796
350.820203	2485.238435
351.210548	2485.742550
351.600828	2483.801706
351.991045	2486.279433
352.381198	2484.139463
352.771288	2483.630307
353.161314	2483.534525
353.551276	2482.039823
353.941175	2482.967395
354.331010	2482.349853
354.720782	2482.022178
355.110490	2483.907570
355.500135	2480.885398
355.889717	2485.561068
356.279235	2481.099647
356.668689	2486.942345
357.058080	2482.097796
357.447408	2481.636530
357.836672	2482.780872
358.225873	2482.901860
358.615010	2477.026395
359.004084	2486.728096
359.393095	2486.735657
359.782043	2488.028713
360.170927	2485.966881
360.559748	2488.003508
360.948505	2488.505102
361.337199	2491.489465
361.725830	2489.873776
362.114398	2491.244969
362.502903	2490.700525
362.891344	2495.003150
363.279722	2493.508448
363.668037	2494.108345
364.056289	2493.674806
364.444478	2496.591113
364.832603	2497.453150
365.220665	2496.447440
365.608665	2497.004488
365.996601	2495.872749
366.384474	2499.875425
366.772284	2501.659993
367.160031	2499.643532
367.547715	2503.920951
367.935336	2504.170488
368.322893	2509.468741
368.710388	2506.280211
369.097820	2521.895185
369.485189	2522.762263
369.872495	2527.208561
370.259738	2534.026722
370.646918	2539.781199
371.034035	2548.910728
371.421090	2556.230484
371.808081	2571.099367
372.195010	2578.252764
372.581875	2593.751792
372.968678	2604.958277
373.355418	2615.297683
373.742096	2634.648152
374.128710	2646.378917
374.515262	2660.980619
374.901751	2678.990142
375.288177	2690.446164
375.674540	2714.333671
376.060841	2731.687843
376.447079	2751.068559
376.833254	2773.814245
377.219367	2780.760955
377.605417	2822.269816
377.991404	2828.909016
378.377329	2853.003211
378.763191	2869.114738
379.148991	2907.561098
379.534727	2932.489604
379.920402	2962.164356
380.306013	2974.469813
380.691563	3023.878161
381.077049	3043.082437
381.462474	3063.874676
381.847835	3103.099894
382.233134	3122.997328
382.618371	3121.812657
383.003545	3189.785055
383.388657	3198.844008
383.773706	3231.740058
384.158693	3245.073910
384.543618	3274.413425
384.928480	3309.913231
385.313280	3355.538193
385.698017	3353.962833
386.082692	3407.431831
386.467305	3412.351997
386.851856	3444.396092
387.236344	3468.588589
387.620770	3499.206037
388.005133	3523.859800
388.389435	3547.233110
388.773674	3563.518557
389.157851	3606.983386
389.541965	3618.300776
389.926018	3584.068821
390.310008	3658.309893
390.693936	3676.319416
391.077802	3714.453224
391.461606	3705.427038
391.845348	3765.668826
392.229027	3765.293260
392.612645	3781.361938
392.996200	3857.755584
393.379694	3898.586409
393.763125	3963.594609
394.146494	3929.075308
394.529801	3993.125688
394.913047	4040.333573
395.296230	4003.538191
395.679351	4059.890729
396.062410	4082.049121
396.445408	4068.362388
396.828343	4097.618725
397.211217	4118.292497
397.594028	4040.867935
397.976778	4109.536013
398.359466	4133.814209
398.742092	4166.622039
399.124656	4083.964760
399.507158	4165.510464
399.889598	4188.203218
400.271977	4252.767796
400.654294	4222.767890
401.036549	4231.383222
401.418742	4204.100497
401.800874	4303.814520
402.182944	4324.558868
402.564952	4391.911204
402.946898	4377.453175
403.328783	4373.566445
403.710606	4286.024288
404.092367	4478.556036
404.474067	4444.639153
404.855705	4452.750369
405.237282	4379.814955
405.618797	4487.809074
406.000250	4521.642778
406.381642	4602.744861
406.762972	4565.057195
407.144240	4575.510027
407.525447	4573.906940
407.906593	4634.168893
408.287677	4675.539122
408.668700	4606.772743
409.049661	4657.285104
409.430560	4701.347309
409.811399	4624.855362
410.192176	4785.627840
410.572891	4724.196339
410.953545	4831.963606
411.334138	4709.660172
411.714669	4776.752889
412.095139	4669.608205
412.475547	4812.474505
412.855894	4796.514212
413.236180	4802.944203
413.616405	4756.857975
413.996568	4842.570193
414.376670	4786.414260
414.756711	4743.105707
415.136691	4773.869349
415.516609	4848.901882
415.896466	4883.242222
416.276262	4920.219086
416.655997	4898.481631
417.035670	5084.243109
417.415283	5169.383156
417.794834	5117.610506
418.174324	5074.143157
418.553753	4978.890555
418.933121	5164.488196
419.312428	5229.866920
419.691674	5168.964740
420.070859	5293.380417
420.449983	5207.663158
420.829045	5324.557433
421.208047	5227.172423
421.586988	5300.296880
421.965867	5310.837933
422.344686	5444.476401
422.723444	5295.853103
423.102141	5115.566318
423.480777	5418.801804
423.859352	5185.469478
424.237866	5443.692501
424.616319	5433.128763
424.994712	5542.531884
425.373044	5417.576804
425.751314	5564.975101
426.129524	5368.158373
426.507673	5558.131735
426.885762	5642.434951
427.263789	5574.084466
427.641756	5457.016271
428.019662	5576.239559
428.397508	5584.348255
428.775292	5529.442528
429.153016	5629.948012
429.530679	5554.955808
429.908282	5638.901102
430.285824	5510.896123
430.663305	5783.569614
431.040726	5517.973903
431.418086	5519.057751
431.795385	5624.818638
432.172624	5634.061594
432.549802	5631.606552
432.926920	5642.366895
433.303977	5648.237319
433.680974	5692.785995
434.057910	5702.996852
434.434786	5707.579261
434.811601	5674.970557
435.188355	5905.976391
435.565050	5786.054903
435.941683	5762.240492
436.318257	5970.782945
436.694770	5947.815448
437.071222	5983.300130
437.447614	5911.443523
437.823946	5819.177804
438.200218	5968.736236
438.576429	5828.733312
438.952580	5921.437610
439.328670	5960.504032
439.704700	5863.124063
440.080670	5839.269323
440.456580	6103.511484
440.832429	5974.720086
441.208218	5815.701929
441.583947	5964.526873
441.959616	5956.813907
442.335224	5872.036823
442.710773	5994.110884
443.086261	6007.074211
443.461689	5797.445390
443.837057	5925.301655
444.212365	6062.978087
444.587612	5945.272186
444.962800	6072.074849
445.337927	6038.939345
445.712995	5662.108053
446.088002	6176.247773
446.462949	6000.288818
446.837837	5912.350930
447.212664	6055.489453
447.587431	6155.163147
447.962139	6617.139526
448.336786	7399.070379
448.711374	7146.415310
449.085901	6312.230377
449.460369	6210.257917
449.834776	6116.043793
450.209124	6418.613847
450.583412	6505.936713
450.957640	6603.314162
451.331808	6366.624427
451.705917	5952.828875
452.079965	5861.528538
452.453954	5985.399770
452.827883	5854.453278
453.201752	5887.578700
453.575562	5692.796077
453.949311	5800.066790
454.323001	5678.660682
454.696632	5699.064752
455.070202	5750.111476
455.443713	5815.205375
455.817164	5833.265309
456.190556	5841.215208
456.563888	5840.305280
456.937160	5821.635367
457.310373	5535.020565
457.683526	5493.005068
458.056619	5374.535432
458.429653	5310.134692
458.802628	5217.790836
459.175542	5240.660030
459.548398	5388.711157
459.921194	5429.294966
460.293930	5371.782962
460.666607	5587.415797
461.039224	5696.420667
461.411782	5700.836718
461.784280	5638.228108
462.156719	5514.046844
462.529099	5375.208426
462.901419	5104.337148
463.273680	4986.706864
463.645882	4936.817085
464.018024	4796.713337
464.390106	4816.787212
464.762130	4916.869239
465.134094	5053.015681
465.505999	5409.853756
465.877845	5820.183515
466.249631	5994.304968
466.621358	5739.958592
466.993026	5392.514707
467.364634	5205.518147
467.736184	4989.023274
468.107674	4801.842711
468.479105	4725.307914
468.850477	4592.317234
469.221790	4447.936067
469.593043	4278.742341
469.964238	4168.542718
470.335373	4112.280921
470.706449	4067.873397
471.077467	4011.626722
471.448425	4263.016462
471.819324	4443.522537
472.190164	4384.898959
472.560945	4049.853792
472.931667	3822.752332
473.302330	3743.591093
473.672934	3626.122126
474.043479	3637.620998
474.413965	3583.136207
474.784393	3510.412522
475.154761	3492.024913
475.525070	3460.361426
475.895321	3395.771642
476.265513	3375.203735
476.635645	3364.208978
477.005719	3323.131136
477.375734	3297.612815
477.745691	3286.691155
478.115588	3260.245262
478.485427	3247.556678
478.855207	3270.577107
479.224928	3310.752583
479.594591	3335.066068
479.964194	3266.710542
480.333739	3215.288252
480.703226	3161.375632
481.072653	3138.705564
481.442022	3125.825416
481.811333	3110.419649
482.180584	3062.979871
482.549777	3013.037160
482.918912	2979.664722
483.287988	2956.069601
483.657005	2934.750561
484.025964	2895.820251
484.394864	2878.234186
484.763706	2853.925742
485.132489	2828.326762
485.501213	2811.816984
485.869879	2799.171249
486.238487	2777.022940
486.607036	2769.889707
486.975527	2749.447828
487.343959	2743.451376
487.712333	2732.552401
488.080648	2723.831205
488.448905	2712.886860
488.817104	2703.422094
489.185244	2702.749100
489.553326	2696.021680
489.921350	2698.580065
490.289315	2708.856457
490.657222	2708.735470
491.025070	2700.105014
491.392861	2693.344827
491.760593	2685.011800
492.128267	2674.251457
492.495883	2664.108655
492.863440	2657.126657
493.230939	2648.700369
493.598380	2642.492188
493.965763	2636.052114
494.333088	2633.413070
494.700354	2627.893006
495.067563	2627.709004
495.434713	2621.987294
495.801805	2629.478449
496.168839	2623.797069
496.535815	2619.534773
496.902733	2618.614762
497.269593	2620.366563
497.636395	2616.961264
498.003139	2617.656943
498.369825	2612.091509
498.736453	2614.841459
499.103023	2610.735439
499.469535	2609.598659
499.835989	2610.445573
500.202385	2608.270315
500.568723	2608.658484
500.935003	2606.883997
501.301226	2606.677310
501.667390	2606.528596
502.033497	2611.783999
502.399546	2605.270828
502.765537	2603.624892
503.131470	2602.772937
503.497345	2605.578339
503.863163	2602.820828
504.228923	2600.206989
504.594625	2601.938626
504.960269	2601.245467
505.325856	2601.681527
505.691385	2598.198089
506.056856	2600.837133
506.422270	2598.903851
506.787625	2597.885538
507.152924	2597.197420
507.518164	2598.429982
507.883347	2595.377564
508.248472	2596.824375
508.613540	2598.308995
508.978550	2594.331524
509.343503	2596.012749
509.708398	2597.593151
510.073236	2595.559045
510.438016	2596.174066
510.802738	2596.380753
511.167403	2597.502410
511.532010	2595.972420
511.896561	2595.934611
512.261053	2596.652976
512.625488	2593.950917
512.989866	2592.395721
513.354186	2592.940166
513.718449	2590.845567
514.082655	2595.271700
514.446803	2595.186000
514.810894	2597.948552
515.174927	2594.737337
515.538904	2594.490321
515.902822	2594.825557
516.266684	2595.468305
516.630488	2591.354723
516.994235	2593.887903
517.357925	2595.780856
517.721558	2598.316557
518.085133	2595.803541
518.448651	2595.952255
518.812112	2594.462594
519.175516	2592.415886
519.538863	2593.759353
519.902152	2596.121134
520.265385	2595.798500
520.628560	2594.480238
520.991678	2596.879828
521.354739	2594.956627
521.717743	2595.574169
522.080690	2596.428644
522.443580	2597.527616
522.806413	2597.116762
523.169189	2598.820672
523.531908	2599.546598
523.894569	2596.836978
524.257174	2595.059971
524.619722	2598.205651
524.982213	2596.400918
525.344647	2598.296392
525.707025	2595.044848
526.069345	2596.557194
526.431608	2595.276741
526.793815	2595.662389
527.155964	2596.325301
527.518057	2595.654827
527.880093	2594.510485
528.242072	2597.394025
528.603995	2597.782194
528.965860	2596.353027
529.327669	2596.496700
529.689421	2595.574169
530.051117	2595.990064
530.412755	2598.578697
530.774337	2595.211206
531.135862	2596.131216
531.497331	2595.117944
531.858743	2590.696852
532.220098	2593.729107
532.581396	2591.223653
532.942638	2593.706421
533.303824	2591.536205
533.664953	2593.507296
534.026025	2594.087028
534.387040	2594.399580
534.747999	2593.923191
535.108902	2595.846391
535.469748	2590.477562
535.830537	2597.199941
536.191270	2594.460074
536.551947	2593.744230
536.912567	2593.600557
537.273131	2593.940835
537.633638	2594.560897
537.994089	2593.577872
538.354483	2591.218612
538.714821	2594.505444
539.075103	2597.751947
539.435328	2592.763726
539.795497	2594.109714
540.155609	2595.879159
540.515665	2593.227512
540.875665	2595.407811
541.235609	2594.444950
541.595496	2593.174580
541.955328	2595.269179
542.315102	2594.974272
542.674821	2594.452512
543.034483	2596.259766
543.394090	2593.345979
543.753640	2594.787749
544.113134	2592.599888
544.472571	2596.284972
544.831953	2595.604416
545.191278	2596.269848
545.550548	2592.398242
545.909761	2594.875969
546.268918	2595.160794
546.628019	2594.495362
546.987064	2594.112234
547.346053	2594.306319
547.704986	2596.237081
548.063863	2592.799014
548.422684	2596.421083
548.781449	2592.844384
549.140158	2595.309508
549.498811	2594.664241
549.857408	2591.579054
550.215949	2594.707090
550.574434	2590.207861
550.932864	2591.962182
551.291237	2592.267172
551.649555	2596.272369
552.007817	2591.314394
552.366022	2593.320773
552.724173	2593.703901
553.082267	2592.428489
553.440305	2594.823037
553.798288	2591.947059
554.156215	2594.878490
554.514086	2594.933942
554.871902	2592.405804
555.229661	2596.383274
555.587365	2593.368664
555.945014	2595.818665
556.302606	2594.003849
556.660143	2593.935794
557.017625	2597.061309
557.375050	2593.802203
557.732421	2595.922008
558.089735	2593.207347
558.446994	2594.470156
558.804197	2593.910588
559.161345	2594.581062
559.518437	2595.211206
559.875474	2594.689446
560.232455	2595.624580
560.589381	2590.343972
560.946251	2596.708428
561.303065	2594.339086
561.659825	2595.465784
562.016528	2595.548963
562.373177	2593.996288
562.729770	2594.460074
563.086307	2595.637183
563.442789	2595.183479
563.799216	2594.651638
564.155587	2594.681885
564.511904	2596.050558
564.868164	2596.035434
565.224370	2592.141143
565.580520	2598.372009
565.936615	2594.588623
566.292654	2594.412183
566.648638	2595.599375
567.004567	2592.642738
567.360441	2593.174580
567.716260	2592.022676
568.072023	2593.290526
568.427732	2589.431523
568.783385	2591.805906
569.138982	2589.368508
569.494525	2588.874475
569.850013	2587.861203
570.205445	2593.648448
570.560823	2591.558890
570.916145	2590.868252
571.271412	2594.114755
571.626625	2593.376226
571.981782	2591.306832
572.336884	2593.371185
572.691931	2591.538725
573.046923	2592.478900
573.401860	2592.078129
573.756743	2588.798858
574.111570	2590.641400
574.466342	2592.398242
574.821059	2589.630648
575.175722	2590.540577
575.530330	2589.325659
575.884882	2591.150556
576.239380	2592.183993
576.593823	2593.204827
576.948211	2593.779518
577.302544	2591.982347
577.656823	2589.522264
578.011047	2590.971595
578.365216	2591.992429
578.719330	2592.834302
579.073389	2588.851790
579.427394	2588.362798
579.781344	2589.343303
580.135239	2588.952613
580.489080	2586.598394
580.842866	2587.394897
581.196597	2591.216091
581.550273	2586.936152
581.903895	2588.085535
582.257463	2588.201481
582.610975	2585.053281
582.964434	2588.133426
583.317837	2587.067222
583.671186	2589.653334
584.024481	2589.741554
584.377721	2589.159301
584.730906	2587.036975
585.084037	2587.866245
585.437113	2587.364650
585.790135	2589.867583
586.143103	2588.874475
586.496016	2586.303487
586.848874	2583.150245
587.201679	2586.903384
587.554428	2584.198805
587.907124	2582.910790
588.259765	2583.913980
588.612352	2587.016810
588.964884	2583.102354
589.317362	2588.481265
589.669786	2584.821388
590.022155	2584.453383
590.374470	2584.294587
590.726731	2587.899012
591.078937	2584.967581
591.431090	2584.571851
591.783188	2584.231573
592.135232	2585.365832
592.487222	2587.967068
592.839157	2582.764597
593.191038	2584.942375
593.542866	2583.205698
593.894639	2583.203177
594.246358	2583.447673
594.598022	2583.220821
594.949633	2581.590008
595.301190	2583.135122
595.652692	2585.968250
596.004141	2582.729309
596.355535	2581.912642
596.706876	2581.342992
597.058162	2581.413568
597.409395	2580.659915
597.760573	2582.467169
598.111698	2582.031109
598.462768	2582.651171
598.813785	2581.458938
599.164748	2580.254102
599.515657	2582.162179
599.866511	2579.104719
600.217312	2581.486664
600.568060	2581.690831
600.918753	2585.491861
601.269392	2581.970615
601.619978	2582.023547
601.970510	2581.693352
602.320988	2581.368197
602.671412	2581.721078
603.021783	2580.420460
603.372100	2582.189905
603.722363	2579.392065
604.072572	2579.606314
604.422728	2582.212591
604.772830	2580.874164
605.122878	2576.334605
605.472872	2578.696386
605.822813	2575.119687
606.172701	2578.141859
606.522534	2579.961715
606.872314	2580.412899
607.222041	2581.358115
607.571714	2581.655543
607.921333	2580.049936
608.270899	2580.574216
608.620411	2582.941037
608.969870	2581.408527
609.319276	2582.477251
609.668627	2583.447673
610.017926	2587.788107
610.367171	2590.376739
610.716362	2586.043867
611.065500	2585.305338
611.414585	2585.607808
611.763616	2585.998497
612.112594	2582.212591
612.461518	2583.651840
612.810389	2585.461614
613.159207	2582.414237
613.507971	2580.992631
613.856682	2581.310224
614.205340	2582.537745
614.553945	2584.019844
614.902496	2578.348546
615.250994	2581.610173
615.599439	2582.215111
615.947830	2580.528845
616.296169	2582.588157
616.644454	2583.881212
616.992686	2579.621437
617.340864	2580.775862
617.688990	2579.203022
618.037063	2581.534555
618.385082	2581.297621
618.733048	2583.724937
619.080961	2581.438773
619.428821	2583.036819
619.776628	2581.829463
620.124382	2582.573033
620.472083	2580.821232
620.819731	2584.236614
621.167326	2579.429874
621.514868	2582.646130
621.862357	2580.095306
622.209793	2580.538927
622.557176	2579.752507
622.904506	2577.047928
623.251783	2575.928792
623.599007	2578.300655
623.946179	2573.287228
624.293297	2574.610531
624.640363	2575.575912
624.987376	2576.934502
625.334336	2578.474575
625.681243	2576.732856
626.028097	2579.248392
626.374899	2576.700089
626.721647	2575.364183
627.068343	2576.775706
627.414987	2574.981055
627.761577	2575.893504
628.108115	2573.032649
628.454600	2574.524831
628.801032	2575.160016
629.147412	2577.718402
629.493739	2574.267732
629.840014	2578.958526
630.186236	2576.367373
630.532405	2574.106415
630.878521	2575.250757
631.224585	2572.616754
631.570597	2574.708833
631.916556	2574.429049
632.262462	2575.432239
632.608316	2572.634398
632.954117	2574.131621
633.299866	2574.101374
633.645562	2572.853688
633.991206	2571.593400
634.336797	2571.182546
634.682336	2572.931826
635.027823	2572.490725
635.373257	2570.696075
635.718639	2567.129458
636.063968	2568.566187
636.409245	2568.062072
636.754470	2570.043245
637.099642	2571.038873
637.444762	2570.920406
637.789829	2568.639284
638.134845	2569.682803
638.479808	2566.655590
638.824719	2570.428893
639.169577	2566.010322
639.514383	2569.541650
639.859137	2565.949828
640.203839	2568.349417
640.548489	2569.098029
640.893086	2563.517472
641.237632	2561.826164
641.582125	2565.924623
641.926566	2560.991853
642.270955	2566.146433
642.615292	2566.219530
642.959576	2568.218347
643.303809	2566.814386
643.647990	2566.937894
643.992118	2565.304561
644.336195	2567.207596
644.680219	2566.277503
645.024192	2565.498645
645.368112	2565.859088
645.711981	2566.169118
646.055797	2567.005950
646.399562	2567.016032
646.743274	2568.193142
647.086935	2568.707339
647.430544	2568.591393
647.774101	2569.239181
648.117606	2567.459654
648.461059	2566.796742
648.804460	2572.097515
649.147810	2566.050651
649.491108	2565.125600
649.834354	2567.378995
650.177548	2568.510734
650.520690	2567.094170
650.863781	2565.163408
651.206820	2568.218347
651.549807	2566.607699
651.892742	2563.850188
652.235626	2566.617781
652.578458	2563.267934
652.921238	2566.176680
653.263967	2566.060734
653.606644	2565.170970
653.949269	2563.157029
654.291843	2562.138716
654.634365	2565.092832
654.976836	2564.840774
655.319255	2565.314643
655.661622	2564.800445
656.003938	2565.841443
656.346203	2561.667368
656.688416	2561.256514
657.030577	2563.499827
657.372687	2563.416648
657.714746	2564.253480
658.056753	2562.617626
658.398708	2558.327604
658.740612	2561.390105
659.082465	2559.582851
659.424266	2558.110834
659.766016	2559.416493
660.107715	2559.572769
660.449362	2560.752399
660.790958	2563.293140
661.132503	2563.333469
661.473996	2562.090825
661.815438	2564.329097
662.156829	2565.067626
662.498168	2563.174673
662.839456	2562.791545
663.180693	2562.983109
663.521879	2560.354147
663.863013	2563.192317
664.204097	2562.065619
664.545129	2565.027297
664.886110	2564.697102
665.227040	2560.727193
665.567918	2564.596278
665.908746	2562.829354
666.249522	2567.313460
666.590248	2564.581155
666.930922	2562.846998
667.271545	2560.419682
667.612118	2564.455126
667.952639	2562.700805
668.293109	2564.374468
668.633528	2563.189797
668.973896	2561.715259
669.314213	2564.503017
669.654480	2562.736093
669.994695	2563.845147
670.334859	2561.364899
670.674973	2562.834395
671.015035	2563.943449
671.355047	2561.473284
671.695008	2564.061916
672.034918	2560.775084
672.374777	2565.733059
672.714585	2563.252811
673.054342	2563.399004
673.394049	2563.489745
673.733705	2563.691391
674.073310	2562.473953
674.412864	2562.789025
674.752368	2561.947152
675.091820	2563.401525
675.431223	2562.821792
675.770574	2559.895403
676.109875	2555.980947
676.449125	2559.774415
676.788324	2559.572769
677.127473	2558.884651
677.466571	2555.237376
677.805619	2558.922460
678.144616	2560.449929
678.483562	2559.028324
678.822458	2557.762994
679.161303	2560.470094
679.500098	2555.439022
679.838842	2558.632593
680.177535	2561.372461
680.516179	2561.069991
680.854771	2561.405228
681.193314	2558.274672
681.531805	2559.456822
681.870247	2561.712738
682.208638	2563.824982
682.546978	2565.740620
682.885268	2564.180383
683.223508	2559.781977
683.561697	2562.363047
683.899836	2560.258366
684.237925	2560.422203
684.575963	2562.116031
684.913951	2561.122923
685.251889	2561.072512
685.589776	2562.310115
685.927614	2562.282389
686.265401	2560.396997
686.603137	2562.831875
686.940824	2563.910682
687.278460	2565.420507
687.616046	2562.282389
687.953582	2563.824982
688.291068	2561.621998
688.628504	2560.041596
688.965889	2562.131154
689.303224	2561.571586
689.640510	2560.064281
689.977745	2559.764332
690.314930	2560.570917
690.652065	2562.363047
690.989150	2561.400187
691.326185	2559.751730
691.663170	2558.551935
692.000105	2557.715103
692.336990	2557.223591
692.673825	2557.301729
693.010610	2558.458674
693.347345	2555.345761
693.684030	2551.227138
694.020665	2552.399207
694.357251	2548.867878
694.693786	2552.374001
695.030272	2551.569937
695.366707	2557.735268
695.703093	2555.035730
696.039429	2553.387273
696.375716	2552.517674
696.711952	2554.297201
697.048139	2554.491286
697.384276	2554.118240
697.720363	2554.249310
698.056400	2551.670760
698.392388	2551.012889
698.728326	2555.338199
699.064214	2553.435164
699.400053	2551.433826
699.735842	2552.489947
700.071581	2554.241748
700.407270	2554.138405
700.742910	2553.483055
701.078501	2550.481048
701.414042	2550.178578
701.749533	2552.779814
702.084974	2552.550441
702.420366	2551.229659
702.755709	2551.166645
703.091002	2551.489278
703.426246	2551.244783
703.761440	2552.462221
704.096584	2552.515153
704.431679	2550.536500
704.766725	2551.743857
705.101721	2550.791079
705.436668	2548.825029
705.771565	2551.423743
706.106413	2553.117571
706.441212	2547.713454
706.775961	2550.075235
707.110661	2550.743188
707.445311	2552.663867
707.779913	2549.122457
708.114465	2552.799978
708.448967	2552.593291
708.783421	2553.104968
709.117825	2552.646223
709.452180	2554.486244
709.786485	2552.333672
710.120742	2555.663354
710.454949	2553.483055
710.789107	2551.423743
711.123216	2551.055739
711.457275	2552.731923
711.791286	2552.847869
712.125247	2551.844680
712.459159	2554.362736
712.793023	2555.529763
713.126837	2554.355174
713.460602	2554.965154
713.794318	2555.297870
714.127985	2552.706717
714.461602	2551.297715
714.795171	2555.118909
715.128691	2552.300904
715.462162	2554.579506
715.795584	2550.234031
716.128957	2551.620348
716.462281	2553.064639
716.795556	2550.836449
717.128782	2549.608928
717.461960	2547.942827
717.795088	2547.879812
718.128167	2549.213197
718.461198	2549.387117
718.794180	2552.527756
719.127113	2549.797971
719.459997	2547.680687
719.792833	2546.677497
720.125619	2550.990204
720.458357	2547.839483
720.791046	2548.310831
721.123686	2548.938455
721.456278	2546.674977
721.788821	2547.892415
722.121315	2550.624721
722.453761	2546.874102
722.786158	2547.784030
723.118506	2548.000800
723.450805	2546.695141
723.783056	2546.853937
724.115259	2546.848896
724.447412	2549.417364
724.779518	2547.849565
725.111574	2548.527601
725.443582	2546.687579
725.775542	2549.082127
726.107453	2548.535162
726.439315	2549.563558
726.771129	2550.937272
727.102895	2549.198074
727.434612	2549.314021
727.766281	2547.559699
728.097901	2546.095244
728.429473	2543.120963
728.760996	2545.777651
729.092471	2539.864378
729.423897	2549.243444
729.755276	2547.584905
730.086606	2549.994576
730.417887	2548.502395
730.749120	2549.737477
731.080305	2550.085317
731.411442	2549.520708
731.742530	2549.548434
732.073570	2554.022458
732.404562	2552.447098
732.735506	2552.873075
733.066401	2549.606408
733.397249	2551.093548
733.728048	2549.051881
734.058798	2549.624052
734.389501	2545.548279
734.720156	2549.792930
735.050762	2545.273536
735.381320	2546.833773
735.711831	2546.874102
736.042293	2547.746222
736.372707	2547.274874
736.703073	2547.453835
737.033391	2546.591797
737.363661	2545.326468
737.693883	2547.456355
738.024056	2551.398538
738.354182	2548.822508
738.684260	2548.651109
739.014290	2546.027188
739.344272	2547.370656
739.674207	2547.877292
740.004093	2548.215049
740.333931	2548.535162
740.663722	2547.710934
740.993464	2544.577857
741.323159	2550.241593
741.652806	2550.108002
741.982405	2548.000800
742.311956	2544.088865
742.641460	2548.187323
742.970915	2545.817980
743.300323	2546.768238
743.629683	2546.702703
743.958996	2546.685059
744.288260	2543.715819
744.617477	2545.265974
744.946647	2539.897145
745.275768	2542.352187
745.604842	2542.664739
745.933869	2541.679193
746.262847	2543.380583
746.591778	2542.289173
746.920662	2543.879657
747.249498	2545.908721
747.578286	2546.120450
747.907027	2544.598021
748.235720	2544.953423
748.564365	2545.064328
748.892963	2543.930068
749.221514	2544.532486
749.550017	2543.511653
749.878473	2544.073741
750.206881	2544.759338
750.535242	2541.202804
750.863555	2541.933771
751.191821	2542.979811
751.520039	2543.567105
751.848210	2545.122301
752.176334	2543.778834
752.504411	2544.862682
752.832440	2544.295552
753.160421	2542.528628
753.488356	2544.456869
753.816243	2546.778320
754.144082	2544.676159
754.471875	2544.514842
754.799620	2542.647095
755.127318	2542.982331
755.454969	2544.111550
755.782572	2542.463093
756.110129	2540.844882
756.437638	2545.512991
756.765100	2543.604914
757.092515	2543.798998
757.419882	2540.857485
757.747203	2543.851930
758.074477	2545.054246
758.401703	2544.900490
758.728882	2543.065510
759.056014	2544.156920
759.383099	2545.684390
759.710138	2545.717157
760.037129	2543.483926
760.364073	2543.347815
760.690970	2543.239430
761.017820	2545.704554
761.344623	2544.245140
761.671379	2547.075748
761.998088	2539.932433
762.324751	2545.298742
762.651366	2548.262940
762.977935	2555.721327
763.304456	2555.043292
763.630931	2563.431772
763.957359	2560.964127
764.283740	2553.677139
764.610074	2551.622869
764.936362	2549.447611
765.262602	2547.320244
765.588796	2545.772610
765.914943	2545.853268
766.241044	2544.471992
766.567097	2544.444266
766.893104	2542.470654
767.219064	2545.397044
767.544978	2543.849410
767.870845	2542.271529
768.196665	2542.997455
768.522438	2543.080634
768.848165	2544.325799
769.173846	2540.555016
769.499479	2541.275901
769.825066	2542.639533
770.150607	2539.995448
770.476101	2540.721374
770.801548	2544.880326
771.126949	2539.108205
771.452303	2541.195242
771.777611	2535.511341
772.102872	2539.287166
772.428087	2537.495035
772.753256	2538.147865
773.078378	2538.664583
773.403453	2540.862526
773.728482	2537.729449
774.053465	2539.698020
774.378401	2539.725746
774.703291	2538.866229
775.028135	2538.546116
775.352932	2538.730118
775.677683	2538.541075
776.002388	2538.354552
776.327046	2539.408153
776.651658	2537.787422
776.976224	2537.684079
777.300743	2540.413863
777.625216	2537.757175
777.949643	2539.211548
778.274024	2541.144831
778.598359	2534.359438
778.922647	2532.037986
779.246889	2536.640560
779.571086	2534.051927
779.895236	2536.632998
780.219339	2536.559901
780.543397	2539.461085
780.867409	2538.397402
781.191374	2538.619213
781.515294	2535.995292
781.839167	2538.339429
782.162995	2535.536547
782.486776	2538.803215
782.810511	2537.598379
783.134201	2538.110056
783.457844	2538.611651
783.781441	2534.664428
784.104993	2539.955118
784.428498	2538.662062
784.751958	2537.505118
785.075372	2538.251208
785.398739	2538.019315
785.722061	2537.313554
786.045337	2538.170550
786.368568	2538.399923
786.691752	2537.726928
787.014891	2539.322454
787.337983	2539.319933
787.661030	2539.622402
787.984031	2542.248843
788.306987	2541.732125
788.629897	2540.915458
788.952760	2541.898483
789.275579	2539.130890
789.598351	2541.371683
789.921078	2534.566125
790.243759	2538.102494
790.566395	2536.234747
790.888984	2536.033101
791.211529	2538.311702
791.534027	2537.570653
791.856480	2538.510828
792.178888	2538.664583
792.501249	2539.781199
792.823566	2537.550488
793.145836	2538.326826
793.468062	2534.639222
793.790241	2534.198121
794.112375	2537.472350
794.434464	2532.592513
794.756507	2537.510159
795.078505	2538.112577
795.400457	2536.065868
795.722364	2533.938501
796.044226	2535.213913
796.366042	2534.253573
796.687812	2537.673996
797.009538	2538.082330
797.331218	2537.268183
797.652852	2537.600900
797.974442	2535.821372
798.295986	2536.403626
798.617484	2537.595858
798.938938	2537.442103
799.260346	2540.328164
799.581709	2539.786240
799.903026	2538.672145
800.224299	2538.059645
800.545526	2536.128883
800.866708	2536.476722
801.187845	2537.850437
801.508936	2539.274563
801.829983	2535.644932
802.150984	2535.710467
802.471940	2539.022505
802.792851	2534.825744
803.113717	2538.694830
803.434538	2535.118131
803.755314	2536.315405
804.076045	2537.636188
804.396731	2537.182484
804.717372	2537.361445
805.037967	2539.332536
805.358518	2538.319264
805.679024	2542.828576
805.999485	2533.757020
806.319901	2536.328008
806.640272	2534.639222
806.960598	2533.794828
807.280879	2534.011598
807.601115	2536.690971
807.921306	2535.334901
808.241453	2537.558050
808.561554	2536.214582
808.881611	2539.385468
809.201623	2537.840354
809.521590	2537.762217
809.841513	2535.581917
810.161390	2534.782895
810.481223	2537.628626
810.801011	2538.541075
811.120755	2536.169212
811.440453	2538.783050
811.760107	2536.937988
812.079716	2534.810621
812.399281	2533.762061
812.718801	2534.568646
813.038276	2533.391536
813.357707	2535.806249
813.677093	2537.053934
813.996434	2536.489325
814.315731	2536.917823
814.634983	2536.103677
814.954191	2535.652494
815.273354	2538.379758
815.592473	2539.352701
815.911547	2536.227185
816.230577	2537.600900
816.549562	2537.202648
816.868502	2533.116793
817.187399	2536.529654
817.506250	2532.910106
817.825058	2540.151723
818.143821	2533.759540
818.462539	2539.960160
818.781213	2537.857998
819.099843	2540.733977
819.418429	2541.916127
819.736970	2542.727753
820.055466	2544.151879
820.373919	2545.573484
820.692327	2549.140101
821.010691	2552.565565
821.329011	2564.699622
821.647286	2587.233580
821.965517	2609.240737
822.283704	2625.100207
822.601847	2633.062709
822.919945	2621.284053
823.237999	2602.241095
823.556010	2590.853128
823.873976	2578.323340
824.191897	2570.602813
824.509775	2565.133161
824.827609	2556.779969
825.145398	2555.408776
825.463144	2554.753426
825.780845	2554.786193
826.098502	2557.747871
826.416116	2564.369427
826.733685	2571.154820
827.051210	2574.204718
827.368692	2573.546847
827.686129	2564.379509
828.003522	2558.783828
828.320872	2546.896787
828.638177	2547.176571
828.955439	2542.054759
829.272656	2539.534182
829.589830	2534.979500
829.906960	2540.227341
830.224046	2539.856816
830.541088	2539.279604
830.858086	2541.049049
831.175041	2538.256250
831.491952	2541.351518
831.808819	2537.865560
832.125642	2538.437731
832.442421	2541.598535
832.759157	2543.042825
833.075849	2545.671787
833.392497	2550.876778
833.709101	2554.957592
834.025662	2556.502706
834.342179	2552.444577
834.658653	2547.179092
834.975083	2546.180943
835.291469	2546.410316
835.607811	2543.239430
835.924110	2538.294058
836.240366	2538.127700
836.556578	2537.376568
836.872746	2538.949408
837.188871	2536.330529
837.504952	2535.186187
837.820990	2536.496887
838.136984	2535.113090
838.452935	2537.318595
838.768842	2535.017308
839.084706	2536.678368
839.400526	2537.121990
839.716303	2539.687937
840.032037	2539.733308
840.347727	2544.403937
840.663373	2543.602393
840.978977	2537.305992
841.294537	2536.910262
841.610054	2537.232895
841.925527	2535.062679
842.240957	2534.288862
842.556344	2533.560415
842.871687	2533.741896
843.186987	2535.387833
843.502244	2531.632173
843.817458	2533.648635
844.132629	2533.656197
844.447756	2533.711649
844.762840	2527.435413
845.077881	2529.714014
845.392879	2530.563449
845.707833	2531.700229
846.022745	2523.896523
846.337613	2531.722914
846.652438	2531.256608
846.967221	2532.413552
847.281960	2534.235929
847.596656	2535.148378
847.911309	2533.066382
848.225919	2531.347348
848.540485	2534.029242
848.855009	2532.388347
849.169490	2531.208717
849.483928	2531.750641
849.798323	2532.857174
850.112675	2532.479087
850.426984	2530.883562
850.741251	2532.098480
851.055474	2532.027904
851.369654	2532.900024
851.683792	2530.666793
851.997887	2532.176618
852.311938	2532.365661
852.625947	2531.007070
852.939914	2531.334745
853.253837	2534.747607
853.567718	2532.605116
853.881555	2531.327184
854.195350	2532.330373
854.509103	2532.075795
854.822812	2530.490352
855.136479	2532.625281
855.450103	2533.875487
855.763685	2531.065044
856.077224	2529.109076
856.390720	2529.590506
856.704173	2531.158305
857.017584	2531.496062
857.330953	2532.020342
857.644278	2530.112266
857.957561	2535.763399
858.270802	2533.537730
858.584000	2532.060672
858.897155	2530.429858
859.210268	2529.494724
859.523339	2533.298275
859.836367	2533.517565
860.149352	2534.220806
860.462295	2534.661907
860.775195	2527.284178
861.088054	2528.121010
861.400869	2530.397091
861.713642	2527.301822
862.026373	2531.589324
862.339062	2531.853984
862.651708	2529.514889
862.964312	2533.409180
863.276873	2531.485980
863.589392	2533.797349
863.901869	2530.243336
864.214303	2533.205013
864.526696	2531.352389
864.839045	2530.076977
865.151353	2533.734335
865.463619	2533.187369
865.775842	2534.747607
866.088023	2532.852133
866.400162	2532.411032
866.712258	2531.856505
867.024313	2533.147040
867.336325	2533.696526
867.648296	2535.828934
867.960224	2531.727955
868.272110	2533.154602
868.583954	2532.350538
868.895755	2534.026722
869.207515	2533.326001
869.519233	2530.830630
869.830909	2535.453368
870.142542	2531.390198
870.454134	2532.169056
870.765684	2529.847605
871.077191	2532.494211
871.388657	2532.837009
871.700081	2533.487318
872.011463	2536.249870
872.322803	2534.369520
872.634101	2534.397246
872.945357	2533.613347
873.256571	2534.712318
873.567744	2533.318439
873.878874	2533.404139
874.189963	2532.494211
874.501010	2535.004705
874.812015	2534.276259
875.122979	2533.807431
875.433900	2533.326001
875.744780	2532.937832
876.055618	2535.428162
876.366415	2532.693336
876.677169	2534.772812
876.987882	2531.531350
877.298554	2530.944056
877.609183	2531.279293
877.919771	2527.856349
878.230317	2534.503111
878.540822	2537.363965
878.851285	2537.293389
879.161707	2538.553678
879.472087	2538.021836
879.782425	2544.754297
880.092722	2544.517363
880.402977	2552.270657
880.713191	2562.935218
881.023363	2578.555233
881.333494	2586.774835
881.643583	2587.841039
881.953631	2584.783579
882.263637	2581.837025
882.573602	2577.821746
882.883526	2574.398802
883.193408	2567.487380
883.503248	2559.479507
883.813048	2554.100596
884.122806	2554.110678
884.432522	2548.565409
884.742197	2546.911911
885.051831	2546.508618
885.361424	2541.074255
885.670975	2539.072917
885.980485	2538.289017
886.289954	2539.377906
886.599382	2539.445962
886.908768	2536.683410
887.218113	2538.712474
887.527417	2538.344470
887.836680	2534.107380
888.145901	2536.388502
888.455082	2534.936650
888.764221	2535.511341
889.073319	2533.005888
889.382376	2533.721732
889.691392	2532.963038
890.000366	2535.082843
890.309300	2533.736855
890.618193	2536.267514
890.927044	2534.256094
891.235855	2534.056968
891.544625	2535.438245
891.853353	2534.273738
892.162041	2532.942873
892.470687	2539.849254
892.779293	2533.535209
893.087858	2531.881711
893.396381	2535.135775
893.704864	2534.119983
894.013306	2537.852957
894.321707	2548.598177
894.630068	2552.139587
894.938387	2552.694114
895.246665	2553.742674
895.554903	2551.128836
895.863100	2543.156251
896.171256	2544.310675
896.479371	2543.793957
896.787446	2543.246992
897.095480	2541.124666
897.403473	2536.353214
897.711425	2539.234233
898.019336	2536.630477
898.327207	2536.927906
898.635038	2535.339942
898.942827	2535.690302
899.250576	2534.218285
899.558284	2534.815662
899.865952	2533.620909
900.173579	2533.310878
900.481165	2533.048738
900.788711	2533.162164
901.096216	2531.569159
901.403681	2534.533357
901.711105	2534.571166
902.018489	2531.564118
902.325832	2534.588810
902.633135	2532.378264
902.940397	2535.871784
903.247619	2538.372196
903.554800	2540.681045
903.861941	2547.698331
904.169041	2555.779300
904.476101	2557.452963
904.783121	2557.934394
905.090100	2554.166131
905.397039	2551.562375
905.703938	2544.182126
906.010796	2543.315047
906.317614	2539.244316
906.624391	2539.569470
906.931129	2538.241126
907.237826	2535.370189
907.544483	2531.833820
907.851099	2535.178625
908.157675	2532.874818
908.464211	2528.388191
908.770707	2526.167563
909.077163	2528.269724
909.383578	2527.700073
909.689954	2527.803417
909.996289	2526.764939
910.302584	2532.675692
910.608839	2533.830117
910.915054	2530.452543
911.221229	2531.612009
911.527363	2530.061854
911.833458	2531.218799
912.139513	2533.852802
912.445527	2531.002029
912.751502	2530.843233
913.057436	2535.047555
913.363331	2533.446989
913.669186	2534.180477
913.975000	2533.449509
914.280775	2536.045704
914.586510	2538.772968
914.892205	2542.546272
915.197859	2543.158772
915.503475	2545.805377
915.809050	2551.022972
916.114585	2553.795606
916.420081	2556.744681
916.725536	2556.764846
917.030952	2552.482386
917.336328	2547.867209
917.641665	2542.745397
917.946961	2543.559543
918.252218	2542.271529
918.557435	2542.581560
918.862612	2540.587783
919.167750	2539.438400
919.472848	2537.739531
919.777906	2535.191228
920.082925	2536.300282
920.387904	2532.297606
920.692843	2534.132586
920.997743	2534.982020
921.302603	2532.650487
921.607423	2531.382636
921.912204	2534.762730
922.216946	2533.527647
922.521647	2532.269879
922.826310	2531.158305
923.130932	2530.235774
923.435516	2530.074457
923.740059	2531.548994
924.044564	2530.513037
924.349028	2531.818696
924.653454	2526.606143
924.957840	2528.521782
925.262186	2527.233767
925.566493	2526.230577
925.870761	2524.009949
926.174989	2532.572349
926.479178	2526.477594
926.783328	2529.603109
927.087438	2531.110414
927.391509	2531.748120
927.695541	2529.567821
927.999533	2527.831143
928.303486	2528.610002
928.607400	2531.100332
928.911275	2530.366844
929.215110	2528.073119
929.518906	2529.620753
929.822663	2528.410876
930.126381	2530.661751
930.430060	2528.292409
930.733699	2530.487832
931.037299	2530.205527
931.340861	2527.753006
931.644383	2527.528674
931.947866	2529.638397
932.251309	2527.969775
932.554714	2527.140505
932.858080	2531.364992
933.161407	2526.999353
933.464694	2530.253418
933.767943	2527.266534
934.071153	2527.994981
934.374323	2529.620753
934.677455	2526.361647
934.980548	2529.461957
935.283602	2528.768798
935.586617	2527.286699
935.889593	2526.936339
936.192530	2529.729138
936.495428	2529.071267
936.798287	2528.645290
937.101108	2527.526154
937.403890	2530.397091
937.706632	2529.235105
938.009336	2528.849457
938.312002	2529.968593
938.614628	2528.559590
938.917216	2531.339787
939.219765	2530.008922
939.522275	2527.500948
939.824747	2529.598068
940.127179	2528.655372
940.429573	2527.664785
940.731929	2528.362985
941.034246	2524.032634
941.336524	2529.240146
941.638763	2528.461288
941.940964	2530.951618
942.243126	2530.999509
942.545250	2528.405835
942.847335	2530.288706
943.149381	2531.107893
943.451389	2530.220650
943.753359	2528.557070
944.055290	2530.094622
944.357182	2530.603778
944.659036	2529.401463
944.960851	2527.831143
945.262628	2529.656041
945.564367	2525.255114
945.866067	2527.821061
946.167729	2530.770136
946.469352	2529.325846
946.770937	2529.219981
947.072484	2529.043541
947.373992	2528.562111
947.675462	2528.229395
947.976893	2531.009591
948.278286	2528.705784
948.579641	2529.346010
948.880958	2529.580424
949.182236	2528.249559
949.483476	2527.531195
949.784678	2527.264014
950.085841	2529.126720
950.386967	2529.789632
950.688054	2528.899868
950.989103	2530.240815
951.290114	2528.146216
951.591087	2527.221164
951.892021	2529.666123
952.192917	2528.504137
952.493776	2526.888448
952.794596	2531.304498
953.095378	2532.355579
953.396122	2529.406504
953.696828	2526.185207
953.997496	2530.379447
954.298126	2527.450536
954.598718	2529.131761
954.899272	2528.705784
955.199788	2527.334590
955.500266	2528.468849
955.800706	2526.769981
956.101108	2523.697397
956.401472	2527.526154
956.701798	2523.969620
957.002087	2526.444826
957.302337	2526.749816
957.602550	2526.399456
957.902724	2527.906761
958.202861	2525.693694
958.502960	2526.127233
958.803022	2529.630835
959.103045	2525.023221
959.403031	2530.089580
959.702979	2526.006246
960.002889	2527.077491
960.302762	2528.307533
960.602596	2528.305012
960.902393	2529.706453
961.202153	2527.833664
961.501875	2527.967255
961.801559	2525.003056
962.101205	2526.054137
962.400814	2526.374250
962.700385	2526.709487
962.999918	2526.349044
963.299414	2526.961544
963.598873	2527.886596
963.898293	2525.068591
964.197677	2527.231246
964.497022	2524.549352
964.796331	2528.458767
965.095601	2523.924249
965.394835	2527.750485
965.694030	2526.817872
965.993189	2525.602953
966.292309	2526.838036
966.591393	2525.423993
966.890439	2524.511544
967.189447	2525.043385
967.488419	2525.353416
967.787353	2525.900382
968.086249	2525.734023
968.385108	2525.703777
968.683930	2525.063550
968.982714	2527.937008
969.281462	2525.005577
969.580172	2525.751667
969.878844	2526.795186
970.177480	2526.543129
970.476078	2527.165711
970.774639	2527.727800
971.073162	2525.955834
971.371649	2523.851152
971.670098	2522.633714
971.968510	2522.774866
972.266885	2522.500123
972.565223	2524.483817
972.863524	2528.173942
973.161788	2527.440454
973.460014	2525.434075
973.758204	2525.214785
974.056356	2525.819723
974.354471	2528.801566
974.652550	2526.787625
974.950591	2527.974816
975.248595	2524.372912
975.546563	2524.448529
975.844493	2525.156811
976.142386	2528.645290
976.440243	2526.699404
976.738062	2527.377440
977.035845	2527.067409
977.333590	2524.141019
977.631299	2524.708149
977.928971	2525.786956
978.226606	2526.906092
978.524204	2528.234436
978.821765	2525.925587
979.119290	2525.250073
979.416777	2522.900895
979.714228	2526.051616
980.011642	2525.827285
980.309020	2531.400280
980.606360	2527.011956
980.903664	2525.875176
981.200931	2525.436595
981.498162	2525.403828
981.795356	2527.369878
982.092513	2527.236287
982.389633	2526.596061
982.686717	2524.440968
982.983764	2526.033972
983.280775	2529.250228
983.577749	2527.695032
983.874686	2528.846936
984.171587	2528.771319
984.468451	2527.468180
984.765279	2524.879548
985.062070	2527.258972
985.358824	2528.771319
985.655543	2523.765453
985.952224	2526.863242
986.248869	2526.964065
986.545478	2521.476769
986.842050	2523.047088
987.138586	2525.434075
987.435086	2523.866276
987.731549	2522.295957
988.027975	2527.896678
988.324366	2526.028931
988.620719	2527.347193
988.917037	2525.378622
989.213318	2524.267048
989.509563	2524.506503
989.805772	2526.502799
990.101944	2525.166894
990.398080	2527.286699
990.694180	2523.868797
990.990244	2526.263345
991.286271	2527.034641
991.582262	2528.698222
991.878217	2524.783766
992.174136	2526.248221
992.470019	2525.655886
992.765865	2527.072450
993.061676	2523.803262
993.357450	2524.630011
993.653188	2524.990453
993.948890	2522.326203
994.244556	2524.529188
994.540186	2523.780576
994.835780	2527.513551
995.131337	2527.387522
995.426859	2526.291071
995.722345	2524.546832
996.017795	2523.604136
996.313208	2527.700073
996.608586	2524.904754
996.903928	2524.985412
997.199234	2526.205371
997.494504	2524.667819
997.789738	2525.809641
998.084936	2524.135978
998.380099	2524.577079
998.675225	2526.071781
998.970316	2528.055475
999.265371	2528.294930
999.560390	2523.813344
999.855373	2526.497758
1000.150320	2526.641431
1000.445232	2527.972296
1000.740108	2524.614887
1001.034948	2524.292253
1001.329752	2525.451719
1001.624521	2525.865093
1001.919254	2521.595236
1002.213951	2527.193438
1002.508613	2522.948786
1002.803239	2523.558766
1003.097829	2521.010462
1003.392384	2523.576410
1003.686903	2525.343334
1003.981386	2526.545649
1004.275834	2522.469876
1004.570246	2526.850639
1004.864623	2522.492562
1005.158964	2522.270751
1005.453270	2526.674199
1005.747540	2524.894671
1006.041775	2523.954496
1006.335974	2526.031452
1006.630138	2526.555732
1006.924266	2522.926101
1007.218359	2523.195802
1007.512416	2522.921060
1007.806438	2524.166225
1008.100425	2526.056657
1008.394376	2523.999867
1008.688292	2525.156811
1008.982172	2524.380474
1009.276017	2525.096317
1009.569827	2523.478107
1009.863602	2525.408869
1010.157341	2527.780732
1010.451045	2522.684125
1010.744714	2523.387366
1011.038347	2522.890813
1011.331945	2524.236801
1011.625508	2525.776873
1011.919036	2522.759743
1012.212528	2525.933149
1012.505986	2524.196472
1012.799408	2526.754857
1013.092795	2523.422654
1013.386147	2526.767460
1013.679464	2524.869466
1013.972745	2525.154291
1014.265992	2523.687315
1014.559204	2524.980371
1014.852380	2523.863755
1015.145521	2524.118334
1015.438628	2523.200844
1015.731699	2523.014321
1016.024736	2524.388035
1016.317737	2527.483304
1016.610703	2527.732841
1016.903635	2519.727489
1017.196531	2520.869310
1017.489393	2523.591533
1017.782219	2519.412417
1018.075011	2521.670853
1018.367768	2524.675381
1018.660490	2525.993643
1018.953177	2525.993643
1019.245829	2525.993643
