Dividing Wavelength (nm)	Counts (n)	Blue Motor Position (mm): 0.000000	Red Motor Position (mm): 43.500000	
326.493990	2126.759464
326.888308	2126.759464
327.282561	2126.759464
327.676750	2094.012129
328.070874	2094.312077
328.464933	2096.968765
328.858929	2101.329363
329.252859	2111.336054
329.646726	2124.715276
330.040528	2138.349077
330.434265	2155.415903
330.827938	2169.122800
331.221547	2186.701304
331.615091	2208.020343
332.008571	2226.216388
332.401986	2245.541652
332.795338	2265.575197
333.188625	2286.720317
333.581847	2305.985086
333.975006	2324.387818
334.368100	2339.970025
334.761129	2356.288240
335.154095	2376.183153
335.546996	2397.280382
335.939833	2418.359967
336.332606	2436.303954
336.725315	2446.648402
337.117960	2456.471090
337.510540	2463.432924
337.903056	2474.798205
338.295508	2484.467138
338.687896	2492.182624
339.080220	2501.269304
339.472480	2506.582680
339.864676	2509.806498
340.256807	2514.890502
340.648875	2516.995183
341.040879	2521.323014
341.432818	2524.246883
341.824694	2523.576410
342.216506	2523.445340
342.608253	2528.000022
342.999937	2523.914167
343.391557	2522.520288
343.783113	2521.360822
344.174605	2520.529032
344.566033	2518.313445
344.957397	2518.847807
345.348697	2518.545338
345.739934	2517.249762
346.131106	2514.162055
346.522215	2514.981242
346.913260	2513.012672
347.304241	2509.451097
347.695159	2508.039573
348.086012	2504.505725
348.476802	2501.259222
348.867528	2503.638646
349.258191	2500.601351
349.648789	2500.621516
350.039324	2499.333501
350.429796	2499.416680
350.820203	2496.943994
351.210548	2494.985506
351.600828	2494.569610
351.991045	2495.247646
352.381198	2494.625063
352.771288	2494.128509
353.161314	2494.506596
353.551276	2492.505258
353.941175	2491.118941
354.331010	2492.613643
354.720782	2490.186327
355.110490	2491.590288
355.500135	2494.163797
355.889717	2494.405773
356.279235	2491.988540
356.668689	2493.629435
357.058080	2493.752943
357.447408	2492.855618
357.836672	2491.073570
358.225873	2491.174393
358.615010	2488.857983
359.004084	2495.421565
359.393095	2496.936432
359.782043	2497.924498
360.170927	2497.254025
360.559748	2499.089005
360.948505	2501.291989
361.337199	2500.767709
361.725830	2500.992040
362.114398	2499.930878
362.502903	2503.487412
362.891344	2499.759478
363.279722	2502.242247
363.668037	2506.186949
364.056289	2504.654439
364.444478	2504.273832
364.832603	2503.643687
365.220665	2507.001096
365.608665	2505.632422
365.996601	2509.819101
366.384474	2509.370438
366.772284	2508.727691
367.160031	2512.828670
367.547715	2513.284894
367.935336	2517.032992
368.322893	2519.258661
368.710388	2525.615556
369.097820	2527.518592
369.485189	2532.897503
369.872495	2537.424459
370.259738	2542.589121
370.646918	2551.403579
371.034035	2558.846842
371.421090	2567.114335
371.808081	2581.970615
372.195010	2590.701894
372.581875	2604.199583
372.968678	2614.044957
373.355418	2626.589868
373.742096	2643.079482
374.128710	2659.130516
374.515262	2673.288597
374.901751	2691.411545
375.288177	2702.234902
375.674540	2725.378839
376.060841	2741.639081
376.447079	2762.287647
376.833254	2780.138373
377.219367	2792.774025
377.605417	2831.394305
377.991404	2842.875532
378.377329	2863.146012
378.763191	2881.228631
379.148991	2917.587953
379.534727	2941.863629
379.920402	2973.580049
380.306013	2987.546566
380.691563	3033.569780
381.077049	3057.290929
381.462474	3072.580749
381.847835	3110.805298
382.233134	3133.956797
382.618371	3133.674492
383.003545	3203.121427
383.388657	3208.056717
383.773706	3244.741194
384.158693	3257.825508
384.543618	3284.021864
384.928480	3318.377328
385.313280	3367.281561
385.698017	3366.278372
386.082692	3419.659150
386.467305	3422.227618
386.851856	3455.743729
387.236344	3478.812049
387.620770	3506.982017
388.005133	3537.886810
388.389435	3565.091397
388.773674	3577.094384
389.157851	3620.226497
389.541965	3632.995739
389.926018	3595.194647
390.310008	3667.313394
390.693936	3685.517001
391.077802	3726.294894
391.461606	3715.453893
391.845348	3779.448820
392.229027	3779.670631
392.612645	3793.445584
392.996200	3867.180021
393.379694	3909.661824
393.763125	3970.611895
394.146494	3942.600723
394.529801	4002.923170
394.913047	4053.029719
395.296230	4021.020913
395.679351	4071.503027
396.062410	4090.556068
396.445408	4075.009150
396.828343	4109.634315
397.211217	4134.749343
397.594028	4051.073751
397.976778	4121.435656
398.359466	4147.939523
398.742092	4178.246939
399.124656	4099.967903
399.507158	4180.875901
399.889598	4204.208882
400.271977	4267.230867
400.654294	4238.143409
401.036549	4246.163885
401.418742	4218.094740
401.800874	4320.425122
402.182944	4336.929860
402.564952	4403.352103
402.946898	4390.209815
403.328783	4390.466913
403.710606	4301.273778
404.092367	4493.371987
404.474067	4455.689362
404.855705	4469.449191
405.237282	4394.096544
405.618797	4502.504037
406.000250	4538.702042
406.381642	4621.351760
406.762972	4578.610337
407.144240	4594.547945
407.525447	4586.988734
407.906593	4650.466944
408.287677	4692.961350
408.668700	4620.618272
409.049661	4674.011653
409.430560	4718.033529
409.811399	4638.199296
410.192176	4797.817350
410.572891	4739.929780
410.953545	4844.442982
411.334138	4724.660125
411.714669	4791.097492
412.095139	4684.310730
412.475547	4832.046785
412.855894	4813.081964
413.236180	4817.505576
413.616405	4770.988329
413.996568	4858.147359
414.376670	4801.580571
414.756711	4751.287500
415.136691	4785.552223
415.516609	4868.857290
415.896466	4902.015479
416.276262	4936.338175
416.655997	4915.745062
417.035670	5097.650057
417.415283	5192.547258
417.794834	5135.844359
418.174324	5092.661836
418.553753	5000.491899
418.933121	5179.677192
419.312428	5245.744034
419.691674	5189.998955
420.070859	5315.715249
420.449983	5222.448862
420.829045	5338.254248
421.208047	5246.752265
421.586988	5316.816741
421.965867	5328.363504
422.344686	5463.736129
422.723444	5320.549716
423.102141	5137.071880
423.480777	5435.540956
423.859352	5202.831212
424.237866	5461.744873
424.616319	5451.110559
424.994712	5564.072735
425.373044	5436.261841
425.751314	5582.283903
426.129524	5385.119335
426.507673	5581.815076
426.885762	5667.015617
427.263789	5592.822435
427.641756	5473.894054
428.019662	5597.218321
428.397508	5601.576399
428.775292	5552.215941
429.153016	5649.479963
429.530679	5577.189817
429.908282	5661.183002
430.285824	5531.582498
430.663305	5803.590557
431.040726	5543.149426
431.418086	5541.417789
431.795385	5650.296630
432.172624	5662.201315
432.549802	5653.167567
432.926920	5667.998642
433.303977	5672.021482
433.680974	5714.616712
434.057910	5733.947016
434.434786	5735.413992
434.811601	5707.019693
435.188355	5945.274706
435.565050	5814.454243
435.941683	5798.239372
436.318257	6011.331466
436.694770	5995.209856
437.071222	6029.630854
437.447614	5964.814218
437.823946	5874.030599
438.200218	6029.726636
438.576429	5894.495163
438.952580	5991.050904
439.328670	6031.937182
439.704700	5940.989725
440.080670	5928.812818
440.456580	6200.205856
440.832429	6081.136323
441.208218	5929.614362
441.583947	6086.910965
441.959616	6087.150419
442.335224	6017.932857
442.710773	6155.425287
443.086261	6175.489079
443.461689	5977.449871
443.837057	6125.374968
444.212365	6281.781808
444.587612	6170.788203
444.962800	6324.717315
445.337927	6307.070756
445.712995	5914.400159
446.088002	6494.977245
446.462949	6321.657335
446.837837	6252.613692
447.212664	6426.664569
447.587431	6570.909625
447.962139	7110.774352
448.336786	8036.042852
448.711374	7785.104296
449.085901	6851.691812
449.460369	6772.316324
449.834776	6710.375667
450.209124	7096.412105
450.583412	7248.541525
450.957640	7394.853453
451.331808	7163.361148
451.705917	6712.238373
452.079965	6641.886550
452.453954	6848.684763
452.827883	6725.322688
453.201752	6816.975906
453.575562	6618.180524
453.949311	6818.009342
454.323001	6709.075049
454.696632	6783.984074
455.070202	6925.700991
455.443713	7079.403252
455.817164	7177.804054
456.190556	7259.382526
456.563888	7335.019998
456.937160	7378.497430
457.310373	7036.283742
457.683526	7057.590179
458.056619	6949.069260
458.429653	6938.611386
458.802628	6871.347271
459.175542	6980.551266
459.548398	7343.894950
459.921194	7499.104515
460.293930	7503.177767
460.666607	8031.352059
461.039224	8337.692896
461.411782	8465.781053
461.784280	8489.895413
462.156719	8377.071869
462.529099	8253.840863
462.901419	7842.487750
463.273680	7739.292811
463.645882	7750.244717
464.018024	7616.094572
464.390106	7783.357536
464.762130	8167.455651
465.134094	8636.509810
465.505999	9660.889916
465.877845	10880.337470
466.249631	11534.344002
466.621358	11149.141875
466.993026	10512.653352
467.364634	10265.054560
467.736184	9901.678109
468.107674	9568.228467
468.479105	9603.846740
468.850477	9362.965285
469.221790	9134.608578
469.593043	8813.938261
469.964238	8667.986775
470.335373	8676.624792
470.706449	8740.886901
471.077467	8715.678611
471.448425	10034.595692
471.819324	11101.583630
472.190164	11129.466252
472.560945	9881.175736
472.931667	9089.160055
473.302330	8954.767935
473.672934	8598.585210
474.043479	8960.771949
474.413965	8900.300788
474.784393	8785.473386
475.154761	8933.380840
475.525070	9027.181589
475.895321	8853.602060
476.265513	9021.674129
476.635645	9195.745171
477.005719	9201.638280
477.375734	9312.780599
477.745691	9544.754334
478.115588	9678.531434
478.485427	9930.447974
478.855207	10463.343306
479.224928	11275.218612
479.594591	11902.239848
479.964194	11718.535161
480.333739	11660.735811
480.703226	11576.200702
481.072653	11665.648416
481.442022	11904.533573
481.811333	12089.417890
482.180584	11893.231306
482.549777	11607.128181
482.918912	11433.697366
483.287988	11454.265273
483.657005	11468.604835
484.025964	11152.007771
484.394864	11282.785384
484.763706	11244.316339
485.132489	11007.596357
485.501213	10967.433485
485.869879	11044.033817
486.238487	10885.529858
486.607036	10997.141004
486.975527	10776.368713
487.343959	10966.306787
487.712333	11017.981134
488.080648	10944.869280
488.448905	10982.506535
488.817104	10926.814387
489.185244	11190.202073
489.553326	11343.309477
489.921350	11882.465922
490.289315	12944.281636
490.657222	13293.580666
491.025070	13201.055328
491.392861	13082.709200
491.760593	12698.008668
492.128267	12346.350378
492.495883	12016.815193
492.863440	11680.875221
493.230939	11349.011022
493.598380	11279.317070
493.965763	11144.057871
494.333088	11038.317149
494.700354	10961.938627
495.067563	11024.070848
495.434713	10856.293686
495.801805	10987.023408
496.168839	10904.887889
496.535815	10840.913126
496.902733	10840.978661
497.269593	10776.837540
497.636395	10872.415296
498.003139	10866.423885
498.369825	10731.814995
498.736453	10887.183357
499.103023	10809.952880
499.469535	10842.385143
499.835989	10832.562455
500.202385	10790.153748
500.568723	10643.073043
500.935003	10870.371108
501.301226	10672.105048
501.667390	10927.217680
502.033497	11026.445232
502.399546	10888.446166
502.765537	10794.796651
503.131470	10868.594102
503.497345	11048.971627
503.863163	10653.016719
504.228923	10968.194699
504.594625	11026.919100
504.960269	10778.594382
505.325856	11006.109217
505.691385	10793.306990
506.056856	10944.680237
506.422270	10970.639658
506.787625	10862.368277
507.152924	10977.420010
507.518164	10962.662032
507.883347	10874.550225
508.248472	10798.290170
508.613540	11028.290294
508.978550	10922.179047
509.343503	10891.483461
509.708398	11010.172387
510.073236	11122.660694
510.438016	11119.630960
510.802738	11075.178066
511.167403	11127.391817
511.532010	11023.864161
511.896561	11260.145562
512.261053	11323.386837
512.625488	11204.687829
512.989866	11183.247801
513.354186	11169.558548
513.718449	11062.721375
514.082655	11259.039029
514.446803	11156.839717
514.810894	11282.124993
515.174927	11146.770012
515.538904	11171.254896
515.902822	11331.437560
516.266684	11209.885258
516.630488	11156.731332
516.994235	11211.848788
517.357925	11274.931266
517.721558	11353.631240
518.085133	11377.969930
518.448651	11387.245653
518.812112	11265.768969
519.175516	11283.627257
519.538863	11399.798127
519.902152	11320.815849
520.265385	11482.639408
520.628560	11391.926365
520.991678	11371.734023
521.354739	11439.933273
521.717743	11365.001562
522.080690	11344.358037
522.443580	11484.590334
522.806413	11436.202819
523.169189	11464.705503
523.531908	11515.762309
523.894569	11339.556338
524.257174	11343.680002
524.619722	11462.494957
524.982213	11409.978737
525.344647	11464.697941
525.707025	11413.810014
526.069345	11504.951555
526.431608	11428.908269
526.793815	11534.245700
527.155964	11321.980355
527.518057	11378.116124
527.880093	11325.983031
528.242072	11394.693958
528.603995	11299.143928
528.965860	11220.249871
529.327669	11271.094948
529.689421	11222.485622
530.051117	11187.729387
530.412755	11295.736108
530.774337	11180.301247
531.135862	11160.010603
531.497331	11188.183091
531.858743	11044.031297
532.220098	11204.163549
532.581396	11079.974724
532.942638	11064.936962
533.303824	11020.083295
533.664953	11034.180882
534.026025	10950.170053
534.387040	11054.456403
534.747999	11052.318954
535.108902	11108.295926
535.469748	10861.375169
535.830537	10972.487241
536.191270	10949.038314
536.551947	10974.523868
536.912567	10965.578340
537.273131	10901.490151
537.633638	10874.144412
537.994089	10862.436332
538.354483	10814.610906
538.714821	10957.991403
539.075103	10965.459873
539.435328	10930.370922
539.795497	10756.776268
540.155609	10912.174877
540.515665	11005.554690
540.875665	10733.957485
541.235609	10804.087497
541.595496	10799.663885
541.955328	10958.888729
542.315102	10835.040182
542.674821	10795.086517
543.034483	10792.137442
543.394090	10797.108020
543.753640	10719.262522
544.113134	10947.059661
544.472571	10795.651126
544.831953	10942.815010
545.191278	10753.512121
545.550548	10777.583631
545.909761	10911.990875
546.268918	10890.772658
546.628019	10974.695267
546.987064	10838.856335
547.346053	10750.537840
547.704986	10860.553461
548.063863	10840.204844
548.422684	10828.373256
548.781449	10748.700340
549.140158	10847.867398
549.498811	10726.582277
549.857408	10582.112890
550.215949	10811.515637
550.574434	10664.828143
550.932864	10766.966961
551.291237	10820.854375
551.649555	10768.428895
552.007817	10779.879876
552.366022	10747.205638
552.724173	10738.310522
553.082267	10726.720909
553.440305	10859.512463
553.798288	10657.531072
554.156215	10816.612244
554.514086	10790.980497
554.871902	10635.864193
555.229661	10681.534527
555.587365	10656.792543
555.945014	10543.101921
556.302606	10680.319608
556.660143	10569.525129
557.017625	10726.804088
557.375050	10622.447162
557.732421	10754.074210
558.089735	10669.576910
558.446994	10667.222691
558.804197	10707.617457
559.161345	10711.032838
559.518437	10561.595394
559.875474	10642.906685
560.232455	10674.736531
560.589381	10621.149065
560.946251	10615.273600
561.303065	10732.576209
561.659825	10668.336786
562.016528	10597.773235
562.373177	10471.986364
562.729770	10588.384086
563.086307	10498.530560
563.442789	10598.393297
563.799216	10472.543412
564.155587	10527.159272
564.511904	10475.764709
564.868164	10469.173400
565.224370	10483.432304
565.580520	10402.332741
565.936615	10411.656355
566.292654	10275.842630
566.648638	10415.827910
567.004567	10372.584892
567.360441	10351.742242
567.716260	10264.033727
568.072023	10357.448828
568.427732	10307.816148
568.783385	10215.114370
569.138982	10289.567171
569.494525	10306.817999
569.850013	10182.891314
570.205445	10257.868396
570.560823	10157.062963
570.916145	10080.616385
571.271412	10149.410491
571.626625	10095.918808
571.981782	10062.395135
572.336884	10044.698164
572.691931	10045.782012
573.046923	9995.907357
573.401860	9951.169637
573.756743	9890.418692
574.111570	9926.727602
574.466342	9916.332743
574.821059	9946.335170
575.175722	9836.979940
575.530330	9840.488583
575.884882	9838.706536
576.239380	9764.072253
576.593823	9743.204397
576.948211	9756.470193
577.302544	9637.335125
577.656823	9651.057145
578.011047	9657.953444
578.365216	9626.312642
578.719330	9551.252382
579.073389	9559.693794
579.427394	9514.840127
579.781344	9488.099327
580.135239	9435.610833
580.489080	9440.213406
580.842866	9345.381741
581.196597	9346.284107
581.550273	9388.171055
581.903895	9363.691212
582.257463	9421.843442
582.610975	9305.450761
582.964434	9333.126696
583.317837	9252.175847
583.671186	9233.705060
584.024481	9222.768276
584.377721	9152.018203
584.730906	9128.223957
585.084037	9160.419286
585.437113	9099.812013
585.790135	9114.842214
586.143103	9009.789609
586.496016	8985.372780
586.848874	9040.928816
587.201679	9027.983133
587.554428	8917.218901
587.907124	8964.825037
588.259765	8935.039379
588.612352	8937.610368
588.964884	8818.946647
589.317362	8830.793359
589.669786	8829.530550
590.022155	8874.197694
590.374470	8893.129747
590.726731	8824.620466
591.078937	8684.337757
591.431090	8793.430847
591.783188	8671.250922
592.135232	8661.508892
592.487222	8660.268768
592.839157	8711.829690
593.191038	8648.906008
593.542866	8591.046164
593.894639	8487.987336
594.246358	8538.212352
594.598022	8560.655568
594.949633	8453.273950
595.301190	8430.797966
595.652692	8458.156308
596.004141	8566.286537
596.355535	8346.996345
596.706876	8330.413469
597.058162	8264.780167
597.409395	8336.331784
597.760573	8399.923419
598.111698	8308.489491
598.462768	8292.264538
598.813785	8258.922346
599.164748	8223.901450
599.515657	8216.145635
599.866511	8126.861759
600.217312	8253.876151
600.568060	8111.082948
600.918753	8213.637661
601.269392	8184.693876
601.619978	8098.643901
601.970510	8153.506778
602.320988	8157.441399
602.671412	8211.863175
603.021783	8146.567630
603.372100	8121.533260
603.722363	8123.693394
604.072572	8102.810414
604.422728	8107.622196
604.772830	8039.450672
605.122878	8050.266468
605.472872	8042.568626
605.822813	8073.062566
606.172701	8015.537959
606.522534	8094.837830
606.872314	8091.145184
607.222041	8056.840132
607.571714	8115.196529
607.921333	8069.576608
608.270899	8078.938030
608.620411	8172.887494
608.969870	8077.090447
609.319276	8064.416987
609.668627	8080.450377
610.017926	8119.736088
610.367171	8162.893407
610.716362	8146.401272
611.065500	8126.652552
611.414585	8155.800503
611.763616	8144.256261
612.112594	8122.647355
612.461518	8139.482288
612.810389	8197.989920
613.159207	8138.663101
613.507971	8084.868948
613.856682	8209.085499
614.205340	8156.846543
614.553945	8237.578101
614.902496	8135.081361
615.250994	8188.867952
615.599439	8167.095208
615.947830	8186.044906
616.296169	8160.725710
616.644454	8174.344388
616.992686	8165.003129
617.340864	8227.780618
617.688990	8123.559804
618.037063	8218.938434
618.385082	8165.476998
618.733048	8246.279132
619.080961	8184.076335
619.428821	8201.667441
619.776628	8207.061476
620.124382	8161.754106
620.472083	8144.014285
620.819731	8171.614603
621.167326	8064.991678
621.514868	8071.351094
621.862357	7961.201882
622.209793	7977.346178
622.557176	7908.143738
622.904506	7882.398565
623.251783	7812.293759
623.599007	7769.010413
623.946179	7767.261132
624.293297	7727.105821
624.640363	7642.621124
624.987376	7631.028991
625.334336	7573.764003
625.681243	7521.668720
626.028097	7507.639188
626.374899	7487.023390
626.721647	7475.973181
627.068343	7408.736791
627.414987	7376.879219
627.761577	7329.605799
628.108115	7368.047118
628.454600	7256.314984
628.801032	7305.914897
629.147412	7268.965760
629.493739	7257.734069
629.840014	7193.303082
630.186236	7248.070177
630.532405	7136.015409
630.878521	7178.043509
631.224585	7131.732949
631.570597	7052.531381
631.916556	7084.850218
632.262462	7082.455670
632.608316	7040.223404
632.954117	7019.171545
633.299866	6997.550037
633.645562	6994.316136
633.991206	6917.125989
634.336797	6858.189859
634.682336	6812.196892
635.027823	6778.985770
635.373257	6766.955057
635.718639	6699.368307
636.063968	6712.472787
636.409245	6607.851200
636.754470	6602.663853
637.099642	6559.027625
637.444762	6505.107444
637.789829	6509.047105
638.134845	6449.914371
638.479808	6436.298214
638.824719	6435.216887
639.169577	6365.028902
639.514383	6380.979112
639.859137	6313.228525
640.203839	6316.084339
640.548489	6302.528676
640.893086	6279.576303
641.237632	6245.185551
641.582125	6266.318068
641.926566	6236.126598
642.270955	6245.377115
642.615292	6234.246247
642.959576	6249.982209
643.303809	6239.645323
643.647990	6240.318317
643.992118	6225.910700
644.336195	6179.834553
644.680219	6201.362801
645.024192	6187.149268
645.368112	6273.451301
645.711981	6290.712212
646.055797	6361.268201
646.399562	6316.069216
646.743274	6427.675321
647.086935	6480.637683
647.430544	6466.189736
647.774101	6483.236398
648.117606	6485.615822
648.461059	6475.404965
648.804460	6433.444921
649.147810	6347.261355
649.491108	6313.213402
649.834354	6289.525020
650.177548	6206.915632
650.520690	6120.124607
650.863781	6092.940185
651.206820	6103.675322
651.549807	6034.583788
651.892742	5972.146577
652.235626	5974.515919
652.578458	5959.349608
652.921238	5864.190267
653.263967	5899.863992
653.606644	5840.794272
653.949269	5832.473848
654.291843	5782.410149
654.634365	5819.911292
654.976836	5768.693169
655.319255	5771.942193
655.661622	5740.878603
656.003938	5729.231017
656.346203	5694.623496
656.688416	5718.730293
657.030577	5671.285474
657.372687	5636.640144
657.714746	5623.729749
658.056753	5663.058311
658.398708	5594.778403
658.740612	5588.902938
659.082465	5628.778465
659.424266	5617.909737
659.766016	5613.556701
660.107715	5581.908337
660.449362	5593.185398
660.790958	5580.126289
661.132503	5565.098609
661.473996	5592.280511
661.815438	5579.599488
662.156829	5575.432975
662.498168	5563.165327
662.839456	5538.506523
663.180693	5562.769596
663.521879	5559.737342
663.863013	5550.635539
664.204097	5552.314243
664.545129	5588.111477
664.886110	5579.811217
665.227040	5602.103199
665.567918	5569.340740
665.908746	5584.897741
666.249522	5584.007977
666.590248	5571.866358
666.930922	5593.455100
667.271545	5595.300162
667.612118	5593.586170
667.952639	5568.692952
668.293109	5572.988015
668.633528	5536.676584
668.973896	5534.075349
669.314213	5517.868039
669.654480	5492.246375
669.994695	5485.942412
670.334859	5475.250124
670.674973	5458.682372
671.015035	5459.287311
671.355047	5447.712822
671.695008	5431.601294
672.034918	5406.932407
672.374777	5411.867697
672.714585	5385.089088
673.054342	5388.360797
673.394049	5373.320514
673.733705	5390.357094
674.073310	5371.364547
674.412864	5339.522098
674.752368	5316.990661
675.091820	5317.416639
675.431223	5268.514926
675.770574	5257.570581
676.109875	5214.095670
676.449125	5209.538467
676.788324	5174.779711
677.127473	5123.382627
677.466571	5115.122697
677.805619	5097.791210
678.144616	5080.610957
678.483562	5058.704623
678.822458	5027.293194
679.161303	5018.912275
679.500098	5005.006253
679.838842	4990.991845
680.177535	4984.892049
680.516179	4996.590046
680.854771	4996.940406
681.193314	5054.321340
681.531805	5138.375019
681.870247	5248.136061
682.208638	5318.959232
682.546978	5328.129091
682.885268	5301.068177
683.223508	5225.523966
683.561697	5176.854146
683.899836	5148.681658
684.237925	5102.338330
684.575963	5076.147016
684.913951	5037.075553
685.251889	5064.378442
685.589776	5047.477974
685.927614	5018.703068
686.265401	5058.180343
686.603137	5041.758785
686.940824	5087.235033
687.278460	5101.042754
687.616046	5099.502681
687.953582	5146.335001
688.291068	5130.452845
688.628504	5165.808978
688.965889	5135.214215
689.303224	5095.810036
689.640510	5042.406573
689.977745	4979.445082
690.314930	4900.727465
690.652065	4853.227192
690.989150	4783.399650
691.326185	4717.292479
691.663170	4664.922452
692.000105	4608.204430
692.336990	4550.558836
692.673825	4514.781767
693.010610	4464.733192
693.347345	4415.866767
693.684030	4383.880646
694.020665	4352.076006
694.357251	4288.254999
694.693786	4289.530411
695.030272	4260.185854
695.366707	4229.394486
695.703093	4204.090415
696.039429	4214.298751
696.375716	4186.774051
696.711952	4170.818799
697.048139	4162.631965
697.384276	4137.842091
697.720363	4139.745127
698.056400	4136.211278
698.392388	4102.198613
698.728326	4085.802260
699.064214	4071.334149
699.400053	4057.473496
699.735842	4025.661295
700.071581	4008.806197
700.407270	3985.611848
700.742910	3969.528047
701.078501	3924.132456
701.414042	3914.987803
701.749533	3892.093403
702.084974	3852.359028
702.420366	3879.551012
702.755709	3837.759847
703.091002	3797.448260
703.426246	3816.443328
703.761440	3792.276036
704.096584	3767.995319
704.431679	3770.178138
704.766725	3755.586519
705.101721	3745.042945
705.436668	3756.113319
705.771565	3724.275912
706.106413	3745.388264
706.441212	3749.083430
706.775961	3750.265581
707.110661	3744.120414
707.445311	3760.315121
707.779913	3758.936365
708.114465	3768.706122
708.448967	3792.366777
708.783421	3824.998166
709.117825	3844.996423
709.452180	3845.742514
709.786485	3871.916185
710.120742	3925.022220
710.454949	3917.704985
710.789107	3954.868371
711.123216	3991.845235
711.457275	3991.789782
711.791286	4030.152963
712.125247	4027.433260
712.459159	3986.418433
712.793023	4033.991802
713.126837	3973.871001
713.460602	3969.684322
713.794318	3929.839042
714.127985	3925.715379
714.461602	3858.426057
714.795171	3844.212524
715.128691	3798.070843
715.462162	3753.743977
715.795584	3716.580591
716.128957	3697.930842
716.462281	3674.464271
716.795556	3648.298162
717.128782	3622.426960
717.461960	3575.854261
717.795088	3572.816965
718.128167	3544.410063
718.461198	3515.688089
718.794180	3508.743900
719.127113	3486.693893
719.459997	3469.067499
719.792833	3444.043211
720.125619	3439.813683
720.458357	3412.861154
720.791046	3410.660690
721.123686	3391.912639
721.456278	3365.955738
721.788821	3371.206100
722.121315	3354.860158
722.453761	3339.409022
722.786158	3341.768282
723.118506	3348.223479
723.450805	3326.186075
723.783056	3340.825586
724.115259	3336.684278
724.447412	3334.216633
724.779518	3337.838702
725.111574	3335.590348
725.443582	3348.001668
725.775542	3337.006912
726.107453	3359.475335
726.439315	3356.516177
726.771129	3373.898076
727.102895	3392.003380
727.434612	3411.870567
727.766281	3419.255858
728.097901	3418.804674
728.429473	3419.001279
728.760996	3416.352153
729.092471	3412.505753
729.423897	3402.168867
729.755276	3394.934811
730.086606	3394.297105
730.417887	3422.431784
730.749120	3450.952112
731.080305	3470.834423
731.411442	3485.675580
731.742530	3474.867346
732.073570	3474.159064
732.404562	3491.372084
732.735506	3484.760611
733.066401	3471.283086
733.397249	3433.862601
733.728048	3381.303531
734.058798	3324.232628
734.389501	3285.004889
734.720156	3255.463728
735.050762	3230.217629
735.381320	3213.909497
735.711831	3193.331507
736.042293	3177.162006
736.372707	3184.312882
736.703073	3166.575583
737.033391	3168.725635
737.363661	3172.745955
737.693883	3178.016481
738.024056	3186.049560
738.354182	3190.967206
738.684260	3212.361862
739.014290	3222.950806
739.344272	3227.994481
739.674207	3242.520565
740.004093	3248.315372
740.333931	3240.914958
740.663722	3240.821697
740.993464	3233.322980
741.323159	3221.443501
741.652806	3202.617312
741.982405	3183.072759
742.311956	3167.067095
742.641460	3157.259530
742.970915	3141.324443
743.300323	3119.438274
743.629683	3103.561160
743.958996	3091.555652
744.288260	3074.572004
744.617477	3057.573234
744.946647	3046.054197
745.275768	3031.646579
745.604842	3024.649458
745.933869	3007.910307
746.262847	2998.498472
746.591778	3009.578928
746.920662	2996.842453
747.249498	2991.947493
747.578286	2999.789008
747.907027	3012.593538
748.235720	3019.585619
748.564365	3021.145856
748.892963	3011.965915
749.221514	3008.948784
749.550017	3002.130624
749.878473	2991.997904
750.206881	2980.599856
750.535242	2975.732622
750.863555	2972.944863
751.191821	2966.343473
751.520039	2964.253914
751.848210	2954.799230
752.176334	2963.245683
752.504411	2961.672843
752.832440	2948.389403
753.160421	2944.469906
753.488356	2940.184925
753.816243	2939.716098
754.144082	2929.149839
754.471875	2921.371339
754.799620	2922.745053
755.127318	2920.206833
755.454969	2922.676998
755.782572	2918.255906
756.110129	2912.120822
756.437638	2907.515728
756.765100	2910.797519
757.092515	2910.948753
757.419882	2908.390368
757.747203	2905.038001
758.074477	2904.846437
758.401703	2908.281983
758.728882	2913.892787
759.056014	2916.063004
759.383099	2917.000659
759.710138	2924.050712
760.037129	2926.306629
760.364073	2929.159922
760.690970	2922.561051
761.017820	2918.931421
761.344623	2922.684560
761.671379	2937.954215
761.998088	2947.000565
762.324751	2997.389418
762.651366	3106.822786
762.977935	3318.815908
763.304456	3483.714571
763.630931	3495.599091
763.957359	3356.201105
764.283740	3213.758262
764.610074	3122.150414
764.936362	3040.211500
765.262602	2985.449446
765.588796	2940.033691
765.914943	2908.108063
766.241044	2877.672097
766.567097	2859.934797
766.893104	2843.664473
767.219064	2829.892041
767.544978	2817.475679
767.870845	2800.812145
768.196665	2794.094807
768.522438	2788.884775
768.848165	2785.960906
769.173846	2772.871550
769.499479	2768.339552
769.825066	2764.437699
770.150607	2756.386977
770.476101	2756.018972
770.801548	2750.098137
771.126949	2739.252095
771.452303	2734.621795
771.777611	2729.658779
772.102872	2730.188100
772.428087	2725.257852
772.753256	2719.505895
773.078378	2716.032540
773.403453	2705.983000
773.728482	2702.688606
774.053465	2706.300592
774.378401	2700.687268
774.703291	2691.030937
775.028135	2689.296781
775.352932	2687.751667
775.677683	2683.812005
776.002388	2680.905780
776.327046	2680.063907
776.651658	2677.818073
776.976224	2673.286076
777.300743	2670.152999
777.625216	2666.649397
777.949643	2664.892555
778.274024	2667.854233
778.598359	2659.831236
778.922647	2660.254693
779.246889	2661.194868
779.571086	2657.623211
779.895236	2655.468118
780.219339	2659.591782
780.543397	2658.883499
780.867409	2665.535302
781.191374	2664.464057
781.515294	2661.530105
781.839167	2662.402225
782.162995	2659.102790
782.486776	2659.102790
782.810511	2657.696308
783.134201	2652.219094
783.457844	2652.529125
783.781441	2651.636841
784.104993	2644.521252
784.428498	2644.806077
784.751958	2648.176089
785.075372	2645.108547
785.398739	2641.942702
785.722061	2643.492857
786.045337	2642.225007
786.368568	2643.268525
786.691752	2643.767600
787.014891	2652.813950
787.337983	2662.394663
787.661030	2676.570388
787.984031	2696.069571
788.306987	2708.705223
788.629897	2704.906713
788.952760	2693.319621
789.275579	2683.998528
789.598351	2670.442865
789.921078	2657.350989
790.243759	2648.675163
790.566395	2644.599390
790.888984	2639.835500
791.211529	2634.234778
791.534027	2633.191259
791.856480	2627.396452
792.178888	2625.208592
792.501249	2623.764301
792.823566	2621.142901
793.145836	2619.353292
793.468062	2620.018724
793.790241	2618.377828
794.112375	2620.071656
794.434464	2622.009980
794.756507	2621.692387
795.078505	2627.714045
795.400457	2629.972482
795.722364	2638.635705
796.044226	2646.053763
796.366042	2648.637354
796.687812	2644.460758
797.009538	2649.585091
797.331218	2640.087557
797.652852	2638.179481
797.974442	2635.779891
798.295986	2633.239150
798.617484	2627.893006
798.938938	2626.484004
799.260346	2621.382356
799.581709	2620.432098
799.903026	2620.600977
800.224299	2615.942951
800.545526	2609.956581
800.866708	2607.448607
801.187845	2606.677310
801.508936	2607.577156
801.829983	2611.143772
802.150984	2604.431476
802.471940	2603.672782
802.792851	2603.095570
803.113717	2600.010384
803.434538	2603.622371
803.755314	2602.967021
804.076045	2599.896958
804.396731	2599.082812
804.717372	2600.595158
805.037967	2597.285641
805.358518	2597.925867
805.679024	2603.345107
805.999485	2603.367793
806.319901	2602.944336
806.640272	2600.075919
806.960598	2602.904007
807.280879	2603.720673
807.601115	2604.824686
807.921306	2601.391660
808.241453	2602.596496
808.561554	2602.546085
808.881611	2600.484253
809.201623	2600.264962
809.521590	2600.048193
809.841513	2598.934098
810.161390	2599.385281
810.481223	2596.587441
810.801011	2596.776484
811.120755	2594.709611
811.440453	2594.175249
811.760107	2594.291195
812.079716	2590.270875
812.399281	2587.520926
812.718801	2587.374732
813.038276	2586.159814
813.357707	2589.129054
813.677093	2587.606625
813.996434	2585.612849
814.315731	2585.537232
814.634983	2586.111923
814.954191	2584.644947
815.273354	2587.780545
815.592473	2588.950093
815.911547	2589.353385
816.230577	2591.437902
816.549562	2593.519899
816.868502	2592.748602
817.187399	2594.966710
817.506250	2595.390167
817.825058	2594.954107
818.143821	2594.155084
818.462539	2599.196238
818.781213	2605.767382
819.099843	2613.941613
819.418429	2623.567696
819.736970	2637.400622
820.055466	2653.343271
820.373919	2667.380364
820.692327	2688.795186
821.010691	2724.463870
821.329011	2836.987465
821.647286	3101.305243
821.965517	3510.594003
822.283704	3729.042323
822.601847	3696.657951
822.919945	3468.747385
823.237999	3271.731531
823.556010	3108.665328
823.873976	2980.937613
824.191897	2883.146790
824.509775	2816.356543
824.827609	2766.567587
825.145398	2741.545820
825.463144	2737.971642
825.780845	2749.853641
826.098502	2777.186777
826.416116	2844.695389
826.733685	2914.719537
827.051210	2928.794438
827.368692	2893.108110
827.686129	2823.923315
828.003522	2760.404776
828.320872	2709.305120
828.638177	2675.857064
828.955439	2648.352529
829.272656	2632.286372
829.589830	2618.347581
829.906960	2609.780140
830.224046	2602.664552
830.541088	2598.177925
830.858086	2593.298088
831.175041	2592.148705
831.491952	2591.241297
831.808819	2591.122830
832.125642	2595.160794
832.442421	2603.040118
832.759157	2622.798920
833.075849	2656.123468
833.392497	2705.438555
833.709101	2739.257136
834.025662	2729.406721
834.342179	2703.749769
834.658653	2666.130158
834.975083	2638.560088
835.291469	2625.001904
835.607811	2604.978441
835.924110	2595.722883
836.240366	2588.617377
836.556578	2584.846593
836.872746	2578.461972
837.188871	2573.539285
837.504952	2572.838565
837.820990	2567.598286
838.136984	2563.517472
838.452935	2568.941753
838.768842	2564.336659
839.084706	2568.571228
839.400526	2582.883064
839.716303	2608.305603
840.032037	2622.619959
840.347727	2622.274640
840.663373	2607.302413
840.978977	2590.220463
841.294537	2578.444328
841.610054	2572.102557
841.925527	2568.533420
842.240957	2564.137533
842.556344	2559.119065
842.871687	2559.724003
843.186987	2557.137891
843.502244	2558.297357
843.817458	2555.053374
844.132629	2554.619835
844.447756	2551.070863
844.762840	2546.826211
845.077881	2548.197405
845.392879	2548.419216
845.707833	2549.422405
846.022745	2544.051056
846.337613	2549.470296
846.652438	2549.941644
846.967221	2549.692107
847.281960	2550.944834
847.596656	2549.407282
847.911309	2549.019113
848.225919	2549.999617
848.540485	2547.574823
848.855009	2546.649771
849.169490	2547.632796
849.483928	2547.710934
849.798323	2546.732950
850.112675	2547.771428
850.426984	2546.997610
850.741251	2548.149514
851.055474	2547.751263
851.369654	2545.281097
851.683792	2548.479710
851.997887	2546.906870
852.311938	2548.187323
852.625947	2545.873433
852.939914	2546.985007
853.253837	2548.527601
853.567718	2545.823022
853.881555	2547.108516
854.195350	2549.525749
854.509103	2548.000800
854.822812	2546.380069
855.136479	2548.426777
855.450103	2545.548279
855.763685	2543.786395
856.077224	2546.067518
856.390720	2545.076931
856.704173	2544.424101
857.017584	2545.936448
857.330953	2549.127498
857.644278	2546.730429
857.957561	2551.534649
858.270802	2549.893753
858.584000	2546.914431
858.897155	2545.926365
859.210268	2548.315872
859.523339	2545.918803
859.836367	2544.852599
860.149352	2548.739329
860.462295	2549.230842
860.775195	2543.385624
861.088054	2542.042156
861.400869	2542.571477
861.713642	2541.021323
862.026373	2546.881664
862.339062	2544.847558
862.651708	2543.708257
862.964312	2546.301931
863.276873	2545.850748
863.589392	2548.164638
863.901869	2547.799154
864.214303	2549.918959
864.526696	2549.354350
864.839045	2550.997766
865.151353	2548.701520
865.463619	2550.755791
865.775842	2551.048177
866.088023	2551.171686
866.400162	2546.995090
866.712258	2547.098433
867.024313	2550.153373
867.336325	2548.187323
867.648296	2546.982487
867.960224	2547.947868
868.272110	2550.102961
868.583954	2549.482899
868.895755	2547.537014
869.207515	2549.394679
869.519233	2550.551624
869.830909	2549.729916
870.142542	2552.774773
870.454134	2549.387117
870.765684	2550.914587
871.077191	2549.674463
871.388657	2550.854093
871.700081	2549.591284
872.011463	2551.451470
872.322803	2554.579506
872.634101	2552.699155
872.945357	2553.067160
873.256571	2554.312325
873.567744	2551.249824
873.878874	2553.707386
874.189963	2551.905174
874.501010	2554.357695
874.812015	2555.131512
875.122979	2553.057077
875.433900	2551.257385
875.744780	2554.919784
876.055618	2554.047664
876.366415	2554.100596
876.677169	2554.382901
876.987882	2554.602191
877.298554	2550.168496
877.609183	2554.650082
877.919771	2552.668908
878.230317	2555.774259
878.540822	2560.797769
878.851285	2562.496638
879.161707	2565.377657
879.472087	2571.923596
879.782425	2579.984401
880.092722	2600.665734
880.402977	2627.764457
880.713191	2684.439629
881.023363	2762.504417
881.333494	2808.121818
881.643583	2827.308449
881.953631	2816.031388
882.263637	2776.289452
882.573602	2743.789133
882.883526	2709.461396
883.193408	2684.066583
883.503248	2661.303253
883.813048	2643.742394
884.122806	2626.567183
884.432522	2612.154524
884.742197	2599.196238
885.051831	2589.953282
885.361424	2582.197467
885.670975	2576.863926
885.980485	2575.273442
886.289954	2573.609862
886.599382	2568.493090
886.908768	2567.888152
887.218113	2564.475291
887.527417	2561.871535
887.836680	2558.625032
888.145901	2559.731565
888.455082	2556.180072
888.764221	2555.451625
889.073319	2555.055895
889.382376	2552.293343
889.691392	2555.572613
890.000366	2552.658826
890.309300	2554.264434
890.618193	2555.428940
890.927044	2556.202757
891.235855	2556.265772
891.544625	2553.709907
891.853353	2554.665205
892.162041	2557.672254
892.470687	2561.773232
892.779293	2558.783828
893.087858	2561.458160
893.396381	2565.959911
893.704864	2572.712536
894.013306	2579.810481
894.321707	2599.781012
894.630068	2613.240892
894.938387	2617.241048
895.246665	2611.368104
895.554903	2605.779985
895.863100	2598.006526
896.171256	2589.665937
896.479371	2577.390727
896.787446	2575.044070
897.095480	2569.123235
897.403473	2565.395301
897.711425	2564.500497
898.019336	2559.676112
898.327207	2561.153170
898.635038	2558.420865
898.942827	2558.683005
899.250576	2558.050340
899.558284	2557.200906
899.865952	2556.742161
900.173579	2554.208981
900.481165	2554.140925
900.788711	2552.091696
901.096216	2552.890719
901.403681	2551.708569
901.711105	2549.382076
902.018489	2549.777807
902.325832	2555.118909
902.633135	2550.947354
902.940397	2555.209650
903.247619	2560.303736
903.554800	2573.156158
903.861941	2596.476535
904.169041	2618.932355
904.476101	2633.133286
904.783121	2632.808131
905.090100	2619.285236
905.397039	2606.800818
905.703938	2591.813468
906.010796	2582.535224
906.317614	2571.633729
906.624391	2567.308419
906.931129	2561.309446
907.237826	2558.188972
907.544483	2554.118240
907.851099	2552.757129
908.157675	2550.407951
908.464211	2548.724206
908.770707	2544.645912
909.077163	2543.511652
909.383578	2541.984183
909.689954	2541.500232
909.996289	2538.162988
910.302584	2544.141797
910.608839	2541.038967
910.915054	2542.878988
911.221229	2543.531817
911.527363	2545.964174
911.833458	2543.413350
912.139513	2543.672969
912.445527	2546.498536
912.751502	2547.325285
913.057436	2550.365101
913.363331	2549.770245
913.669186	2549.843342
913.975000	2550.849052
914.280775	2554.718137
914.586510	2561.372461
914.892205	2568.485529
915.197859	2584.196285
915.503475	2594.434868
915.809050	2607.430963
916.114585	2615.108640
916.420081	2617.997221
916.725536	2616.202570
917.030952	2609.850717
917.336328	2599.750765
917.641665	2592.577203
917.946961	2582.320975
918.252218	2578.741756
918.557435	2572.077351
918.862612	2564.182904
919.167750	2564.772719
919.472848	2562.206772
919.777906	2556.250648
920.082925	2553.682180
920.387904	2555.509599
920.692843	2553.046995
920.997743	2548.023485
921.302603	2549.482899
921.607423	2549.082127
921.912204	2548.709082
922.216946	2547.141283
922.521647	2547.937786
922.826310	2547.416026
923.130932	2544.154400
923.435516	2546.105326
923.740059	2542.682383
924.044564	2543.678011
924.349028	2542.891591
924.653454	2537.893287
924.957840	2538.707433
925.262186	2536.580066
925.566493	2541.941333
925.870761	2537.676517
926.174989	2539.027546
926.479178	2539.967721
926.783328	2536.698533
927.087438	2540.854964
927.391509	2538.606610
927.695541	2541.021323
927.999533	2537.305992
928.303486	2538.102494
928.607400	2537.484953
928.911275	2537.366486
929.215110	2538.392361
929.518906	2539.060314
929.822663	2536.464119
930.126381	2538.314223
930.430060	2538.568801
930.733699	2536.665766
931.037299	2539.408153
931.340861	2538.024357
931.644383	2540.625592
931.947866	2540.660880
932.251309	2537.565612
932.554714	2541.464944
932.858080	2539.962680
933.161407	2539.519059
933.464694	2537.883204
933.767943	2539.367824
934.071153	2534.908923
934.374323	2536.282638
934.677455	2537.283307
934.980548	2538.493184
935.283602	2538.047042
935.586617	2538.115097
935.889593	2537.139634
936.192530	2537.210210
936.495428	2537.121990
936.798287	2538.092412
937.101108	2537.290869
937.403890	2537.137113
937.706632	2540.534851
938.009336	2540.267670
938.312002	2541.212886
938.614628	2539.146013
938.917216	2539.753472
939.219765	2542.503422
939.522275	2542.281611
939.824747	2542.629451
940.127179	2539.503935
940.429573	2539.682896
940.731929	2541.348998
941.034246	2536.736342
941.336524	2541.127187
941.638763	2538.699871
941.940964	2539.057793
942.243126	2540.610468
942.545250	2540.698689
942.847335	2539.819007
943.149381	2541.285983
943.451389	2539.904707
943.753359	2539.461085
944.055290	2540.121477
944.357182	2539.347659
944.659036	2536.489325
944.960851	2538.722556
945.262628	2539.473688
945.564367	2537.817669
945.866067	2540.383617
946.167729	2537.616023
946.469352	2538.979655
946.770937	2539.440921
947.072484	2541.162475
947.373992	2537.857998
947.675462	2536.456558
947.976893	2535.884387
948.278286	2539.438400
948.579641	2536.443955
948.880958	2536.368337
949.182236	2538.152906
949.483476	2535.060158
949.784678	2535.171063
950.085841	2535.385312
950.386967	2537.963863
950.688054	2538.089892
950.989103	2537.053934
951.290114	2535.602082
951.591087	2538.213400
951.892021	2540.973432
952.192917	2540.290355
952.493776	2536.544778
952.794596	2539.524100
953.095378	2540.396219
953.396122	2538.785571
953.696828	2537.673996
953.997496	2536.403626
954.298126	2536.557381
954.598718	2537.177443
954.899272	2533.978831
955.199788	2536.086033
955.500266	2536.753986
955.800706	2536.512010
956.101108	2527.758047
956.401472	2533.777184
956.701798	2530.059333
957.002087	2532.257277
957.302337	2532.917668
957.602550	2533.477236
957.902724	2532.758871
958.202861	2533.197452
958.502960	2534.341794
958.803022	2531.843902
959.103045	2534.702236
959.403031	2535.319778
959.702979	2533.961187
960.002889	2531.750641
960.302762	2531.586803
960.602596	2535.155940
960.902393	2530.321473
961.202153	2533.197452
961.501875	2533.946063
961.801559	2531.906916
962.101205	2528.385670
962.400814	2534.825744
962.700385	2532.655528
962.999918	2533.696526
963.299414	2530.412214
963.598873	2533.026053
963.898293	2531.150743
964.197677	2531.864067
964.497022	2534.125024
964.796331	2532.259797
965.095601	2530.298788
965.394835	2533.822555
965.694030	2532.854653
965.993189	2534.510672
966.292309	2529.615712
966.591393	2532.148892
966.890439	2532.073274
967.189447	2532.494211
967.488419	2533.469674
967.787353	2530.434899
968.086249	2531.193593
968.385108	2533.257946
968.683930	2533.147040
968.982714	2531.826258
969.281462	2533.005888
969.580172	2533.343645
969.878844	2532.804242
970.177480	2532.320291
970.476078	2530.855836
970.774639	2535.695343
971.073162	2532.030425
971.371649	2526.807789
971.670098	2526.931298
971.968510	2529.877852
972.266885	2525.663447
972.565223	2533.167205
972.863524	2530.949097
973.161788	2532.514375
973.460014	2531.801052
973.758204	2532.469005
974.056356	2529.892975
974.354471	2532.040507
974.652550	2530.392050
974.950591	2532.111083
975.248595	2530.240815
975.546563	2531.357431
975.844493	2530.598737
976.142386	2530.013963
976.440243	2528.385670
976.738062	2533.487318
977.035845	2531.700229
977.333590	2529.900537
977.631299	2531.811134
977.928971	2529.454395
978.226606	2531.261649
978.524204	2529.812317
978.821765	2531.995137
979.119290	2532.257277
979.416777	2532.925229
979.714228	2528.718387
980.011642	2529.600588
980.309020	2533.111752
980.606360	2531.813655
980.903664	2530.601258
981.200931	2530.407173
981.498162	2531.990095
981.795356	2530.588655
982.092513	2535.097967
982.389633	2530.119827
982.686717	2536.320447
982.983764	2536.544778
983.280775	2534.203162
983.577749	2532.390867
983.874686	2533.666279
984.171587	2533.177287
984.468451	2531.044879
984.765279	2531.828778
985.062070	2534.750127
985.358824	2529.797193
985.655543	2531.604447
985.952224	2531.841381
986.248869	2530.210568
986.545478	2523.455422
986.842050	2525.824764
987.138586	2525.003056
987.435086	2528.947759
987.731549	2525.182017
988.027975	2532.499252
988.324366	2529.628315
988.620719	2526.744775
988.917037	2529.217461
989.213318	2530.291227
989.509563	2529.605630
989.805772	2529.126720
990.101944	2529.900537
990.398080	2528.794004
990.694180	2529.154446
990.990244	2529.328366
991.286271	2531.690147
991.582262	2529.605630
991.878217	2528.841895
992.174136	2528.499096
992.470019	2527.619415
992.765865	2531.390198
993.061676	2527.203520
993.357450	2529.023376
993.653188	2528.829292
993.948890	2530.303829
994.244556	2528.665454
994.540186	2531.299457
994.835780	2529.041020
995.131337	2531.410363
995.426859	2529.338448
995.722345	2528.675537
996.017795	2529.688809
996.313208	2530.487832
996.608586	2530.097142
996.903928	2529.736700
997.199234	2530.485311
997.494504	2530.354241
997.789738	2532.037986
998.084936	2527.934487
998.380099	2529.149405
998.675225	2528.552028
998.970316	2529.913140
999.265371	2530.823068
999.560390	2529.207378
999.855373	2530.389529
1000.150320	2528.063037
1000.445232	2531.304498
1000.740108	2529.156967
1001.034948	2528.229395
1001.329752	2526.326359
1001.624521	2530.041689
1001.919254	2523.379805
1002.213951	2525.171935
1002.508613	2524.738396
1002.803239	2528.068078
1003.097829	2523.858714
1003.392384	2529.658562
1003.686903	2528.156298
1003.981386	2529.348531
1004.275834	2526.956503
1004.570246	2528.748633
1004.864623	2524.503982
1005.158964	2526.764939
1005.453270	2530.041689
1005.747540	2529.913140
1006.041775	2529.041020
1006.335974	2527.838705
1006.630138	2527.642100
1006.924266	2528.189065
1007.218359	2529.356093
1007.512416	2527.216123
1007.806438	2528.070598
1008.100425	2528.378109
1008.394376	2524.725793
1008.688292	2527.644621
1008.982172	2526.475073
1009.276017	2528.889786
1009.569827	2526.538088
1009.863602	2526.026410
1010.157341	2526.850639
1010.451045	2527.195958
1010.744714	2526.555732
1011.038347	2530.066895
1011.331945	2527.700073
1011.625508	2528.799045
1011.919036	2523.921729
1012.212528	2528.627646
1012.505986	2526.235618
1012.799408	2526.964065
1013.092795	2526.275948
1013.386147	2529.131761
1013.679464	2526.656555
1013.972745	2526.744775
1014.265992	2528.514220
1014.559204	2529.005732
1014.852380	2526.686802
1015.145521	2529.129241
1015.438628	2527.213602
1015.731699	2525.804600
1016.024736	2528.020187
1016.317737	2529.061185
1016.610703	2529.461957
1016.903635	2525.918026
1017.196531	2523.374763
1017.489393	2526.787625
1017.782219	2521.252438
1018.075011	2526.797707
1018.367768	2528.471370
1018.660490	2527.760567
1018.953177	2527.760567
1019.245829	2527.760567
