Dividing Wavelength (nm)	Counts (n)	Blue Motor Position (mm): 0.000000	Red Motor Position (mm): 34.800000	
326.493990	2129.280041
326.888308	2129.280041
327.282561	2129.280041
327.676750	2097.311564
328.070874	2094.629670
328.464933	2095.519434
328.858929	2102.579570
329.252859	2112.747577
329.646726	2126.774588
330.040528	2138.013840
330.434265	2151.365336
330.827938	2172.225631
331.221547	2191.376974
331.615091	2206.805425
332.008571	2227.136399
332.401986	2248.369739
332.795338	2268.123500
333.188625	2286.929525
333.581847	2303.714046
333.975006	2321.519402
334.368100	2343.574450
334.761129	2359.421317
335.154095	2375.270705
335.546996	2393.668396
335.939833	2414.024575
336.332606	2428.785073
336.725315	2443.502722
337.117960	2453.048147
337.510540	2457.234825
337.903056	2469.162195
338.295508	2476.260140
338.687896	2485.656850
339.080220	2495.424086
339.472480	2498.889879
339.864676	2506.126456
340.256807	2509.246930
340.648875	2511.863289
341.040879	2518.008455
341.432818	2516.223887
341.824694	2517.698424
342.216506	2518.754546
342.608253	2522.300998
342.999937	2519.530884
343.391557	2520.040040
343.783113	2517.524504
344.174605	2516.241531
344.566033	2513.622651
344.957397	2515.805471
345.348697	2510.043432
345.739934	2511.084430
346.131106	2509.599811
346.522215	2509.400685
346.913260	2504.387258
347.304241	2504.435148
347.695159	2502.214520
348.086012	2501.113028
348.476802	2501.836434
348.867528	2500.019098
349.258191	2497.042296
349.648789	2493.153046
350.039324	2493.369816
350.429796	2493.422748
350.820203	2490.375370
351.210548	2491.189517
351.600828	2488.421923
351.991045	2490.481235
352.381198	2491.048364
352.771288	2486.980153
353.161314	2488.237921
353.551276	2488.414362
353.941175	2488.033754
354.331010	2489.430154
354.720782	2487.764053
355.110490	2486.718013
355.500135	2489.757829
355.889717	2487.398569
356.279235	2486.985194
356.668689	2488.618528
357.058080	2489.062150
357.447408	2488.981491
357.836672	2485.498054
358.225873	2486.536532
358.615010	2484.900677
359.004084	2493.379898
359.393095	2493.213540
359.782043	2494.017604
360.170927	2492.366626
360.559748	2498.547081
360.948505	2494.277223
361.337199	2496.172697
361.725830	2496.863335
362.114398	2498.025321
362.502903	2497.775784
362.891344	2497.133037
363.279722	2497.211175
363.668037	2500.084633
364.056289	2498.153871
364.444478	2500.384581
364.832603	2499.278048
365.220665	2501.415497
365.608665	2502.201917
365.996601	2502.438852
366.384474	2504.107473
366.772284	2504.999758
367.160031	2506.882629
367.547715	2508.515963
367.935336	2511.031498
368.322893	2513.441170
368.710388	2517.058198
369.097820	2527.644621
369.485189	2527.934487
369.872495	2530.946577
370.259738	2542.057280
370.646918	2547.221942
371.034035	2553.803168
371.421090	2565.375137
371.808081	2573.567012
372.195010	2584.312231
372.581875	2599.574324
372.968678	2611.098402
373.355418	2621.515947
373.742096	2639.154944
374.128710	2654.074239
374.515262	2666.402380
374.901751	2682.408044
375.288177	2698.393543
375.674540	2721.212326
376.060841	2738.926940
376.447079	2758.098448
376.833254	2780.962602
377.219367	2790.013993
377.605417	2828.997236
377.991404	2838.048628
378.377329	2860.340610
378.763191	2874.707898
379.148991	2915.057294
379.534727	2938.019750
379.920402	2966.595530
380.306013	2980.299907
380.691563	3029.486445
381.077049	3049.671225
381.462474	3067.955490
381.847835	3109.539968
382.233134	3129.384470
382.618371	3128.887917
383.003545	3194.921991
383.388657	3203.799463
383.773706	3241.535020
384.158693	3255.473810
384.543618	3279.726801
384.928480	3313.941113
385.313280	3359.407279
385.698017	3362.837784
386.082692	3415.270825
386.467305	3418.366094
386.851856	3450.768110
387.236344	3475.046307
387.620770	3504.267355
388.005133	3531.197199
388.389435	3558.361457
388.773674	3566.026531
389.157851	3610.665948
389.541965	3625.862507
389.926018	3591.474276
390.310008	3666.209382
390.693936	3680.811084
391.077802	3723.108885
391.461606	3711.216803
391.845348	3773.487656
392.229027	3773.966566
392.612645	3788.454842
392.996200	3866.466697
393.379694	3905.865835
393.763125	3972.736741
394.146494	3938.434210
394.529801	3999.911081
394.913047	4048.255746
395.296230	4012.619830
395.679351	4066.479517
396.062410	4090.699741
396.445408	4073.446392
396.828343	4105.737503
397.211217	4129.607367
397.594028	4051.333371
397.976778	4119.978763
398.359466	4142.936177
398.742092	4174.866846
399.124656	4097.046554
399.507158	4173.929191
399.889598	4201.025393
400.271977	4261.131070
400.654294	4232.978747
401.036549	4242.304881
401.418742	4207.467988
401.800874	4310.839368
402.182944	4335.576310
402.564952	4399.384715
402.946898	4387.732088
403.328783	4382.690934
403.710606	4294.316986
404.092367	4492.893077
404.474067	4454.809681
404.855705	4460.806133
405.237282	4391.195360
405.618797	4496.820136
406.000250	4531.994787
406.381642	4615.498980
406.762972	4576.767795
407.144240	4586.517387
407.525447	4584.899176
407.906593	4644.702384
408.287677	4686.065052
408.668700	4614.778095
409.049661	4665.958409
409.430560	4709.307291
409.811399	4638.048061
410.192176	4797.802227
410.572891	4735.271754
410.953545	4840.566335
411.334138	4719.850865
411.714669	4788.728150
412.095139	4684.275442
412.475547	4824.875743
412.855894	4807.450995
413.236180	4816.152027
413.616405	4766.413482
413.996568	4854.452193
414.376670	4796.423471
414.756711	4750.790946
415.136691	4785.491729
415.516609	4860.042832
415.896466	4896.639089
416.276262	4931.281898
416.655997	4913.365637
417.035670	5095.915900
417.415283	5184.385630
417.794834	5130.102485
418.174324	5082.945012
418.553753	4990.361701
418.933121	5178.532850
419.312428	5244.075412
419.691674	5183.349673
420.070859	5309.065967
420.449983	5221.672524
420.829045	5339.602757
421.208047	5245.391153
421.586988	5313.678623
421.965867	5323.090457
422.344686	5459.153720
422.723444	5316.095856
423.102141	5132.917970
423.480777	5430.943423
423.859352	5197.086817
424.237866	5454.142813
424.616319	5450.384633
424.994712	5560.758176
425.373044	5437.630514
425.751314	5579.692750
426.129524	5380.995671
426.507673	5578.525723
426.885762	5656.194780
427.263789	5591.773875
427.641756	5472.258200
428.019662	5595.789154
428.397508	5601.611687
428.775292	5544.452564
429.153016	5646.750178
429.530679	5571.866358
429.908282	5657.046735
430.285824	5530.717940
430.663305	5806.887471
431.040726	5538.637593
431.418086	5542.657913
431.795385	5647.050127
432.172624	5661.082179
432.549802	5651.725797
432.926920	5662.670142
433.303977	5668.709444
433.680974	5714.402463
434.057910	5728.124484
434.434786	5737.876596
434.811601	5702.286050
435.188355	5940.770435
435.565050	5813.677906
435.941683	5794.251819
436.318257	6005.917266
436.694770	5989.326829
437.071222	6021.406212
437.447614	5955.604030
437.823946	5868.823088
438.200218	6026.321337
438.576429	5890.215224
438.952580	5990.249360
439.328670	6029.383838
439.704700	5938.577533
440.080670	5925.692344
440.456580	6195.522624
440.832429	6078.802269
441.208218	5929.619403
441.583947	6083.588844
441.959616	6088.120842
442.335224	6016.289440
442.710773	6151.752806
443.086261	6177.492937
443.461689	5970.949303
443.837057	6120.719463
444.212365	6274.104130
444.587612	6170.029509
444.962800	6322.226985
445.337927	6301.432225
445.712995	5908.229787
446.088002	6490.167984
446.462949	6319.655997
446.837837	6251.560090
447.212664	6423.297078
447.587431	6567.658081
447.962139	7106.532221
448.336786	8037.988738
448.711374	7773.507122
449.085901	6851.800197
449.460369	6768.374142
449.834776	6705.062290
450.209124	7097.125428
450.583412	7246.308294
450.957640	7395.087867
451.331808	7159.736559
451.705917	6710.955399
452.079965	6635.166692
452.453954	6848.213416
452.827883	6721.199024
453.201752	6813.036244
453.575562	6610.046623
453.949311	6818.818448
454.323001	6705.672270
454.696632	6778.350585
455.070202	6919.913747
455.443713	7076.373518
455.817164	7172.762900
456.190556	7251.994715
456.563888	7327.680078
456.937160	7377.335444
457.310373	7037.796088
457.683526	7054.484828
458.056619	6944.474248
458.429653	6932.531755
458.802628	6868.917434
459.175542	6978.038251
459.548398	7332.620409
459.921194	7493.213927
460.293930	7499.767427
460.666607	8027.266203
461.039224	8332.674427
461.411782	8466.771640
461.784280	8479.974422
462.156719	8369.633646
462.529099	8248.177127
462.901419	7835.500711
463.273680	7733.311482
463.645882	7744.931341
464.018024	7607.310362
464.390106	7776.473841
464.762130	8164.859457
465.134094	8634.758009
465.505999	9657.545110
465.877845	10877.579958
466.249631	11532.635051
466.621358	11144.982923
466.993026	10519.680721
467.364634	10254.357232
467.736184	9895.152335
468.107674	9561.778311
468.479105	9600.222150
468.850477	9358.992856
469.221790	9129.396025
469.593043	8807.062127
469.964238	8662.650714
470.335373	8672.944750
470.706449	8730.088749
471.077467	8715.829846
471.448425	10022.572540
471.819324	11103.269896
472.190164	11124.977104
472.560945	9870.160815
472.931667	9088.086290
473.302330	8949.394065
473.672934	8595.232843
474.043479	8954.273902
474.413965	8893.956496
474.784393	8776.124566
475.154761	8927.185262
475.525070	9019.761011
475.895321	8842.624947
476.265513	9019.352678
476.635645	9194.263072
477.005719	9188.720323
477.375734	9302.257190
477.745691	9543.146206
478.115588	9676.487246
478.485427	9918.510522
478.855207	10453.195463
479.224928	11270.885740
479.594591	11901.826473
479.964194	11719.364431
480.333739	11654.532672
480.703226	11565.261399
481.072653	11658.270687
481.442022	11897.004610
481.811333	12085.894124
482.180584	11895.141903
482.549777	11599.513518
482.918912	11423.456262
483.287988	11448.407453
483.657005	11460.032353
484.025964	11142.081739
484.394864	11265.653023
484.763706	11242.067984
485.132489	10993.536579
485.501213	10961.691610
485.869879	11038.322190
486.238487	10875.810513
486.607036	10987.267904
486.975527	10767.859245
487.343959	10960.897629
487.712333	11010.248004
488.080648	10928.724985
488.448905	10969.964144
488.817104	10916.505228
489.185244	11184.026660
489.553326	11340.748571
489.921350	11868.693490
490.289315	12938.380966
490.657222	13279.687246
491.025070	13185.329448
491.392861	13064.308989
491.760593	12677.879341
492.128267	12327.640136
492.495883	12001.169972
492.863440	11666.031543
493.230939	11329.385810
493.598380	11269.086048
493.965763	11130.804678
494.333088	11033.482682
494.700354	10948.743407
495.067563	11015.455516
495.434713	10842.576707
495.801805	10968.061108
496.168839	10892.463965
496.535815	10832.353247
496.902733	10825.396454
497.269593	10757.774417
497.636395	10855.809736
498.003139	10848.119455
498.369825	10703.894564
498.736453	10863.787362
499.103023	10790.138624
499.469535	10819.647018
499.835989	10797.339913
500.202385	10766.561148
500.568723	10622.195105
500.935003	10834.173103
501.301226	10638.236056
501.667390	10894.198122
502.033497	10990.050621
502.399546	10849.558705
502.765537	10753.812070
503.131470	10829.444501
503.497345	10996.336940
503.863163	10609.274627
504.228923	10918.088150
504.594625	10969.268465
504.960269	10715.668179
505.325856	10930.179358
505.691385	10721.616741
506.056856	10874.346058
506.422270	10891.352391
506.787625	10774.017014
507.152924	10882.497604
507.518164	10863.381549
507.883347	10781.460278
508.248472	10686.994096
508.613540	10910.730586
508.978550	10789.962184
509.343503	10755.158058
509.708398	10865.594615
510.073236	10969.631428
510.438016	10971.312652
510.802738	10908.033569
511.167403	10946.825248
511.532010	10834.135295
511.896561	11057.420601
512.261053	11119.136927
512.625488	10977.271296
512.989866	10947.258787
513.354186	10923.648543
513.718449	10810.683847
514.082655	10990.665642
514.446803	10882.585824
514.810894	10984.414611
515.174927	10836.797024
515.538904	10850.309837
515.902822	10977.175514
516.266684	10849.931750
516.630488	10778.407859
516.994235	10822.795219
517.357925	10856.696979
517.721558	10929.556775
518.085133	10921.173336
518.448651	10913.674620
518.812112	10784.326174
519.175516	10773.258321
519.538863	10864.188133
519.902152	10767.584502
520.265385	10892.708461
520.628560	10789.352204
520.991678	10740.614329
521.354739	10779.148909
521.717743	10692.879643
522.080690	10649.097222
522.443580	10744.652293
522.806413	10671.500110
523.169189	10669.710500
523.531908	10697.825015
523.894569	10501.192289
524.257174	10483.379372
524.619722	10548.760617
524.982213	10482.464402
525.344647	10480.548764
525.707025	10412.538557
526.069345	10465.616866
526.431608	10349.793836
526.793815	10423.553478
527.155964	10189.994300
527.518057	10210.476508
527.880093	10124.446697
528.242072	10144.278597
528.603995	10023.613538
528.965860	9921.136963
529.327669	9921.356253
529.689421	9847.697433
530.051117	9784.042784
530.412755	9820.994442
530.774337	9693.261685
531.135862	9629.158373
531.497331	9612.250343
531.858743	9444.271535
532.220098	9536.023056
532.581396	9391.904029
532.942638	9335.430503
533.303824	9260.597095
533.664953	9216.182009
534.026025	9104.253270
534.387040	9141.429259
534.747999	9098.919729
535.108902	9094.697763
535.469748	8867.581179
535.830537	8902.052589
536.191270	8834.175973
536.551947	8802.532651
536.912567	8753.635979
537.273131	8655.547728
537.633638	8590.932738
537.994089	8530.171711
538.354483	8449.611552
538.714821	8501.185077
539.075103	8461.359961
539.435328	8382.410451
539.795497	8225.159218
540.155609	8267.114221
540.515665	8283.505533
540.875665	8053.528094
541.235609	8042.624079
541.595496	7995.206986
541.955328	8036.602420
542.315102	7912.423678
542.674821	7827.263466
543.034483	7774.958974
543.394090	7726.004329
543.753640	7626.580172
544.113134	7706.900877
544.472571	7566.008188
544.831953	7591.292095
545.191278	7422.161384
545.550548	7392.073257
545.909761	7414.902122
546.268918	7342.974939
546.628019	7341.664239
546.987064	7201.182405
547.346053	7123.818337
547.704986	7110.222346
548.063863	7058.558080
548.422684	7015.448653
548.781449	6908.382107
549.140158	6911.157263
549.498811	6798.414377
549.857408	6684.496903
550.215949	6726.792184
550.574434	6607.730213
550.932864	6598.807370
551.291237	6587.747079
551.649555	6495.975393
552.007817	6458.018026
552.366022	6393.211472
552.724173	6335.359191
553.082267	6286.560822
553.440305	6275.702176
553.798288	6156.821686
554.156215	6158.016440
554.514086	6098.336740
554.871902	5988.119473
555.229661	5958.112004
555.587365	5897.325771
555.945014	5816.745448
556.302606	5799.973529
556.660143	5728.709258
557.017625	5722.478391
557.375050	5646.150281
557.732421	5642.177852
558.089735	5562.570471
558.446994	5519.476167
558.804197	5483.232792
559.161345	5435.336789
559.518437	5343.313046
559.875474	5315.160722
560.232455	5281.503459
560.589381	5225.846600
560.946251	5163.485006
561.303065	5174.593188
561.659825	5091.968677
562.016528	5038.834915
562.373177	4962.025375
562.729770	4939.887148
563.086307	4883.615268
563.442789	4875.667889
563.799216	4778.393784
564.155587	4763.161938
564.511904	4703.572979
564.868164	4666.689377
565.224370	4637.319614
565.580520	4566.352771
565.936615	4547.818969
566.292654	4466.956341
566.648638	4465.910301
567.004567	4416.958177
567.360441	4383.752097
567.716260	4318.685924
568.072023	4310.768792
568.427732	4260.468159
568.783385	4221.691603
569.138982	4189.771017
569.494525	4163.695649
569.850013	4106.350003
570.205445	4088.771500
570.560823	4048.817835
570.916145	3994.753981
571.271412	3979.191939
571.626625	3942.671300
571.981782	3909.409767
572.336884	3869.559445
572.691931	3852.739636
573.046923	3807.467553
573.401860	3772.285341
573.756743	3735.273189
574.111570	3711.788974
574.466342	3688.458514
574.821059	3666.095956
575.175722	3626.051550
575.530330	3598.347889
575.884882	3582.246444
576.239380	3542.607851
576.593823	3517.754963
576.948211	3496.806448
577.302544	3462.191365
577.656823	3435.884103
578.011047	3419.258378
578.365216	3393.372053
578.719330	3368.529247
579.073389	3343.046214
579.427394	3321.449911
579.781344	3304.534319
580.135239	3279.005916
580.489080	3267.401180
580.842866	3237.862539
581.196597	3220.667163
581.550273	3208.797767
581.903895	3189.701876
582.257463	3185.613500
582.610975	3155.890857
582.964434	3146.852068
583.317837	3124.935652
583.671186	3111.253960
584.024481	3094.600509
584.377721	3077.503435
584.730906	3060.471897
585.084037	3050.906308
585.437113	3036.390305
585.790135	3020.377080
586.143103	3003.491735
586.496016	2989.978922
586.848874	2978.192705
587.201679	2975.117601
587.554428	2952.863427
587.907124	2945.901594
588.259765	2930.757968
588.612352	2925.878131
588.964884	2912.498908
589.317362	2903.563463
589.669786	2892.898902
590.022155	2890.953017
590.374470	2878.392982
590.726731	2870.453165
591.078937	2850.911132
591.431090	2851.319465
591.783188	2834.781960
592.135232	2826.005311
592.487222	2822.826864
592.839157	2814.629947
593.191038	2805.384471
593.542866	2798.709984
593.894639	2787.720268
594.246358	2784.312448
594.598022	2779.228445
594.949633	2766.733945
595.301190	2762.559869
595.652692	2758.970568
596.004141	2754.226842
596.355535	2744.484812
596.706876	2738.632033
597.058162	2730.891341
597.409395	2729.431927
597.760573	2726.331617
598.111698	2719.163097
598.462768	2713.287632
598.813785	2707.139945
599.164748	2704.818493
599.515657	2701.085519
599.866511	2695.694005
600.217312	2697.597040
600.568060	2690.708304
600.918753	2690.657892
601.269392	2685.644465
601.619978	2678.012158
601.970510	2678.899401
602.320988	2675.191632
602.671412	2673.449913
603.021783	2670.909172
603.372100	2667.488749
603.722363	2665.368944
604.072572	2661.061278
604.422728	2664.942966
604.772830	2657.585402
605.122878	2653.123981
605.472872	2652.549290
605.822813	2650.454690
606.172701	2650.651295
606.522534	2648.864206
606.872314	2648.236582
607.222041	2645.907569
607.571714	2643.785244
607.921333	2645.484112
608.270899	2642.403967
608.620411	2641.867085
608.969870	2638.615540
609.319276	2641.254584
609.668627	2641.017650
610.017926	2640.221148
610.367171	2642.557723
610.716362	2642.779533
611.065500	2639.139820
611.414585	2637.813997
611.763616	2636.591517
612.112594	2632.324180
612.461518	2631.200003
612.810389	2633.471043
613.159207	2631.711680
613.507971	2628.797893
613.856682	2628.354272
614.205340	2627.837553
614.553945	2628.039200
614.902496	2625.589199
615.250994	2625.163221
615.599439	2624.394445
615.947830	2625.584158
616.296169	2620.893364
616.644454	2624.467542
616.992686	2623.522326
617.340864	2621.704990
617.688990	2620.737088
618.037063	2623.030813
618.385082	2621.110134
618.733048	2618.619804
619.080961	2619.847325
619.428821	2619.481841
619.776628	2618.581995
620.124382	2620.069135
620.472083	2618.430760
620.819731	2618.755915
621.167326	2617.702314
621.514868	2617.155348
621.862357	2610.185953
622.209793	2613.160234
622.557176	2613.089658
622.904506	2609.686879
623.251783	2607.088164
623.599007	2608.358535
623.946179	2606.745366
624.293297	2606.838627
624.640363	2605.732094
624.987376	2610.299379
625.334336	2607.632609
625.681243	2604.065992
626.028097	2606.422732
626.374899	2604.532299
626.721647	2601.913420
627.068343	2603.599686
627.414987	2601.358893
627.761577	2601.300920
628.108115	2599.382761
628.454600	2601.782350
628.801032	2600.960642
629.147412	2598.578697
629.493739	2599.097935
629.840014	2598.487956
630.186236	2601.706732
630.532405	2596.209354
630.878521	2599.034921
631.224585	2598.838316
631.570597	2598.888727
631.916556	2597.598192
632.262462	2594.394539
632.608316	2594.848243
632.954117	2593.716504
633.299866	2596.211875
633.645562	2593.436720
633.991206	2594.308839
634.336797	2591.793303
634.682336	2594.167687
635.027823	2592.501586
635.373257	2590.646441
635.718639	2591.085021
636.063968	2592.186513
636.409245	2592.022676
636.754470	2587.909094
637.099642	2588.277099
637.444762	2588.403128
637.789829	2585.771645
638.134845	2587.200812
638.479808	2587.798189
638.824719	2587.296594
639.169577	2586.164855
639.514383	2585.784248
639.859137	2583.735019
640.203839	2585.590164
640.548489	2584.312231
640.893086	2583.114957
641.237632	2579.467682
641.582125	2580.110429
641.926566	2577.030284
642.270955	2583.919021
642.615292	2581.743763
642.959576	2583.306521
643.303809	2585.297777
643.647990	2583.810636
643.992118	2582.996490
644.336195	2584.276943
644.680219	2581.189236
645.024192	2582.925914
645.368112	2583.384659
645.711981	2582.328537
646.055797	2585.754001
646.399562	2585.701069
646.743274	2583.402303
647.086935	2586.371542
647.430544	2584.667633
647.774101	2586.646285
648.117606	2587.165524
648.461059	2585.396079
648.804460	2587.026893
649.147810	2583.891295
649.491108	2585.058322
649.834354	2585.360791
650.177548	2584.367684
650.520690	2582.452045
650.863781	2583.740060
651.206820	2586.772314
651.549807	2582.076479
651.892742	2578.850141
652.235626	2580.934658
652.578458	2580.632189
652.921238	2578.857703
653.263967	2581.413568
653.606644	2577.683114
653.949269	2580.080182
654.291843	2579.608835
654.634365	2579.656726
654.976836	2576.629513
655.319255	2578.038515
655.661622	2579.571026
656.003938	2578.335943
656.346203	2576.692527
656.688416	2577.882239
657.030577	2577.612538
657.372687	2578.371231
657.714746	2576.717733
658.056753	2576.926941
658.398708	2572.493246
658.740612	2574.608010
659.082465	2573.788822
659.424266	2573.927454
659.766016	2571.537947
660.107715	2574.539954
660.449362	2579.066911
660.790958	2578.484657
661.132503	2576.836200
661.473996	2577.327712
661.815438	2577.047928
662.156829	2577.201684
662.498168	2576.440469
662.839456	2575.810325
663.180693	2576.599266
663.521879	2576.168247
663.863013	2575.359142
664.204097	2575.298648
664.545129	2576.001889
664.886110	2578.056159
665.227040	2578.424163
665.567918	2578.948443
665.908746	2577.879719
666.249522	2576.989955
666.590248	2575.749831
666.930922	2576.964749
667.271545	2579.870975
667.612118	2579.452559
667.952639	2576.238823
668.293109	2579.069431
668.633528	2578.613207
668.973896	2581.312745
669.314213	2578.212435
669.654480	2580.513722
669.994695	2575.021385
670.334859	2578.729153
670.674973	2576.495922
671.015035	2576.881570
671.355047	2576.309399
671.695008	2578.151941
672.034918	2576.654718
672.374777	2579.407188
672.714585	2578.237641
673.054342	2576.138000
673.394049	2577.733525
673.733705	2577.610017
674.073310	2577.604976
674.412864	2576.475757
674.752368	2576.052301
675.091820	2575.321333
675.431223	2575.515418
675.770574	2575.888463
676.109875	2570.375961
676.449125	2571.379151
676.788324	2571.200190
677.127473	2571.729511
677.466571	2570.156671
677.805619	2575.734708
678.144616	2573.256981
678.483562	2573.025088
678.822458	2574.713874
679.161303	2575.064234
679.500098	2572.425190
679.838842	2570.728842
680.177535	2572.914182
680.516179	2574.595407
680.854771	2573.624985
681.193314	2573.526683
681.531805	2575.071796
681.870247	2576.526169
682.208638	2578.348546
682.546978	2577.027764
682.885268	2581.708475
683.223508	2576.662280
683.561697	2579.578588
683.899836	2576.924420
684.237925	2575.792681
684.575963	2573.062896
684.913951	2575.200346
685.251889	2576.178329
685.589776	2575.238154
685.927614	2574.562640
686.265401	2576.647157
686.603137	2578.088927
686.940824	2575.616241
687.278460	2577.625141
687.616046	2575.704461
687.953582	2582.504977
688.291068	2577.216807
688.628504	2580.473392
688.965889	2578.935841
689.303224	2578.003227
689.640510	2577.065572
689.977745	2575.611200
690.314930	2576.322002
690.652065	2575.568350
690.989150	2572.929306
691.326185	2572.067268
691.663170	2571.868143
692.000105	2572.447876
692.336990	2569.778585
692.673825	2567.270611
693.010610	2572.064748
693.347345	2563.978737
693.684030	2563.104097
694.020665	2565.627194
694.357251	2563.976217
694.693786	2565.629715
695.030272	2568.291444
695.366707	2567.512586
695.703093	2565.826320
696.039429	2565.458316
696.375716	2563.053685
696.711952	2566.355641
697.048139	2567.832699
697.384276	2569.287072
697.720363	2567.729356
698.056400	2565.498645
698.392388	2564.505538
698.728326	2563.809858
699.064214	2567.036197
699.400053	2566.055692
699.735842	2563.945970
700.071581	2563.749365
700.407270	2564.056875
700.742910	2564.961762
701.078501	2564.175342
701.414042	2561.969837
701.749533	2559.517316
702.084974	2562.458829
702.420366	2564.744993
702.755709	2563.348593
703.091002	2560.724672
703.426246	2562.121072
703.761440	2562.859601
704.096584	2562.383212
704.431679	2561.264076
704.766725	2562.395815
705.101721	2559.718962
705.436668	2561.022100
705.771565	2560.051678
706.106413	2561.377502
706.441212	2561.511092
706.775961	2560.822975
707.110661	2561.269117
707.445311	2560.487738
707.779913	2560.606205
708.114465	2566.101063
708.448967	2561.916905
708.783421	2562.393294
709.117825	2563.628377
709.452180	2564.467729
709.786485	2564.538305
710.120742	2565.186093
710.454949	2564.036710
710.789107	2563.162070
711.123216	2565.493604
711.457275	2567.016032
711.791286	2565.246587
712.125247	2565.246587
712.459159	2569.564336
712.793023	2569.516445
713.126837	2567.631053
713.460602	2565.675085
713.794318	2562.801628
714.127985	2564.182904
714.461602	2561.806000
714.795171	2566.758933
715.128691	2564.051834
715.462162	2563.106617
715.795584	2564.951680
716.128957	2562.330280
716.462281	2560.122254
716.795556	2560.669220
717.128782	2560.787687
717.461960	2557.165618
717.795088	2559.698797
718.128167	2557.790721
718.461198	2557.780638
718.794180	2560.553273
719.127113	2557.591595
719.459997	2557.140412
719.792833	2559.512275
720.125619	2558.758622
720.458357	2557.926832
720.791046	2557.354661
721.123686	2555.728889
721.456278	2556.555638
721.788821	2554.682849
722.121315	2556.429609
722.453761	2553.707386
722.786158	2554.655123
723.118506	2557.147974
723.450805	2556.764846
723.783056	2559.514795
724.115259	2557.147974
724.447412	2556.913560
724.779518	2558.826678
725.111574	2556.719476
725.443582	2557.692418
725.775542	2557.916750
726.107453	2557.576472
726.439315	2556.643858
726.771129	2563.436813
727.102895	2559.033365
727.434612	2557.868859
727.766281	2559.474466
728.097901	2556.913560
728.429473	2556.318704
728.760996	2558.582182
729.092471	2554.019938
729.423897	2558.960268
729.755276	2558.894733
730.086606	2561.100238
730.417887	2563.625856
730.749120	2561.024621
731.080305	2559.666030
731.411442	2561.904302
731.742530	2560.021431
732.073570	2562.012687
732.404562	2560.432285
732.735506	2562.194169
733.066401	2559.724003
733.397249	2560.276010
733.728048	2557.851215
734.058798	2559.439178
734.389501	2555.547407
734.720156	2561.183417
735.050762	2555.023127
735.381320	2557.274003
735.711831	2557.606719
736.042293	2556.202757
736.372707	2556.343910
736.703073	2556.011193
737.033391	2555.204609
737.363661	2556.200237
737.693883	2556.341389
738.024056	2555.318035
738.354182	2557.430278
738.684260	2558.635114
739.014290	2555.623025
739.344272	2557.803324
739.674207	2555.275185
740.004093	2559.585372
740.333931	2556.273333
740.663722	2558.975392
740.993464	2555.751574
741.323159	2556.437171
741.652806	2559.207285
741.982405	2558.199054
742.311956	2555.814588
742.641460	2556.991698
742.970915	2557.329455
743.300323	2557.427758
743.629683	2554.345092
743.958996	2556.240566
744.288260	2553.460370
744.617477	2552.726882
744.946647	2551.159083
745.275768	2550.765873
745.604842	2551.595143
745.933869	2551.796789
746.262847	2548.976263
746.591778	2554.075390
746.920662	2553.079763
747.249498	2553.016748
747.578286	2554.496327
747.907027	2552.789896
748.235720	2553.432643
748.564365	2554.314845
748.892963	2553.263765
749.221514	2550.302087
749.550017	2553.120092
749.878473	2554.219063
750.206881	2552.767211
750.535242	2554.347613
750.863555	2553.793086
751.191821	2553.848538
751.520039	2553.606563
751.848210	2554.776111
752.176334	2557.044630
752.504411	2552.026161
752.832440	2554.481203
753.160421	2554.738302
753.488356	2553.399876
753.816243	2551.322920
754.144082	2554.435833
754.471875	2553.351985
754.799620	2551.401058
755.127318	2551.572458
755.454969	2552.938610
755.782572	2552.512633
756.110129	2552.351316
756.437638	2551.151521
756.765100	2553.626728
757.092515	2549.550955
757.419882	2553.188147
757.747203	2550.649926
758.074477	2552.389124
758.401703	2550.201264
758.728882	2553.530946
759.056014	2551.751418
759.383099	2553.026830
759.710138	2553.230997
760.037129	2551.809392
760.364073	2553.830894
760.690970	2551.446429
761.017820	2554.546738
761.344623	2551.025492
761.671379	2554.259393
761.998088	2552.802499
762.324751	2553.435164
762.651366	2560.664178
762.977935	2570.491908
763.304456	2575.296127
763.630931	2579.263516
763.957359	2574.824780
764.283740	2567.361351
764.610074	2562.645352
764.936362	2563.656103
765.262602	2556.217881
765.588796	2554.697973
765.914943	2553.563713
766.241044	2554.985319
766.567097	2551.738816
766.893104	2553.679660
767.219064	2551.224618
767.544978	2551.209494
767.870845	2551.539690
768.196665	2552.840308
768.522438	2550.443239
768.848165	2547.053063
769.173846	2547.083310
769.499479	2549.845862
769.825066	2545.255892
770.150607	2547.612631
770.476101	2546.359904
770.801548	2549.591284
771.126949	2545.704554
771.452303	2548.605738
771.777611	2544.887887
772.102872	2545.386962
772.428087	2547.721016
772.753256	2547.252189
773.078378	2545.641540
773.403453	2548.225131
773.728482	2545.757487
774.053465	2546.216232
774.378401	2545.550799
774.703291	2545.026519
775.028135	2543.022661
775.352932	2545.971736
775.677683	2545.192877
776.002388	2544.406457
776.327046	2544.950902
776.651658	2545.760007
776.976224	2543.526776
777.300743	2543.902342
777.625216	2545.795295
777.949643	2544.320758
778.274024	2545.891077
778.598359	2541.953936
778.922647	2538.987217
779.246889	2540.988555
779.571086	2540.194573
779.895236	2543.504091
780.219339	2544.489636
780.543397	2546.765717
780.867409	2543.718340
781.191374	2543.156251
781.515294	2541.596014
781.839167	2544.416540
782.162995	2542.916796
782.486776	2543.385624
782.810511	2546.574153
783.134201	2545.089534
783.457844	2543.713299
783.781441	2543.466282
784.104993	2544.802188
784.428498	2545.848227
784.751958	2543.715819
785.075372	2545.150028
785.398739	2544.852599
785.722061	2542.228679
786.045337	2541.901004
786.368568	2542.896632
786.691752	2543.942671
787.014891	2543.635161
787.337983	2545.064328
787.661030	2546.737991
787.984031	2547.857127
788.306987	2547.736139
788.629897	2548.154555
788.952760	2547.882333
789.275579	2548.083979
789.598351	2546.135573
789.921078	2544.819832
790.243759	2544.925696
790.566395	2546.735470
790.888984	2545.165151
791.211529	2545.313865
791.534027	2541.888401
791.856480	2543.501570
792.178888	2543.564585
792.501249	2542.730274
792.823566	2541.195242
793.145836	2543.446118
793.468062	2544.487116
793.790241	2543.690613
794.112375	2545.238248
794.434464	2542.934440
794.756507	2543.587270
795.078505	2543.123484
795.400457	2541.901004
795.722364	2539.289686
796.044226	2544.441745
796.366042	2538.740200
796.687812	2542.034594
797.009538	2543.461241
797.331218	2547.297559
797.652852	2541.386806
797.974442	2544.096426
798.295986	2543.065510
798.617484	2545.265974
798.938938	2544.209852
799.260346	2546.982487
799.581709	2542.823535
799.903026	2543.753628
800.224299	2541.535520
800.545526	2543.199101
800.866708	2543.267157
801.187845	2544.338402
801.508936	2542.531148
801.829983	2544.630789
802.150984	2543.904863
802.471940	2545.389482
802.792851	2540.744059
803.113717	2539.851775
803.434538	2541.971580
803.755314	2544.852599
804.076045	2542.594162
804.396731	2541.379244
804.717372	2541.273380
805.037967	2541.996786
805.358518	2541.636343
805.679024	2544.807229
805.999485	2543.234389
806.319901	2544.527445
806.640272	2543.995603
806.960598	2541.041487
807.280879	2541.580891
807.601115	2541.767413
807.921306	2542.316899
808.241453	2540.534851
808.561554	2541.399409
808.881611	2541.812784
809.201623	2542.253885
809.521590	2543.090716
809.841513	2543.100798
810.161390	2542.495860
810.481223	2539.390509
810.801011	2540.807073
811.120755	2539.451003
811.440453	2544.545089
811.760107	2541.079296
812.079716	2539.629964
812.399281	2539.178781
812.718801	2541.205325
813.038276	2536.696013
813.357707	2536.257432
813.677093	2542.400078
813.996434	2543.020140
814.315731	2540.935623
814.634983	2541.144831
814.954191	2541.109543
815.273354	2539.851775
815.592473	2542.455531
815.911547	2537.550488
816.230577	2540.968390
816.549562	2544.671118
816.868502	2542.503422
817.187399	2543.609955
817.506250	2541.951415
817.825058	2544.174564
818.143821	2545.419729
818.462539	2544.529966
818.781213	2546.548948
819.099843	2548.512477
819.418429	2548.194884
819.736970	2551.030533
820.055466	2554.730740
820.373919	2557.757953
820.692327	2562.151319
821.010691	2568.551064
821.329011	2586.142170
821.647286	2616.444546
821.965517	2657.731596
822.283704	2680.260512
822.601847	2683.305369
822.919945	2669.240550
823.237999	2647.303969
823.556010	2626.136164
823.873976	2606.057248
824.191897	2593.502255
824.509775	2584.798703
824.827609	2578.537589
825.145398	2571.840417
825.463144	2571.827814
825.780845	2571.810170
826.098502	2578.396437
826.416116	2586.268199
826.733685	2598.997112
827.051210	2603.027515
827.368692	2597.797318
827.686129	2588.037644
828.003522	2575.407033
828.320872	2563.731721
828.638177	2561.012018
828.955439	2552.096737
829.272656	2551.605225
829.589830	2547.410985
829.906960	2547.814277
830.224046	2546.954761
830.541088	2547.852086
830.858086	2544.746735
831.175041	2546.722868
831.491952	2543.897301
831.808819	2544.300593
832.125642	2545.197918
832.442421	2549.568599
832.759157	2551.663198
833.075849	2558.650237
833.392497	2565.909499
833.709101	2574.053483
834.025662	2571.477453
834.342179	2567.661300
834.658653	2563.754406
834.975083	2555.184444
835.291469	2559.053530
835.607811	2550.602035
835.924110	2547.224462
836.240366	2547.529452
836.556578	2544.542568
836.872746	2542.649615
837.188871	2542.135417
837.504952	2540.471837
837.820990	2539.750952
838.136984	2540.736497
838.452935	2539.690458
838.768842	2541.923689
839.084706	2537.679038
839.400526	2542.833617
839.716303	2551.002807
840.032037	2552.545400
840.347727	2552.409289
840.663373	2548.189843
840.978977	2546.354863
841.294537	2544.635830
841.610054	2539.546785
841.925527	2538.866229
842.240957	2541.545602
842.556344	2539.939995
842.871687	2538.936805
843.186987	2538.210879
843.502244	2537.313554
843.817458	2537.532844
844.132629	2537.167360
844.447756	2539.635005
844.762840	2528.748633
845.077881	2534.079654
845.392879	2533.658717
845.707833	2533.164684
846.022745	2533.051258
846.337613	2534.689633
846.652438	2536.643080
846.967221	2536.960673
847.281960	2536.953111
847.596656	2538.044521
847.911309	2534.460261
848.225919	2536.108718
848.540485	2535.012267
848.855009	2536.025539
849.169490	2536.350693
849.483928	2534.979500
849.798323	2533.653676
850.112675	2531.861546
850.426984	2534.208203
850.741251	2534.709798
851.055474	2535.236598
851.369654	2535.344983
851.683792	2531.896834
851.997887	2536.706095
852.311938	2534.356917
852.625947	2535.428162
852.939914	2533.734335
853.253837	2535.879346
853.567718	2535.987730
853.881555	2536.101156
854.195350	2537.777340
854.509103	2531.622091
854.822812	2534.823224
855.136479	2533.046217
855.450103	2535.057638
855.763685	2536.721218
856.077224	2533.275590
856.390720	2536.121321
856.704173	2534.745086
857.017584	2535.460930
857.330953	2535.039993
857.644278	2534.377082
857.957561	2539.100643
858.270802	2536.806918
858.584000	2534.530837
858.897155	2538.828421
859.210268	2536.335570
859.523339	2536.348173
859.836367	2533.701567
860.149352	2536.718698
860.462295	2536.950591
860.775195	2534.835827
861.088054	2530.480270
861.400869	2533.895652
861.713642	2531.110414
862.026373	2535.057638
862.339062	2533.227699
862.651708	2535.627288
862.964312	2534.886238
863.276873	2535.019829
863.589392	2537.394212
863.901869	2536.529654
864.214303	2533.671320
864.526696	2538.523431
864.839045	2535.675179
865.151353	2536.161650
865.463619	2537.568132
865.775842	2535.796167
866.088023	2537.477391
866.400162	2536.413708
866.712258	2537.152237
867.024313	2537.046373
867.336325	2534.699716
867.648296	2537.142155
867.960224	2534.871115
868.272110	2537.439583
868.583954	2535.715508
868.895755	2535.639891
869.207515	2534.014119
869.519233	2535.690302
869.830909	2537.081661
870.142542	2535.778523
870.454134	2537.003523
870.765684	2536.572504
871.077191	2537.038811
871.388657	2536.285158
871.700081	2535.370189
872.011463	2538.588966
872.322803	2536.227185
872.634101	2533.870446
872.945357	2536.779192
873.256571	2538.236085
873.567744	2538.251208
873.878874	2538.389840
874.189963	2540.968390
874.501010	2539.612320
874.812015	2536.459078
875.122979	2538.425128
875.433900	2537.550488
875.744780	2542.810932
876.055618	2538.127700
876.366415	2542.258926
876.677169	2538.856147
876.987882	2539.461085
877.298554	2535.350024
877.609183	2537.157278
877.919771	2535.629808
878.230317	2536.605272
878.540822	2543.148689
878.851285	2542.090047
879.161707	2545.613814
879.472087	2548.099102
879.782425	2552.946172
880.092722	2558.690567
880.402977	2569.077864
880.713191	2587.248703
881.023363	2606.200921
881.333494	2621.319342
881.643583	2623.698766
881.953631	2622.763632
882.263637	2617.639299
882.573602	2608.650922
882.883526	2602.576332
883.193408	2589.534867
883.503248	2578.769482
883.813048	2572.906621
884.122806	2568.777916
884.432522	2564.873542
884.742197	2560.709549
885.051831	2556.187634
885.361424	2553.992211
885.670975	2549.283774
885.980485	2547.431150
886.289954	2549.558517
886.599382	2544.040974
886.908768	2546.921993
887.218113	2546.778320
887.527417	2541.817825
887.836680	2543.587270
888.145901	2539.309851
888.455082	2542.130376
888.764221	2542.140459
889.073319	2538.346990
889.382376	2540.454193
889.691392	2538.132741
890.000366	2541.568288
890.309300	2540.557536
890.618193	2540.527289
890.927044	2541.752290
891.235855	2540.149203
891.544625	2537.411856
891.853353	2538.641898
892.162041	2541.273380
892.470687	2542.957126
892.779293	2544.179605
893.087858	2542.412681
893.396381	2541.502753
893.704864	2545.913762
894.013306	2549.228321
894.321707	2561.359858
894.630068	2565.223902
894.938387	2568.157854
895.246665	2567.762123
895.554903	2565.347410
895.863100	2558.647717
896.171256	2555.801986
896.479371	2553.339382
896.787446	2554.347613
897.095480	2549.016593
897.403473	2544.043494
897.711425	2544.459389
898.019336	2544.275387
898.327207	2542.702547
898.635038	2544.426622
898.942827	2539.486291
899.250576	2540.091230
899.558284	2544.101467
899.865952	2543.191539
900.173579	2538.001671
900.481165	2540.187012
900.788711	2540.010571
901.096216	2538.195756
901.403681	2537.638708
901.711105	2538.518390
902.018489	2539.234233
902.325832	2541.873277
902.633135	2539.226672
902.940397	2541.354039
903.247619	2541.588452
903.554800	2548.479710
903.861941	2559.781977
904.169041	2571.588359
904.476101	2577.584811
904.783121	2579.601273
905.090100	2574.371076
905.397039	2567.447051
905.703938	2558.249466
906.010796	2553.263765
906.317614	2548.794782
906.624391	2547.703372
906.931129	2544.207332
907.237826	2541.570808
907.544483	2539.652649
907.851099	2539.624923
908.157675	2537.668955
908.464211	2536.053265
908.770707	2531.763243
909.077163	2534.480425
909.383578	2530.530681
909.689954	2532.199303
909.996289	2529.275434
910.302584	2535.269366
910.608839	2533.757020
910.915054	2533.920857
911.221229	2535.521424
911.527363	2535.990251
911.833458	2537.111908
912.139513	2536.789274
912.445527	2535.223996
912.751502	2535.861702
913.057436	2535.261804
913.363331	2538.115097
913.669186	2539.251877
913.975000	2540.197094
914.280775	2542.112732
914.586510	2544.713968
914.892205	2550.823846
915.197859	2555.285267
915.503475	2559.456822
915.809050	2567.200034
916.114585	2573.340160
916.420081	2575.674214
916.725536	2575.432239
917.030952	2573.141034
917.336328	2564.742472
917.641665	2561.493448
917.946961	2557.548745
918.252218	2555.033210
918.557435	2549.548434
918.862612	2544.499719
919.167750	2547.526932
919.472848	2543.428473
919.777906	2541.734646
920.082925	2540.618030
920.387904	2540.108874
920.692843	2539.511497
920.997743	2541.185160
921.302603	2538.097453
921.607423	2534.243491
921.912204	2537.671476
922.216946	2536.191897
922.521647	2538.021836
922.826310	2536.136444
923.130932	2535.024870
923.435516	2536.880015
923.740059	2535.410518
924.044564	2535.425642
924.349028	2532.721063
924.653454	2531.566638
924.957840	2530.790301
925.262186	2530.298788
925.566493	2529.855167
925.870761	2526.898530
926.174989	2534.440096
926.479178	2531.463295
926.783328	2531.327184
927.087438	2531.458254
927.391509	2536.743903
927.695541	2531.377595
927.999533	2530.472708
928.303486	2530.165198
928.607400	2531.702750
928.911275	2530.800383
929.215110	2531.372554
929.518906	2533.943543
929.822663	2532.683254
930.126381	2530.606299
930.430060	2533.759540
930.733699	2529.724097
931.037299	2532.524458
931.340861	2531.927081
931.644383	2534.377082
931.947866	2531.675023
932.251309	2532.138809
932.554714	2530.427338
932.858080	2530.576052
933.161407	2530.301309
933.464694	2532.133768
933.767943	2530.313912
934.071153	2531.669982
934.374323	2531.354910
934.677455	2529.562780
934.980548	2531.657379
935.283602	2533.580579
935.586617	2531.279293
935.889593	2529.063706
936.192530	2531.594365
936.495428	2532.683254
936.798287	2531.526309
937.101108	2532.249715
937.403890	2531.591844
937.706632	2533.580579
938.009336	2534.795498
938.312002	2535.861702
938.614628	2531.770805
938.917216	2534.041845
939.219765	2530.621422
939.522275	2534.455220
939.824747	2534.044366
940.127179	2530.470188
940.429573	2527.407687
940.731929	2531.382636
941.034246	2530.339118
941.336524	2533.719211
941.638763	2534.719880
941.940964	2535.687782
942.243126	2533.555374
942.545250	2533.469674
942.847335	2532.847092
943.149381	2531.896834
943.451389	2534.089736
943.753359	2531.007070
944.055290	2530.944056
944.357182	2532.164015
944.659036	2533.643594
944.960851	2530.991947
945.262628	2529.066226
945.564367	2531.871628
945.866067	2532.345497
946.167729	2530.273582
946.469352	2532.693336
946.770937	2529.630835
947.072484	2529.963552
947.373992	2532.917668
947.675462	2532.171577
947.976893	2531.632173
948.278286	2529.519930
948.579641	2530.437420
948.880958	2528.877183
949.182236	2529.661082
949.483476	2532.088398
949.784678	2533.431865
950.085841	2531.818696
950.386967	2532.065713
950.688054	2532.146371
950.989103	2532.494211
951.290114	2532.060672
951.591087	2534.099818
951.892021	2531.856505
952.192917	2532.385826
952.493776	2530.969262
952.794596	2531.932122
953.095378	2531.133099
953.396122	2533.086546
953.696828	2530.913809
953.997496	2532.668131
954.298126	2531.919519
954.598718	2533.275590
954.899272	2528.350382
955.199788	2528.476411
955.500266	2532.174098
955.800706	2527.841226
956.101108	2525.207223
956.401472	2528.559590
956.701798	2526.001205
957.002087	2527.112779
957.302337	2529.983716
957.602550	2528.602440
957.902724	2528.063037
958.202861	2529.325846
958.502960	2527.697553
958.803022	2533.217616
959.103045	2529.469518
959.403031	2528.955321
959.702979	2528.463808
960.002889	2531.748120
960.302762	2528.546987
960.602596	2529.638397
960.902393	2526.018849
961.202153	2529.008253
961.501875	2527.984899
961.801559	2530.134951
962.101205	2528.090763
962.400814	2528.289888
962.700385	2528.801566
962.999918	2530.160157
963.299414	2526.162522
963.598873	2526.338962
963.898293	2526.679240
964.197677	2528.894827
964.497022	2527.626977
964.796331	2530.419776
965.095601	2527.309384
965.394835	2528.660413
965.694030	2528.519261
965.993189	2530.228212
966.292309	2524.014990
966.591393	2525.749147
966.890439	2528.526823
967.189447	2526.404497
967.488419	2526.230577
967.787353	2526.956503
968.086249	2527.836185
968.385108	2528.095804
968.683930	2527.377440
968.982714	2527.904240
969.281462	2528.766277
969.580172	2527.889117
969.878844	2528.844415
970.177480	2526.472552
970.476078	2525.993643
970.774639	2527.846267
971.073162	2527.707635
971.371649	2527.221164
971.670098	2527.556401
971.968510	2525.532377
972.266885	2521.615401
972.565223	2526.767460
972.863524	2529.346010
973.161788	2529.179652
973.460014	2528.463808
973.758204	2526.283509
974.056356	2527.117820
974.354471	2527.329549
974.652550	2528.844415
974.950591	2527.064888
975.248595	2527.203520
975.546563	2526.956503
975.844493	2528.809127
976.142386	2527.253931
976.440243	2528.625125
976.738062	2527.805938
977.035845	2528.965403
977.333590	2526.626308
977.631299	2528.889786
977.928971	2525.237470
978.226606	2527.823582
978.524204	2528.418438
978.821765	2526.026410
979.119290	2527.667306
979.416777	2527.143026
979.714228	2527.148067
980.011642	2527.445495
980.309020	2529.850126
980.606360	2525.794517
980.903664	2527.634538
981.200931	2528.375588
981.498162	2528.065557
981.795356	2528.884745
982.092513	2528.151257
982.389633	2530.190403
982.686717	2528.683098
982.983764	2532.605116
983.280775	2529.111597
983.577749	2528.781401
983.874686	2529.028418
984.171587	2528.214271
984.468451	2529.683768
984.765279	2524.622449
985.062070	2527.969775
985.358824	2526.911133
985.655543	2526.439785
985.952224	2528.647810
986.248869	2526.603622
986.545478	2521.494413
986.842050	2525.930628
987.138586	2524.254445
987.435086	2524.814013
987.731549	2522.676564
988.027975	2527.843746
988.324366	2528.108407
988.620719	2528.882224
988.917037	2526.200330
989.213318	2528.864580
989.509563	2525.746626
989.805772	2527.765608
990.101944	2528.816689
990.398080	2529.497245
990.694180	2525.658406
990.990244	2527.100176
991.286271	2526.127233
991.582262	2527.314425
991.878217	2525.860052
992.174136	2530.117307
992.470019	2525.040865
992.765865	2527.750485
993.061676	2525.744106
993.357450	2526.530526
993.653188	2524.725793
993.948890	2525.171935
994.244556	2528.579755
994.540186	2526.515402
994.835780	2524.501461
995.131337	2529.812317
995.426859	2526.898530
995.722345	2527.745444
996.017795	2525.794517
996.313208	2530.061854
996.608586	2524.869466
996.903928	2527.422810
997.199234	2526.091945
997.494504	2526.986750
997.789738	2527.148067
998.084936	2525.413910
998.380099	2527.120341
998.675225	2521.098683
998.970316	2526.611184
999.265371	2524.428365
999.560390	2530.082019
999.855373	2528.388191
1000.150320	2528.017666
1000.445232	2526.346524
1000.740108	2527.264014
1001.034948	2526.485155
1001.329752	2529.474560
1001.624521	2527.727800
1001.919254	2521.474248
1002.213951	2525.101359
1002.508613	2523.127747
1002.803239	2523.049609
1003.097829	2520.004752
1003.392384	2527.493386
1003.686903	2525.786956
1003.981386	2527.337110
1004.275834	2524.602284
1004.570246	2527.415248
1004.864623	2527.490866
1005.158964	2525.098838
1005.453270	2526.220495
1005.747540	2526.621267
1006.041775	2526.238139
1006.335974	2524.909795
1006.630138	2525.325690
1006.924266	2526.555732
1007.218359	2526.107069
1007.512416	2525.618077
1007.806438	2527.632018
1008.100425	2526.822913
1008.394376	2526.747295
1008.688292	2526.099507
1008.982172	2523.326873
1009.276017	2525.217305
1009.569827	2523.183200
1009.863602	2527.024559
1010.157341	2526.344003
1010.451045	2528.685619
1010.744714	2524.763601
1011.038347	2526.288550
1011.331945	2523.165556
1011.625508	2529.870290
1011.919036	2527.800897
1012.212528	2528.736031
1012.505986	2523.984743
1012.799408	2524.866945
1013.092795	2525.522295
1013.386147	2525.547501
1013.679464	2524.798889
1013.972745	2528.844415
1014.265992	2524.093128
1014.559204	2526.248221
1014.852380	2525.416431
1015.145521	2526.344003
1015.438628	2527.415248
1015.731699	2526.618746
1016.024736	2527.269055
1016.317737	2527.294261
1016.610703	2525.368540
1016.903635	2523.311749
1017.196531	2522.132119
1017.489393	2524.882068
1017.782219	2521.822088
1018.075011	2526.974147
1018.367768	2524.856863
1018.660490	2526.217974
1018.953177	2526.217974
1019.245829	2526.217974
