Dividing Wavelength (nm)	Counts (n)	Blue Motor Position (mm): 0.000000	Red Motor Position (mm): 28.900000	
326.493990	2125.111007
326.888308	2125.111007
327.282561	2125.111007
327.676750	2092.464494
328.070874	2093.578589
328.464933	2096.094125
328.858929	2102.443458
329.252859	2111.530138
329.646726	2122.255193
330.040528	2136.025105
330.434265	2151.914822
330.827938	2170.330157
331.221547	2188.750533
331.615091	2208.164016
332.008571	2228.000957
332.401986	2246.693555
332.795338	2267.347163
333.188625	2285.366767
333.581847	2304.676907
333.975006	2322.691470
334.368100	2340.572443
334.761129	2361.931812
335.154095	2376.016795
335.546996	2393.517161
335.939833	2409.865623
336.332606	2426.856832
336.725315	2437.702874
337.117960	2444.808381
337.510540	2458.517799
337.903056	2467.120528
338.295508	2474.074799
338.687896	2484.177272
339.080220	2490.677840
339.472480	2499.013388
339.864676	2504.349449
340.256807	2505.992865
340.648875	2508.846158
341.040879	2514.341016
341.432818	2515.732374
341.824694	2516.607014
342.216506	2515.560975
342.608253	2516.506191
342.999937	2517.411078
343.391557	2516.470903
343.783113	2517.365708
344.174605	2514.706499
344.566033	2510.996210
344.957397	2513.413443
345.348697	2510.303052
345.739934	2509.887156
346.131106	2508.097547
346.522215	2505.133348
346.913260	2500.359376
347.304241	2500.876094
347.695159	2496.379385
348.086012	2499.393995
348.476802	2495.943325
348.867528	2493.858808
349.258191	2493.084991
349.648789	2489.457880
350.039324	2489.447798
350.429796	2490.357726
350.820203	2484.941007
351.210548	2486.874289
351.600828	2483.516881
351.991045	2483.668115
352.381198	2486.798672
352.771288	2484.762046
353.161314	2483.710965
353.551276	2485.525780
353.941175	2482.125522
354.331010	2484.477220
354.720782	2481.772641
355.110490	2483.683239
355.500135	2485.193064
355.889717	2485.039309
356.279235	2486.339927
356.668689	2485.810606
357.058080	2485.024186
357.447408	2484.789772
357.836672	2484.303301
358.225873	2487.237252
358.615010	2482.183495
359.004084	2489.084835
359.393095	2488.938642
359.782043	2490.191368
360.170927	2489.634321
360.559748	2489.001656
360.948505	2490.496358
361.337199	2491.741523
361.725830	2492.444764
362.114398	2492.172542
362.502903	2494.579693
362.891344	2492.527943
363.279722	2494.914929
363.668037	2495.577841
364.056289	2497.584220
364.444478	2497.367451
364.832603	2494.846874
365.220665	2499.280569
365.608665	2496.379385
365.996601	2501.589417
366.384474	2500.054386
366.772284	2503.215189
367.160031	2503.598317
367.547715	2506.106291
367.935336	2507.845489
368.322893	2512.468227
368.710388	2513.988135
369.097820	2523.341996
369.485189	2522.984074
369.872495	2530.699560
370.259738	2537.021167
370.646918	2544.494677
371.034035	2550.420554
371.421090	2561.251473
371.808081	2573.856878
372.195010	2579.230748
372.581875	2595.291864
372.968678	2605.341404
373.355418	2617.019237
373.742096	2634.277627
374.128710	2652.040133
374.515262	2663.491114
374.901751	2678.977539
375.288177	2691.824919
375.674540	2714.003476
376.060841	2732.383522
376.447079	2752.901019
376.833254	2773.010181
377.219367	2781.307921
377.605417	2824.250990
377.991404	2830.799448
378.377329	2851.518591
378.763191	2870.763196
379.148991	2909.093609
379.534727	2932.459357
379.920402	2962.754171
380.306013	2975.760348
380.691563	3024.737678
381.077049	3044.496481
381.462474	3063.597413
381.847835	3101.746344
382.233134	3128.230046
382.618371	3123.526649
383.003545	3194.496013
383.388657	3200.159750
383.773706	3233.617888
384.158693	3247.274373
384.543618	3274.289917
384.928480	3310.130000
385.313280	3360.342413
385.698017	3353.012575
386.082692	3408.508118
386.467305	3414.804519
386.851856	3444.859878
387.236344	3470.262252
387.620770	3500.632683
388.005133	3526.019934
388.389435	3554.583112
388.773674	3562.696849
389.157851	3607.399281
389.541965	3622.552989
389.926018	3584.643512
390.310008	3658.783762
390.693936	3674.098787
391.077802	3718.153431
391.461606	3706.339487
391.845348	3769.409363
392.229027	3768.930453
392.612645	3782.153399
392.996200	3862.642982
393.379694	3899.652613
393.763125	3963.728199
394.146494	3931.444650
394.529801	3994.262468
394.913047	4040.875497
395.296230	4008.128162
395.679351	4062.459197
396.062410	4084.027774
396.445408	4065.249476
396.828343	4098.354733
397.211217	4123.419350
397.594028	4043.307854
397.976778	4110.758492
398.359466	4136.879231
398.742092	4166.795958
399.124656	4087.155810
399.507158	4167.990712
399.889598	4188.712375
400.271977	4252.639247
400.654294	4225.795103
401.036549	4236.792380
401.418742	4204.355075
401.800874	4308.008760
402.182944	4329.375691
402.564952	4392.246441
402.946898	4379.136920
403.328783	4376.384450
403.710606	4289.268271
404.092367	4482.352025
404.474067	4445.289462
404.855705	4454.454279
405.237282	4382.393506
405.618797	4490.034743
406.000250	4522.976163
406.381642	4608.257362
406.762972	4567.406372
407.144240	4582.166871
407.525447	4575.729317
407.906593	4636.654182
408.287677	4677.245553
408.668700	4610.772898
409.049661	4659.006658
409.430560	4697.758008
409.811399	4626.765959
410.192176	4789.547337
410.572891	4728.141042
410.953545	4830.547041
411.334138	4713.476326
411.714669	4781.408394
412.095139	4671.191127
412.475547	4814.611954
412.855894	4797.885406
413.236180	4808.950738
413.616405	4759.209673
413.996568	4850.956153
414.376670	4787.218324
414.756711	4742.410028
415.136691	4770.882465
415.516609	4849.476574
415.896466	4891.741608
416.276262	4923.677318
416.655997	4905.256941
417.035670	5088.417184
417.415283	5176.866749
417.794834	5121.862719
418.174324	5077.745061
418.553753	4985.101257
418.933121	5169.073125
419.312428	5237.232046
419.691674	5174.320966
420.070859	5296.243792
420.449983	5215.149271
420.829045	5326.765458
421.208047	5233.345316
421.586988	5302.598167
421.965867	5317.958563
422.344686	5450.830775
422.723444	5305.184279
423.102141	5122.712154
423.480777	5421.539151
423.859352	5187.710271
424.237866	5447.090239
424.616319	5439.493220
424.994712	5546.176638
425.373044	5427.114667
425.751314	5571.773097
426.129524	5374.245566
426.507673	5564.375204
426.885762	5649.520292
427.263789	5580.501855
427.641756	5462.160768
428.019662	5587.972845
428.397508	5596.197487
428.775292	5537.256317
429.153016	5639.448067
429.530679	5567.702365
429.908282	5649.197658
430.285824	5521.676631
430.663305	5792.018588
431.040726	5529.929000
431.418086	5526.362383
431.795385	5634.621162
432.172624	5648.779243
432.549802	5641.091483
432.926920	5655.859543
433.303977	5665.803219
433.680974	5699.460483
434.057910	5720.227516
434.434786	5728.069031
434.811601	5690.429256
435.188355	5930.728457
435.565050	5799.950844
435.941683	5781.749758
436.318257	5996.689434
436.694770	5979.415921
437.071222	6015.414800
437.447614	5946.434172
437.823946	5857.273804
438.200218	6009.123440
438.576429	5878.066043
438.952580	5978.294264
439.328670	6021.643146
439.704700	5926.756028
440.080670	5914.637094
440.456580	6186.650193
440.832429	6071.316155
441.208218	5913.701960
441.583947	6073.435960
441.959616	6073.282205
442.335224	6000.109857
442.710773	6128.921420
443.086261	6161.275546
443.461689	5959.054700
443.837057	6103.808912
444.212365	6262.539723
444.587612	6161.189846
444.962800	6308.046219
445.337927	6285.650893
445.712995	5898.225617
446.088002	6477.948227
446.462949	6302.818543
446.837837	6234.319344
447.212664	6407.036837
447.587431	6549.822478
447.962139	7090.728204
448.336786	8014.575099
448.711374	7757.740913
449.085901	6831.338153
449.460369	6749.326142
449.834776	6689.061668
450.209124	7076.353353
450.583412	7223.189562
450.957640	7373.844445
451.331808	7137.769731
451.705917	6692.046031
452.079965	6611.057374
452.453954	6825.508059
452.827883	6696.613317
453.201752	6788.488345
453.575562	6588.014260
453.949311	6788.606813
454.323001	6678.192940
454.696632	6752.023159
455.070202	6882.682305
455.443713	7033.984976
455.817164	7136.219576
456.190556	7206.538631
456.563888	7280.666278
456.937160	7321.844943
457.310373	6979.535473
457.683526	6994.686661
458.056619	6884.532408
458.429653	6871.380038
458.802628	6798.434542
459.175542	6902.799029
459.548398	7245.937769
459.921194	7398.132724
460.293930	7389.681230
460.666607	7904.017554
461.039224	8185.971809
461.411782	8300.549674
461.784280	8312.605593
462.156719	8191.882562
462.529099	8073.977535
462.901419	7660.174422
463.273680	7541.825773
463.645882	7548.293574
464.018024	7406.377531
464.390106	7549.432874
464.762130	7908.297493
465.134094	8332.215682
465.505999	9257.978215
465.877845	10376.721159
466.249631	10980.714404
466.621358	10603.812537
466.993026	9991.632458
467.364634	9738.942101
467.736184	9374.454075
468.107674	9041.543837
468.479105	9028.451960
468.850477	8796.231208
469.221790	8554.371770
469.593043	8229.479487
469.964238	8070.239519
470.335373	8051.375522
470.706449	8072.523162
471.077467	8018.328238
471.448425	9129.852249
471.819324	10017.843938
472.190164	10018.829483
472.560945	8893.089418
472.931667	8160.977768
473.302330	8013.655088
473.672934	7660.867580
474.043479	7926.002026
474.413965	7836.723191
474.784393	7681.102772
475.154761	7759.953980
475.525070	7787.766025
475.895321	7596.779391
476.265513	7693.932508
476.635645	7784.741333
477.005719	7726.175728
477.375734	7758.834843
477.745691	7884.868731
478.115588	7922.889113
478.485427	8036.506638
478.855207	8364.509313
479.224928	8861.146146
479.594591	9245.277028
479.964194	9037.810862
480.333739	8935.324205
480.703226	8775.635574
481.072653	8758.261237
481.442022	8812.315010
481.811333	8854.718675
482.180584	8645.677149
482.549777	8359.616874
482.918912	8164.309971
483.287988	8086.209895
483.657005	8011.973863
484.025964	7727.337714
484.394864	7715.271713
484.763706	7605.482943
485.132489	7382.658902
485.501213	7272.658405
485.869879	7236.263795
486.238487	7039.671397
486.607036	7039.421860
486.975527	6830.123235
487.343959	6850.698704
487.712333	6777.642303
488.080648	6668.201373
488.448905	6586.728766
488.817104	6482.437375
489.185244	6519.071440
489.553326	6498.475806
489.921350	6652.062119
490.289315	7002.742425
490.657222	7070.709782
491.025070	6919.071874
491.392861	6774.599967
491.760593	6530.482092
492.128267	6291.385206
492.495883	6073.919911
492.863440	5860.520307
493.230939	5649.908461
493.598380	5546.206885
493.965763	5407.650772
494.333088	5318.944108
494.700354	5202.175862
495.067563	5160.856044
495.434713	5026.332854
495.801805	5004.245038
496.168839	4908.334566
496.535815	4819.605217
496.902733	4755.375876
497.269593	4665.197195
497.636395	4630.080518
498.003139	4555.332809
498.369825	4469.091269
498.736453	4440.286116
499.103023	4365.276268
499.469535	4309.289213
499.835989	4252.835852
500.202385	4183.308258
500.568723	4101.628963
500.935003	4098.203499
501.301226	3992.961850
501.667390	4005.312677
502.033497	3963.024958
502.399546	3892.332858
502.765537	3825.456911
503.131470	3786.415695
503.497345	3763.077673
503.863163	3665.180986
504.228923	3659.061025
504.594625	3627.170686
504.960269	3553.002710
505.325856	3540.193138
505.691385	3475.540340
506.056856	3456.729275
506.422270	3417.670415
506.787625	3377.633571
507.152924	3348.384796
507.518164	3316.612924
507.883347	3273.190945
508.248472	3239.725246
508.613540	3226.782083
508.978550	3186.261288
509.343503	3160.599295
509.708398	3136.212713
510.073236	3116.098509
510.438016	3092.135384
510.802738	3062.947104
511.167403	3044.380534
511.532010	3013.158148
511.896561	3008.946264
512.261053	2989.252996
512.625488	2958.680919
512.989866	2938.657456
513.354186	2921.225146
513.718449	2895.853018
514.082655	2890.388408
514.446803	2871.186652
514.810894	2861.936135
515.174927	2842.121880
515.538904	2831.114521
515.902822	2821.740495
516.266684	2806.024698
516.630488	2790.714714
516.994235	2785.776903
517.357925	2775.250974
517.721558	2767.079264
518.085133	2759.623397
518.448651	2751.799527
518.812112	2741.926427
519.175516	2731.823954
519.538863	2726.082080
519.902152	2719.526060
520.265385	2713.146479
520.628560	2708.992569
520.991678	2699.099304
521.354739	2696.414890
521.717743	2688.472552
522.080690	2689.047243
522.443580	2687.055988
522.806413	2682.821418
523.169189	2675.786488
523.531908	2672.386230
523.894569	2668.461692
524.257174	2664.857267
524.619722	2662.077070
524.982213	2665.126968
525.344647	2656.851914
525.707025	2655.148004
526.069345	2655.795793
526.431608	2650.926038
526.793815	2650.903353
527.155964	2646.502426
527.518057	2646.578043
527.880093	2642.777013
528.242072	2642.865233
528.603995	2640.768113
528.965860	2635.565642
529.327669	2634.360807
529.689421	2632.790487
530.051117	2634.713687
530.412755	2632.729993
530.774337	2633.377782
531.135862	2629.614560
531.497331	2625.886627
531.858743	2622.133488
532.220098	2625.780763
532.581396	2621.727675
532.942638	2622.330093
533.303824	2620.154835
533.664953	2623.257665
534.026025	2618.677777
534.387040	2618.972684
534.747999	2619.862448
535.108902	2619.688528
535.469748	2616.547889
535.830537	2619.202057
536.191270	2616.739453
536.551947	2616.563013
536.912567	2613.200563
537.273131	2615.113681
537.633638	2614.455811
537.994089	2614.654936
538.354483	2611.642847
538.714821	2612.968670
539.075103	2614.168465
539.435328	2612.111674
539.795497	2612.756942
540.155609	2612.298197
540.515665	2614.841459
540.875665	2611.912548
541.235609	2610.485902
541.595496	2610.866509
541.955328	2609.979266
542.315102	2610.039760
542.674821	2610.125459
543.034483	2611.834411
543.394090	2611.403392
543.753640	2608.267794
544.113134	2610.183433
544.472571	2607.647732
544.831953	2610.533793
545.191278	2608.572784
545.550548	2607.355345
545.909761	2610.004472
546.268918	2609.747373
546.628019	2610.611931
546.987064	2605.452310
547.346053	2607.073041
547.704986	2607.395675
548.063863	2607.748555
548.422684	2608.381220
548.781449	2606.944491
549.140158	2609.071858
549.498811	2609.344081
549.857408	2605.417022
550.215949	2604.131527
550.574434	2604.219748
550.932864	2605.258225
551.291237	2604.378544
551.649555	2606.763010
552.007817	2608.512290
552.366022	2606.009357
552.724173	2606.142948
553.082267	2606.707557
553.440305	2605.359048
553.798288	2608.892897
554.156215	2609.906169
554.514086	2604.638163
554.871902	2604.295365
555.229661	2605.976590
555.587365	2607.032712
555.945014	2605.825355
556.302606	2605.543051
556.660143	2604.620519
557.017625	2605.532968
557.375050	2605.419542
557.732421	2605.434666
558.089735	2605.762341
558.446994	2606.410129
558.804197	2608.920624
559.161345	2605.172526
559.518437	2603.874429
559.875474	2604.071034
560.232455	2607.988010
560.589381	2606.770572
560.946251	2607.879625
561.303065	2605.616147
561.659825	2604.650766
562.016528	2604.131527
562.373177	2606.715119
562.729770	2605.722012
563.086307	2605.109511
563.442789	2605.495160
563.799216	2605.220417
564.155587	2605.152361
564.511904	2604.227309
564.868164	2606.679831
565.224370	2607.715788
565.580520	2603.955087
565.936615	2605.568256
566.292654	2601.691609
566.648638	2603.158585
567.004567	2603.992896
567.360441	2602.102463
567.716260	2602.591455
568.072023	2603.708071
568.427732	2598.515682
568.783385	2600.592637
569.138982	2598.319077
569.494525	2599.332349
569.850013	2600.743872
570.205445	2602.460385
570.560823	2600.607761
570.916145	2601.850405
571.271412	2603.398040
571.626625	2604.721342
571.981782	2599.407966
572.336884	2602.881321
572.691931	2602.034407
573.046923	2601.368975
573.401860	2598.538367
573.756743	2598.263624
574.111570	2600.761516
574.466342	2597.051227
574.821059	2600.511979
575.175722	2600.713625
575.530330	2600.577514
575.884882	2601.686568
576.239380	2600.416197
576.593823	2600.587596
576.948211	2599.541557
577.302544	2598.901330
577.656823	2594.444950
578.011047	2599.176073
578.365216	2599.748244
578.719330	2599.392843
579.073389	2596.597523
579.427394	2596.708428
579.781344	2599.009715
580.135239	2597.250352
580.489080	2596.476535
580.842866	2594.691967
581.196597	2596.877307
581.550273	2599.692792
581.903895	2599.367637
582.257463	2598.558532
582.610975	2593.945876
582.964434	2596.126175
583.317837	2595.380084
583.671186	2598.997112
584.024481	2596.204313
584.377721	2596.320260
584.730906	2593.585434
585.084037	2593.666092
585.437113	2595.289344
585.790135	2593.580393
586.143103	2595.110383
586.496016	2595.869076
586.848874	2590.228025
587.201679	2592.413365
587.554428	2588.249372
587.907124	2592.698191
588.259765	2590.502768
588.612352	2592.647779
588.964884	2593.124168
589.317362	2591.384970
589.669786	2590.732141
590.022155	2593.333376
590.374470	2593.416555
590.726731	2592.549477
591.078937	2588.362798
591.431090	2591.485793
591.783188	2589.698704
592.135232	2590.162490
592.487222	2592.728438
592.839157	2593.948397
593.191038	2591.311873
593.542866	2589.197109
593.894639	2592.511668
594.246358	2589.555031
594.598022	2590.986719
594.949633	2591.022007
595.301190	2588.871955
595.652692	2590.255752
596.004141	2592.856987
596.355535	2592.491503
596.706876	2589.018148
597.058162	2586.600915
597.409395	2591.057295
597.760573	2590.011256
598.111698	2590.477562
598.462768	2588.014959
598.813785	2588.970257
599.164748	2590.432192
599.515657	2587.934300
599.866511	2585.577561
600.217312	2588.090576
600.568060	2588.622418
600.918753	2589.025710
601.269392	2589.880186
601.619978	2589.055957
601.970510	2590.349013
602.320988	2589.136615
602.671412	2586.462283
603.021783	2589.658375
603.372100	2588.864393
603.722363	2589.832295
604.072572	2589.509661
604.422728	2590.858169
604.772830	2584.836511
605.122878	2581.269895
605.472872	2585.285174
605.822813	2581.897518
606.172701	2584.087900
606.522534	2589.769280
606.872314	2586.535380
607.222041	2589.413879
607.571714	2588.884558
607.921333	2588.579568
608.270899	2586.668971
608.620411	2586.016141
608.969870	2586.747108
609.319276	2590.548138
609.668627	2593.151894
610.017926	2594.573500
610.367171	2593.328335
610.716362	2597.217585
611.065500	2593.285485
611.414585	2592.617532
611.763616	2589.794486
612.112594	2590.076791
612.461518	2590.487645
612.810389	2589.134095
613.159207	2588.771132
613.507971	2588.380442
613.856682	2589.670978
614.205340	2587.762901
614.553945	2590.452357
614.902496	2591.432861
615.250994	2589.991091
615.599439	2587.747777
615.947830	2588.569486
616.296169	2589.328179
616.644454	2590.616194
616.992686	2586.689135
617.340864	2589.749116
617.688990	2588.236769
618.037063	2587.062181
618.385082	2589.058477
618.733048	2589.098807
619.080961	2585.874989
619.428821	2589.386152
619.776628	2588.574527
620.124382	2589.799527
620.472083	2587.523446
620.819731	2590.180134
621.167326	2587.377253
621.514868	2589.270206
621.862357	2588.940010
622.209793	2589.202150
622.557176	2586.316090
622.904506	2582.426840
623.251783	2582.590677
623.599007	2583.959350
623.946179	2582.550348
624.293297	2582.804926
624.640363	2583.349371
624.987376	2584.400451
625.334336	2585.930442
625.681243	2581.388362
626.028097	2584.881882
626.374899	2584.700400
626.721647	2583.130081
627.068343	2582.235276
627.414987	2584.483630
627.761577	2580.911973
628.108115	2582.061356
628.454600	2580.301993
628.801032	2583.039340
629.147412	2581.728640
629.493739	2583.152766
629.840014	2582.663774
630.186236	2584.201326
630.532405	2580.334761
630.878521	2577.040367
631.224585	2580.291911
631.570597	2580.579257
631.916556	2582.313414
632.262462	2578.096488
632.608316	2580.354925
632.954117	2580.148238
633.299866	2578.746797
633.645562	2577.967939
633.991206	2578.983732
634.336797	2577.110943
634.682336	2574.829821
635.027823	2575.565829
635.373257	2577.582291
635.718639	2575.401992
636.063968	2576.440469
636.409245	2575.076837
636.754470	2573.418298
637.099642	2573.415777
637.444762	2576.657239
637.789829	2575.013823
638.134845	2575.197825
638.479808	2573.118349
638.824719	2573.340160
639.169577	2573.536765
639.514383	2570.398647
639.859137	2573.118349
640.203839	2574.439131
640.548489	2576.349729
640.893086	2570.081054
641.237632	2568.979562
641.582125	2569.329922
641.926566	2564.931515
642.270955	2573.572053
642.615292	2572.410067
642.959576	2573.279666
643.303809	2573.319995
643.647990	2573.461148
643.992118	2574.401323
644.336195	2570.950653
644.680219	2572.001733
645.024192	2572.992320
645.368112	2571.051476
645.711981	2572.372258
646.055797	2570.368400
646.399562	2574.320664
646.743274	2575.830490
647.086935	2576.959708
647.430544	2576.584142
647.774101	2575.636405
648.117606	2572.896538
648.461059	2576.390058
648.804460	2575.525500
649.147810	2571.323698
649.491108	2573.632547
649.834354	2572.092474
650.177548	2570.832186
650.520690	2574.018195
650.863781	2572.364697
651.206820	2574.207238
651.549807	2572.720098
651.892742	2570.822103
652.235626	2571.167423
652.578458	2569.140879
652.921238	2570.827145
653.263967	2572.447876
653.606644	2571.984089
653.949269	2570.280179
654.291843	2570.323029
654.634365	2569.070303
654.976836	2568.004098
655.319255	2568.712381
655.661622	2568.558625
656.003938	2569.468554
656.346203	2566.849674
656.688416	2569.284552
657.030577	2567.802452
657.372687	2569.440827
657.714746	2568.601475
658.056753	2567.406722
658.398708	2561.979920
658.740612	2566.645508
659.082465	2566.322874
659.424266	2566.295147
659.766016	2560.296174
660.107715	2567.232802
660.449362	2569.455951
660.790958	2569.627350
661.132503	2569.198852
661.473996	2569.433266
661.815438	2568.480487
662.156829	2568.004098
662.498168	2566.867318
662.839456	2571.142217
663.180693	2567.542833
663.521879	2571.666497
663.863013	2568.278841
664.204097	2570.307906
664.545129	2570.824624
664.886110	2569.551733
665.227040	2569.347566
665.567918	2569.932340
665.908746	2568.382185
666.249522	2567.741958
666.590248	2567.106773
666.930922	2569.657597
667.271545	2569.110632
667.612118	2570.386044
667.952639	2568.049469
668.293109	2568.689695
668.633528	2572.541137
668.973896	2567.275652
669.314213	2569.781105
669.654480	2568.367062
669.994695	2569.037535
670.334859	2568.760272
670.674973	2569.372772
671.015035	2567.827658
671.355047	2567.570559
671.695008	2567.502504
672.034918	2568.099880
672.374777	2568.193142
672.714585	2568.162895
673.054342	2567.706670
673.394049	2567.762123
673.733705	2571.348904
674.073310	2568.344376
674.412864	2567.424366
674.752368	2567.895714
675.091820	2569.478636
675.431223	2566.824468
675.770574	2567.966290
676.109875	2562.093346
676.449125	2564.271124
676.788324	2565.531412
677.127473	2567.373954
677.466571	2564.891186
677.805619	2566.695919
678.144616	2564.366906
678.483562	2567.071485
678.822458	2564.772719
679.161303	2568.190621
679.500098	2566.587534
679.838842	2565.067626
680.177535	2561.979920
680.516179	2567.484860
680.854771	2566.917730
681.193314	2566.133830
681.531805	2565.823799
681.870247	2571.048955
682.208638	2570.388564
682.546978	2571.028791
682.885268	2569.496280
683.223508	2568.341856
683.561697	2567.857905
683.899836	2568.062072
684.237925	2565.528892
684.575963	2564.684499
684.913951	2565.816238
685.251889	2567.384037
685.589776	2567.285734
685.927614	2568.959397
686.265401	2567.532751
686.603137	2570.441496
686.940824	2567.026115
687.278460	2571.162381
687.616046	2570.222206
687.953582	2568.251115
688.291068	2566.436300
688.628504	2570.882597
688.965889	2571.101887
689.303224	2568.273800
689.640510	2567.605847
689.977745	2568.319171
690.314930	2568.407391
690.652065	2567.731876
690.989150	2566.426217
691.326185	2566.504355
691.663170	2561.627039
692.000105	2563.071329
692.336990	2563.489745
692.673825	2563.688871
693.010610	2566.027966
693.347345	2558.130999
693.684030	2558.478838
694.020665	2559.474466
694.357251	2554.617314
694.693786	2561.012018
695.030272	2557.979764
695.366707	2559.877758
695.703093	2562.158881
696.039429	2559.706359
696.375716	2561.468243
696.711952	2559.713921
697.048139	2560.240722
697.384276	2559.640824
697.720363	2559.290464
698.056400	2558.309960
698.392388	2557.863817
698.728326	2560.908674
699.064214	2557.533622
699.400053	2556.971533
699.735842	2559.101421
700.071581	2559.993705
700.407270	2557.389949
700.742910	2559.096380
701.078501	2555.796944
701.414042	2556.676626
701.749533	2556.066646
702.084974	2555.872562
702.420366	2558.246945
702.755709	2554.163611
703.091002	2555.998591
703.426246	2556.069167
703.761440	2555.267623
704.096584	2555.759136
704.431679	2556.989177
704.766725	2556.427089
705.101721	2554.014897
705.436668	2555.774259
705.771565	2556.175031
706.106413	2555.169321
706.441212	2556.595967
706.775961	2557.730227
707.110661	2550.937272
707.445311	2556.444733
707.779913	2554.372818
708.114465	2558.309960
708.448967	2556.628735
708.783421	2557.465566
709.117825	2556.641338
709.452180	2558.335165
709.786485	2553.906512
710.120742	2559.250135
710.454949	2559.444219
710.789107	2555.880123
711.123216	2555.002963
711.457275	2558.398180
711.791286	2557.692418
712.125247	2557.256358
712.459159	2558.128478
712.793023	2560.286092
713.126837	2559.408931
713.460602	2560.785166
713.794318	2559.575289
714.127985	2560.031514
714.461602	2556.154866
714.795171	2555.895247
715.128691	2556.918601
715.462162	2557.979764
715.795584	2556.064126
716.128957	2556.346430
716.462281	2556.409445
716.795556	2556.331307
717.128782	2556.863148
717.461960	2555.807027
717.795088	2555.149156
718.128167	2554.103117
718.461198	2554.889537
718.794180	2555.141594
719.127113	2553.508261
719.459997	2553.541028
719.792833	2552.051367
720.125619	2552.212684
720.458357	2552.920966
720.791046	2553.268806
721.123686	2552.941131
721.456278	2552.570606
721.788821	2554.622356
722.121315	2552.371480
722.453761	2551.562375
722.786158	2551.857283
723.118506	2551.612787
723.450805	2552.807540
723.783056	2550.871737
724.115259	2554.266954
724.447412	2550.261758
724.779518	2553.866182
725.111574	2553.155380
725.443582	2553.543549
725.775542	2550.768393
726.107453	2553.331820
726.439315	2553.082283
726.771129	2557.107644
727.102895	2553.021789
727.434612	2556.056564
727.766281	2553.903991
728.097901	2551.169165
728.429473	2551.118754
728.760996	2551.007848
729.092471	2547.393341
729.423897	2553.470452
729.755276	2555.552448
730.086606	2553.856100
730.417887	2555.504558
730.749120	2555.118909
731.080305	2557.072356
731.411442	2558.035217
731.742530	2556.268292
732.073570	2554.327448
732.404562	2552.671429
732.735506	2555.093703
733.066401	2557.042109
733.397249	2556.212840
733.728048	2556.185113
734.058798	2554.324927
734.389501	2552.817622
734.720156	2552.169834
735.050762	2550.901984
735.381320	2550.206305
735.711831	2554.133364
736.042293	2550.579350
736.372707	2552.381563
736.703073	2550.075235
737.033391	2549.636654
737.363661	2552.512633
737.693883	2549.364432
738.024056	2550.682694
738.354182	2553.026830
738.684260	2549.855945
739.014290	2552.265616
739.344272	2551.461552
739.674207	2549.407282
740.004093	2555.391132
740.333931	2551.486758
740.663722	2553.110009
740.993464	2555.484393
741.323159	2553.420040
741.652806	2554.884496
741.982405	2552.908363
742.311956	2550.763352
742.641460	2551.176727
742.970915	2549.772766
743.300323	2550.516336
743.629683	2550.387786
743.958996	2550.077755
744.288260	2548.237734
744.617477	2550.148332
744.946647	2544.729091
745.275768	2545.709596
745.604842	2546.054915
745.933869	2543.012578
746.262847	2545.051725
746.591778	2548.855276
746.920662	2549.225800
747.249498	2548.782179
747.578286	2547.542055
747.907027	2548.482230
748.235720	2549.828218
748.564365	2548.915769
748.892963	2549.059442
749.221514	2549.966850
749.550017	2549.462735
749.878473	2548.164638
750.206881	2548.126829
750.535242	2548.353681
750.863555	2546.243958
751.191821	2549.868548
751.520039	2546.528783
751.848210	2547.675646
752.176334	2547.824360
752.504411	2545.538196
752.832440	2548.298228
753.160421	2549.384597
753.488356	2549.006510
753.816243	2549.465255
754.144082	2549.056922
754.471875	2550.647406
754.799620	2547.524411
755.127318	2546.637168
755.454969	2544.247661
755.782572	2549.661860
756.110129	2547.000131
756.437638	2548.598177
756.765100	2548.850234
757.092515	2547.433670
757.419882	2549.155224
757.747203	2549.906356
758.074477	2550.506253
758.401703	2547.408464
758.728882	2548.187323
759.056014	2547.421067
759.383099	2546.954761
759.710138	2549.717313
760.037129	2547.766386
760.364073	2549.974412
760.690970	2549.387117
761.017820	2550.029864
761.344623	2547.123639
761.671379	2551.920297
761.998088	2545.460058
762.324751	2550.723023
762.651366	2550.665050
762.977935	2562.000084
763.304456	2563.174673
763.630931	2568.619119
763.957359	2565.458316
764.283740	2562.393294
764.610074	2558.085628
764.936362	2557.460525
765.262602	2554.203940
765.588796	2551.456511
765.914943	2548.903167
766.241044	2548.464586
766.567097	2545.303783
766.893104	2547.247148
767.219064	2548.517518
767.544978	2545.485264
767.870845	2545.190357
768.196665	2546.271684
768.522438	2544.202291
768.848165	2544.333361
769.173846	2543.229348
769.499479	2543.216745
769.825066	2543.090716
770.150607	2542.223638
770.476101	2544.109029
770.801548	2546.122970
771.126949	2544.466951
771.452303	2541.517876
771.777611	2542.397557
772.102872	2540.340767
772.428087	2543.541899
772.753256	2543.075593
773.078378	2541.469985
773.403453	2541.706919
773.728482	2542.352187
774.053465	2540.865047
774.378401	2541.051569
774.703291	2545.097095
775.028135	2541.159954
775.352932	2541.222969
775.677683	2541.711961
776.002388	2541.079296
776.327046	2539.055272
776.651658	2542.135417
776.976224	2540.043339
777.300743	2540.860006
777.625216	2539.587114
777.949643	2542.604245
778.274024	2539.703061
778.598359	2540.544933
778.922647	2537.101825
779.246889	2539.801363
779.571086	2533.560415
779.895236	2537.805066
780.219339	2542.067362
780.543397	2541.956457
780.867409	2541.112063
781.191374	2541.855633
781.515294	2541.245654
781.839167	2540.678524
782.162995	2540.633154
782.486776	2540.953267
782.810511	2538.959491
783.134201	2537.832793
783.457844	2538.997299
783.781441	2539.178781
784.104993	2537.502597
784.428498	2542.773123
784.751958	2538.445293
785.075372	2540.171888
785.398739	2539.700540
785.722061	2540.015612
786.045337	2539.750952
786.368568	2541.152393
786.691752	2538.268852
787.014891	2539.287166
787.337983	2542.523586
787.661030	2543.002496
787.984031	2544.310675
788.306987	2544.386293
788.629897	2541.346477
788.952760	2543.700696
789.275579	2543.496529
789.598351	2544.214893
789.921078	2541.391847
790.243759	2541.338915
790.566395	2541.492670
790.888984	2540.365973
791.211529	2540.391178
791.534027	2540.161806
791.856480	2539.090561
792.178888	2539.942516
792.501249	2541.359080
792.823566	2541.797660
793.145836	2539.019984
793.468062	2543.322609
793.790241	2540.527289
794.112375	2540.524769
794.434464	2540.716333
794.756507	2539.380427
795.078505	2538.203317
795.400457	2537.245498
795.722364	2537.709284
796.044226	2539.108205
796.366042	2539.014943
796.687812	2538.498225
797.009538	2540.449152
797.331218	2541.079296
797.652852	2538.357073
797.974442	2539.690458
798.295986	2541.502753
798.617484	2541.240613
798.938938	2539.546785
799.260346	2541.074255
799.581709	2542.790768
799.903026	2541.301107
800.224299	2540.469316
800.545526	2538.944367
800.866708	2539.571991
801.187845	2538.399923
801.508936	2538.387320
801.829983	2540.688606
802.150984	2538.898997
802.471940	2539.735828
802.792851	2539.498894
803.113717	2539.009902
803.434538	2538.871270
803.755314	2540.199614
804.076045	2537.898328
804.396731	2537.558050
804.717372	2538.170550
805.037967	2538.672145
805.358518	2540.534851
805.679024	2539.309851
805.999485	2539.569470
806.319901	2539.183822
806.640272	2534.412370
806.960598	2538.750283
807.280879	2535.181146
807.601115	2537.757175
807.921306	2539.582073
808.241453	2539.826569
808.561554	2540.481919
808.881611	2536.958152
809.201623	2539.042670
809.521590	2540.492001
809.841513	2537.489994
810.161390	2537.857998
810.481223	2537.547968
810.801011	2537.101825
811.120755	2536.166691
811.440453	2539.055272
811.760107	2537.663914
812.079716	2538.556198
812.399281	2531.770805
812.718801	2536.335570
813.038276	2534.419932
813.357707	2540.464275
813.677093	2537.739531
813.996434	2538.329346
814.315731	2539.400592
814.634983	2540.391178
814.954191	2536.890097
815.273354	2539.700540
815.592473	2536.998482
815.911547	2540.290355
816.230577	2538.596527
816.549562	2540.499563
816.868502	2538.536034
817.187399	2536.320447
817.506250	2539.385468
817.825058	2541.059131
818.143821	2540.703730
818.462539	2541.250695
818.781213	2541.903524
819.099843	2541.800181
819.418429	2544.845038
819.736970	2548.048691
820.055466	2549.934082
820.373919	2553.145297
820.692327	2552.253013
821.010691	2559.713921
821.329011	2573.630026
821.647286	2601.527772
821.965517	2630.809314
822.283704	2650.142139
822.601847	2655.947027
822.919945	2643.321457
823.237999	2620.628703
823.556010	2607.630088
823.873976	2591.803386
824.191897	2580.266705
824.509775	2572.001733
824.827609	2564.356824
825.145398	2563.081412
825.463144	2562.216854
825.780845	2563.782132
826.098502	2566.645508
826.416116	2573.539285
826.733685	2580.032292
827.051210	2587.092427
827.368692	2584.602097
827.686129	2574.608010
828.003522	2565.730538
828.320872	2553.609084
828.638177	2551.506923
828.955439	2546.488454
829.272656	2545.341591
829.589830	2540.358411
829.906960	2544.391334
830.224046	2542.382434
830.541088	2540.360931
830.858086	2542.029553
831.175041	2544.953423
831.491952	2541.318751
831.808819	2544.358566
832.125642	2541.341436
832.442421	2541.250695
832.759157	2549.835780
833.075849	2554.201419
833.392497	2557.725186
833.709101	2561.216185
834.025662	2565.760785
834.342179	2558.947666
834.658653	2553.515822
834.975083	2552.247972
835.291469	2552.200081
835.607811	2543.809081
835.924110	2542.072403
836.240366	2541.880839
836.556578	2541.505273
836.872746	2540.670962
837.188871	2539.062834
837.504952	2538.485622
837.820990	2536.030580
838.136984	2534.349355
838.452935	2536.799356
838.768842	2534.198121
839.084706	2535.723070
839.400526	2541.757331
839.716303	2542.740356
840.032037	2547.753783
840.347727	2546.937117
840.663373	2545.034081
840.978977	2540.907897
841.294537	2539.740869
841.610054	2539.458565
841.925527	2539.191384
842.240957	2538.152906
842.556344	2535.400436
842.871687	2537.416898
843.186987	2535.271887
843.502244	2536.975797
843.817458	2533.986392
844.132629	2535.438245
844.447756	2534.339273
844.762840	2532.108562
845.077881	2529.550177
845.392879	2532.305167
845.707833	2531.664941
846.022745	2528.302491
846.337613	2535.612164
846.652438	2533.237781
846.967221	2533.439427
847.281960	2534.039324
847.596656	2535.836496
847.911309	2536.179294
848.225919	2533.459592
848.540485	2535.801208
848.855009	2535.798687
849.169490	2536.164171
849.483928	2531.879190
849.798323	2534.727442
850.112675	2533.247863
850.426984	2536.171733
850.741251	2532.335414
851.055474	2533.477236
851.369654	2533.593182
851.683792	2533.746938
851.997887	2532.574869
852.311938	2534.150230
852.625947	2532.469005
852.939914	2533.600744
853.253837	2534.999664
853.567718	2534.878677
853.881555	2533.472195
854.195350	2530.281144
854.509103	2536.136444
854.822812	2531.100332
855.136479	2534.319108
855.450103	2531.637215
855.763685	2530.671834
856.077224	2532.995806
856.390720	2530.291227
856.704173	2534.261135
857.017584	2533.273069
857.330953	2531.659900
857.644278	2531.826258
857.957561	2538.505787
858.270802	2535.813811
858.584000	2534.964376
858.897155	2533.870446
859.210268	2534.533357
859.523339	2534.079654
859.836367	2534.387164
860.149352	2535.365148
860.462295	2535.413039
860.775195	2527.611853
861.088054	2528.829292
861.400869	2530.071936
861.713642	2530.268541
862.026373	2531.470857
862.339062	2534.069571
862.651708	2534.364479
862.964312	2533.257946
863.276873	2531.591844
863.589392	2534.611495
863.901869	2532.937832
864.214303	2532.169056
864.526696	2534.934129
864.839045	2533.532688
865.151353	2535.024870
865.463619	2533.026053
865.775842	2533.903213
866.088023	2533.608306
866.400162	2534.321629
866.712258	2531.861546
867.024313	2532.801721
867.336325	2534.568646
867.648296	2532.756351
867.960224	2530.797862
868.272110	2534.795497
868.583954	2533.663758
868.895755	2533.215096
869.207515	2534.525796
869.519233	2534.054448
869.830909	2531.296937
870.142542	2535.541588
870.454134	2535.851619
870.765684	2537.966383
871.077191	2532.148892
871.388657	2533.371372
871.700081	2532.463964
872.011463	2533.933460
872.322803	2535.380271
872.634101	2535.839016
872.945357	2532.095960
873.256571	2538.094933
873.567744	2533.371372
873.878874	2534.737524
874.189963	2535.216434
874.501010	2536.030580
874.812015	2536.781712
875.122979	2533.658717
875.433900	2534.359438
875.744780	2535.965045
876.055618	2538.778009
876.366415	2536.469161
876.677169	2535.511341
876.987882	2532.199303
877.298554	2531.438089
877.609183	2532.675692
877.919771	2536.264994
878.230317	2532.816845
878.540822	2540.809594
878.851285	2535.312216
879.161707	2541.903524
879.472087	2540.643236
879.782425	2545.744884
880.092722	2551.446429
880.402977	2559.683674
880.713191	2573.554409
881.023363	2589.005545
881.333494	2600.385950
881.643583	2600.461567
881.953631	2597.671289
882.263637	2596.393356
882.573602	2592.796493
882.883526	2580.695203
883.193408	2576.904256
883.503248	2569.269428
883.813048	2563.033521
884.122806	2556.792572
884.432522	2555.499516
884.742197	2554.264434
885.051831	2549.001469
885.361424	2546.697662
885.670975	2543.494008
885.980485	2542.231199
886.289954	2542.833617
886.599382	2539.715664
886.908768	2541.432177
887.218113	2538.427649
887.527417	2539.226672
887.836680	2540.975952
888.145901	2537.192566
888.455082	2537.028729
888.764221	2536.577545
889.073319	2535.045035
889.382376	2534.911444
889.691392	2539.887063
890.000366	2535.402957
890.309300	2537.550488
890.618193	2535.702905
890.927044	2537.205169
891.235855	2534.437576
891.544625	2536.544778
891.853353	2536.660724
892.162041	2537.187525
892.470687	2539.372865
892.779293	2539.254398
893.087858	2539.050231
893.396381	2540.129038
893.704864	2542.392516
894.013306	2543.766231
894.321707	2551.882488
894.630068	2557.556307
894.938387	2556.873231
895.246665	2557.936914
895.554903	2554.501368
895.863100	2551.459032
896.171256	2549.251006
896.479371	2547.872251
896.787446	2544.416540
897.095480	2542.352187
897.403473	2539.057793
897.711425	2540.980993
898.019336	2537.492515
898.327207	2537.701723
898.635038	2542.465613
898.942827	2537.825231
899.250576	2537.056455
899.558284	2536.499407
899.865952	2539.549306
900.173579	2537.001002
900.481165	2534.689633
900.788711	2533.898172
901.096216	2535.536547
901.403681	2536.204500
901.711105	2533.048738
902.018489	2534.233409
902.325832	2538.256250
902.633135	2536.446475
902.940397	2537.409336
903.247619	2537.520241
903.554800	2542.899152
903.861941	2552.873075
904.169041	2563.827502
904.476101	2565.465878
904.783121	2567.182390
905.090100	2564.404715
905.397039	2556.583364
905.703938	2551.272509
906.010796	2546.226314
906.317614	2544.282949
906.624391	2542.616848
906.931129	2538.730118
907.237826	2536.365817
907.544483	2536.895138
907.851099	2536.509490
908.157675	2534.523275
908.464211	2533.026053
908.770707	2530.132430
909.077163	2531.385157
909.383578	2528.965403
909.689954	2529.903058
909.996289	2529.777029
910.302584	2534.682072
910.608839	2534.951773
910.915054	2533.394057
911.221229	2532.985723
911.527363	2532.229550
911.833458	2532.411032
912.139513	2532.221988
912.445527	2530.976823
912.751502	2534.273738
913.057436	2529.807276
913.363331	2534.848430
913.669186	2535.019829
913.975000	2538.107536
914.280775	2537.999151
914.586510	2542.881508
914.892205	2543.138607
915.197859	2546.561551
915.503475	2551.156562
915.809050	2559.688715
916.114585	2562.481514
916.420081	2566.166598
916.725536	2562.564693
917.030952	2558.188972
917.336328	2554.632438
917.641665	2552.868034
917.946961	2548.351160
918.252218	2546.705223
918.557435	2541.941333
918.862612	2545.215563
919.167750	2541.293545
919.472848	2539.105684
919.777906	2538.462937
920.082925	2539.692978
920.387904	2536.466640
920.692843	2536.343132
920.997743	2537.545447
921.302603	2535.576876
921.607423	2535.236598
921.912204	2536.973276
922.216946	2533.177287
922.521647	2532.534540
922.826310	2531.415404
923.130932	2533.494880
923.435516	2534.881197
923.740059	2531.034797
924.044564	2531.506145
924.349028	2532.355579
924.653454	2528.141174
924.957840	2528.766278
925.262186	2527.884076
925.566493	2530.916330
925.870761	2528.156298
926.174989	2530.455064
926.479178	2530.258459
926.783328	2530.374406
927.087438	2532.511855
927.391509	2530.757533
927.695541	2528.088242
927.999533	2529.643438
928.303486	2530.515558
928.607400	2528.347862
928.911275	2528.899868
929.215110	2531.571680
929.518906	2527.168232
929.822663	2531.017153
930.126381	2528.584796
930.430060	2529.986237
930.733699	2527.672347
931.037299	2530.492873
931.340861	2528.829292
931.644383	2526.170083
931.947866	2529.736700
932.251309	2530.308871
932.554714	2529.721576
932.858080	2530.644107
933.161407	2531.932122
933.464694	2529.585465
933.767943	2529.706453
934.071153	2532.121165
934.374323	2529.870290
934.677455	2529.434230
934.980548	2528.632687
935.283602	2530.268541
935.586617	2528.877183
935.889593	2529.900537
936.192530	2530.714683
936.495428	2530.165198
936.798287	2526.961544
937.101108	2527.473222
937.403890	2529.658562
937.706632	2531.533871
938.009336	2530.303829
938.312002	2530.210568
938.614628	2531.435568
938.917216	2531.004550
939.219765	2530.424817
939.522275	2532.257277
939.824747	2535.014788
940.127179	2528.360465
940.429573	2526.500279
940.731929	2532.063192
941.034246	2528.932636
941.336524	2530.477749
941.638763	2530.165198
941.940964	2529.323325
942.243126	2530.853315
942.545250	2531.070085
942.847335	2526.981709
943.149381	2530.923891
943.451389	2528.229395
943.753359	2530.185362
944.055290	2530.329035
944.357182	2532.292565
944.659036	2528.715866
944.960851	2530.374406
945.262628	2529.230064
945.564367	2529.202337
945.866067	2528.761236
946.167729	2533.573018
946.469352	2529.547656
946.770937	2529.275434
947.072484	2533.744417
947.373992	2530.530681
947.675462	2532.385826
947.976893	2530.306350
948.278286	2527.964734
948.579641	2529.794673
948.880958	2529.945907
949.182236	2529.441792
949.483476	2529.764426
949.784678	2530.321473
950.085841	2527.747964
950.386967	2529.240146
950.688054	2529.983716
950.989103	2528.466329
951.290114	2527.606812
951.591087	2529.172090
951.892021	2528.549508
952.192917	2528.272244
952.493776	2532.993285
952.794596	2531.826258
953.095378	2528.715866
953.396122	2529.777029
953.696828	2528.516740
953.997496	2530.064375
954.298126	2529.898017
954.598718	2531.244005
954.899272	2530.578572
955.199788	2527.170752
955.500266	2530.258459
955.800706	2526.147398
956.101108	2525.290402
956.401472	2526.512882
956.701798	2527.009435
957.002087	2526.278468
957.302337	2529.388860
957.602550	2530.031607
957.902724	2526.323838
958.202861	2529.479601
958.502960	2528.494055
958.803022	2527.442975
959.103045	2526.807789
959.403031	2529.086391
959.702979	2527.654703
960.002889	2529.514889
960.302762	2523.336955
960.602596	2526.981709
960.902393	2525.774353
961.202153	2527.982378
961.501875	2525.184538
961.801559	2526.908612
962.101205	2526.160001
962.400814	2524.715710
962.700385	2528.491535
962.999918	2526.147398
963.299414	2526.344003
963.598873	2528.254600
963.898293	2527.778211
964.197677	2527.657224
964.497022	2525.905423
964.796331	2528.652852
965.095601	2527.931967
965.394835	2525.910464
965.694030	2528.194107
965.993189	2529.189734
966.292309	2528.088242
966.591393	2525.320649
966.890439	2526.412059
967.189447	2526.351565
967.488419	2525.749147
967.787353	2526.396935
968.086249	2527.813499
968.385108	2526.233098
968.683930	2527.601771
968.982714	2525.618077
969.281462	2526.706966
969.580172	2529.361134
969.878844	2527.190917
970.177480	2526.868283
970.476078	2526.341482
970.774639	2529.829961
971.073162	2526.903571
971.371649	2526.699404
971.670098	2524.904754
971.968510	2523.868797
972.266885	2519.089783
972.565223	2524.577079
972.863524	2528.299971
973.161788	2527.760567
973.460014	2527.548839
973.758204	2526.311236
974.056356	2527.543798
974.354471	2528.541946
974.652550	2526.424662
974.950591	2528.496576
975.248595	2528.839374
975.546563	2527.415248
975.844493	2527.644621
976.142386	2527.034641
976.440243	2527.206040
976.738062	2528.032790
977.035845	2525.754188
977.333590	2526.336441
977.631299	2525.209743
977.928971	2528.970444
978.226606	2525.698735
978.524204	2527.211082
978.821765	2526.749816
979.119290	2527.805938
979.416777	2526.142357
979.714228	2528.168901
980.011642	2526.901051
980.309020	2530.823068
980.606360	2527.362316
980.903664	2528.768798
981.200931	2523.871317
981.498162	2526.228057
981.795356	2525.628159
982.092513	2527.778211
982.389633	2528.673016
982.686717	2525.981040
982.983764	2527.102697
983.280775	2525.567665
983.577749	2530.296268
983.874686	2527.647141
984.171587	2527.891637
984.468451	2528.763757
984.765279	2525.403828
985.062070	2527.216123
985.358824	2527.899199
985.655543	2528.007584
985.952224	2528.708304
986.248869	2528.206709
986.545478	2524.647655
986.842050	2525.807120
987.138586	2523.541122
987.435086	2522.122037
987.731549	2521.317973
988.027975	2524.998015
988.324366	2527.518592
988.620719	2526.626308
988.917037	2526.006246
989.213318	2528.794004
989.509563	2526.157480
989.805772	2526.384332
990.101944	2525.441637
990.398080	2526.439785
990.694180	2526.878365
990.990244	2524.725793
991.286271	2528.420958
991.582262	2525.839888
991.878217	2525.791997
992.174136	2526.260824
992.470019	2525.648324
992.765865	2525.572707
993.061676	2525.686133
993.357450	2528.478932
993.653188	2524.622449
993.948890	2525.366019
994.244556	2523.876358
994.540186	2525.890299
994.835780	2526.543129
995.131337	2529.424148
995.426859	2524.635052
995.722345	2528.920033
996.017795	2525.310567
996.313208	2529.696370
996.608586	2523.556245
996.903928	2525.542460
997.199234	2530.664272
997.494504	2526.152439
997.789738	2525.371060
998.084936	2524.957686
998.380099	2525.202182
998.675225	2525.842408
998.970316	2527.407687
999.265371	2526.780063
999.560390	2525.910464
999.855373	2526.235618
1000.150320	2525.958355
1000.445232	2526.775022
1000.740108	2524.791328
1001.034948	2527.596730
1001.329752	2523.977181
1001.624521	2526.790145
1001.919254	2519.679598
1002.213951	2522.837881
1002.508613	2523.722603
1002.803239	2524.524147
1003.097829	2521.554907
1003.392384	2524.493900
1003.686903	2522.366533
1003.981386	2526.540608
1004.275834	2522.482479
1004.570246	2525.819723
1004.864623	2523.553724
1005.158964	2524.284692
1005.453270	2526.273427
1005.747540	2527.029600
1006.041775	2526.381812
1006.335974	2526.502799
1006.630138	2522.331245
1006.924266	2526.628828
1007.218359	2521.300329
1007.512416	2526.207892
1007.806438	2527.866432
1008.100425	2525.786956
1008.394376	2524.556914
1008.688292	2526.747295
1008.982172	2525.519774
1009.276017	2526.545649
1009.569827	2524.410721
1009.863602	2525.003056
1010.157341	2525.113962
1010.451045	2527.175793
1010.744714	2525.421472
1011.038347	2528.340300
1011.331945	2523.735206
1011.625508	2526.437264
1011.919036	2525.497089
1012.212528	2523.795700
1012.505986	2527.327028
1012.799408	2526.069260
1013.092795	2524.660258
1013.386147	2525.063550
1013.679464	2525.260155
1013.972745	2524.196472
1014.265992	2523.321831
1014.559204	2528.078160
1014.852380	2526.664116
1015.145521	2526.253262
1015.438628	2524.498941
1015.731699	2527.077491
1016.024736	2525.580268
1016.317737	2525.610515
1016.610703	2523.490710
1016.903635	2524.783766
1017.196531	2522.074146
1017.489393	2521.741430
1017.782219	2518.678929
1018.075011	2523.321831
1018.367768	2524.861904
1018.660490	2526.656555
1018.953177	2526.656555
1019.245829	2526.656555
