Dividing Wavelength (nm)	Counts (n)	Blue Motor Position (mm): 0.000000	Red Motor Position (mm): 30.500000	
326.493990	2129.753909
326.888308	2129.753909
327.282561	2129.753909
327.676750	2095.486666
328.070874	2095.514393
328.464933	2095.486666
328.858929	2105.074941
329.252859	2115.121960
329.646726	2123.792745
330.040528	2137.943264
330.434265	2155.824237
330.827938	2171.963491
331.221547	2188.934535
331.615091	2209.547813
332.008571	2227.368292
332.401986	2245.861765
332.795338	2267.248860
333.188625	2286.967333
333.581847	2302.725980
333.975006	2324.362613
334.368100	2341.610920
334.761129	2358.418127
335.154095	2372.172916
335.546996	2396.398180
335.939833	2410.800757
336.332606	2425.639393
336.725315	2439.106836
337.117960	2449.163938
337.510540	2459.725155
337.903056	2468.574901
338.295508	2476.507156
338.687896	2484.774648
339.080220	2493.929384
339.472480	2498.912564
339.864676	2505.095540
340.256807	2507.888339
340.648875	2511.586025
341.040879	2513.970491
341.432818	2515.752539
341.824694	2516.173475
342.216506	2517.622807
342.608253	2517.010307
342.999937	2516.259175
343.391557	2515.175327
343.783113	2512.783299
344.174605	2515.540810
344.566033	2513.635254
344.957397	2513.035357
345.348697	2511.573422
345.739934	2510.424039
346.131106	2507.684172
346.522215	2507.452279
346.913260	2505.594614
347.304241	2500.593789
347.695159	2502.592607
348.086012	2498.695795
348.476802	2495.628253
348.867528	2496.016422
349.258191	2494.892244
349.648789	2493.352172
350.039324	2491.227325
350.429796	2492.205309
350.820203	2489.677171
351.210548	2487.494351
351.600828	2490.708087
351.991045	2487.045688
352.381198	2486.027375
352.771288	2486.193733
353.161314	2485.951758
353.551276	2486.528970
353.941175	2488.106851
354.331010	2485.117447
354.720782	2487.932931
355.110490	2484.671305
355.500135	2484.573002
355.889717	2486.279433
356.279235	2484.925883
356.668689	2488.104331
357.058080	2488.268168
357.447408	2485.366984
357.836672	2484.343630
358.225873	2485.911429
358.615010	2483.176603
359.004084	2491.313025
359.393095	2487.300267
359.782043	2492.505258
360.170927	2488.736995
360.559748	2491.534836
360.948505	2493.984837
361.337199	2495.262769
361.725830	2493.783190
362.114398	2493.866369
362.502903	2495.076246
362.891344	2495.141781
363.279722	2494.733448
363.668037	2499.209992
364.056289	2497.720332
364.444478	2499.323418
364.832603	2499.870384
365.220665	2497.339724
365.608665	2500.001454
365.996601	2500.475322
366.384474	2502.075888
366.772284	2501.710405
367.160031	2502.058244
367.547715	2508.541168
367.935336	2506.055879
368.322893	2512.503515
368.710388	2518.701614
369.097820	2521.645648
369.485189	2524.269568
369.872495	2530.455064
370.259738	2536.859850
370.646918	2546.047353
371.034035	2550.849052
371.421090	2562.073181
371.808081	2573.297310
372.195010	2581.579926
372.581875	2594.659199
372.968678	2605.658997
373.355418	2618.415637
373.742096	2634.706126
374.128710	2652.461069
374.515262	2665.384067
374.901751	2681.674556
375.288177	2695.147040
375.674540	2716.526573
376.060841	2734.299161
376.447079	2754.360433
376.833254	2773.310130
377.219367	2786.974177
377.605417	2823.724189
377.991404	2836.485870
378.377329	2856.370701
378.763191	2871.758823
379.148991	2914.497726
379.534727	2938.052517
379.920402	2966.217444
380.306013	2975.780513
380.691563	3025.075435
381.077049	3048.773900
381.462474	3068.547826
381.847835	3105.607868
382.233134	3127.854480
382.618371	3127.083183
383.003545	3194.942155
383.388657	3203.214689
383.773706	3234.966396
384.158693	3252.194540
384.543618	3277.818725
384.928480	3314.886329
385.313280	3361.562372
385.698017	3356.450642
386.082692	3410.469126
386.467305	3416.682348
386.851856	3447.624951
387.236344	3471.457006
387.620770	3503.591841
388.005133	3528.167466
388.389435	3555.669481
388.773674	3568.448806
389.157851	3606.877521
389.541965	3623.800675
389.926018	3591.257506
390.310008	3662.065553
390.693936	3680.385106
391.077802	3722.133422
391.461606	3708.005588
391.845348	3774.221144
392.229027	3774.803397
392.612645	3784.091723
392.996200	3863.893188
393.379694	3902.359713
393.763125	3967.554435
394.146494	3931.394238
394.529801	3996.387314
394.913047	4045.137793
395.296230	4013.877598
395.679351	4064.329465
396.062410	4088.955502
396.445408	4067.797779
396.828343	4104.935960
397.211217	4125.183754
397.594028	4048.744738
397.976778	4115.804687
398.359466	4138.179849
398.742092	4170.423069
399.124656	4091.523970
399.507158	4172.162267
399.889598	4195.217984
400.271977	4255.520266
400.654294	4226.689907
401.036549	4235.627873
401.418742	4204.760888
401.800874	4309.228719
402.182944	4329.045495
402.564952	4392.846338
402.946898	4383.636150
403.328783	4374.113410
403.710606	4291.806492
404.092367	4486.503415
404.474067	4446.877425
404.855705	4458.527532
405.237282	4388.868868
405.618797	4495.259899
406.000250	4528.385321
406.381642	4606.480356
406.762972	4571.852670
407.144240	4579.243002
407.525447	4580.888938
407.906593	4643.195079
408.287677	4683.239485
408.668700	4612.234833
409.049661	4664.360364
409.430560	4707.600861
409.811399	4630.229232
410.192176	4790.840393
410.572891	4734.389552
410.953545	4836.916539
411.334138	4717.708374
411.714669	4782.023415
412.095139	4678.029452
412.475547	4825.591587
412.855894	4804.169204
413.236180	4811.650276
413.616405	4765.642186
413.996568	4850.746945
414.376670	4793.882729
414.756711	4746.790791
415.136691	4781.678096
415.516609	4857.285321
415.896466	4896.560951
416.276262	4926.477678
416.655997	4909.350358
417.035670	5089.286783
417.415283	5181.849929
417.794834	5126.503101
418.174324	5077.961831
418.553753	4985.648222
418.933121	5175.354403
419.312428	5238.399073
419.691674	5181.449158
420.070859	5301.156397
420.449983	5214.256987
420.829045	5327.952650
421.208047	5238.923353
421.586988	5312.866997
421.965867	5324.290252
422.344686	5455.256908
422.723444	5307.667047
423.102141	5131.256909
423.480777	5426.368576
423.859352	5198.644533
424.237866	5455.841682
424.616319	5440.476245
424.994712	5554.988575
425.373044	5430.348567
425.751314	5575.972378
426.129524	5377.771853
426.507673	5567.039454
426.885762	5658.090254
427.263789	5585.147278
427.641756	5465.087158
428.019662	5591.413432
428.397508	5597.712354
428.775292	5542.945259
429.153016	5637.872706
429.530679	5569.754115
429.908282	5654.924409
430.285824	5523.226786
430.663305	5799.885309
431.040726	5533.283887
431.418086	5537.619280
431.795385	5640.514271
432.172624	5653.787629
432.549802	5648.602802
432.926920	5661.157796
433.303977	5666.690462
433.680974	5703.672367
434.057910	5722.067537
434.434786	5730.889557
434.811601	5695.208270
435.188355	5934.030413
435.565050	5804.578623
435.941683	5785.787722
436.318257	6002.504405
436.694770	5985.737528
437.071222	6019.341859
437.447614	5950.547753
437.823946	5865.412747
438.200218	6017.262383
438.576429	5883.772629
438.952580	5982.682588
439.328670	6024.720770
439.704700	5931.719043
440.080670	5919.736221
440.456580	6190.239495
440.832429	6074.416465
441.208218	5919.579945
441.583947	6075.938893
441.959616	6080.659934
442.335224	6006.759139
442.710773	6144.173431
443.086261	6174.027144
443.461689	5969.631041
443.837057	6111.000118
444.212365	6267.197750
444.587612	6157.940822
444.962800	6315.244987
445.337927	6292.753879
445.712995	5906.828346
446.088002	6481.454350
446.462949	6312.127033
446.837837	6243.771508
447.212664	6418.495379
447.587431	6558.241205
447.962139	7107.180009
448.336786	8031.538581
448.711374	7768.511338
449.085901	6841.755697
449.460369	6763.222082
449.834776	6699.423760
450.209124	7088.086639
450.583412	7240.142962
450.957640	7384.723255
451.331808	7146.243910
451.705917	6702.884512
452.079965	6627.214272
452.453954	6837.931982
452.827883	6714.496810
453.201752	6808.993239
453.575562	6604.367763
453.949311	6811.564227
454.323001	6700.663884
454.696632	6768.938751
455.070202	6913.400576
455.443713	7070.016623
455.817164	7166.590007
456.190556	7245.978098
456.563888	7320.274623
456.937160	7364.546037
457.310373	7023.373347
457.683526	7045.398148
458.056619	6935.014523
458.429653	6924.382730
458.802628	6864.859306
459.175542	6968.996941
459.548398	7320.332597
459.921194	7485.874007
460.293930	7484.490210
460.666607	8011.739450
461.039224	8323.935587
461.411782	8447.602652
461.784280	8465.360117
462.156719	8357.008077
462.529099	8232.390753
462.901419	7822.663413
463.273680	7714.664253
463.645882	7727.446099
464.018024	7589.799914
464.390106	7757.622446
464.762130	8142.370869
465.134094	8604.780788
465.505999	9615.166651
465.877845	10832.963226
466.249631	11480.275107
466.621358	11086.568553
466.993026	10468.490324
467.364634	10205.392505
467.736184	9841.670734
468.107674	9506.159260
468.479105	9529.015852
468.850477	9296.994226
469.221790	9059.145025
469.593043	8732.357268
469.964238	8590.163963
470.335373	8593.919622
470.706449	8646.652612
471.077467	8618.991801
471.448425	9901.380681
471.819324	10935.137333
472.190164	10966.347116
472.560945	9725.618331
472.931667	8944.673024
473.302330	8800.266652
473.672934	8442.173330
474.043479	8775.824617
474.413965	8704.928350
474.784393	8583.123991
475.154761	8719.978715
475.525070	8793.773646
475.895321	8605.597455
476.265513	8769.066951
476.635645	8918.587574
477.005719	8897.525633
477.375734	8994.260334
477.745691	9193.527063
478.115588	9298.559504
478.485427	9509.468778
478.855207	9983.354883
479.224928	10711.370596
479.594591	11273.212233
479.964194	11078.003633
480.333739	11001.448670
480.703226	10885.744107
481.072653	10937.231932
481.442022	11098.425347
481.811333	11240.414486
482.180584	11032.494616
482.549777	10722.408202
482.918912	10520.746925
483.287988	10507.987764
483.657005	10472.891251
484.025964	10150.121294
484.394864	10227.142563
484.763706	10149.571808
485.132489	9904.496114
485.501213	9820.071910
485.869879	9847.440335
486.238487	9647.170416
486.607036	9707.747441
486.975527	9457.602867
487.343959	9572.427748
487.712333	9554.458555
488.080648	9446.968553
488.448905	9414.380013
488.817104	9312.609200
489.185244	9464.199216
489.553326	9521.191981
489.921350	9868.088901
490.289315	10575.907230
490.657222	10777.999526
491.025070	10624.909766
491.392861	10466.983019
491.760593	10122.072314
492.128267	9790.929000
492.495883	9483.456424
492.863440	9161.097321
493.230939	8848.702058
493.598380	8725.337462
493.965763	8548.324906
494.333088	8426.218078
494.700354	8285.743805
495.067563	8267.295703
495.434713	8070.063079
495.801805	8085.756191
496.168839	7959.510575
496.535815	7830.794794
496.902733	7776.378059
497.269593	7643.911659
497.636395	7646.008779
498.003139	7541.102368
498.369825	7405.361739
498.736453	7413.785507
499.103023	7300.601521
499.469535	7234.242292
499.835989	7163.819893
500.202385	7059.291568
500.568723	6903.182157
500.935003	6959.126362
501.301226	6755.524240
501.667390	6834.226734
502.033497	6800.440921
502.399546	6663.245919
502.765537	6540.483741
503.131470	6499.892370
503.497345	6504.421847
503.863163	6261.586945
504.228923	6312.923536
504.594625	6277.915243
504.960269	6091.349701
505.325856	6114.382733
505.691385	5952.057579
506.056856	5951.823165
506.422270	5881.113421
506.787625	5773.938490
507.152924	5739.285598
507.518164	5669.667264
507.883347	5560.644750
508.248472	5469.611594
508.613540	5479.207430
508.978550	5368.544021
509.343503	5292.195746
509.708398	5268.053660
510.073236	5228.972115
510.438016	5170.585471
510.802738	5084.573304
511.167403	5039.722158
511.532010	4940.298002
511.896561	4954.365342
512.261053	4909.839350
512.625488	4804.998474
512.989866	4733.928287
513.354186	4671.818751
513.718449	4588.289352
514.082655	4584.296758
514.446803	4501.054705
514.810894	4474.482783
515.174927	4385.947519
515.538904	4343.120397
515.902822	4310.234429
516.266684	4243.313112
516.630488	4174.876928
516.994235	4143.876353
517.357925	4098.016976
517.721558	4068.090166
518.085133	4017.580325
518.448651	3974.453254
518.812112	3913.167947
519.175516	3866.605329
519.538863	3840.333356
519.902152	3792.399545
520.265385	3762.321500
520.628560	3717.861044
520.991678	3663.716531
521.354739	3636.958086
521.717743	3592.966457
522.080690	3555.268709
522.443580	3532.442364
522.806413	3490.673884
523.169189	3459.058288
523.531908	3430.575768
523.894569	3383.070455
524.257174	3347.931092
524.619722	3327.060715
524.982213	3298.255562
525.344647	3268.321191
525.707025	3240.151223
526.069345	3217.813870
526.431608	3184.688448
526.793815	3169.643125
527.155964	3130.624594
527.518057	3111.621965
527.880093	3085.803695
528.242072	3067.625294
528.603995	3038.200079
528.965860	3018.816843
529.327669	3003.902589
529.689421	2982.911225
530.051117	2961.972792
530.412755	2945.130297
530.774337	2929.880807
531.135862	2910.928589
531.497331	2894.580127
531.858743	2871.063144
532.220098	2867.988040
532.581396	2848.428363
532.942638	2839.316478
533.303824	2827.114365
533.664953	2816.190185
534.026025	2803.304995
534.387040	2794.946762
534.747999	2786.656585
535.108902	2779.820780
535.469748	2762.738830
535.830537	2761.458377
536.191270	2751.502098
536.551947	2744.593197
536.912567	2738.092629
537.273131	2731.713049
537.633638	2724.226936
537.994089	2715.830894
538.354483	2710.394009
538.714821	2711.825697
539.075103	2707.102136
539.435328	2698.678368
539.795497	2691.449353
540.155609	2692.722245
540.515665	2687.766790
540.875665	2681.346881
541.235609	2676.620799
541.595496	2677.654236
541.955328	2673.739780
542.315102	2670.692402
542.674821	2668.819614
543.034483	2662.593789
543.394090	2662.470280
543.753640	2659.352327
544.113134	2655.566420
544.472571	2654.900988
544.831953	2655.291677
545.191278	2651.720020
545.550548	2646.812457
545.909761	2646.998979
546.268918	2649.338075
546.628019	2648.763383
546.987064	2642.842548
547.346053	2640.425315
547.704986	2638.791981
548.063863	2639.777526
548.422684	2640.281642
548.781449	2635.595889
549.140158	2639.195273
549.498811	2635.973976
549.857408	2633.776033
550.215949	2634.547329
550.574434	2628.071967
550.932864	2629.183542
551.291237	2627.272944
551.649555	2631.426855
552.007817	2631.815024
552.366022	2626.494086
552.724173	2627.240177
553.082267	2626.501648
553.440305	2628.293778
553.798288	2626.017697
554.156215	2623.655916
554.514086	2625.362347
554.871902	2622.365381
555.229661	2623.169445
555.587365	2622.413272
555.945014	2623.330762
556.302606	2621.054681
556.660143	2618.995370
557.017625	2620.943776
557.375050	2620.590895
557.732421	2618.032509
558.089735	2621.203395
558.446994	2618.120729
558.804197	2621.798251
559.161345	2621.662140
559.518437	2618.085441
559.875474	2617.109978
560.232455	2618.645009
560.589381	2617.601491
560.946251	2619.948148
561.303065	2617.457818
561.659825	2617.722478
562.016528	2616.603342
562.373177	2615.085955
562.729770	2614.612086
563.086307	2613.835749
563.442789	2614.291973
563.799216	2616.245420
564.155587	2615.832046
564.511904	2614.039915
564.868164	2615.116202
565.224370	2615.194340
565.580520	2613.324072
565.936615	2611.829369
566.292654	2613.561006
566.648638	2613.555965
567.004567	2613.566047
567.360441	2617.180554
567.716260	2611.433639
568.072023	2612.550254
568.427732	2605.364090
568.783385	2607.244440
569.138982	2606.662187
569.494525	2608.439193
569.850013	2605.906014
570.205445	2610.417846
570.560823	2607.073041
570.916145	2608.923144
571.271412	2608.567743
571.626625	2612.562857
571.981782	2606.326950
572.336884	2606.331991
572.691931	2608.504728
573.046923	2607.493977
573.401860	2605.076744
573.756743	2604.013060
574.111570	2605.197732
574.466342	2607.960284
574.821059	2608.582866
575.175722	2605.958946
575.530330	2606.049687
575.884882	2605.129676
576.239380	2605.298555
576.593823	2606.705037
576.948211	2605.384254
577.302544	2605.011209
577.656823	2605.230499
578.011047	2603.433328
578.365216	2604.159254
578.719330	2603.884511
579.073389	2603.392998
579.427394	2605.666559
579.781344	2601.437031
580.135239	2603.420725
580.489080	2601.416866
580.842866	2602.992227
581.196597	2599.400405
581.550273	2602.868718
581.903895	2600.365786
582.257463	2602.843513
582.610975	2599.196238
582.964434	2599.229005
583.317837	2598.795466
583.671186	2602.198245
584.024481	2602.263780
584.377721	2602.530961
584.730906	2600.764037
585.084037	2602.314192
585.437113	2599.876794
585.790135	2601.074068
586.143103	2601.401743
586.496016	2598.649273
586.848874	2596.965527
587.201679	2599.682709
587.554428	2594.628952
587.907124	2596.453850
588.259765	2593.134250
588.612352	2597.749427
588.964884	2597.391505
589.317362	2596.789087
589.669786	2593.850094
590.022155	2600.842175
590.374470	2597.396546
590.726731	2600.638008
591.078937	2596.678182
591.431090	2596.821854
591.783188	2595.927050
592.135232	2594.485280
592.487222	2596.045517
592.839157	2597.792277
593.191038	2596.957966
593.542866	2597.341093
593.894639	2593.769436
594.246358	2595.344796
594.598022	2594.686926
594.949633	2591.581575
595.301190	2594.724734
595.652692	2595.319591
596.004141	2595.231370
596.355535	2593.668613
596.706876	2593.320773
597.058162	2592.408324
597.409395	2593.691298
597.760573	2592.118458
598.111698	2594.734817
598.462768	2594.795311
598.813785	2590.482603
599.164748	2590.522933
599.515657	2592.909919
599.866511	2590.401945
600.217312	2593.104003
600.568060	2591.561410
600.918753	2593.005701
601.269392	2589.983529
601.619978	2586.565627
601.970510	2592.735999
602.320988	2592.330186
602.671412	2595.206165
603.021783	2589.479414
603.372100	2591.236256
603.722363	2592.504106
604.072572	2593.852615
604.422728	2594.139961
604.772830	2589.121492
605.122878	2587.258786
605.472872	2589.234918
605.822813	2584.511357
606.172701	2588.173755
606.522534	2589.219794
606.872314	2588.256934
607.222041	2591.531163
607.571714	2594.591144
607.921333	2588.758529
608.270899	2591.392532
608.620411	2592.017635
608.969870	2592.262131
609.319276	2595.680033
609.668627	2593.403952
610.017926	2598.550970
610.367171	2597.499890
610.716362	2597.525095
611.065500	2597.020980
611.414585	2596.411000
611.763616	2597.210023
612.112594	2593.406473
612.461518	2595.730445
612.810389	2592.690629
613.159207	2592.998139
613.507971	2591.871441
613.856682	2595.349837
614.205340	2594.616350
614.553945	2593.703901
614.902496	2590.946390
615.250994	2594.205496
615.599439	2591.710124
615.947830	2593.555187
616.296169	2595.057451
616.644454	2592.221802
616.992686	2591.311873
617.340864	2592.680547
617.688990	2591.412696
618.037063	2593.068715
618.385082	2591.069898
618.733048	2593.938314
619.080961	2590.008735
619.428821	2593.993767
619.776628	2590.351533
620.124382	2595.301947
620.472083	2592.481421
620.819731	2592.499065
621.167326	2592.189034
621.514868	2592.783890
621.862357	2590.280957
622.209793	2591.019486
622.557176	2590.656523
622.904506	2588.140987
623.251783	2584.455904
623.599007	2585.030596
623.946179	2584.206367
624.293297	2585.670822
624.640363	2589.025710
624.987376	2589.325659
625.334336	2589.164342
625.681243	2584.526480
626.028097	2584.889443
626.374899	2584.876840
626.721647	2583.223342
627.068343	2587.246183
627.414987	2584.163517
627.761577	2582.356263
628.108115	2582.104206
628.454600	2587.397417
628.801032	2583.593867
629.147412	2589.953282
629.493739	2585.738878
629.840014	2583.661922
630.186236	2583.424988
630.532405	2582.721747
630.878521	2583.092272
631.224585	2586.505133
631.570597	2580.458269
631.916556	2580.793506
632.262462	2583.961871
632.608316	2582.499936
632.954117	2578.948443
633.299866	2580.352405
633.645562	2579.195460
633.991206	2580.513722
634.336797	2577.504153
634.682336	2584.017324
635.027823	2578.517425
635.373257	2580.551530
635.718639	2576.085068
636.063968	2581.668146
636.409245	2579.555903
636.754470	2577.602455
637.099642	2575.490212
637.444762	2579.112281
637.789829	2574.481981
638.134845	2578.053639
638.479808	2577.859554
638.824719	2575.762434
639.169577	2574.829821
639.514383	2577.279822
639.859137	2576.354770
640.203839	2574.350911
640.548489	2576.246385
640.893086	2573.156158
641.237632	2570.547361
641.582125	2574.378637
641.926566	2569.002247
642.270955	2575.422156
642.615292	2576.705130
642.959576	2577.423494
643.303809	2575.124728
643.647990	2574.194635
643.992118	2577.776375
644.336195	2575.787640
644.680219	2573.007444
645.024192	2573.493915
645.368112	2574.285376
645.711981	2575.689337
646.055797	2575.099523
646.399562	2577.380645
646.743274	2577.685634
647.086935	2577.224369
647.430544	2577.060531
647.774101	2577.148752
648.117606	2578.298135
648.461059	2577.146231
648.804460	2579.001376
649.147810	2579.586149
649.491108	2576.442990
649.834354	2576.090109
650.177548	2573.960222
650.520690	2574.429049
650.863781	2572.480643
651.206820	2575.893504
651.549807	2573.811508
651.892742	2574.156827
652.235626	2572.926785
652.578458	2573.314954
652.921238	2572.258832
653.263967	2571.553071
653.606644	2574.837382
653.949269	2573.216652
654.291843	2570.212124
654.634365	2574.000551
654.976836	2573.355283
655.319255	2571.888307
655.661622	2573.725808
656.003938	2572.959553
656.346203	2570.098698
656.688416	2571.858061
657.030577	2570.436455
657.372687	2570.224727
657.714746	2570.040725
658.056753	2568.646846
658.398708	2565.528892
658.740612	2568.823286
659.082465	2567.931002
659.424266	2568.646846
659.766016	2567.905796
660.107715	2572.669686
660.449362	2572.538616
660.790958	2572.689851
661.132503	2573.342680
661.473996	2571.588359
661.815438	2572.344532
662.156829	2570.282700
662.498168	2571.404357
662.839456	2570.154151
663.180693	2568.178018
663.521879	2572.679769
663.863013	2572.223544
664.204097	2572.200859
664.545129	2572.140365
664.886110	2570.675910
665.227040	2574.323185
665.567918	2573.075499
665.908746	2570.527196
666.249522	2567.769685
666.590248	2571.860581
666.930922	2573.410736
667.271545	2570.191959
667.612118	2572.833524
667.952639	2572.052145
668.293109	2574.567681
668.633528	2569.725652
668.973896	2571.474933
669.314213	2568.460323
669.654480	2571.517783
669.994695	2572.150447
670.334859	2572.583987
670.674973	2569.781105
671.015035	2571.613565
671.355047	2569.675241
671.695008	2570.998544
672.034918	2571.190108
672.374777	2569.017370
672.714585	2572.657083
673.054342	2570.466702
673.394049	2571.948801
673.733705	2571.270766
674.073310	2572.505849
674.412864	2570.630540
674.752368	2572.004254
675.091820	2570.897721
675.431223	2570.305385
675.770574	2570.877556
676.109875	2566.045610
676.449125	2565.899417
676.788324	2565.475960
677.127473	2567.487380
677.466571	2566.310271
677.805619	2570.287741
678.144616	2569.287072
678.483562	2568.586352
678.822458	2569.057700
679.161303	2569.554253
679.500098	2566.184242
679.838842	2567.754561
680.177535	2567.258008
680.516179	2567.074006
680.854771	2567.613409
681.193314	2568.261197
681.531805	2569.251784
681.870247	2571.288410
682.208638	2570.693554
682.546978	2572.773030
682.885268	2570.416291
683.223508	2572.281517
683.561697	2568.692216
683.899836	2569.904613
684.237925	2568.218348
684.575963	2570.323029
684.913951	2569.851681
685.251889	2572.735221
685.589776	2569.118193
685.927614	2569.720611
686.265401	2567.792370
686.603137	2571.174984
686.940824	2569.297154
687.278460	2569.599624
687.616046	2572.841086
687.953582	2572.437793
688.291068	2570.524675
688.628504	2571.658935
688.965889	2572.904100
689.303224	2569.975190
689.640510	2571.802608
689.977745	2570.668348
690.314930	2572.324367
690.652065	2570.706157
690.989150	2566.650549
691.326185	2569.705488
691.663170	2564.102245
692.000105	2565.672565
692.336990	2565.107956
692.673825	2564.389591
693.010610	2564.797925
693.347345	2563.048644
693.684030	2560.349106
694.020665	2560.276010
694.357251	2556.732078
694.693786	2562.058057
695.030272	2560.626370
695.366707	2563.870352
695.703093	2561.135526
696.039429	2563.504869
696.375716	2562.224416
696.711952	2560.336503
697.048139	2561.710218
697.384276	2562.083263
697.720363	2559.348437
698.056400	2562.330280
698.392388	2559.252655
698.728326	2560.712069
699.064214	2558.753581
699.400053	2562.237018
699.735842	2559.146791
700.071581	2559.101421
700.407270	2557.168138
700.742910	2559.421534
701.078501	2558.614949
701.414042	2558.446071
701.749533	2557.876420
702.084974	2557.957079
702.420366	2556.532953
702.755709	2558.491441
703.091002	2559.030845
703.426246	2559.489590
703.761440	2556.543035
704.096584	2556.704352
704.431679	2556.474980
704.766725	2555.920453
705.101721	2557.578992
705.436668	2555.799465
705.771565	2556.532953
706.106413	2556.149825
706.441212	2557.178221
706.775961	2555.859959
707.110661	2559.804662
707.445311	2557.679815
707.779913	2559.300546
708.114465	2559.829868
708.448967	2557.843653
708.783421	2559.824826
709.117825	2559.275341
709.452180	2558.962789
709.786485	2559.658468
710.120742	2563.981258
710.454949	2562.700805
710.789107	2559.088818
711.123216	2557.379867
711.457275	2558.942624
711.791286	2562.383212
712.125247	2561.241391
712.459159	2561.841288
712.793023	2565.579303
713.126837	2561.664848
713.460602	2562.461350
713.794318	2561.644683
714.127985	2562.768860
714.461602	2559.711400
714.795171	2563.056206
715.128691	2557.591595
715.462162	2560.694425
715.795584	2557.561348
716.128957	2555.486913
716.462281	2561.193500
716.795556	2555.451625
717.128782	2555.814588
717.461960	2555.756615
717.795088	2555.257541
718.128167	2557.634445
718.461198	2554.536656
718.794180	2558.060423
719.127113	2553.881306
719.459997	2553.576316
719.792833	2552.018600
720.125619	2556.974054
720.458357	2554.297201
720.791046	2555.270144
721.123686	2554.854249
721.456278	2554.130843
721.788821	2555.877603
722.121315	2556.787531
722.453761	2554.166131
722.786158	2554.140925
723.118506	2553.268806
723.450805	2554.345092
723.783056	2555.325597
724.115259	2555.005483
724.447412	2553.399876
724.779518	2555.686039
725.111574	2553.941800
725.443582	2556.601008
725.775542	2551.948023
726.107453	2554.932387
726.439315	2555.872562
726.771129	2556.411965
727.102895	2556.714434
727.434612	2557.531101
727.766281	2554.917263
728.097901	2555.426420
728.429473	2552.696635
728.760996	2554.665205
729.092471	2550.302087
729.423897	2555.852397
729.755276	2556.137222
730.086606	2557.475649
730.417887	2555.134033
730.749120	2555.670916
731.080305	2558.153684
731.411442	2560.318859
731.742530	2554.219063
732.073570	2558.877089
732.404562	2553.576316
732.735506	2559.101421
733.066401	2558.120916
733.397249	2557.647048
733.728048	2557.183262
734.058798	2554.703014
734.389501	2554.516491
734.720156	2554.937428
735.050762	2556.003632
735.381320	2554.067829
735.711831	2553.934238
736.042293	2552.300904
736.372707	2554.445915
736.703073	2553.803168
737.033391	2554.216543
737.363661	2552.552962
737.693883	2553.286450
738.024056	2554.491286
738.354182	2552.253013
738.684260	2557.052192
739.014290	2552.376522
739.344272	2554.390463
739.674207	2554.082952
740.004093	2556.336348
740.333931	2555.985988
740.663722	2555.575134
740.993464	2554.153528
741.323159	2556.500185
741.652806	2555.048333
741.982405	2552.000956
742.311956	2555.597819
742.641460	2554.977757
742.970915	2552.356357
743.300323	2554.415668
743.629683	2550.596994
743.958996	2552.018600
744.288260	2551.625390
744.617477	2550.100441
744.946647	2546.995090
745.275768	2549.641696
745.604842	2545.694472
745.933869	2547.310162
746.262847	2546.450645
746.591778	2550.057591
746.920662	2550.647406
747.249498	2551.527087
747.578286	2552.333672
747.907027	2549.568599
748.235720	2551.126315
748.564365	2550.128167
748.892963	2549.712272
749.221514	2552.270657
749.550017	2549.931562
749.878473	2551.872406
750.206881	2551.577499
750.535242	2548.578012
750.863555	2547.315203
751.191821	2548.444422
751.520039	2552.888199
751.848210	2550.508774
752.176334	2549.586243
752.504411	2551.174206
752.832440	2552.084135
753.160421	2552.489947
753.488356	2549.755122
753.816243	2548.946016
754.144082	2552.053888
754.471875	2549.755122
754.799620	2546.465769
755.127318	2547.642878
755.454969	2548.819988
755.782572	2549.152704
756.110129	2551.078424
756.437638	2548.162117
756.765100	2546.080120
757.092515	2548.583053
757.419882	2546.692621
757.747203	2550.710420
758.074477	2551.045657
758.401703	2552.126984
758.728882	2549.558517
759.056014	2551.028013
759.383099	2548.915769
759.710138	2549.901315
760.037129	2549.187992
760.364073	2552.673950
760.690970	2548.769576
761.017820	2550.503733
761.344623	2549.888712
761.671379	2551.580019
761.998088	2545.817980
762.324751	2553.440205
762.651366	2556.532953
762.977935	2564.908830
763.304456	2566.307750
763.630931	2570.592731
763.957359	2571.041394
764.283740	2564.187945
764.610074	2558.277192
764.936362	2551.955585
765.262602	2554.924825
765.588796	2554.100596
765.914943	2553.024310
766.241044	2550.891902
766.567097	2548.106664
766.893104	2549.729916
767.219064	2544.764379
767.544978	2548.709082
767.870845	2545.971736
768.196665	2547.733619
768.522438	2544.202291
768.848165	2545.639019
769.173846	2543.995603
769.499479	2548.351160
769.825066	2543.037784
770.150607	2543.297403
770.476101	2546.097764
770.801548	2546.362425
771.126949	2547.388300
771.452303	2545.397044
771.777611	2542.127856
772.102872	2544.270346
772.428087	2543.375541
772.753256	2542.861344
773.078378	2541.265818
773.403453	2546.463248
773.728482	2540.817156
774.053465	2543.320089
774.378401	2543.304965
774.703291	2545.507949
775.028135	2542.730274
775.352932	2542.939482
775.677683	2544.809750
776.002388	2546.538865
776.327046	2544.293031
776.651658	2542.309337
776.976224	2544.865202
777.300743	2544.484595
777.625216	2541.764893
777.949643	2545.608772
778.274024	2542.881508
778.598359	2538.231044
778.922647	2537.399253
779.246889	2540.260108
779.571086	2539.753472
779.895236	2543.239430
780.219339	2542.470654
780.543397	2541.938813
780.867409	2542.911755
781.191374	2539.796322
781.515294	2542.276570
781.839167	2541.848072
782.162995	2539.385468
782.486776	2540.612989
782.810511	2542.281611
783.134201	2541.868236
783.457844	2542.659697
783.781441	2541.401930
784.104993	2543.746066
784.428498	2542.188350
784.751958	2540.166847
785.075372	2542.342105
785.398739	2539.723225
785.722061	2543.332692
786.045337	2540.935623
786.368568	2545.142466
786.691752	2543.776313
787.014891	2540.098791
787.337983	2543.189019
787.661030	2541.495191
787.984031	2546.120450
788.306987	2546.601880
788.629897	2545.908721
788.952760	2544.860161
789.275579	2543.103319
789.598351	2546.564071
789.921078	2542.652136
790.243759	2542.211035
790.566395	2542.566436
790.888984	2544.051056
791.211529	2543.567105
791.534027	2542.805891
791.856480	2539.990407
792.178888	2541.772454
792.501249	2542.914276
792.823566	2542.465613
793.145836	2543.262115
793.468062	2540.454193
793.790241	2537.237937
794.112375	2542.944523
794.434464	2539.277083
794.756507	2542.901673
795.078505	2540.083668
795.400457	2540.504604
795.722364	2540.255067
796.044226	2540.504604
796.366042	2541.573329
796.687812	2541.265818
797.009538	2539.763555
797.331218	2542.999975
797.652852	2541.689275
797.974442	2544.046015
798.295986	2539.158616
798.617484	2543.229348
798.938938	2540.915458
799.260346	2542.274049
799.581709	2540.965870
799.903026	2540.620551
800.224299	2540.693647
800.545526	2540.166847
800.866708	2542.077444
801.187845	2540.035777
801.508936	2542.039636
801.829983	2544.429142
802.150984	2537.684079
802.471940	2539.887063
802.792851	2540.645757
803.113717	2541.011240
803.434538	2539.476209
803.755314	2540.073586
804.076045	2537.999151
804.396731	2541.457382
804.717372	2541.785057
805.037967	2540.244985
805.358518	2539.879501
805.679024	2540.880170
805.999485	2540.963349
806.319901	2543.473844
806.640272	2539.743390
806.960598	2540.638195
807.280879	2539.019984
807.601115	2539.463606
807.921306	2541.336395
808.241453	2540.204656
808.561554	2540.441590
808.881611	2539.932433
809.201623	2537.684079
809.521590	2540.812115
809.841513	2540.557536
810.161390	2539.703061
810.481223	2537.099305
810.801011	2541.606096
811.120755	2539.014943
811.440453	2541.659028
811.760107	2537.694161
812.079716	2537.295910
812.399281	2535.226516
812.718801	2537.305992
813.038276	2533.429345
813.357707	2540.600386
813.677093	2538.717515
813.996434	2540.764224
814.315731	2538.541075
814.634983	2536.887576
814.954191	2539.806404
815.273354	2537.626105
815.592473	2540.822197
815.911547	2542.881508
816.230577	2541.139790
816.549562	2542.407640
816.868502	2539.410674
817.187399	2541.848072
817.506250	2542.135417
817.825058	2539.965201
818.143821	2542.326981
818.462539	2545.689431
818.781213	2542.001827
819.099843	2545.197918
819.418429	2548.605738
819.736970	2550.319731
820.055466	2547.874771
820.373919	2554.897098
820.692327	2555.617983
821.010691	2562.791545
821.329011	2576.405181
821.647286	2610.788371
821.965517	2640.581590
822.283704	2660.148829
822.601847	2668.502021
822.919945	2650.124495
823.237999	2633.846609
823.556010	2615.423712
823.873976	2598.500559
824.191897	2585.801892
824.509775	2576.216138
824.827609	2570.207083
825.145398	2566.758933
825.463144	2566.375806
825.780845	2568.195662
826.098502	2571.439645
826.416116	2575.482650
826.733685	2591.909250
827.051210	2591.758015
827.368692	2590.724579
827.686129	2577.552044
828.003522	2565.659962
828.320872	2556.038920
828.638177	2557.256358
828.955439	2547.471479
829.272656	2546.538865
829.589830	2539.992927
829.906960	2544.527445
830.224046	2543.325130
830.541088	2543.080634
830.858086	2544.358566
831.175041	2542.684903
831.491952	2542.558874
831.808819	2542.442928
832.125642	2542.568957
832.442421	2546.932075
832.759157	2549.069525
833.075849	2554.597150
833.392497	2561.064950
833.709101	2568.276321
834.025662	2566.806824
834.342179	2563.257852
834.658653	2558.249466
834.975083	2553.954403
835.291469	2551.562375
835.607811	2545.354194
835.924110	2547.199257
836.240366	2540.265149
836.556578	2541.611137
836.872746	2542.067362
837.188871	2537.265663
837.504952	2538.586445
837.820990	2536.585107
838.136984	2539.763555
838.452935	2538.843544
838.768842	2539.924872
839.084706	2540.383617
839.400526	2542.211035
839.716303	2545.477703
840.032037	2550.148332
840.347727	2551.204453
840.663373	2546.801005
840.978977	2546.251520
841.294537	2540.938143
841.610054	2536.496887
841.925527	2539.075437
842.240957	2535.226516
842.556344	2539.072917
842.871687	2536.123842
843.186987	2538.467978
843.502244	2536.373379
843.817458	2535.891948
844.132629	2535.337422
844.447756	2537.938657
844.762840	2531.947246
845.077881	2532.542102
845.392879	2531.062523
845.707833	2534.382123
846.022745	2529.948428
846.337613	2536.012936
846.652438	2532.889941
846.967221	2535.362627
847.281960	2534.046886
847.596656	2538.294058
847.911309	2533.991433
848.225919	2534.790456
848.540485	2535.962525
848.855009	2535.067720
849.169490	2534.762730
849.483928	2535.100487
849.798323	2533.666279
850.112675	2533.956145
850.426984	2533.671320
850.741251	2535.226516
851.055474	2531.657379
851.369654	2534.190559
851.683792	2533.646114
851.997887	2534.089736
852.311938	2532.539581
852.625947	2535.271887
852.939914	2533.010929
853.253837	2535.534027
853.567718	2537.621064
853.881555	2534.203162
854.195350	2533.830117
854.509103	2533.820034
854.822812	2536.547298
855.136479	2535.390354
855.450103	2534.140148
855.763685	2536.746424
856.077224	2537.376568
856.390720	2534.001516
856.704173	2536.264994
857.017584	2534.641742
857.330953	2531.438089
857.644278	2533.948584
857.957561	2539.884542
858.270802	2534.818183
858.584000	2533.510003
858.897155	2535.491177
859.210268	2533.918337
859.523339	2533.736855
859.836367	2536.335570
860.149352	2534.671989
860.462295	2535.639891
860.775195	2531.216278
861.088054	2530.563449
861.400869	2532.685775
861.713642	2531.491021
862.026373	2533.348686
862.339062	2532.108562
862.651708	2532.794159
862.964312	2533.149561
863.276873	2533.792308
863.589392	2534.997144
863.901869	2535.586959
864.214303	2534.624098
864.526696	2535.541588
864.839045	2534.520755
865.151353	2538.641898
865.463619	2534.984541
865.775842	2534.815662
866.088023	2535.188708
866.400162	2535.912113
866.712258	2536.287679
867.024313	2537.013605
867.336325	2535.223996
867.648296	2535.405477
867.960224	2536.668286
868.272110	2534.848430
868.583954	2533.046217
868.895755	2538.853626
869.207515	2534.246012
869.519233	2534.598893
869.830909	2535.511341
870.142542	2538.583925
870.454134	2535.518903
870.765684	2535.465971
871.077191	2536.295241
871.388657	2537.147196
871.700081	2536.388502
872.011463	2533.865405
872.322803	2537.074099
872.634101	2537.290869
872.945357	2534.324150
873.256571	2536.819521
873.567744	2535.342463
873.878874	2538.800694
874.189963	2536.907741
874.501010	2541.164995
874.812015	2536.832124
875.122979	2537.311033
875.433900	2536.658204
875.744780	2538.384799
876.055618	2537.573173
876.366415	2538.780530
876.677169	2537.036290
876.987882	2538.233564
877.298554	2533.494880
877.609183	2539.869419
877.919771	2534.117462
878.230317	2535.791125
878.540822	2541.412012
878.851285	2541.472506
879.161707	2542.135418
879.472087	2545.424770
879.782425	2546.347302
880.092722	2551.159083
880.402977	2562.007646
880.713191	2576.896694
881.023363	2597.285641
881.333494	2607.123452
881.643583	2611.365583
881.953631	2607.930037
882.263637	2603.987855
882.573602	2600.685899
882.883526	2592.715835
883.193408	2582.699062
883.503248	2573.088102
883.813048	2568.014181
884.122806	2560.883469
884.432522	2558.783828
884.742197	2555.035730
885.051831	2552.701676
885.361424	2546.594318
885.670975	2547.547096
885.980485	2546.496016
886.289954	2542.642053
886.599382	2543.191539
886.908768	2542.289173
887.218113	2542.634492
887.527417	2542.939482
887.836680	2540.141641
888.145901	2539.876981
888.455082	2538.369676
888.764221	2538.914120
889.073319	2536.012936
889.382376	2539.468647
889.691392	2538.805735
890.000366	2539.491332
890.309300	2539.559388
890.618193	2538.155427
890.927044	2536.953111
891.235855	2538.460416
891.544625	2538.359593
891.853353	2538.936805
892.162041	2538.886394
892.470687	2539.025026
892.779293	2539.985365
893.087858	2539.435880
893.396381	2539.869419
893.704864	2544.111550
894.013306	2546.904349
894.321707	2554.453477
894.630068	2557.417675
894.938387	2564.671896
895.246665	2560.339024
895.554903	2558.645196
895.863100	2554.995401
896.171256	2549.215718
896.479371	2548.935934
896.787446	2547.400903
897.095480	2543.146169
897.403473	2541.795140
897.711425	2541.384286
898.019336	2544.013247
898.327207	2540.063503
898.635038	2541.127187
898.942827	2540.204656
899.250576	2541.003678
899.558284	2534.924047
899.865952	2540.121477
900.173579	2538.974614
900.481165	2539.030067
900.788711	2536.953111
901.096216	2536.643080
901.403681	2536.443955
901.711105	2536.166691
902.018489	2540.461754
902.325832	2538.823379
902.633135	2536.610313
902.940397	2539.403112
903.247619	2539.577032
903.554800	2543.420912
903.861941	2554.145967
904.169041	2567.810014
904.476101	2571.530386
904.783121	2570.771692
905.090100	2563.751885
905.397039	2558.622511
905.703938	2554.047664
906.010796	2548.522559
906.317614	2545.386962
906.624391	2543.254554
906.931129	2540.965870
907.237826	2538.868750
907.544483	2540.678524
907.851099	2536.489325
908.157675	2534.540919
908.464211	2536.330529
908.770707	2533.494880
909.077163	2532.458923
909.383578	2529.020856
909.689954	2529.701412
909.996289	2528.100845
910.302584	2534.656866
910.608839	2530.898686
910.915054	2535.279448
911.221229	2530.094622
911.527363	2532.156453
911.833458	2534.072092
912.139513	2535.481094
912.445527	2533.520086
912.751502	2535.493697
913.057436	2533.479756
913.363331	2537.525282
913.669186	2536.249870
913.975000	2537.731970
914.280775	2538.987217
914.586510	2540.892773
914.892205	2544.837476
915.197859	2552.615976
915.503475	2555.491955
915.809050	2561.672409
916.114585	2567.449572
916.420081	2570.708678
916.725536	2568.556105
917.030952	2563.421690
917.336328	2560.434806
917.641665	2556.928683
917.946961	2552.230328
918.252218	2550.997766
918.557435	2548.149514
918.862612	2543.995603
919.167750	2544.650953
919.472848	2542.021992
919.777906	2537.817669
920.082925	2539.745911
920.387904	2537.928575
920.692843	2539.004861
920.997743	2535.473533
921.302603	2536.199459
921.607423	2535.269366
921.912204	2538.616692
922.216946	2534.248532
922.521647	2537.220292
922.826310	2534.074613
923.130932	2535.355066
923.435516	2532.915147
923.740059	2535.725590
924.044564	2532.781557
924.349028	2535.148378
924.653454	2525.849970
924.957840	2531.606968
925.262186	2531.468336
925.566493	2529.663603
925.870761	2526.923736
926.174989	2530.263500
926.479178	2532.017822
926.783328	2531.606968
927.087438	2530.361803
927.391509	2530.082019
927.695541	2532.224509
927.999533	2529.313243
928.303486	2530.865918
928.607400	2532.753830
928.911275	2528.920033
929.215110	2529.903058
929.518906	2531.244005
929.822663	2529.346010
930.126381	2530.845753
930.430060	2530.596216
930.733699	2530.979344
931.037299	2531.218799
931.340861	2528.728469
931.644383	2533.331042
931.947866	2528.168901
932.251309	2532.340456
932.554714	2531.380116
932.858080	2530.361803
933.161407	2527.372398
933.464694	2530.830630
933.767943	2530.268541
934.071153	2529.167049
934.374323	2529.703932
934.677455	2531.339787
934.980548	2528.393232
935.283602	2531.546474
935.586617	2529.262831
935.889593	2529.741741
936.192530	2528.070598
936.495428	2532.164015
936.798287	2529.635877
937.101108	2529.769467
937.403890	2527.901720
937.706632	2533.683923
938.009336	2532.285003
938.312002	2531.806093
938.614628	2531.380116
938.917216	2533.252904
939.219765	2533.880528
939.522275	2533.739376
939.824747	2531.896834
940.127179	2531.314581
940.429573	2531.367513
940.731929	2528.360465
941.034246	2526.109589
941.336524	2530.334076
941.638763	2534.064530
941.940964	2531.392719
942.243126	2530.387008
942.545250	2530.933974
942.847335	2530.465146
943.149381	2529.366175
943.451389	2532.665610
943.753359	2529.867770
944.055290	2530.868439
944.357182	2530.019004
944.659036	2530.659231
944.960851	2532.174098
945.262628	2531.969931
945.564367	2532.348017
945.866067	2532.179139
946.167729	2530.911288
946.469352	2531.279293
946.770937	2532.917668
947.072484	2529.809796
947.373992	2529.542615
947.675462	2529.078829
947.976893	2531.995137
948.278286	2530.182842
948.579641	2528.814168
948.880958	2530.011442
949.182236	2531.198634
949.483476	2530.684437
949.784678	2530.424817
950.085841	2528.816689
950.386967	2534.291382
950.688054	2529.983716
950.989103	2530.210568
951.290114	2531.123017
951.591087	2529.328366
951.892021	2530.301309
952.192917	2528.683098
952.493776	2530.513037
952.794596	2530.457585
953.095378	2530.608819
953.396122	2531.458254
953.696828	2532.627801
953.997496	2527.531195
954.298126	2530.520599
954.598718	2529.950949
954.899272	2530.855836
955.199788	2530.097142
955.500266	2532.779036
955.800706	2529.068747
956.101108	2524.796369
956.401472	2527.170752
956.701798	2524.093128
957.002087	2525.650844
957.302337	2527.364837
957.602550	2531.856505
957.902724	2528.962883
958.202861	2528.476411
958.502960	2527.952131
958.803022	2526.152439
959.103045	2526.908612
959.403031	2530.331556
959.702979	2526.359127
960.002889	2529.477080
960.302762	2528.408356
960.602596	2528.226874
960.902393	2526.974147
961.202153	2527.851308
961.501875	2525.671009
961.801559	2528.294930
962.101205	2527.684950
962.400814	2529.603109
962.700385	2528.574714
962.999918	2528.761236
963.299414	2527.019518
963.598873	2528.362985
963.898293	2527.395084
964.197677	2527.135464
964.497022	2529.449354
964.796331	2529.219981
965.095601	2527.657224
965.394835	2529.386339
965.694030	2523.984743
965.993189	2527.432892
966.292309	2526.384332
966.591393	2527.435413
966.890439	2525.852491
967.189447	2527.838705
967.488419	2524.264527
967.787353	2528.257121
968.086249	2527.689991
968.385108	2527.584127
968.683930	2526.142357
968.982714	2528.904909
969.281462	2527.016997
969.580172	2527.178314
969.878844	2526.835516
970.177480	2525.965917
970.476078	2528.728469
970.774639	2529.116638
971.073162	2526.059178
971.371649	2523.979702
971.670098	2527.016997
971.968510	2525.645803
972.266885	2521.713703
972.565223	2525.560104
972.863524	2526.240659
973.161788	2525.635721
973.460014	2528.438603
973.758204	2527.647141
974.056356	2526.449867
974.354471	2528.088242
974.652550	2526.351565
974.950591	2528.221833
975.248595	2525.252593
975.546563	2524.907274
975.844493	2528.463808
976.142386	2527.047244
976.440243	2525.892820
976.738062	2529.784591
977.035845	2528.186545
977.333590	2529.129241
977.631299	2525.706297
977.928971	2524.327542
978.226606	2525.802079
978.524204	2526.964065
978.821765	2525.408869
979.119290	2528.481452
979.416777	2526.172604
979.714228	2527.261493
980.011642	2526.449867
980.309020	2529.958510
980.606360	2525.323169
980.903664	2527.803417
981.200931	2526.253262
981.498162	2526.613705
981.795356	2529.381298
982.092513	2529.582944
982.389633	2527.538757
982.686717	2529.333407
982.983764	2528.337779
983.280775	2527.064888
983.577749	2530.361803
983.874686	2526.681760
984.171587	2527.054806
984.468451	2529.300640
984.765279	2528.466329
985.062070	2526.296112
985.358824	2528.524302
985.655543	2528.156298
985.952224	2526.671678
986.248869	2523.165556
986.545478	2524.393077
986.842050	2527.392563
987.138586	2524.597243
987.435086	2523.619259
987.731549	2520.990298
988.027975	2526.696884
988.324366	2524.766122
988.620719	2527.243849
988.917037	2527.909281
989.213318	2526.820392
989.509563	2527.629497
989.805772	2528.123530
990.101944	2527.130423
990.398080	2525.635721
990.694180	2525.885258
990.990244	2528.771319
991.286271	2524.292253
991.582262	2527.702594
991.878217	2526.565814
992.174136	2525.691174
992.470019	2523.397449
992.765865	2526.994312
993.061676	2526.386853
993.357450	2526.021369
993.653188	2526.732172
993.948890	2525.348375
994.244556	2525.698735
994.540186	2528.383150
994.835780	2526.603622
995.131337	2528.776360
995.426859	2523.619259
995.722345	2527.228726
996.017795	2526.719569
996.313208	2527.546318
996.608586	2525.993643
996.903928	2526.961544
997.199234	2527.740403
997.494504	2527.042203
997.789738	2525.585309
998.084936	2527.279137
998.380099	2527.314425
998.675225	2527.304343
998.970316	2525.003056
999.265371	2526.409538
999.560390	2527.886596
999.855373	2525.398787
1000.150320	2527.669827
1000.445232	2525.234949
1000.740108	2526.938859
1001.034948	2524.078004
1001.329752	2528.244518
1001.624521	2527.143026
1001.919254	2523.289064
1002.213951	2522.401821
1002.508613	2522.094310
1002.803239	2523.505833
1003.097829	2522.421985
1003.392384	2525.063550
1003.686903	2527.889117
1003.981386	2526.359127
1004.275834	2526.601102
1004.570246	2527.989940
1004.864623	2527.861390
1005.158964	2523.173117
1005.453270	2525.524816
1005.747540	2525.096317
1006.041775	2526.845598
1006.335974	2528.025228
1006.630138	2528.184024
1006.924266	2524.624970
1007.218359	2526.558252
1007.512416	2523.014321
1007.806438	2525.754188
1008.100425	2526.880886
1008.394376	2525.333252
1008.688292	2526.706966
1008.982172	2524.914836
1009.276017	2525.290402
1009.569827	2526.016328
1009.863602	2527.498427
1010.157341	2523.800741
1010.451045	2527.140505
1010.744714	2526.666637
1011.038347	2526.127233
1011.331945	2525.905423
1011.625508	2526.117151
1011.919036	2524.957686
1012.212528	2527.435413
1012.505986	2523.967099
1012.799408	2526.026410
1013.092795	2525.141688
1013.386147	2524.844260
1013.679464	2525.320649
1013.972745	2525.817202
1014.265992	2525.769312
1014.559204	2528.158818
1014.852380	2526.293592
1015.145521	2525.260155
1015.438628	2526.742254
1015.731699	2524.435926
1016.024736	2525.043385
1016.317737	2524.768643
1016.610703	2525.590351
1016.903635	2523.354599
1017.196531	2522.104393
1017.489393	2522.177489
1017.782219	2522.961389
1018.075011	2524.735875
1018.367768	2523.294105
1018.660490	2527.016997
1018.953177	2527.016997
1019.245829	2527.016997
