Dividing Wavelength (nm)	Counts (n)	Blue Motor Position (mm): 0.000000	Red Motor Position (mm): 12.100000	
326.493990	2129.506893
326.888308	2129.506893
327.282561	2129.506893
327.676750	2097.107397
328.070874	2097.775350
328.464933	2098.166039
328.858929	2106.115939
329.252859	2115.530294
329.646726	2125.017745
330.040528	2136.181381
330.434265	2154.977323
330.827938	2172.689417
331.221547	2189.922601
331.615091	2209.802391
332.008571	2231.189487
332.401986	2248.523494
332.795338	2266.427152
333.188625	2285.008845
333.581847	2305.964922
333.975006	2326.061481
334.368100	2341.376507
334.761129	2361.803262
335.154095	2376.049563
335.546996	2393.068498
335.939833	2410.644481
336.332606	2425.611667
336.725315	2433.833789
337.117960	2444.528597
337.510540	2454.568055
337.903056	2464.957873
338.295508	2470.742597
338.687896	2480.943372
339.080220	2487.562407
339.472480	2495.751761
339.864676	2500.399705
340.256807	2504.210817
340.648875	2508.173164
341.040879	2509.715757
341.432818	2510.411436
341.824694	2512.868999
342.216506	2513.516787
342.608253	2515.805471
342.999937	2512.790861
343.391557	2512.044770
343.783113	2510.539986
344.174605	2509.441014
344.566033	2510.582836
344.957397	2507.921106
345.348697	2505.783657
345.739934	2507.482526
346.131106	2503.255518
346.522215	2498.960455
346.913260	2500.946670
347.304241	2498.461381
347.695159	2495.653458
348.086012	2495.698829
348.476802	2492.817809
348.867528	2491.199599
349.258191	2490.546770
349.648789	2490.062819
350.039324	2487.416213
350.429796	2488.129536
350.820203	2485.515698
351.210548	2481.936479
351.600828	2486.077787
351.991045	2483.741212
352.381198	2482.367498
352.771288	2481.656695
353.161314	2481.724750
353.551276	2484.010914
353.941175	2481.908753
354.331010	2480.741725
354.720782	2482.145687
355.110490	2483.758856
355.500135	2479.609986
355.889717	2482.985039
356.279235	2481.659215
356.668689	2486.171048
357.058080	2484.293218
357.447408	2480.824904
357.836672	2480.650985
358.225873	2482.216263
358.615010	2479.640233
359.004084	2485.251038
359.393095	2484.724237
359.782043	2485.848414
360.170927	2486.952427
360.559748	2487.239773
360.948505	2487.459063
361.337199	2488.656337
361.725830	2488.121975
362.114398	2489.115082
362.502903	2489.735144
362.891344	2492.517861
363.279722	2491.116420
363.668037	2491.378560
364.056289	2493.906699
364.444478	2491.658344
364.832603	2492.510299
365.220665	2493.301760
365.608665	2495.666061
365.996601	2495.993736
366.384474	2494.781339
366.772284	2496.661689
367.160031	2500.462719
367.547715	2500.066989
367.935336	2501.554129
368.322893	2505.274501
368.710388	2509.125942
369.097820	2517.305214
369.485189	2518.936028
369.872495	2525.739065
370.259738	2530.220650
370.646918	2536.761547
371.034035	2544.754297
371.421090	2552.038764
371.808081	2564.787842
372.195010	2572.258832
372.581875	2587.026892
372.968678	2599.745724
373.355418	2611.904987
373.742096	2629.294447
374.128710	2643.253402
374.515262	2657.640855
374.901751	2674.581652
375.288177	2684.018692
375.674540	2708.317054
376.060841	2725.930846
376.447079	2746.947416
376.833254	2766.532299
377.219367	2778.442025
377.605417	2817.805874
377.991404	2827.719303
378.377329	2849.933148
378.763191	2864.323122
379.148991	2901.224368
379.534727	2923.506268
379.920402	2953.944755
380.306013	2964.926908
380.691563	3017.690145
381.077049	3037.161602
381.462474	3055.133315
381.847835	3092.573965
382.233134	3114.281173
382.618371	3115.904425
383.003545	3181.751976
383.388657	3188.330682
383.773706	3221.768656
384.158693	3235.399936
384.543618	3259.806682
384.928480	3292.453194
385.313280	3336.033969
385.698017	3329.775377
386.082692	3377.280690
386.467305	3379.400495
386.851856	3402.307498
387.236344	3416.694951
387.620770	3437.220009
388.005133	3450.879016
388.389435	3462.914770
388.773674	3463.295378
389.157851	3490.046260
389.541965	3490.860407
389.926018	3441.898200
390.310008	3494.691684
390.693936	3487.162720
391.077802	3503.370030
391.461606	3475.144610
391.845348	3499.937004
392.229027	3481.995538
392.612645	3470.289978
392.996200	3503.584279
393.379694	3504.395905
393.763125	3524.570602
394.146494	3470.312664
394.529801	3482.580312
394.913047	3483.238182
395.296230	3430.293464
395.679351	3432.554421
396.062410	3411.986514
396.445408	3366.865666
396.828343	3349.546782
397.211217	3327.975685
397.594028	3254.102616
397.976778	3250.614138
398.359466	3226.708986
398.742092	3202.753423
399.124656	3139.678506
399.507158	3138.098105
399.889598	3114.094651
400.271977	3103.964452
400.654294	3060.217319
401.036549	3029.310005
401.418742	2987.803664
401.800874	2985.177223
402.182944	2959.568162
402.564952	2942.506377
402.946898	2911.152920
403.328783	2880.333826
403.710606	2838.096519
404.092367	2843.828311
404.474067	2816.316213
404.855705	2792.295115
405.237282	2762.416197
405.618797	2755.091400
406.000250	2740.388875
406.381642	2724.738613
406.762972	2704.866384
407.144240	2687.197140
407.525447	2674.226251
407.906593	2659.301915
408.287677	2647.608959
408.668700	2632.034314
409.049661	2622.937552
409.430560	2610.674945
409.811399	2598.288830
410.192176	2596.489138
410.572891	2586.694176
410.953545	2579.762590
411.334138	2567.187432
411.714669	2565.702812
412.095139	2557.778118
412.475547	2552.058929
412.855894	2551.121274
413.236180	2544.489636
413.616405	2542.291693
413.996568	2542.798329
414.376670	2538.132741
414.756711	2535.402957
415.136691	2532.746268
415.516609	2531.826258
415.896466	2531.596885
416.276262	2534.064530
416.655997	2525.693694
417.035670	2525.418951
417.415283	2529.068747
417.794834	2524.829136
418.174324	2526.646472
418.553753	2528.640249
418.933121	2530.215609
419.312428	2529.444313
419.691674	2528.060516
420.070859	2527.095135
420.449983	2526.212933
420.829045	2527.095135
421.208047	2529.129241
421.586988	2527.382481
421.965867	2526.946421
422.344686	2526.706966
422.723444	2525.975999
423.102141	2523.715041
423.480777	2527.044723
423.859352	2527.135464
424.237866	2529.741741
424.616319	2528.000022
424.994712	2529.754344
425.373044	2526.512882
425.751314	2528.738551
426.129524	2526.220495
426.507673	2525.761750
426.885762	2526.490197
427.263789	2527.127903
427.641756	2528.385670
428.019662	2528.819210
428.397508	2527.710156
428.775292	2527.316946
429.153016	2526.593540
429.530679	2527.984899
429.908282	2528.163860
430.285824	2526.417100
430.663305	2530.359282
431.040726	2526.812830
431.418086	2529.575383
431.795385	2529.424148
432.172624	2530.008922
432.549802	2526.901051
432.926920	2529.431710
433.303977	2531.755682
433.680974	2527.823582
434.057910	2529.663603
434.434786	2529.691329
434.811601	2528.526823
435.188355	2532.625281
435.565050	2529.706453
435.941683	2529.835002
436.318257	2528.395753
436.694770	2527.223684
437.071222	2530.316432
437.447614	2527.753006
437.823946	2528.741072
438.200218	2530.558408
438.576429	2533.003367
438.952580	2531.980013
439.328670	2528.834333
439.704700	2530.238294
440.080670	2529.517409
440.456580	2530.613860
440.832429	2534.200641
441.208218	2531.402801
441.583947	2531.428007
441.959616	2532.927750
442.335224	2532.786598
442.710773	2531.695188
443.086261	2531.407842
443.461689	2530.812986
443.837057	2535.039993
444.212365	2532.658048
444.587612	2532.998326
444.962800	2533.136958
445.337927	2533.484797
445.712995	2531.120496
446.088002	2532.726104
446.462949	2531.601927
446.837837	2534.871115
447.212664	2532.925229
447.587431	2534.697195
447.962139	2533.817514
448.336786	2541.500232
448.711374	2536.900179
449.085901	2536.804397
449.460369	2535.599562
449.834776	2531.841381
450.209124	2534.049407
450.583412	2535.839016
450.957640	2537.369007
451.331808	2535.788605
451.705917	2533.686444
452.079965	2535.405477
452.453954	2534.677030
452.827883	2536.368338
453.201752	2534.629139
453.575562	2535.407998
453.949311	2537.240457
454.323001	2533.257946
454.696632	2536.585107
455.070202	2535.438245
455.443713	2534.266176
455.817164	2536.436393
456.190556	2533.220137
456.563888	2534.556043
456.937160	2530.538243
457.310373	2534.951773
457.683526	2537.623585
458.056619	2535.425642
458.429653	2537.457227
458.802628	2536.519572
459.175542	2536.227185
459.548398	2537.520241
459.921194	2540.373534
460.293930	2541.303627
460.666607	2538.772968
461.039224	2541.870757
461.411782	2541.517876
461.784280	2542.208514
462.156719	2542.521066
462.529099	2541.981662
462.901419	2539.110725
463.273680	2541.449821
463.645882	2539.314892
464.018024	2540.804553
464.390106	2538.810777
464.762130	2543.481406
465.134094	2541.548123
465.505999	2545.986859
465.877845	2550.070194
466.249631	2551.138918
466.621358	2549.402241
466.993026	2547.531973
467.364634	2552.472303
467.736184	2546.990049
468.107674	2544.469472
468.479105	2542.001827
468.850477	2542.997455
469.221790	2548.867878
469.593043	2543.678011
469.964238	2546.707744
470.335373	2546.256561
470.706449	2549.331665
471.077467	2541.485109
471.448425	2550.251675
471.819324	2548.837632
472.190164	2551.101110
472.560945	2547.100954
472.931667	2546.102806
473.302330	2543.214224
473.672934	2545.724719
474.043479	2544.814791
474.413965	2545.276056
474.784393	2541.575849
475.154761	2543.138607
475.525070	2540.118956
475.895321	2543.975439
476.265513	2542.700027
476.635645	2546.921993
477.005719	2547.284956
477.375734	2545.754966
477.745691	2546.228834
478.115588	2545.858310
478.485427	2545.404606
478.855207	2546.642209
479.224928	2552.058929
479.594591	2552.580688
479.964194	2548.676315
480.333739	2553.150339
480.703226	2551.257385
481.072653	2551.925338
481.442022	2549.893753
481.811333	2552.482386
482.180584	2547.600028
482.549777	2549.346788
482.918912	2549.734957
483.287988	2551.380894
483.657005	2548.913249
484.025964	2549.225800
484.394864	2548.172199
484.763706	2551.295194
485.132489	2550.831408
485.501213	2549.220759
485.869879	2548.497354
486.238487	2546.755635
486.607036	2547.796633
486.975527	2552.613456
487.343959	2549.976932
487.712333	2550.901984
488.080648	2547.746222
488.448905	2549.929041
488.817104	2549.762683
489.185244	2549.646737
489.553326	2549.422405
489.921350	2552.139587
490.289315	2552.522715
490.657222	2553.765359
491.025070	2553.445246
491.392861	2555.597819
491.760593	2556.742161
492.128267	2553.117571
492.495883	2551.567416
492.863440	2551.678322
493.230939	2552.767211
493.598380	2550.355019
493.965763	2543.201622
494.333088	2546.707744
494.700354	2546.490974
495.067563	2548.799823
495.434713	2548.378887
495.801805	2555.350802
496.168839	2550.160934
496.535815	2551.572458
496.902733	2549.422405
497.269593	2549.024154
497.636395	2549.676984
498.003139	2549.918959
498.369825	2548.986346
498.736453	2546.228834
499.103023	2548.701520
499.469535	2550.924669
499.835989	2549.929041
500.202385	2550.677653
500.568723	2548.865358
500.935003	2549.732436
501.301226	2550.967519
501.667390	2549.787889
502.033497	2550.029864
502.399546	2552.043805
502.765537	2548.825029
503.131470	2550.851572
503.497345	2547.458876
503.863163	2550.377704
504.228923	2551.322920
504.594625	2547.801674
504.960269	2549.608928
505.325856	2551.990873
505.691385	2548.963660
506.056856	2550.206305
506.422270	2549.843342
506.787625	2548.046170
507.152924	2552.817622
507.518164	2549.354350
507.883347	2548.172199
508.248472	2551.932900
508.613540	2548.346119
508.978550	2552.235369
509.343503	2550.004659
509.708398	2552.885678
510.073236	2551.912735
510.438016	2552.928528
510.802738	2551.317879
511.167403	2551.690925
511.532010	2552.021120
511.896561	2553.132695
512.261053	2555.302911
512.625488	2547.743701
512.989866	2546.808567
513.354186	2551.007848
513.718449	2545.891077
514.082655	2552.192519
514.446803	2550.909546
514.810894	2552.976419
515.174927	2554.544218
515.538904	2549.195553
515.902822	2551.398538
516.266684	2553.271326
516.630488	2551.736295
516.994235	2550.319731
517.357925	2551.673281
517.721558	2552.989022
518.085133	2550.415513
518.448651	2552.265616
518.812112	2550.486089
519.175516	2554.907181
519.538863	2553.052036
519.902152	2554.271995
520.265385	2552.081614
520.628560	2552.696635
520.991678	2550.614638
521.354739	2554.161090
521.717743	2550.574309
522.080690	2550.405430
522.443580	2553.553631
522.806413	2554.395504
523.169189	2552.812581
523.531908	2553.762839
523.894569	2550.249155
524.257174	2552.227807
524.619722	2552.956254
524.982213	2553.470452
525.344647	2552.699155
525.707025	2554.667726
526.069345	2551.716130
526.431608	2555.464228
526.793815	2553.447767
527.155964	2551.968188
527.518057	2551.706048
527.880093	2553.344423
528.242072	2552.308466
528.603995	2554.662685
528.965860	2552.676470
529.327669	2552.595812
529.689421	2554.266954
530.051117	2553.891388
530.412755	2550.085317
530.774337	2552.310987
531.135862	2552.137067
531.497331	2554.082952
531.858743	2549.394679
532.220098	2550.985163
532.581396	2549.462735
532.942638	2547.189174
533.303824	2553.316697
533.664953	2553.901471
534.026025	2551.040616
534.387040	2551.547252
534.747999	2551.932900
535.108902	2551.791748
535.469748	2552.631100
535.830537	2553.074721
536.191270	2554.249310
536.551947	2552.348795
536.912567	2553.044474
537.273131	2553.364588
537.633638	2551.532128
537.994089	2551.484237
538.354483	2554.433312
538.714821	2551.837118
539.075103	2551.670760
539.435328	2552.875596
539.795497	2552.389124
540.155609	2556.744681
540.515665	2554.944989
540.875665	2550.675132
541.235609	2554.894578
541.595496	2554.128322
541.955328	2552.835267
542.315102	2553.873744
542.674821	2554.052705
543.034483	2556.046482
543.394090	2551.393497
543.753640	2551.895091
544.113134	2552.585729
544.472571	2551.887530
544.831953	2552.840308
545.191278	2556.593447
545.550548	2554.226625
545.909761	2552.626059
546.268918	2554.090514
546.628019	2555.796944
546.987064	2553.646892
547.346053	2553.238559
547.704986	2551.809392
548.063863	2555.544887
548.422684	2554.733261
548.781449	2555.713765
549.140158	2551.867365
549.498811	2554.781152
549.857408	2551.794268
550.215949	2546.541386
550.574434	2549.230842
550.932864	2550.168496
551.291237	2548.630944
551.649555	2551.801830
552.007817	2551.562375
552.366022	2552.179917
552.724173	2553.170503
553.082267	2553.561193
553.440305	2554.055226
553.798288	2553.407438
554.156215	2551.980791
554.514086	2557.601677
554.871902	2554.244269
555.229661	2552.613456
555.587365	2554.236707
555.945014	2552.172355
556.302606	2554.541697
556.660143	2552.056408
557.017625	2551.995914
557.375050	2553.714948
557.732421	2553.402396
558.089735	2553.926676
558.446994	2553.964485
558.804197	2551.723692
559.161345	2554.496327
559.518437	2552.996583
559.875474	2550.619679
560.232455	2555.370967
560.589381	2551.935421
560.946251	2557.596636
561.303065	2553.278888
561.659825	2553.863662
562.016528	2552.545400
562.373177	2552.721841
562.729770	2552.799978
563.086307	2549.984494
563.442789	2553.730071
563.799216	2554.282078
564.155587	2552.137067
564.511904	2555.761656
564.868164	2554.110678
565.224370	2556.127140
565.580520	2552.603373
565.936615	2552.316028
566.292654	2554.355174
566.648638	2555.224773
567.004567	2551.690925
567.360441	2553.132695
567.716260	2550.652447
568.072023	2553.780483
568.427732	2549.500543
568.783385	2551.373332
569.138982	2550.203784
569.494525	2550.967519
569.850013	2547.385779
570.205445	2554.319886
570.560823	2554.650082
570.916145	2555.083621
571.271412	2554.614794
571.626625	2554.004814
571.981782	2554.766028
572.336884	2553.662016
572.691931	2554.156049
573.046923	2551.637992
573.401860	2553.961964
573.756743	2551.620348
574.111570	2553.120092
574.466342	2550.460883
574.821059	2553.596481
575.175722	2553.528425
575.530330	2551.146480
575.884882	2552.656306
576.239380	2552.091696
576.593823	2556.227963
576.948211	2554.002294
577.302544	2553.858621
577.656823	2550.339895
578.011047	2553.074721
578.365216	2554.229146
578.719330	2553.667057
579.073389	2552.852911
579.427394	2551.842159
579.781344	2549.729916
580.135239	2552.845349
580.489080	2550.642365
580.842866	2554.526574
581.196597	2554.239228
581.550273	2550.450801
581.903895	2552.825184
582.257463	2554.894578
582.610975	2553.228477
582.964434	2551.393497
583.317837	2552.936090
583.671186	2553.281409
584.024481	2553.535987
584.377721	2554.236707
584.730906	2553.727551
585.084037	2549.929041
585.437113	2550.511295
585.790135	2550.818805
586.143103	2551.945503
586.496016	2551.600184
586.848874	2548.928372
587.201679	2549.989535
587.554428	2547.385779
587.907124	2550.992725
588.259765	2548.701520
588.612352	2552.121943
588.964884	2550.448280
589.317362	2550.536500
589.669786	2550.327293
590.022155	2554.125802
590.374470	2552.593291
590.726731	2550.914587
591.078937	2551.113713
591.431090	2551.290153
591.783188	2550.365101
592.135232	2548.782179
592.487222	2549.878630
592.839157	2549.329144
593.191038	2550.410472
593.542866	2554.700493
593.894639	2549.150183
594.246358	2553.329300
594.598022	2548.832590
594.949633	2549.866027
595.301190	2549.482899
595.652692	2552.605894
596.004141	2552.575647
596.355535	2550.155893
596.706876	2548.625903
597.058162	2551.625390
597.409395	2548.958619
597.760573	2550.009700
598.111698	2549.387117
598.462768	2550.997766
598.813785	2550.297046
599.164748	2551.481717
599.515657	2550.758311
599.866511	2548.915769
600.217312	2549.215718
600.568060	2549.636654
600.918753	2550.823846
601.269392	2552.293342
601.619978	2550.786037
601.970510	2551.892571
602.320988	2550.002138
602.671412	2548.353681
603.021783	2551.655637
603.372100	2551.723692
603.722363	2547.267312
604.072572	2549.702189
604.422728	2554.718138
604.772830	2546.990049
605.122878	2545.563402
605.472872	2549.263609
605.822813	2543.216745
606.172701	2548.210008
606.522534	2547.552137
606.872314	2551.002807
607.222041	2550.554144
607.571714	2550.153373
607.921333	2550.861655
608.270899	2550.150852
608.620411	2548.547765
608.969870	2550.004659
609.319276	2553.717468
609.668627	2555.668395
610.017926	2555.126471
610.367171	2558.564538
610.716362	2557.296688
611.065500	2553.251162
611.414585	2553.936759
611.763616	2553.956923
612.112594	2549.538352
612.461518	2551.675801
612.810389	2553.339382
613.159207	2552.502550
613.507971	2550.710420
613.856682	2550.743188
614.205340	2548.295707
614.553945	2549.314021
614.902496	2551.958106
615.250994	2549.971891
615.599439	2551.993394
615.947830	2551.075904
616.296169	2551.592622
616.644454	2553.611604
616.992686	2548.361242
617.340864	2551.224618
617.688990	2550.516336
618.037063	2550.977601
618.385082	2549.911397
618.733048	2550.052550
619.080961	2549.734957
619.428821	2551.895091
619.776628	2550.932231
620.124382	2549.687066
620.472083	2550.780996
620.819731	2550.707900
621.167326	2549.016593
621.514868	2550.667570
621.862357	2552.071532
622.209793	2548.651109
622.557176	2550.793599
622.904506	2548.371325
623.251783	2545.119781
623.599007	2545.989380
623.946179	2546.032229
624.293297	2545.369318
624.640363	2546.985007
624.987376	2548.444422
625.334336	2549.306459
625.681243	2549.603887
626.028097	2549.505584
626.374899	2550.536500
626.721647	2546.601880
627.068343	2551.537169
627.414987	2546.838814
627.761577	2548.492312
628.108115	2547.446273
628.454600	2546.727909
628.801032	2549.311500
629.147412	2548.588094
629.493739	2549.908877
629.840014	2549.031716
630.186236	2549.291335
630.532405	2551.085986
630.878521	2548.497354
631.224585	2549.009031
631.570597	2547.703372
631.916556	2547.877292
632.262462	2548.164638
632.608316	2547.226983
632.954117	2547.990718
633.299866	2547.126160
633.645562	2549.384597
633.991206	2547.395862
634.336797	2546.062476
634.682336	2546.659853
635.027823	2548.557847
635.373257	2545.933927
635.718639	2546.894267
636.063968	2547.990718
636.409245	2546.828732
636.754470	2547.710934
637.099642	2547.501726
637.444762	2546.682538
637.789829	2547.065666
638.134845	2544.887888
638.479808	2547.375697
638.824719	2546.649771
639.169577	2545.137425
639.514383	2546.075079
639.859137	2546.213711
640.203839	2544.645912
640.548489	2544.449307
640.893086	2545.384441
641.237632	2541.769934
641.582125	2542.183308
641.926566	2539.571991
642.270955	2543.935109
642.615292	2545.603731
642.959576	2545.770089
643.303809	2545.754966
643.647990	2545.870912
643.992118	2546.611962
644.336195	2546.407795
644.680219	2543.972918
645.024192	2545.344112
645.368112	2545.328988
645.711981	2546.057435
646.055797	2545.865871
646.399562	2547.126160
646.743274	2545.346632
647.086935	2544.401416
647.430544	2543.844369
647.774101	2546.228834
648.117606	2543.446117
648.461059	2544.650953
648.804460	2546.092723
649.147810	2547.005172
649.491108	2546.780841
649.834354	2541.868236
650.177548	2544.630789
650.520690	2546.904349
650.863781	2548.111705
651.206820	2546.614483
651.549807	2542.596683
651.892742	2547.756304
652.235626	2545.255892
652.578458	2544.056097
652.921238	2543.393185
653.263967	2543.304965
653.606644	2541.530479
653.949269	2546.904349
654.291843	2543.942671
654.634365	2545.381921
654.976836	2541.840510
655.319255	2545.455017
655.661622	2544.434184
656.003938	2543.609955
656.346203	2544.552651
656.688416	2545.460058
657.030577	2544.156920
657.372687	2543.877136
657.714746	2546.191026
658.056753	2544.076262
658.398708	2540.764224
658.740612	2541.853113
659.082465	2539.866898
659.424266	2538.510828
659.766016	2537.326157
660.107715	2545.644061
660.449362	2544.555171
660.790958	2543.373021
661.132503	2542.939482
661.473996	2543.688093
661.815438	2543.592311
662.156829	2543.710778
662.498168	2539.156096
662.839456	2543.796478
663.180693	2544.199770
663.521879	2542.944523
663.863013	2545.974256
664.204097	2542.730274
664.545129	2545.442414
664.886110	2541.815304
665.227040	2545.308824
665.567918	2544.991231
665.908746	2545.023999
666.249522	2545.452497
666.590248	2541.694317
666.930922	2543.730943
667.271545	2544.078782
667.612118	2545.066848
667.952639	2543.509132
668.293109	2544.504760
668.633528	2543.425953
668.973896	2541.018802
669.314213	2544.439225
669.654480	2543.559543
669.994695	2544.270346
670.334859	2546.017106
670.674973	2544.154400
671.015035	2545.583567
671.355047	2542.198432
671.695008	2546.309493
672.034918	2544.701365
672.374777	2545.087013
672.714585	2542.936961
673.054342	2541.722043
673.394049	2544.242620
673.733705	2546.480892
674.073310	2545.339071
674.412864	2544.635830
674.752368	2544.348484
675.091820	2542.233720
675.431223	2542.102650
675.770574	2541.298586
676.109875	2539.272042
676.449125	2539.390509
676.788324	2538.604089
677.127473	2543.441076
677.466571	2537.636188
677.805619	2543.080634
678.144616	2543.811601
678.483562	2543.914945
678.822458	2540.597866
679.161303	2543.693134
679.500098	2542.773123
679.838842	2543.327650
680.177535	2542.178267
680.516179	2544.855120
680.854771	2543.385624
681.193314	2543.710778
681.531805	2540.250026
681.870247	2543.640202
682.208638	2545.132383
682.546978	2541.870757
682.885268	2542.256405
683.223508	2543.186498
683.561697	2544.353525
683.899836	2542.037115
684.237925	2543.738504
684.575963	2542.712630
684.913951	2543.428473
685.251889	2546.957281
685.589776	2543.123484
685.927614	2543.506611
686.265401	2543.607434
686.603137	2542.599204
686.940824	2542.841179
687.278460	2544.832435
687.616046	2544.212373
687.953582	2544.124153
688.291068	2541.026364
688.628504	2541.880839
688.965889	2542.498381
689.303224	2542.740356
689.640510	2542.359749
689.977745	2542.372352
690.314930	2543.269677
690.652065	2543.836807
690.989150	2543.753628
691.326185	2543.819163
691.663170	2541.510314
692.000105	2544.136756
692.336990	2541.432177
692.673825	2542.236241
693.010610	2542.987373
693.347345	2538.268852
693.684030	2536.559901
694.020665	2540.736497
694.357251	2535.145858
694.693786	2539.859337
695.030272	2541.396888
695.366707	2542.074924
695.703093	2541.613658
696.039429	2539.987886
696.375716	2541.333874
696.711952	2540.605427
697.048139	2539.289686
697.384276	2542.914276
697.720363	2539.819007
698.056400	2543.499050
698.392388	2539.682896
698.728326	2541.648946
699.064214	2539.110725
699.400053	2542.072403
699.735842	2539.105684
700.071581	2542.238761
700.407270	2542.334543
700.742910	2541.046528
701.078501	2541.664070
701.414042	2538.606610
701.749533	2540.108874
702.084974	2542.538710
702.420366	2537.943698
702.755709	2542.573998
703.091002	2541.593493
703.426246	2540.789429
703.761440	2540.726415
704.096584	2539.718184
704.431679	2539.514018
704.766725	2541.323792
705.101721	2538.891435
705.436668	2538.528472
705.771565	2538.326826
706.106413	2539.672814
706.441212	2540.663401
706.775961	2544.436704
707.110661	2538.964532
707.445311	2539.166178
707.779913	2541.437218
708.114465	2541.069213
708.448967	2544.391334
708.783421	2538.646939
709.117825	2539.773637
709.452180	2538.752803
709.786485	2539.619882
710.120742	2541.512835
710.454949	2543.183978
710.789107	2538.697351
711.123216	2534.956814
711.457275	2536.229706
711.791286	2537.978986
712.125247	2537.840354
712.459159	2539.652649
712.793023	2542.286652
713.126837	2540.814635
713.460602	2540.176929
713.794318	2541.464944
714.127985	2541.961498
714.461602	2542.377393
714.795171	2540.071065
715.128691	2538.488143
715.462162	2542.417722
715.795584	2539.962680
716.128957	2541.308668
716.462281	2541.154913
716.795556	2540.623071
717.128782	2538.009233
717.461960	2538.856147
717.795088	2539.405633
718.128167	2540.222300
718.461198	2536.771630
718.794180	2540.628112
719.127113	2537.704243
719.459997	2539.188863
719.792833	2537.696682
720.125619	2539.166178
720.458357	2537.918492
720.791046	2538.599048
721.123686	2536.920344
721.456278	2536.580066
721.788821	2538.919161
722.121315	2538.944367
722.453761	2538.820859
722.786158	2541.180119
723.118506	2537.905889
723.450805	2539.589635
723.783056	2538.107536
724.115259	2540.111394
724.447412	2538.712474
724.779518	2538.553678
725.111574	2538.823379
725.443582	2538.029398
725.775542	2540.890253
726.107453	2540.930582
726.439315	2538.606610
726.771129	2541.792619
727.102895	2538.848585
727.434612	2542.919317
727.766281	2540.464275
728.097901	2538.306661
728.429473	2535.728111
728.760996	2536.902700
729.092471	2532.229550
729.423897	2537.532844
729.755276	2539.972762
730.086606	2538.042001
730.417887	2535.493697
730.749120	2539.559388
731.080305	2540.698689
731.411442	2538.228523
731.742530	2540.912938
732.073570	2538.934285
732.404562	2539.458565
732.735506	2540.108874
733.066401	2540.068544
733.397249	2543.191539
733.728048	2536.433873
734.058798	2537.459747
734.389501	2539.345139
734.720156	2539.362783
735.050762	2540.088709
735.381320	2539.609799
735.711831	2539.952598
736.042293	2537.825231
736.372707	2539.987886
736.703073	2536.133924
737.033391	2538.326826
737.363661	2537.232895
737.693883	2538.959491
738.024056	2539.410674
738.354182	2537.253060
738.684260	2538.964532
739.014290	2536.675848
739.344272	2539.138452
739.674207	2537.121990
740.004093	2540.865047
740.333931	2535.589479
740.663722	2539.261960
740.993464	2536.209541
741.323159	2538.888914
741.652806	2535.402957
741.982405	2537.787422
742.311956	2537.331198
742.641460	2538.132741
742.970915	2539.299768
743.300323	2537.772299
743.629683	2537.101825
743.958996	2538.893956
744.288260	2539.367824
744.617477	2534.694674
744.946647	2533.908254
745.275768	2535.251722
745.604842	2533.991433
745.933869	2536.285158
746.262847	2532.078316
746.591778	2537.273225
746.920662	2535.753317
747.249498	2537.474871
747.578286	2537.026208
747.907027	2539.413194
748.235720	2538.147865
748.564365	2539.796322
748.892963	2539.130890
749.221514	2538.588966
749.550017	2537.162319
749.878473	2537.058976
750.206881	2535.579397
750.535242	2537.679038
750.863555	2536.161650
751.191821	2539.014943
751.520039	2538.712474
751.848210	2537.356404
752.176334	2539.360262
752.504411	2538.198276
752.832440	2537.336239
753.160421	2537.946219
753.488356	2536.201979
753.816243	2539.748431
754.144082	2537.129552
754.471875	2536.635519
754.799620	2537.852957
755.127318	2535.090405
755.454969	2535.889428
755.782572	2537.946219
756.110129	2537.439583
756.437638	2536.418749
756.765100	2538.036959
757.092515	2536.239788
757.419882	2532.963038
757.747203	2536.917823
758.074477	2535.518903
758.401703	2536.585107
758.728882	2536.033101
759.056014	2535.634850
759.383099	2537.295910
759.710138	2537.157278
760.037129	2534.787936
760.364073	2538.450334
760.690970	2535.695343
761.017820	2537.371527
761.344623	2539.229192
761.671379	2537.616023
761.998088	2533.179808
762.324751	2534.493028
762.651366	2536.229706
762.977935	2538.606610
763.304456	2537.903369
763.630931	2541.946374
763.957359	2539.612320
764.283740	2541.709440
764.610074	2538.657021
764.936362	2540.187012
765.262602	2535.266845
765.588796	2536.454037
765.914943	2538.147865
766.241044	2536.128883
766.567097	2538.513348
766.893104	2537.857998
767.219064	2534.646783
767.544978	2539.677855
767.870845	2536.451517
768.196665	2537.915972
768.522438	2537.174922
768.848165	2539.521579
769.173846	2537.890766
769.499479	2535.919675
769.825066	2536.617875
770.150607	2535.284489
770.476101	2532.915147
770.801548	2537.525282
771.126949	2537.195087
771.452303	2536.012936
771.777611	2534.044366
772.102872	2538.810777
772.428087	2536.885056
772.753256	2532.831968
773.078378	2536.181815
773.403453	2536.759027
773.728482	2532.920188
774.053465	2535.067720
774.378401	2536.950591
774.703291	2537.923533
775.028135	2537.248019
775.352932	2534.467822
775.677683	2534.341794
776.002388	2535.276928
776.327046	2535.231557
776.651658	2532.887421
776.976224	2534.238450
777.300743	2535.649973
777.625216	2532.781557
777.949643	2536.698533
778.274024	2537.883204
778.598359	2532.285003
778.922647	2531.846422
779.246889	2534.119983
779.571086	2527.362316
779.895236	2533.288192
780.219339	2533.222658
780.543397	2535.085364
780.867409	2535.617206
781.191374	2533.688964
781.515294	2535.140817
781.839167	2534.815662
782.162995	2534.845909
782.486776	2535.405477
782.810511	2533.782226
783.134201	2534.913965
783.457844	2534.306506
783.781441	2533.711649
784.104993	2533.860363
784.428498	2535.488656
784.751958	2536.693492
785.075372	2534.016639
785.398739	2536.849768
785.722061	2533.767102
786.045337	2535.652494
786.368568	2536.569984
786.691752	2535.264325
787.014891	2535.201310
787.337983	2532.821886
787.661030	2536.804397
787.984031	2537.253060
788.306987	2534.825744
788.629897	2535.473533
788.952760	2537.782381
789.275579	2535.894469
789.598351	2533.998995
789.921078	2536.431352
790.243759	2535.042514
790.566395	2534.868594
790.888984	2533.613347
791.211529	2534.450178
791.534027	2536.368337
791.856480	2534.230888
792.178888	2534.132586
792.501249	2533.804911
792.823566	2538.369676
793.145836	2533.444468
793.468062	2534.528316
793.790241	2532.932791
794.112375	2535.662576
794.434464	2534.674510
794.756507	2534.225847
795.078505	2535.443286
795.400457	2534.316588
795.722364	2530.971782
796.044226	2533.971269
796.366042	2532.600075
796.687812	2532.436237
797.009538	2533.688964
797.331218	2535.186187
797.652852	2533.867925
797.974442	2534.772812
798.295986	2533.474715
798.617484	2535.355066
798.938938	2533.867925
799.260346	2534.984541
799.581709	2532.980682
799.903026	2536.557381
800.224299	2532.259797
800.545526	2535.960004
800.866708	2534.246012
801.187845	2533.583100
801.508936	2536.506969
801.829983	2534.079654
802.150984	2532.123686
802.471940	2533.179808
802.792851	2533.464633
803.113717	2536.849768
803.434538	2533.031094
803.755314	2533.883049
804.076045	2533.683923
804.396731	2535.060158
804.717372	2534.213244
805.037967	2533.361289
805.358518	2532.325332
805.679024	2534.717360
805.999485	2534.220806
806.319901	2536.101156
806.640272	2533.205013
806.960598	2535.390354
807.280879	2534.528316
807.601115	2533.583100
807.921306	2534.523275
808.241453	2534.745086
808.561554	2534.563604
808.881611	2534.046886
809.201623	2533.323481
809.521590	2535.357586
809.841513	2535.352545
810.161390	2532.264838
810.481223	2535.042514
810.801011	2534.490508
811.120755	2533.734335
811.440453	2534.175436
811.760107	2534.982020
812.079716	2532.030425
812.399281	2527.894158
812.718801	2529.237625
813.038276	2530.258459
813.357707	2533.134437
813.677093	2532.756351
813.996434	2533.951104
814.315731	2533.567977
814.634983	2534.929088
814.954191	2531.980013
815.273354	2531.692667
815.592473	2534.992102
815.911547	2534.800539
816.230577	2537.313554
816.549562	2532.496731
816.868502	2533.310878
817.187399	2533.346166
817.506250	2534.921526
817.825058	2533.210055
818.143821	2534.447658
818.462539	2532.902544
818.781213	2532.285003
819.099843	2534.828265
819.418429	2536.809438
819.736970	2536.726259
820.055466	2535.289531
820.373919	2537.668955
820.692327	2535.110570
821.010691	2534.422452
821.329011	2539.309851
821.647286	2549.477858
821.965517	2553.772921
822.283704	2558.536812
822.601847	2557.450443
822.919945	2555.045813
823.237999	2548.888043
823.556010	2548.686397
823.873976	2545.946530
824.191897	2540.207176
824.509775	2540.126518
824.827609	2539.466127
825.145398	2535.970086
825.463144	2539.221631
825.780845	2540.486960
826.098502	2541.500232
826.416116	2538.785571
826.733685	2540.615510
827.051210	2540.905376
827.368692	2544.403937
827.686129	2539.836651
828.003522	2539.728267
828.320872	2534.165353
828.638177	2535.796167
828.955439	2530.923891
829.272656	2536.007895
829.589830	2530.681916
829.906960	2534.608975
830.224046	2536.718698
830.541088	2536.943029
830.858086	2532.907585
831.175041	2535.997813
831.491952	2532.489170
831.808819	2535.440765
832.125642	2530.510517
832.442421	2535.965045
832.759157	2532.627801
833.075849	2535.423121
833.392497	2538.228523
833.709101	2538.914120
834.025662	2537.394212
834.342179	2537.547967
834.658653	2534.992102
834.975083	2536.640560
835.291469	2539.486291
835.607811	2535.692823
835.924110	2533.842719
836.240366	2535.279448
836.556578	2535.062679
836.872746	2536.774150
837.188871	2532.211906
837.504952	2535.034952
837.820990	2530.293747
838.136984	2532.358100
838.452935	2534.109901
838.768842	2534.256094
839.084706	2535.072761
839.400526	2535.143337
839.716303	2533.477236
840.032037	2536.534696
840.347727	2535.851619
840.663373	2534.379602
840.978977	2534.929088
841.294537	2533.956145
841.610054	2533.890610
841.925527	2532.668131
842.240957	2533.328522
842.556344	2533.694005
842.871687	2532.277441
843.186987	2533.701567
843.502244	2532.136289
843.817458	2534.603934
844.132629	2531.377595
844.447756	2534.528316
844.762840	2527.485824
845.077881	2531.188552
845.392879	2527.632018
845.707833	2531.717873
846.022745	2527.561442
846.337613	2533.225178
846.652438	2535.042514
846.967221	2532.801721
847.281960	2530.913809
847.596656	2530.326515
847.911309	2531.619571
848.225919	2533.875487
848.540485	2532.942873
848.855009	2534.150230
849.169490	2531.725435
849.483928	2530.790301
849.798323	2531.039838
850.112675	2531.007070
850.426984	2532.731145
850.741251	2532.295085
851.055474	2532.872297
851.369654	2530.535723
851.683792	2528.763757
851.997887	2533.293234
852.311938	2529.761905
852.625947	2531.266690
852.939914	2532.244674
853.253837	2532.900024
853.567718	2532.022863
853.881555	2534.790456
854.195350	2532.834489
854.509103	2533.071423
854.822812	2533.000847
855.136479	2528.604961
855.450103	2531.314581
855.763685	2533.583100
856.077224	2531.811134
856.390720	2530.583613
856.704173	2531.344828
857.017584	2530.203006
857.330953	2532.837009
857.644278	2533.754499
857.957561	2536.799356
858.270802	2531.125538
858.584000	2533.762061
858.897155	2534.130065
859.210268	2532.068233
859.523339	2532.779036
859.836367	2530.729807
860.149352	2531.468336
860.462295	2531.491021
860.775195	2526.948942
861.088054	2527.609333
861.400869	2529.141843
861.713642	2527.276617
862.026373	2532.257277
862.339062	2531.705270
862.651708	2530.863398
862.964312	2534.707277
863.276873	2532.776515
863.589392	2530.417255
863.901869	2530.749972
864.214303	2531.521268
864.526696	2531.748120
864.839045	2531.044879
865.151353	2530.818027
865.463619	2529.829961
865.775842	2529.537574
866.088023	2531.017153
866.400162	2531.803573
866.712258	2534.366999
867.024313	2531.516227
867.336325	2530.394570
867.648296	2530.976823
867.960224	2532.597554
868.272110	2530.225692
868.583954	2532.458923
868.895755	2530.381967
869.207515	2532.784077
869.519233	2530.949097
869.830909	2532.776515
870.142542	2532.239633
870.454134	2530.273582
870.765684	2530.603778
871.077191	2531.617050
871.388657	2534.752648
871.700081	2531.831299
872.011463	2531.347348
872.322803	2529.729138
872.634101	2533.880528
872.945357	2527.430372
873.256571	2531.382636
873.567744	2529.973634
873.878874	2529.903058
874.189963	2532.164015
874.501010	2532.335414
874.812015	2529.623274
875.122979	2531.801052
875.433900	2528.995650
875.744780	2532.375744
876.055618	2532.431196
876.366415	2532.320291
876.677169	2531.980013
876.987882	2530.628984
877.298554	2527.740403
877.609183	2528.854498
877.919771	2526.850639
878.230317	2530.041689
878.540822	2532.269879
878.851285	2533.076464
879.161707	2530.525640
879.472087	2532.940353
879.782425	2531.370033
880.092722	2537.757175
880.402977	2534.384643
880.713191	2539.493853
881.023363	2540.030736
881.333494	2540.093750
881.643583	2545.523073
881.953631	2544.618186
882.263637	2543.224307
882.573602	2543.675490
882.883526	2543.151210
883.193408	2541.147351
883.503248	2537.084181
883.813048	2534.664427
884.122806	2535.607123
884.432522	2532.332894
884.742197	2535.960004
885.051831	2532.557225
885.361424	2534.649304
885.670975	2533.149561
885.980485	2534.208203
886.289954	2530.634025
886.599382	2532.587472
886.908768	2533.711649
887.218113	2530.349200
887.527417	2529.976154
887.836680	2529.318284
888.145901	2534.619057
888.455082	2532.595034
888.764221	2531.375075
889.073319	2530.820548
889.382376	2530.243336
889.691392	2530.492873
890.000366	2530.371885
890.309300	2529.865249
890.618193	2530.071936
890.927044	2531.193593
891.235855	2531.644776
891.544625	2531.722914
891.853353	2531.057482
892.162041	2530.843233
892.470687	2534.145189
892.779293	2531.659900
893.087858	2530.969262
893.396381	2528.211751
893.704864	2529.698891
894.013306	2528.544467
894.321707	2533.749458
894.630068	2536.333049
894.938387	2534.677030
895.246665	2536.020498
895.554903	2534.258615
895.863100	2534.281300
896.171256	2534.387164
896.479371	2532.867256
896.787446	2534.823224
897.095480	2530.059333
897.403473	2530.515558
897.711425	2533.205013
898.019336	2532.302647
898.327207	2531.175949
898.635038	2529.766947
898.942827	2530.639066
899.250576	2526.926256
899.558284	2532.889941
899.865952	2530.185362
900.173579	2531.954807
900.481165	2531.324663
900.788711	2532.257277
901.096216	2529.361134
901.403681	2530.266021
901.711105	2532.355579
902.018489	2530.167718
902.325832	2531.947246
902.633135	2530.394570
902.940397	2532.363141
903.247619	2530.825589
903.554800	2533.474715
903.861941	2531.680064
904.169041	2534.301464
904.476101	2536.572504
904.783121	2535.120652
905.090100	2534.273738
905.397039	2535.962525
905.703938	2530.770136
906.010796	2531.833820
906.317614	2534.795498
906.624391	2529.923222
906.931129	2531.518747
907.237826	2532.466484
907.544483	2531.909437
907.851099	2530.117307
908.157675	2531.007070
908.464211	2530.424817
908.770707	2526.006246
909.077163	2526.850639
909.383578	2528.642769
909.689954	2527.057326
909.996289	2524.405679
910.302584	2528.829292
910.608839	2530.097142
910.915054	2529.885414
911.221229	2532.441279
911.527363	2529.955990
911.833458	2529.613191
912.139513	2531.536392
912.445527	2529.091432
912.751502	2535.024870
913.057436	2531.039838
913.363331	2532.423635
913.669186	2527.420289
913.975000	2532.010260
914.280775	2531.622091
914.586510	2530.180321
914.892205	2529.411545
915.197859	2534.094777
915.503475	2534.457740
915.809050	2535.486136
916.114585	2535.546629
916.420081	2535.965045
916.725536	2537.358924
917.030952	2535.166022
917.336328	2533.391536
917.641665	2534.818183
917.946961	2533.368851
918.252218	2531.183511
918.557435	2533.734335
918.862612	2531.428007
919.167750	2530.984385
919.472848	2533.757020
919.777906	2529.618233
920.082925	2533.573018
920.387904	2530.510517
920.692843	2528.524302
920.997743	2529.766947
921.302603	2530.611340
921.607423	2531.518747
921.912204	2529.905578
922.216946	2527.833664
922.521647	2532.650487
922.826310	2528.859539
923.130932	2532.408511
923.435516	2528.801566
923.740059	2529.446833
924.044564	2531.579241
924.349028	2530.502955
924.653454	2526.477594
924.957840	2527.503468
925.262186	2524.821575
925.566493	2530.215609
925.870761	2522.248066
926.174989	2531.281813
926.479178	2530.250897
926.783328	2526.487676
927.087438	2529.086391
927.391509	2529.101514
927.695541	2528.587317
927.999533	2528.799045
928.303486	2529.464477
928.607400	2528.594878
928.911275	2529.731658
929.215110	2531.160826
929.518906	2532.496731
929.822663	2529.461957
930.126381	2528.292409
930.430060	2530.722245
930.733699	2528.564631
931.037299	2531.473377
931.340861	2530.008922
931.644383	2529.396422
931.947866	2529.353572
932.251309	2529.003212
932.554714	2530.167718
932.858080	2529.446833
933.161407	2529.212420
933.464694	2529.444313
933.767943	2528.458767
934.071153	2526.938859
934.374323	2530.939015
934.677455	2532.479087
934.980548	2527.957172
935.283602	2528.327697
935.586617	2526.782583
935.889593	2531.039838
936.192530	2527.004394
936.495428	2530.273583
936.798287	2525.562624
937.101108	2529.197296
937.403890	2528.521782
937.706632	2528.849457
938.009336	2529.603109
938.312002	2529.288037
938.614628	2528.287368
938.917216	2530.505476
939.219765	2528.073119
939.522275	2531.004550
939.824747	2529.497245
940.127179	2526.013808
940.429573	2525.502130
940.731929	2524.544311
941.034246	2523.699918
941.336524	2526.210412
941.638763	2528.138654
941.940964	2529.872811
942.243126	2529.328366
942.545250	2533.419263
942.847335	2527.783253
943.149381	2527.440454
943.451389	2529.421627
943.753359	2530.659231
944.055290	2530.223171
944.357182	2528.794004
944.659036	2527.067409
944.960851	2529.056144
945.262628	2527.969775
945.564367	2529.439272
945.866067	2529.383819
946.167729	2529.913140
946.469352	2529.666123
946.770937	2530.273583
947.072484	2527.299302
947.373992	2530.117307
947.675462	2528.501617
947.976893	2531.443130
948.278286	2530.770136
948.579641	2532.945394
948.880958	2528.080681
949.182236	2527.727800
949.483476	2528.494055
949.784678	2528.710825
950.085841	2530.155115
950.386967	2528.126051
950.688054	2525.648324
950.989103	2531.009591
951.290114	2526.996833
951.591087	2527.929446
951.892021	2529.482121
952.192917	2527.894158
952.493776	2530.926412
952.794596	2530.374406
953.095378	2529.635877
953.396122	2528.756195
953.696828	2526.936339
953.997496	2526.210413
954.298126	2527.107738
954.598718	2529.398942
954.899272	2527.173273
955.199788	2526.709487
955.500266	2529.661082
955.800706	2525.202182
956.101108	2525.043385
956.401472	2524.382994
956.701798	2524.093128
957.002087	2525.048427
957.302337	2527.742923
957.602550	2528.972965
957.902724	2527.321987
958.202861	2529.456916
958.502960	2527.543798
958.803022	2529.797193
959.103045	2527.531195
959.403031	2529.091432
959.702979	2529.371216
960.002889	2526.674199
960.302762	2527.836185
960.602596	2527.707635
960.902393	2525.628159
961.202153	2528.640249
961.501875	2528.945238
961.801559	2529.676206
962.101205	2528.420958
962.400814	2527.755526
962.700385	2528.640249
962.999918	2528.511699
963.299414	2525.713859
963.598873	2527.942049
963.898293	2529.028417
964.197677	2527.195958
964.497022	2527.664785
964.796331	2528.496576
965.095601	2527.722759
965.394835	2527.881555
965.694030	2526.485155
965.993189	2529.464477
966.292309	2528.801566
966.591393	2526.444826
966.890439	2527.437933
967.189447	2527.392563
967.488419	2527.027079
967.787353	2525.645803
968.086249	2526.417100
968.385108	2526.979188
968.683930	2528.821730
968.982714	2527.301822
969.281462	2527.122861
969.580172	2528.244518
969.878844	2528.526823
970.177480	2527.813499
970.476078	2528.186545
970.774639	2525.396266
971.073162	2528.239477
971.371649	2523.614218
971.670098	2523.457942
971.968510	2524.388035
972.266885	2522.613549
972.565223	2526.840557
972.863524	2529.144364
973.161788	2528.647810
973.460014	2526.888448
973.758204	2525.237470
974.056356	2527.158149
974.354471	2524.511544
974.652550	2527.586648
974.950591	2528.519261
975.248595	2528.728469
975.546563	2525.494569
975.844493	2529.371216
976.142386	2527.929446
976.440243	2529.141843
976.738062	2525.466842
977.035845	2527.032121
977.333590	2527.271575
977.631299	2527.193438
977.928971	2526.434744
978.226606	2524.783766
978.524204	2525.915505
978.821765	2526.775022
979.119290	2526.555732
979.416777	2527.546318
979.714228	2527.216123
980.011642	2528.947759
980.309020	2529.711494
980.606360	2526.013807
980.903664	2528.166380
981.200931	2527.609333
981.498162	2525.713859
981.795356	2527.385001
982.092513	2529.842564
982.389633	2529.071267
982.686717	2527.868952
982.983764	2526.648993
983.280775	2528.171421
983.577749	2527.090094
983.874686	2530.019004
984.171587	2526.654034
984.468451	2528.680578
984.765279	2527.269055
985.062070	2527.768129
985.358824	2527.042203
985.655543	2530.187883
985.952224	2527.828623
986.248869	2526.074301
986.545478	2521.315452
986.842050	2526.104548
987.138586	2524.713190
987.435086	2524.645134
987.731549	2524.917357
988.027975	2527.329549
988.324366	2529.197296
988.620719	2528.476411
988.917037	2528.471370
989.213318	2528.511699
989.509563	2529.109076
989.805772	2528.610002
990.101944	2528.846936
990.398080	2525.907943
990.694180	2526.767460
990.990244	2528.645290
991.286271	2525.781914
991.582262	2527.100176
991.878217	2527.125382
992.174136	2528.834333
992.470019	2528.501617
992.765865	2528.541946
993.061676	2528.390712
993.357450	2525.355937
993.653188	2526.011287
993.948890	2527.339631
994.244556	2526.946421
994.540186	2530.003881
994.835780	2526.777542
995.131337	2527.931967
995.426859	2526.386853
995.722345	2525.728982
996.017795	2528.846936
996.313208	2524.990453
996.608586	2529.618233
996.903928	2526.374250
997.199234	2526.911133
997.494504	2526.812830
997.789738	2528.113448
998.084936	2527.821061
998.380099	2527.556401
998.675225	2524.642614
998.970316	2524.801410
999.265371	2524.846780
999.560390	2526.273427
999.855373	2528.163860
1000.150320	2527.241328
1000.445232	2527.979858
1000.740108	2526.124713
1001.034948	2525.476925
1001.329752	2525.146729
1001.624521	2527.208561
1001.919254	2519.939217
1002.213951	2525.975999
1002.508613	2523.084897
1002.803239	2526.449867
1003.097829	2522.449712
1003.392384	2526.628828
1003.686903	2527.200999
1003.981386	2527.621936
1004.275834	2526.787625
1004.570246	2530.535723
1004.864623	2525.434075
1005.158964	2526.880886
1005.453270	2526.354085
1005.747540	2527.546318
1006.041775	2526.235618
1006.335974	2529.807276
1006.630138	2526.671678
1006.924266	2530.505476
1007.218359	2525.323169
1007.512416	2527.821061
1007.806438	2527.584127
1008.100425	2525.991122
1008.394376	2529.149405
1008.688292	2524.143539
1008.982172	2525.250073
1009.276017	2525.146729
1009.569827	2527.269055
1009.863602	2527.992460
1010.157341	2524.156142
1010.451045	2528.693181
1010.744714	2524.249404
1011.038347	2526.023890
1011.331945	2523.904085
1011.625508	2527.546318
1011.919036	2527.183355
1012.212528	2526.449867
1012.505986	2528.647810
1012.799408	2527.206040
1013.092795	2525.963396
1013.386147	2525.461801
1013.679464	2526.079343
1013.972745	2525.547501
1014.265992	2527.899199
1014.559204	2524.682943
1014.852380	2527.677388
1015.145521	2525.383663
1015.438628	2524.630011
1015.731699	2529.565300
1016.024736	2525.537418
1016.317737	2526.212933
1016.610703	2529.199817
1016.903635	2522.671523
1017.196531	2524.899713
1017.489393	2524.375432
1017.782219	2524.589682
1018.075011	2524.014990
1018.367768	2526.419620
1018.660490	2527.725279
1018.953177	2527.725279
1019.245829	2527.725279
