Dividing Wavelength (nm)	Counts (n)	Blue Motor Position (mm): 0.000000	Red Motor Position (mm): 27.200000	
326.493990	2127.850874
326.888308	2127.850874
327.282561	2127.850874
327.676750	2096.668817
328.070874	2094.049937
328.464933	2098.347521
328.858929	2104.293562
329.252859	2111.840169
329.646726	2123.981788
330.040528	2137.545013
330.434265	2153.175110
330.827938	2170.549447
331.221547	2190.131809
331.615091	2209.381455
332.008571	2226.150853
332.401986	2246.426374
332.795338	2267.858840
333.188625	2287.771397
333.581847	2304.240847
333.975006	2323.351861
334.368100	2341.588235
334.761129	2359.292768
335.154095	2374.786754
335.546996	2393.839795
335.939833	2412.086251
336.332606	2425.140319
336.725315	2438.786722
337.117960	2449.105964
337.510540	2457.872531
337.903056	2467.120528
338.295508	2474.616723
338.687896	2482.546458
339.080220	2489.399907
339.472480	2500.359376
339.864676	2502.597648
340.256807	2505.844151
340.648875	2508.773061
341.040879	2511.200377
341.432818	2512.868999
341.824694	2515.079545
342.216506	2515.523166
342.608253	2518.247910
342.999937	2515.820594
343.391557	2515.699607
343.783113	2516.458300
344.174605	2511.210459
344.566033	2515.417302
344.957397	2512.538803
345.348697	2510.333298
345.739934	2507.946312
346.131106	2504.067144
346.522215	2504.966990
346.913260	2499.658655
347.304241	2502.264932
347.695159	2499.245281
348.086012	2495.590444
348.476802	2495.091370
348.867528	2493.742861
349.258191	2493.742861
349.648789	2490.478714
350.039324	2489.122644
350.429796	2489.417551
350.820203	2489.233549
351.210548	2486.866727
351.600828	2486.039978
351.991045	2484.497385
352.381198	2484.053763
352.771288	2483.395893
353.161314	2485.540904
353.551276	2484.298259
353.941175	2482.793475
354.331010	2484.759525
354.720782	2483.113588
355.110490	2482.700214
355.500135	2484.678867
355.889717	2487.055771
356.279235	2486.402941
356.668689	2486.649958
357.058080	2487.960658
357.447408	2484.212560
357.836672	2482.584267
358.225873	2485.994608
358.615010	2480.824904
359.004084	2488.368991
359.393095	2486.125678
359.782043	2485.553507
360.170927	2490.617346
360.559748	2492.510299
360.948505	2492.679178
361.337199	2491.436533
361.725830	2492.976606
362.114398	2495.187152
362.502903	2495.474498
362.891344	2495.678664
363.279722	2493.863849
363.668037	2496.003819
364.056289	2496.187821
364.444478	2493.289157
364.832603	2497.662358
365.220665	2498.622698
365.608665	2495.902996
365.996601	2501.816269
366.384474	2500.929026
366.772284	2501.843995
367.160031	2500.896258
367.547715	2505.526558
367.935336	2506.522186
368.322893	2510.418998
368.710388	2512.979904
369.097820	2519.228414
369.485189	2521.769156
369.872495	2531.422966
370.259738	2536.388502
370.646918	2542.856303
371.034035	2550.970040
371.421090	2558.113355
371.808081	2571.162381
372.195010	2579.019020
372.581875	2592.549477
372.968678	2602.989706
373.355418	2615.925307
373.742096	2635.258132
374.128710	2647.671973
374.515262	2664.496824
374.901751	2678.392765
375.288177	2692.008921
375.674540	2717.285267
376.060841	2733.217833
376.447079	2752.429671
376.833254	2772.664862
377.219367	2783.888991
377.605417	2823.608242
377.991404	2834.169460
378.377329	2854.424816
378.763191	2871.219420
379.148991	2909.088568
379.534727	2933.505396
379.920402	2964.266517
380.306013	2975.369658
380.691563	3026.239942
381.077049	3048.869682
381.462474	3065.881055
381.847835	3102.189966
382.233134	3124.683594
382.618371	3123.133439
383.003545	3194.765715
383.388657	3200.318546
383.773706	3230.981364
384.158693	3249.994076
384.543618	3273.677417
384.928480	3311.773416
385.313280	3355.041640
385.698017	3353.761187
386.082692	3408.694640
386.467305	3413.695465
386.851856	3446.475568
387.236344	3467.202272
387.620770	3498.896006
388.005133	3522.385262
388.389435	3552.443142
388.773674	3564.735996
389.157851	3607.028756
389.541965	3620.720530
389.926018	3587.040581
390.310008	3660.704442
390.693936	3678.000640
391.077802	3717.094788
391.461606	3707.224209
391.845348	3768.895165
392.229027	3769.605967
392.612645	3781.230868
392.996200	3859.396479
393.379694	3899.405597
393.763125	3959.841470
394.146494	3931.308539
394.529801	3993.118126
394.913047	4040.217627
395.296230	4008.728059
395.679351	4061.768559
396.062410	4086.434925
396.445408	4067.339034
396.828343	4101.664251
397.211217	4123.827684
397.594028	4046.869429
397.976778	4110.098101
398.359466	4139.026763
398.742092	4161.515350
399.124656	4085.701437
399.507158	4166.385104
399.889598	4192.208415
400.271977	4252.760234
400.654294	4226.334506
401.036549	4233.865990
401.418742	4200.962379
401.800874	4309.082526
402.182944	4325.685566
402.564952	4393.002614
402.946898	4374.579717
403.328783	4375.096435
403.710606	4284.731232
404.092367	4476.897496
404.474067	4445.768371
404.855705	4451.598466
405.237282	4379.981313
405.618797	4487.743539
406.000250	4521.025236
406.381642	4600.859469
406.762972	4568.459973
407.144240	4578.754010
407.525447	4576.377106
407.906593	4636.485303
408.287677	4680.713867
408.668700	4605.668730
409.049661	4660.622348
409.430560	4700.444943
409.811399	4628.893326
410.192176	4789.920382
410.572891	4726.106937
410.953545	4826.821629
411.334138	4710.285275
411.714669	4779.233136
412.095139	4670.470242
412.475547	4816.683868
412.855894	4793.663439
413.236180	4800.589985
413.616405	4754.564250
413.996568	4847.460112
414.376670	4788.597080
414.756711	4740.958176
415.136691	4774.554946
415.516609	4852.062686
415.896466	4888.106936
416.276262	4923.926855
416.655997	4902.696035
417.035670	5085.755455
417.415283	5175.167880
417.794834	5121.373727
418.174324	5074.652313
418.553753	4982.764682
418.933121	5162.900232
419.312428	5231.908587
419.691674	5174.754505
420.070859	5296.531138
420.449983	5204.199885
420.829045	5322.278832
421.208047	5231.480089
421.586988	5299.132374
421.965867	5313.696267
422.344686	5447.846412
422.723444	5300.904339
423.102141	5119.977328
423.480777	5416.528244
423.859352	5189.260426
424.237866	5445.512358
424.616319	5439.089928
424.994712	5545.798552
425.373044	5428.122898
425.751314	5565.378393
426.129524	5367.263568
426.507673	5558.998813
426.885762	5645.142050
427.263789	5578.553449
427.641756	5459.173885
428.019662	5578.074539
428.397508	5586.853709
428.775292	5531.842117
429.153016	5631.977077
429.530679	5555.487650
429.908282	5644.093490
430.285824	5511.001987
430.663305	5786.982475
431.040726	5524.275346
431.418086	5526.987486
431.795385	5629.640502
432.172624	5645.883100
432.549802	5636.032685
432.926920	5647.697915
433.303977	5652.965921
433.680974	5692.977559
434.057910	5710.515733
434.434786	5719.715839
434.811601	5687.785171
435.188355	5917.349234
435.565050	5792.875584
435.941683	5778.185662
436.318257	5988.638712
436.694770	5971.294622
437.071222	6009.216702
437.447614	5936.883706
437.823946	5848.545046
438.200218	6006.514643
438.576429	5871.988932
438.952580	5968.378314
439.328670	6007.074211
439.704700	5919.201858
440.080670	5899.987501
440.456580	6176.774573
440.832429	6059.265277
441.208218	5907.163583
441.583947	6057.218568
441.959616	6061.952212
442.335224	5986.551674
442.710773	6121.367251
443.086261	6149.930429
443.461689	5944.301763
443.837057	6089.696202
444.212365	6239.665488
444.587612	6134.562471
444.962800	6283.422703
445.337927	6258.960504
445.712995	5872.629159
446.088002	6441.044461
446.462949	6272.072545
446.837837	6197.720567
447.212664	6365.354056
447.587431	6504.999059
447.962139	7030.622526
448.336786	7931.814476
448.711374	7665.684403
449.085901	6754.914261
449.460369	6667.367063
449.834776	6602.237875
450.209124	6967.852599
450.583412	7103.273115
450.957640	7236.258753
451.331808	7001.497260
451.705917	6557.316153
452.079965	6469.048070
452.453954	6662.114180
452.827883	6532.949736
453.201752	6606.769873
453.575562	6404.637247
453.949311	6580.732313
454.323001	6463.091947
454.696632	6520.465319
455.070202	6628.403984
455.443713	6757.875939
455.817164	6833.440314
456.190556	6887.337811
456.563888	6930.666528
456.937160	6950.511030
457.310373	6616.592561
457.683526	6619.458457
458.056619	6495.420867
458.429653	6458.590197
458.802628	6376.235387
459.175542	6444.948834
459.548398	6729.476598
459.921194	6834.514080
460.293930	6801.290356
460.666607	7194.732249
461.039224	7414.728203
461.411782	7477.601473
461.784280	7460.680840
462.156719	7333.726942
462.529099	7188.685385
462.901419	6815.844167
463.273680	6691.055444
463.645882	6668.435787
464.018024	6510.972826
464.390106	6593.511638
464.762130	6839.751839
465.134094	7121.748944
465.505999	7801.659445
465.877845	8616.040205
466.249631	9030.239049
466.621358	8695.761012
466.993026	8163.737800
467.364634	7930.032428
467.736184	7589.860408
468.107674	7290.494007
468.479105	7217.971968
468.850477	7011.884558
469.221790	6780.419979
469.593043	6504.263050
469.964238	6338.598132
470.335373	6281.665861
470.706449	6242.085242
471.077467	6170.642009
471.448425	6841.727971
471.819324	7361.060079
472.190164	7314.096689
472.560945	6539.533483
472.931667	6023.894021
473.302330	5884.115428
473.672934	5623.069358
474.043479	5732.681687
474.413965	5635.011852
474.784393	5497.834494
475.154761	5504.037633
475.525070	5466.289473
475.895321	5325.855530
476.265513	5326.558771
476.635645	5341.326831
477.005719	5257.880612
477.375734	5238.842694
477.745691	5259.972691
478.115588	5227.943720
478.485427	5244.335031
478.855207	5362.161920
479.224928	5573.166976
479.594591	5717.520417
479.964194	5557.897321
480.333739	5441.708807
480.703226	5300.750584
481.072653	5249.408953
481.442022	5239.223301
481.811333	5220.681938
482.180584	5075.257252
482.549777	4899.573040
482.918912	4782.953508
483.287988	4711.364082
483.657005	4643.633660
484.025964	4491.244620
484.394864	4443.993885
484.763706	4360.242676
485.132489	4251.149586
485.501213	4173.097401
485.869879	4129.834218
486.238487	4029.694218
486.607036	3998.796986
486.975527	3900.436513
487.343959	3874.519941
487.712333	3827.634689
488.080648	3769.938684
488.448905	3712.537585
488.817104	3659.688649
489.185244	3645.722132
489.553326	3612.226186
489.921350	3638.089825
490.289315	3713.384499
490.657222	3703.062737
491.025070	3639.219044
491.392861	3576.272676
491.760593	3484.642143
492.128267	3404.046696
492.495883	3332.986592
492.863440	3263.736261
493.230939	3201.974565
493.598380	3164.806138
493.965763	3113.555247
494.333088	3087.497523
494.700354	3045.650905
495.067563	3029.375540
495.434713	2990.621669
495.801805	2975.142807
496.168839	2948.916204
496.535815	2923.571803
496.902733	2904.964904
497.269593	2881.359701
497.636395	2871.428628
498.003139	2850.890967
498.369825	2829.206444
498.736453	2818.851914
499.103023	2804.106539
499.469535	2791.082718
499.835989	2778.373969
500.202385	2764.253697
500.568723	2747.494381
500.935003	2746.140831
501.301226	2728.869838
501.667390	2729.404201
502.033497	2722.560834
502.399546	2711.946685
502.765537	2703.074254
503.131470	2696.561083
503.497345	2691.719055
503.863163	2682.844104
504.228923	2681.982066
504.594625	2677.192970
504.960269	2668.378513
505.325856	2667.173677
505.691385	2663.042451
506.056856	2657.739157
506.422270	2654.674136
506.787625	2653.045843
507.152924	2650.641213
507.518164	2647.616521
507.883347	2641.889770
508.248472	2639.943884
508.613540	2642.540079
508.978550	2635.989099
509.343503	2634.194448
509.708398	2634.882566
510.073236	2635.618574
510.438016	2631.668830
510.802738	2628.381998
511.167403	2632.064561
511.532010	2625.732872
511.896561	2628.886113
512.261053	2627.908130
512.625488	2622.733385
512.989866	2619.340689
513.354186	2619.128960
513.718449	2614.624689
514.082655	2618.917232
514.446803	2616.436984
514.810894	2616.328599
515.174927	2616.943620
515.538904	2614.952364
515.902822	2616.212653
516.266684	2613.324072
516.630488	2614.453290
516.994235	2614.370111
517.357925	2612.812394
517.721558	2612.068824
518.085133	2611.058073
518.448651	2614.801130
518.812112	2609.681838
519.175516	2609.276025
519.538863	2611.904987
519.902152	2609.684358
520.265385	2610.286776
520.628560	2608.862650
520.991678	2612.893053
521.354739	2609.434821
521.717743	2606.722681
522.080690	2606.200921
522.443580	2605.354007
522.806413	2610.541355
523.169189	2607.746035
523.531908	2604.252515
523.894569	2603.584562
524.257174	2606.155551
524.619722	2607.864502
524.982213	2607.670417
525.344647	2607.977928
525.707025	2606.508432
526.069345	2607.052876
526.431608	2605.119594
526.793815	2606.763010
527.155964	2606.652104
527.518057	2606.863833
527.880093	2605.457351
528.242072	2607.367948
528.603995	2604.050869
528.965860	2605.724532
529.327669	2605.883328
529.689421	2606.798298
530.051117	2603.839141
530.412755	2605.936261
530.774337	2604.192021
531.135862	2600.169181
531.497331	2600.733790
531.858743	2594.646597
532.220098	2602.926692
532.581396	2598.127513
532.942638	2598.440065
533.303824	2600.043152
533.664953	2601.951228
534.026025	2600.753954
534.387040	2600.751434
534.747999	2601.550457
535.108902	2602.362082
535.469748	2601.724377
535.830537	2601.668924
536.191270	2602.697319
536.551947	2602.994747
536.912567	2599.838985
537.273131	2599.569283
537.633638	2600.706063
537.994089	2600.272524
538.354483	2599.135744
538.714821	2600.146495
539.075103	2598.598861
539.435328	2599.869232
539.795497	2602.316712
540.155609	2598.654314
540.515665	2598.825713
540.875665	2599.493666
541.235609	2599.309664
541.595496	2597.341093
541.955328	2602.188163
542.315102	2601.227823
542.674821	2601.424428
543.034483	2598.800507
543.394090	2599.370158
543.753640	2603.531630
544.113134	2599.337390
544.472571	2598.795466
544.831953	2599.329828
545.191278	2600.552308
545.550548	2598.659355
545.909761	2601.764706
546.268918	2600.786722
546.628019	2602.026846
546.987064	2598.321598
547.346053	2600.784201
547.704986	2598.399736
548.063863	2600.549788
548.422684	2601.784870
548.781449	2597.716659
549.140158	2597.787235
549.498811	2599.876794
549.857408	2599.483584
550.215949	2597.850250
550.574434	2595.231370
550.932864	2598.114910
551.291237	2596.151381
551.649555	2599.067688
552.007817	2600.244798
552.366022	2601.532813
552.724173	2600.592637
553.082267	2602.944336
553.440305	2601.658842
553.798288	2600.927874
554.156215	2600.254880
554.514086	2602.692278
554.871902	2600.973245
555.229661	2598.172884
555.587365	2603.138420
555.945014	2601.875611
556.302606	2600.174222
556.660143	2598.777822
557.017625	2599.420569
557.375050	2599.871752
557.732421	2601.061465
558.089735	2601.000971
558.446994	2599.201279
558.804197	2601.217741
559.161345	2602.823348
559.518437	2599.072730
559.875474	2599.549119
560.232455	2598.918974
560.589381	2601.898296
560.946251	2599.397884
561.303065	2601.406784
561.659825	2601.409304
562.016528	2596.836978
562.373177	2597.782194
562.729770	2601.391660
563.086307	2600.549788
563.442789	2602.099942
563.799216	2600.227154
564.155587	2598.997112
564.511904	2598.901330
564.868164	2599.571804
565.224370	2601.608430
565.580520	2600.862339
565.936615	2600.380909
566.292654	2599.244129
566.648638	2598.926536
567.004567	2594.024014
567.360441	2598.485435
567.716260	2598.245980
568.072023	2597.845209
568.427732	2591.231215
568.783385	2598.533326
569.138982	2593.882862
569.494525	2594.197934
569.850013	2594.606267
570.205445	2595.977461
570.560823	2597.003336
570.916145	2595.884200
571.271412	2596.549632
571.626625	2598.220775
571.981782	2595.206165
572.336884	2597.083994
572.691931	2595.392687
573.046923	2596.899992
573.401860	2597.182297
573.756743	2594.084508
574.111570	2593.567790
574.466342	2597.020980
574.821059	2594.833119
575.175722	2595.501072
575.530330	2596.632811
575.884882	2595.916967
576.239380	2594.938983
576.593823	2594.661720
576.948211	2594.515527
577.302544	2595.773294
577.656823	2592.635176
578.011047	2592.642738
578.365216	2594.633994
578.719330	2592.788931
579.073389	2591.826071
579.427394	2592.052923
579.781344	2592.073088
580.135239	2592.347830
580.489080	2593.819847
580.842866	2594.560897
581.196597	2600.824531
581.550273	2593.091401
581.903895	2593.749271
582.257463	2592.549477
582.610975	2591.503437
582.964434	2592.849425
583.317837	2590.487645
583.671186	2593.487131
584.024481	2592.153746
584.377721	2591.011925
584.730906	2591.011925
585.084037	2591.059816
585.437113	2588.955134
585.790135	2590.742223
586.143103	2589.847418
586.496016	2591.649631
586.848874	2585.683425
587.201679	2587.946903
587.554428	2587.750298
587.907124	2588.040164
588.259765	2586.704259
588.612352	2589.774321
588.964884	2590.863211
589.317362	2591.458067
589.669786	2587.649475
590.022155	2590.878334
590.374470	2589.998653
590.726731	2592.678026
591.078937	2586.484968
591.431090	2591.558890
591.783188	2587.674681
592.135232	2589.398755
592.487222	2591.702563
592.839157	2590.684250
593.191038	2587.760380
593.542866	2588.740885
593.894639	2587.939341
594.246358	2584.697879
594.598022	2589.638210
594.949633	2584.539083
595.301190	2588.816502
595.652692	2585.282653
596.004141	2585.811974
596.355535	2587.793148
596.706876	2585.305338
597.058162	2585.764083
597.409395	2587.546131
597.760573	2586.842890
598.111698	2587.243662
598.462768	2588.519074
598.813785	2586.704259
599.164748	2584.531521
599.515657	2585.801892
599.866511	2582.477251
600.217312	2584.985225
600.568060	2583.324165
600.918753	2585.658219
601.269392	2585.312900
601.619978	2583.503126
601.970510	2587.682243
602.320988	2583.979515
602.671412	2587.687284
603.021783	2582.875502
603.372100	2582.285687
603.722363	2585.665781
604.072572	2585.345668
604.422728	2586.326172
604.772830	2582.131932
605.122878	2578.842579
605.472872	2584.312231
605.822813	2578.532548
606.172701	2583.399782
606.522534	2583.140163
606.872314	2585.582602
607.222041	2584.297108
607.571714	2584.395410
607.921333	2584.770976
608.270899	2584.324834
608.620411	2586.096800
608.969870	2587.347006
609.319276	2587.127716
609.668627	2588.216605
610.017926	2590.575865
610.367171	2591.768098
610.716362	2594.513006
611.065500	2592.539394
611.414585	2589.519743
611.763616	2586.530339
612.112594	2588.529156
612.461518	2588.965216
612.810389	2586.132088
613.159207	2586.850452
613.507971	2587.412541
613.856682	2586.802561
614.205340	2585.882551
614.553945	2588.372881
614.902496	2585.688466
615.250994	2582.552868
615.599439	2585.517067
615.947830	2583.508167
616.296169	2584.460945
616.644454	2584.912128
616.992686	2584.776017
617.340864	2585.978332
617.688990	2584.123188
618.037063	2589.134095
618.385082	2584.508836
618.733048	2586.149732
619.080961	2585.602767
619.428821	2585.902715
619.776628	2587.339444
620.124382	2587.503282
620.472083	2586.454722
620.819731	2585.955647
621.167326	2584.634865
621.514868	2583.198136
621.862357	2584.080338
622.209793	2584.924731
622.557176	2582.245358
622.904506	2586.270719
623.251783	2578.683783
623.599007	2580.458269
623.946179	2579.384503
624.293297	2577.340315
624.640363	2582.283167
624.987376	2582.129412
625.334336	2580.357446
625.681243	2580.609504
626.028097	2578.925758
626.374899	2581.922724
626.721647	2580.115471
627.068343	2582.263002
627.414987	2581.080852
627.761577	2579.104719
628.108115	2580.599421
628.454600	2582.212591
628.801032	2581.690831
629.147412	2575.550706
629.493739	2579.835687
629.840014	2578.381314
630.186236	2579.366859
630.532405	2578.396437
630.878521	2579.059349
631.224585	2577.907445
631.570597	2575.953998
631.916556	2577.136149
632.262462	2575.792681
632.608316	2577.423494
632.954117	2576.753021
633.299866	2576.432908
633.645562	2576.944585
633.991206	2575.265881
634.336797	2575.475088
634.682336	2574.139183
635.027823	2575.676735
635.373257	2574.711354
635.718639	2571.250602
636.063968	2573.693041
636.409245	2571.185067
636.754470	2573.501477
637.099642	2570.819583
637.444762	2573.874522
637.789829	2571.094326
638.134845	2572.669686
638.479808	2571.676579
638.824719	2571.101887
639.169577	2570.587690
639.514383	2569.463512
639.859137	2569.972669
640.203839	2572.790674
640.548489	2572.354614
640.893086	2567.671382
641.237632	2565.160888
641.582125	2571.941240
641.926566	2565.367575
642.270955	2570.764130
642.615292	2571.822772
642.959576	2571.706826
643.303809	2568.513255
643.647990	2568.102401
643.992118	2569.408060
644.336195	2572.094995
644.680219	2569.415622
645.024192	2571.137176
645.368112	2571.237999
645.711981	2572.652042
646.055797	2569.919737
646.399562	2572.805797
646.743274	2571.089285
647.086935	2572.546178
647.430544	2570.978379
647.774101	2571.437124
648.117606	2572.387382
648.461059	2575.901066
648.804460	2572.382341
649.147810	2570.716239
649.491108	2571.921075
649.834354	2572.720098
650.177548	2572.150447
650.520690	2568.908986
650.863781	2568.354459
651.206820	2572.924265
651.549807	2570.343194
651.892742	2571.495098
652.235626	2567.305899
652.578458	2569.410580
652.921238	2568.140210
653.263967	2566.355641
653.606644	2569.080385
653.949269	2566.637946
654.291843	2568.034345
654.634365	2568.150292
654.976836	2569.297154
655.319255	2567.237843
655.661622	2567.411763
656.003938	2567.537792
656.346203	2566.947977
656.688416	2564.986968
657.030577	2566.267421
657.372687	2568.054510
657.714746	2567.961249
658.056753	2569.181208
658.398708	2557.563869
658.740612	2561.866494
659.082465	2562.773901
659.424266	2563.900599
659.766016	2562.219374
660.107715	2564.954200
660.449362	2567.154664
660.790958	2564.578634
661.132503	2564.684499
661.473996	2565.735579
661.815438	2568.064592
662.156829	2565.193655
662.498168	2567.815055
662.839456	2566.844633
663.180693	2567.003429
663.521879	2568.120045
663.863013	2565.672565
664.204097	2564.213151
664.545129	2565.791032
664.886110	2567.734397
665.227040	2565.856567
665.567918	2566.955538
665.908746	2565.372616
666.249522	2566.234653
666.590248	2566.088460
666.930922	2566.602658
667.271545	2568.019222
667.612118	2565.788511
667.952639	2567.608368
668.293109	2568.120045
668.633528	2566.751372
668.973896	2566.983265
669.314213	2565.954869
669.654480	2567.101732
669.994695	2566.247256
670.334859	2566.103583
670.674973	2565.826320
671.015035	2569.428224
671.355047	2566.106104
671.695008	2565.793552
672.034918	2566.063254
672.374777	2566.310271
672.714585	2565.150805
673.054342	2566.960580
673.394049	2567.477298
673.733705	2568.926630
674.073310	2568.009140
674.412864	2565.775908
674.752368	2566.007802
675.091820	2564.598799
675.431223	2564.694581
675.770574	2567.157185
676.109875	2561.682492
676.449125	2563.739282
676.788324	2559.280382
677.127473	2562.844477
677.466571	2559.640824
677.805619	2564.724828
678.144616	2564.389591
678.483562	2564.445044
678.822458	2564.069478
679.161303	2567.321022
679.500098	2563.666186
679.838842	2564.114848
680.177535	2562.844477
680.516179	2565.821279
680.854771	2563.822461
681.193314	2563.956052
681.531805	2563.063768
681.870247	2564.699622
682.208638	2567.449572
682.546978	2568.803121
682.885268	2567.890673
683.223508	2566.128789
683.561697	2565.430589
683.899836	2567.356310
684.237925	2565.717935
684.575963	2563.353634
684.913951	2566.043090
685.251889	2565.816238
685.589776	2566.600137
685.927614	2563.895558
686.265401	2563.688871
686.603137	2567.164746
686.940824	2568.556105
687.278460	2568.336815
687.616046	2565.281875
687.953582	2566.257339
688.291068	2565.977555
688.628504	2564.911351
688.965889	2565.826320
689.303224	2567.212637
689.640510	2565.417987
689.977745	2566.272462
690.314930	2564.288768
690.652065	2564.550908
690.989150	2563.114179
691.326185	2562.015208
691.663170	2560.288613
692.000105	2560.815413
692.336990	2559.376164
692.673825	2561.679971
693.010610	2558.219219
693.347345	2557.115206
693.684030	2555.517160
694.020665	2555.819630
694.357251	2550.281922
694.693786	2556.106975
695.030272	2557.415155
695.366707	2561.087635
695.703093	2556.762325
696.039429	2560.192831
696.375716	2558.010011
696.711952	2559.247614
697.048139	2558.937583
697.384276	2556.134702
697.720363	2558.315001
698.056400	2554.730740
698.392388	2555.660833
698.728326	2558.168807
699.064214	2556.442212
699.400053	2556.021276
699.735842	2555.595298
700.071581	2557.679815
700.407270	2552.875596
700.742910	2556.704352
701.078501	2553.740154
701.414042	2555.376008
701.749533	2555.554969
702.084974	2556.716955
702.420366	2552.585729
702.755709	2554.546738
703.091002	2552.119423
703.426246	2552.704197
703.761440	2553.861141
704.096584	2556.913560
704.431679	2555.829712
704.766725	2554.312325
705.101721	2552.840308
705.436668	2555.726368
705.771565	2553.208312
706.106413	2553.616645
706.441212	2555.065977
706.775961	2553.094886
707.110661	2553.261244
707.445311	2555.328117
707.779913	2552.628579
708.114465	2555.381049
708.448967	2553.785524
708.783421	2554.841646
709.117825	2554.670247
709.452180	2556.260731
709.786485	2557.021945
710.120742	2557.654610
710.454949	2557.659651
710.789107	2557.914229
711.123216	2555.698642
711.457275	2556.202757
711.791286	2554.902140
712.125247	2553.876265
712.459159	2557.236194
712.793023	2559.421534
713.126837	2557.296688
713.460602	2558.032696
713.794318	2559.020762
714.127985	2558.332645
714.461602	2556.774928
714.795171	2554.892057
715.128691	2557.324414
715.462162	2555.857438
715.795584	2554.357695
716.128957	2553.697304
716.462281	2553.984650
716.795556	2553.702345
717.128782	2551.814433
717.461960	2553.783003
717.795088	2554.708055
718.128167	2553.752757
718.461198	2552.003476
718.794180	2554.191337
719.127113	2551.179248
719.459997	2554.592109
719.792833	2550.506253
720.125619	2552.696635
720.458357	2551.048177
720.791046	2550.506253
721.123686	2549.278733
721.456278	2549.803013
721.788821	2549.712272
722.121315	2551.877447
722.453761	2548.575492
722.786158	2547.073228
723.118506	2549.377035
723.450805	2549.429967
723.783056	2551.118754
724.115259	2550.037426
724.447412	2551.511964
724.779518	2550.899463
725.111574	2549.460214
725.443582	2552.802499
725.775542	2549.654298
726.107453	2554.219063
726.439315	2550.211346
726.771129	2552.868034
727.102895	2552.890719
727.434612	2552.784855
727.766281	2552.154711
728.097901	2550.188661
728.429473	2548.600697
728.760996	2550.707900
729.092471	2549.848383
729.423897	2552.767211
729.755276	2550.871737
730.086606	2553.241079
730.417887	2554.398024
730.749120	2557.384908
731.080305	2552.933569
731.411442	2554.513971
731.742530	2553.838456
732.073570	2556.028838
732.404562	2553.155380
732.735506	2556.424568
733.066401	2554.962633
733.397249	2553.722510
733.728048	2556.192675
734.058798	2553.840977
734.389501	2552.333672
734.720156	2552.772252
735.050762	2549.898794
735.381320	2550.954916
735.711831	2550.324772
736.042293	2547.516849
736.372707	2550.710420
736.703073	2549.036757
737.033391	2549.334185
737.363661	2549.805533
737.693883	2549.863506
738.024056	2553.893909
738.354182	2548.872920
738.684260	2551.877447
739.014290	2550.997766
739.344272	2551.605225
739.674207	2550.110523
740.004093	2551.222097
740.333931	2550.765873
740.663722	2550.518856
740.993464	2550.652447
741.323159	2553.508261
741.652806	2551.663198
741.982405	2551.310318
742.311956	2552.497509
742.641460	2551.048177
742.970915	2549.046839
743.300323	2548.285625
743.629683	2549.182951
743.958996	2549.838301
744.288260	2549.782848
744.617477	2549.525749
744.946647	2545.041643
745.275768	2546.238917
745.604842	2543.514173
745.933869	2542.876467
746.262847	2542.886549
746.591778	2547.990718
746.920662	2547.781510
747.249498	2547.337888
747.578286	2550.544062
747.907027	2545.984338
748.235720	2547.617672
748.564365	2549.099772
748.892963	2544.194729
749.221514	2545.946530
749.550017	2547.796633
749.878473	2549.377035
750.206881	2547.975594
750.535242	2549.651778
750.863555	2545.903680
751.191821	2545.606252
751.520039	2547.854607
751.848210	2549.185471
752.176334	2546.470810
752.504411	2544.603062
752.832440	2545.533155
753.160421	2546.566592
753.488356	2546.337219
753.816243	2545.696993
754.144082	2542.838658
754.471875	2547.466438
754.799620	2550.382745
755.127318	2547.468958
755.454969	2545.528114
755.782572	2546.944678
756.110129	2546.332178
756.437638	2545.175233
756.765100	2545.386962
757.092515	2544.729091
757.419882	2545.724719
757.747203	2549.266130
758.074477	2543.544420
758.401703	2546.528783
758.728882	2545.034081
759.056014	2544.567774
759.383099	2548.169679
759.710138	2548.938455
760.037129	2546.551468
760.364073	2547.315203
760.690970	2547.466438
761.017820	2546.934596
761.344623	2547.529452
761.671379	2547.436191
761.998088	2543.315047
762.324751	2545.644061
762.651366	2548.552806
762.977935	2557.619322
763.304456	2560.586041
763.630931	2565.785991
763.957359	2559.045968
764.283740	2559.429096
764.610074	2557.352140
764.936362	2553.054557
765.262602	2550.309648
765.588796	2547.312683
765.914943	2547.801674
766.241044	2544.996272
766.567097	2544.852599
766.893104	2543.814122
767.219064	2545.921324
767.544978	2546.178423
767.870845	2544.063659
768.196665	2545.399565
768.522438	2544.192208
768.848165	2546.740512
769.173846	2540.711292
769.499479	2544.003165
769.825066	2544.373690
770.150607	2546.546427
770.476101	2541.613658
770.801548	2543.178936
771.126949	2542.314378
771.452303	2544.736653
771.777611	2540.645757
772.102872	2541.081816
772.428087	2544.648433
772.753256	2543.622558
773.078378	2539.803884
773.403453	2542.783206
773.728482	2543.287321
774.053465	2540.459234
774.378401	2543.385624
774.703291	2539.995448
775.028135	2540.512166
775.352932	2537.699202
775.677683	2540.534851
776.002388	2539.698020
776.327046	2539.365303
776.651658	2537.895807
776.976224	2538.430169
777.300743	2538.722556
777.625216	2540.499563
777.949643	2540.423946
778.274024	2538.515869
778.598359	2537.225334
778.922647	2538.203317
779.246889	2538.168029
779.571086	2535.269366
779.895236	2538.435211
780.219339	2539.413194
780.543397	2537.817669
780.867409	2541.162475
781.191374	2539.768596
781.515294	2537.880684
781.839167	2540.645757
782.162995	2540.860006
782.486776	2540.171888
782.810511	2541.835469
783.134201	2539.574511
783.457844	2541.323792
783.781441	2539.030067
784.104993	2539.201466
784.428498	2538.132741
784.751958	2539.514018
785.075372	2539.367824
785.398739	2539.692978
785.722061	2539.085519
786.045337	2539.715664
786.368568	2537.212731
786.691752	2538.044521
787.014891	2539.214069
787.337983	2539.874460
787.661030	2542.372352
787.984031	2542.969728
788.306987	2541.318751
788.629897	2544.131714
788.952760	2541.646426
789.275579	2543.214224
789.598351	2540.340767
789.921078	2539.057793
790.243759	2541.966539
790.566395	2540.723894
790.888984	2540.023174
791.211529	2539.148534
791.534027	2540.272711
791.856480	2538.089892
792.178888	2539.330015
792.501249	2540.522248
792.823566	2540.590304
793.145836	2541.361600
793.468062	2540.202135
793.790241	2538.994779
794.112375	2540.134079
794.434464	2539.839172
794.756507	2539.312371
795.078505	2541.059131
795.400457	2536.353214
795.722364	2536.532175
796.044226	2537.951260
796.366042	2535.710467
796.687812	2537.868081
797.009538	2538.601569
797.331218	2540.940664
797.652852	2540.116435
797.974442	2539.801363
798.295986	2538.276414
798.617484	2539.443441
798.938938	2538.268853
799.260346	2540.509645
799.581709	2540.552495
799.903026	2538.457896
800.224299	2540.217258
800.545526	2538.878832
800.866708	2535.944881
801.187845	2539.231713
801.508936	2539.486291
801.829983	2538.861188
802.150984	2538.289017
802.471940	2538.183153
802.792851	2538.399922
803.113717	2537.260622
803.434538	2534.800539
803.755314	2538.866229
804.076045	2535.463450
804.396731	2538.581404
804.717372	2540.055942
805.037967	2539.723225
805.358518	2536.272556
805.679024	2538.132741
805.999485	2538.669624
806.319901	2537.646270
806.640272	2539.400592
806.960598	2539.488812
807.280879	2539.748431
807.601115	2537.656352
807.921306	2538.510828
808.241453	2537.744573
808.561554	2540.098791
808.881611	2539.382947
809.201623	2539.178781
809.521590	2537.300951
809.841513	2539.882022
810.161390	2538.059645
810.481223	2536.002854
810.801011	2537.200128
811.120755	2539.261960
811.440453	2537.328677
811.760107	2539.420756
812.079716	2534.248532
812.399281	2533.754499
812.718801	2534.644263
813.038276	2532.922709
813.357707	2537.290869
813.677093	2534.150230
813.996434	2539.811446
814.315731	2536.501928
814.634983	2537.197607
814.954191	2536.486805
815.273354	2536.701054
815.592473	2537.613502
815.911547	2540.005530
816.230577	2538.803215
816.549562	2538.175591
816.868502	2537.535365
817.187399	2538.911600
817.506250	2535.758358
817.825058	2539.531662
818.143821	2539.750952
818.462539	2542.329502
818.781213	2538.641898
819.099843	2542.417722
819.418429	2544.280428
819.736970	2543.360418
820.055466	2545.722198
820.373919	2549.843342
820.692327	2549.437529
821.010691	2556.951369
821.329011	2571.616085
821.647286	2593.096442
821.965517	2618.665174
822.283704	2636.727628
822.601847	2643.003865
822.919945	2631.875518
823.237999	2612.577981
823.556010	2595.833788
823.873976	2587.629310
824.191897	2576.874009
824.509775	2565.869170
824.827609	2564.263562
825.145398	2558.715773
825.463144	2561.095197
825.780845	2556.482541
826.098502	2561.470763
826.416116	2569.637432
826.733685	2577.471385
827.051210	2581.572364
827.368692	2580.307034
827.686129	2568.682134
828.003522	2562.526885
828.320872	2553.858621
828.638177	2550.670091
828.955439	2545.505429
829.272656	2547.098433
829.589830	2541.326312
829.906960	2543.052907
830.224046	2543.491488
830.541088	2539.849254
830.858086	2540.832279
831.175041	2540.401261
831.491952	2540.973432
831.808819	2541.104502
832.125642	2541.139790
832.442421	2539.829090
832.759157	2547.075748
833.075849	2551.683363
833.392497	2553.770401
833.709101	2559.083777
834.025662	2560.575958
834.342179	2556.316183
834.658653	2554.450956
834.975083	2549.205636
835.291469	2549.445091
835.607811	2544.703885
835.924110	2541.742208
836.240366	2539.219110
836.556578	2539.261960
836.872746	2539.700540
837.188871	2536.953111
837.504952	2540.071065
837.820990	2537.381609
838.136984	2537.721887
838.452935	2536.567463
838.768842	2535.332380
839.084706	2535.400436
839.400526	2540.111394
839.716303	2543.027702
840.032037	2544.867723
840.347727	2545.099616
840.663373	2543.201622
840.978977	2539.763555
841.294537	2538.402443
841.610054	2538.634336
841.925527	2536.086033
842.240957	2539.173740
842.556344	2535.425642
842.871687	2535.793646
843.186987	2536.383461
843.502244	2532.486649
843.817458	2535.634850
844.132629	2532.325332
844.447756	2536.474202
844.762840	2529.081350
845.077881	2532.133768
845.392879	2528.476411
845.707833	2534.593851
846.022745	2524.844260
846.337613	2534.379602
846.652438	2532.592513
846.967221	2534.777853
847.281960	2535.395395
847.596656	2537.679037
847.911309	2533.474715
848.225919	2531.841381
848.540485	2533.003367
848.855009	2536.731301
849.169490	2534.661907
849.483928	2535.218954
849.798323	2533.124355
850.112675	2533.136958
850.426984	2534.939170
850.741251	2533.792308
851.055474	2533.073943
851.369654	2535.584438
851.683792	2534.132586
851.997887	2531.864067
852.311938	2534.064530
852.625947	2533.429345
852.939914	2532.161495
853.253837	2535.150899
853.567718	2531.556556
853.881555	2534.321629
854.195350	2528.257121
854.509103	2536.033101
854.822812	2530.525640
855.136479	2535.019829
855.450103	2533.389016
855.763685	2534.298944
856.077224	2531.367513
856.390720	2535.491177
856.704173	2535.914634
857.017584	2532.133768
857.330953	2532.915147
857.644278	2532.673172
857.957561	2538.692309
858.270802	2533.588141
858.584000	2534.014119
858.897155	2532.685775
859.210268	2532.698378
859.523339	2534.765251
859.836367	2534.581248
860.149352	2532.143851
860.462295	2533.716691
860.775195	2530.908768
861.088054	2528.610002
861.400869	2531.294416
861.713642	2530.800383
862.026373	2531.180990
862.339062	2533.807431
862.651708	2529.230064
862.964312	2533.903213
863.276873	2533.840199
863.589392	2533.706608
863.901869	2533.799870
864.214303	2534.082174
864.526696	2536.138965
864.839045	2533.930940
865.151353	2532.133768
865.463619	2533.729293
865.775842	2533.953625
866.088023	2530.833151
866.400162	2533.199972
866.712258	2535.498738
867.024313	2531.652338
867.336325	2533.522606
867.648296	2535.975128
867.960224	2533.744417
868.272110	2535.949922
868.583954	2534.407329
868.895755	2535.387833
869.207515	2534.608975
869.519233	2535.864222
869.830909	2533.436907
870.142542	2535.294572
870.454134	2536.149047
870.765684	2535.178625
871.077191	2535.876825
871.388657	2534.528316
871.700081	2534.349355
872.011463	2532.925229
872.322803	2534.278779
872.634101	2533.782226
872.945357	2534.949253
873.256571	2536.436393
873.567744	2535.002185
873.878874	2534.029242
874.189963	2536.184335
874.501010	2536.363296
874.812015	2534.520755
875.122979	2535.208872
875.433900	2535.907072
875.744780	2535.382792
876.055618	2538.261291
876.366415	2535.866743
876.677169	2537.026208
876.987882	2534.561084
877.298554	2530.495393
877.609183	2534.830786
877.919771	2530.949097
878.230317	2534.140147
878.540822	2540.562578
878.851285	2538.994779
879.161707	2540.607948
879.472087	2542.185829
879.782425	2543.945192
880.092722	2549.235883
880.402977	2558.113355
880.713191	2568.571228
881.023363	2582.643609
881.333494	2596.189190
881.643583	2592.355392
881.953631	2595.874117
882.263637	2588.564444
882.573602	2585.849783
882.883526	2574.797053
883.193408	2571.482495
883.503248	2565.932184
883.813048	2560.250804
884.122806	2556.336348
884.432522	2552.923487
884.742197	2548.230172
885.051831	2546.906870
885.361424	2542.334543
885.670975	2544.754297
885.980485	2540.368493
886.289954	2541.633823
886.599382	2539.773637
886.908768	2538.520910
887.218113	2540.063503
887.527417	2535.523944
887.836680	2537.414377
888.145901	2539.012423
888.455082	2536.285158
888.764221	2534.714839
889.073319	2534.790456
889.382376	2535.410518
889.691392	2536.950591
890.000366	2536.620395
890.309300	2534.223327
890.618193	2534.866074
890.927044	2534.487987
891.235855	2536.494366
891.544625	2535.249201
891.853353	2535.541588
892.162041	2537.386651
892.470687	2537.638708
892.779293	2538.281455
893.087858	2534.545960
893.396381	2536.829603
893.704864	2543.819163
894.013306	2540.844882
894.321707	2550.012220
894.630068	2553.735113
894.938387	2554.667726
895.246665	2554.045143
895.554903	2552.303425
895.863100	2546.985007
896.171256	2546.490974
896.479371	2545.366797
896.787446	2544.839997
897.095480	2542.382434
897.403473	2541.444779
897.711425	2537.328677
898.019336	2540.759183
898.327207	2536.834644
898.635038	2537.984027
898.942827	2536.839685
899.250576	2537.066537
899.558284	2536.544778
899.865952	2537.255581
900.173579	2536.711136
900.481165	2534.558563
900.788711	2532.844571
901.096216	2534.656866
901.403681	2533.759540
901.711105	2535.448327
902.018489	2533.320960
902.325832	2536.693492
902.633135	2532.539581
902.940397	2536.892618
903.247619	2539.486291
903.554800	2541.626261
903.861941	2549.528270
904.169041	2558.239383
904.476101	2561.506051
904.783121	2561.657286
905.090100	2558.267110
905.397039	2553.399876
905.703938	2549.893753
906.010796	2542.637012
906.317614	2541.001158
906.624391	2541.757331
906.931129	2538.772968
907.237826	2536.184335
907.544483	2536.441434
907.851099	2536.207021
908.157675	2533.414221
908.464211	2533.288192
908.770707	2529.832482
909.077163	2531.491021
909.383578	2531.339787
909.689954	2531.029756
909.996289	2528.431041
910.302584	2532.768954
910.608839	2534.326670
910.915054	2532.932791
911.221229	2535.471012
911.527363	2532.267359
911.833458	2535.652494
912.139513	2533.280631
912.445527	2532.738707
912.751502	2534.024201
913.057436	2534.891279
913.363331	2535.266845
913.669186	2533.504962
913.975000	2535.788605
914.280775	2535.556712
914.586510	2540.565098
914.892205	2542.488298
915.197859	2546.778320
915.503475	2551.370811
915.809050	2555.534804
916.114585	2558.287274
916.420081	2561.569066
916.725536	2559.766853
917.030952	2559.542522
917.336328	2554.645041
917.641665	2551.640513
917.946961	2548.368804
918.252218	2546.359904
918.557435	2541.182639
918.862612	2541.858154
919.167750	2538.727598
919.472848	2539.178781
919.777906	2538.349511
920.082925	2536.317926
920.387904	2537.187525
920.692843	2537.127031
920.997743	2532.461443
921.302603	2535.425642
921.607423	2536.612833
921.912204	2535.891948
922.216946	2534.029242
922.521647	2535.362627
922.826310	2534.273738
923.130932	2534.495549
923.435516	2531.896834
923.740059	2535.055117
924.044564	2531.690147
924.349028	2531.092770
924.653454	2527.077491
924.957840	2528.962883
925.262186	2524.970289
925.566493	2529.366175
925.870761	2527.453057
926.174989	2531.382636
926.479178	2532.267359
926.783328	2530.543284
927.087438	2531.743079
927.391509	2531.503624
927.695541	2530.795342
927.999533	2532.239632
928.303486	2531.843902
928.607400	2531.922040
928.911275	2530.013963
929.215110	2531.349869
929.518906	2529.771988
929.822663	2533.857843
930.126381	2527.632018
930.430060	2532.050589
930.733699	2532.395908
931.037299	2529.905578
931.340861	2530.223171
931.644383	2529.282996
931.947866	2530.349200
932.251309	2531.899355
932.554714	2530.762574
932.858080	2533.951104
933.161407	2528.710825
933.464694	2528.829292
933.767943	2528.887265
934.071153	2529.940866
934.374323	2529.711494
934.677455	2532.088398
934.980548	2527.742923
935.283602	2530.571011
935.586617	2528.867101
935.889593	2530.659231
936.192530	2529.300640
936.495428	2530.540764
936.798287	2529.240146
937.101108	2531.117976
937.403890	2530.961700
937.706632	2531.859025
938.009336	2532.592513
938.312002	2534.301464
938.614628	2531.223840
938.917216	2532.602596
939.219765	2530.006401
939.522275	2532.506814
939.824747	2534.558563
940.127179	2528.821730
940.429573	2527.949611
940.731929	2531.632173
941.034246	2526.096987
941.336524	2527.664785
941.638763	2530.654190
941.940964	2531.054961
942.243126	2532.589993
942.545250	2529.411545
942.847335	2530.956659
943.149381	2526.555732
943.451389	2527.274096
943.753359	2532.738707
944.055290	2528.630166
944.357182	2531.634694
944.659036	2530.157636
944.960851	2529.764426
945.262628	2530.230733
945.564367	2530.039169
945.866067	2530.437420
946.167729	2530.979344
946.469352	2531.440610
946.770937	2532.761392
947.072484	2532.620240
947.373992	2530.349200
947.675462	2529.189734
947.976893	2530.137471
948.278286	2528.783922
948.579641	2531.054961
948.880958	2529.877852
949.182236	2529.421627
949.483476	2532.189221
949.784678	2531.551515
950.085841	2529.852646
950.386967	2528.796524
950.688054	2531.135620
950.989103	2528.572193
951.290114	2529.837523
951.591087	2529.172090
951.892021	2529.779549
952.192917	2529.633356
952.493776	2531.407842
952.794596	2530.228212
953.095378	2528.229395
953.396122	2530.442461
953.696828	2527.566483
953.997496	2529.557739
954.298126	2530.691998
954.598718	2531.397760
954.899272	2527.127902
955.199788	2529.252749
955.500266	2529.683768
955.800706	2525.429034
956.101108	2525.386184
956.401472	2527.584127
956.701798	2526.008766
957.002087	2524.952645
957.302337	2528.317615
957.602550	2530.215609
957.902724	2528.045392
958.202861	2531.095291
958.502960	2524.118334
958.803022	2530.712163
959.103045	2527.914322
959.403031	2529.666123
959.702979	2526.316277
960.002889	2528.599919
960.302762	2527.735362
960.602596	2528.146216
960.902393	2528.050434
961.202153	2529.590506
961.501875	2528.461288
961.801559	2527.576565
962.101205	2527.871473
962.400814	2528.804086
962.700385	2528.738551
962.999918	2527.702594
963.299414	2527.362316
963.598873	2529.640918
963.898293	2525.847449
964.197677	2529.608150
964.497022	2524.612367
964.796331	2527.710156
965.095601	2526.880886
965.394835	2527.357275
965.694030	2525.502130
965.993189	2529.134282
966.292309	2525.245032
966.591393	2525.325690
966.890439	2525.880217
967.189447	2525.940711
967.488419	2525.643283
967.787353	2530.190403
968.086249	2527.929446
968.385108	2528.315094
968.683930	2528.960362
968.982714	2529.540095
969.281462	2527.707635
969.580172	2529.063706
969.878844	2525.169414
970.177480	2527.805938
970.476078	2527.069929
970.774639	2527.279137
971.073162	2528.000022
971.371649	2526.170083
971.670098	2524.035155
971.968510	2523.609177
972.266885	2522.895854
972.565223	2527.649662
972.863524	2526.782583
973.161788	2527.584127
973.460014	2526.906092
973.758204	2528.647810
974.056356	2528.703263
974.354471	2526.959024
974.652550	2527.228726
974.950591	2526.596061
975.248595	2528.204189
975.546563	2526.820392
975.844493	2525.575227
976.142386	2524.834177
976.440243	2526.001205
976.738062	2528.887265
977.035845	2527.541277
977.333590	2525.282840
977.631299	2525.262676
977.928971	2529.255269
978.226606	2526.795186
978.524204	2528.002543
978.821765	2526.341483
979.119290	2527.316946
979.416777	2523.946934
979.714228	2527.962213
980.011642	2527.541277
980.309020	2530.044210
980.606360	2527.347193
980.903664	2529.033459
981.200931	2528.332738
981.498162	2529.318284
981.795356	2525.184538
982.092513	2529.282996
982.389633	2526.180166
982.686717	2529.386339
982.983764	2527.551359
983.280775	2529.812317
983.577749	2527.684950
983.874686	2527.299302
984.171587	2528.189065
984.468451	2529.222502
984.765279	2526.631349
985.062070	2526.316277
985.358824	2528.804086
985.655543	2527.420289
985.952224	2525.459281
986.248869	2527.914322
986.545478	2522.958868
986.842050	2525.509692
987.138586	2521.963240
987.435086	2523.394928
987.731549	2521.693539
988.027975	2526.787625
988.324366	2526.366688
988.620719	2526.986750
988.917037	2526.311236
989.213318	2526.623787
989.509563	2524.526667
989.805772	2528.317615
990.101944	2524.027593
990.398080	2525.905423
990.694180	2526.727131
990.990244	2528.017666
991.286271	2525.791997
991.582262	2527.516071
991.878217	2524.262007
992.174136	2525.388704
992.470019	2524.181348
992.765865	2529.250228
993.061676	2527.417769
993.357450	2529.121679
993.653188	2528.715866
993.948890	2527.783253
994.244556	2525.562624
994.540186	2526.454908
994.835780	2524.990453
995.131337	2528.688140
995.426859	2525.353416
995.722345	2525.386184
996.017795	2529.066226
996.313208	2527.947090
996.608586	2527.886596
996.903928	2526.583458
997.199234	2527.561442
997.494504	2523.841070
997.789738	2527.929446
998.084936	2525.635721
998.380099	2526.459950
998.675225	2523.591533
998.970316	2526.865762
999.265371	2527.858870
999.560390	2528.282327
999.855373	2527.437933
1000.150320	2528.617563
1000.445232	2525.469363
1000.740108	2526.107069
1001.034948	2524.622449
1001.329752	2525.073632
1001.624521	2526.515402
1001.919254	2521.315452
1002.213951	2520.589526
1002.508613	2519.437622
1002.803239	2525.605474
1003.097829	2521.161697
1003.392384	2526.916174
1003.686903	2524.879548
1003.981386	2529.018335
1004.275834	2523.228570
1004.570246	2528.708304
1004.864623	2523.059691
1005.158964	2527.087573
1005.453270	2525.633200
1005.747540	2526.482635
1006.041775	2524.471214
1006.335974	2526.825433
1006.630138	2524.133457
1006.924266	2524.458612
1007.218359	2527.362316
1007.512416	2527.092614
1007.806438	2525.323169
1008.100425	2526.883407
1008.394376	2524.680422
1008.688292	2524.365350
1008.982172	2525.083715
1009.276017	2525.088756
1009.569827	2525.514733
1009.863602	2527.944569
1010.157341	2523.929290
1010.451045	2524.088087
1010.744714	2523.089938
1011.038347	2525.297964
1011.331945	2526.374250
1011.625508	2525.610515
1011.919036	2526.217974
1012.212528	2524.786287
1012.505986	2524.493900
1012.799408	2526.538088
1013.092795	2523.944414
1013.386147	2526.054137
1013.679464	2523.079856
1013.972745	2525.537418
1014.265992	2521.325534
1014.559204	2526.036493
1014.852380	2527.183355
1015.145521	2526.717048
1015.438628	2525.809641
1015.731699	2527.165711
1016.024736	2526.011287
1016.317737	2525.822244
1016.610703	2525.562624
1016.903635	2520.798734
1017.196531	2523.359640
1017.489393	2524.188910
1017.782219	2522.520288
1018.075011	2525.844929
1018.367768	2523.977181
1018.660490	2529.202337
1018.953177	2529.202337
1019.245829	2529.202337
