Dividing Wavelength (nm)	Counts (n)	Blue Motor Position (mm): 0.000000	Red Motor Position (mm): 36.800000	
326.493990	2127.994547
326.888308	2127.994547
327.282561	2127.994547
327.676750	2093.850812
328.070874	2093.465163
328.464933	2096.983889
328.858929	2105.251381
329.252859	2114.101127
329.646726	2124.019597
330.040528	2139.319499
330.434265	2154.984884
330.827938	2172.182781
331.221547	2190.237673
331.615091	2210.863554
332.008571	2227.965669
332.401986	2248.044584
332.795338	2266.643922
333.188625	2285.943979
333.581847	2308.268729
333.975006	2320.969916
334.368100	2340.771568
334.761129	2360.477439
335.154095	2377.088041
335.546996	2396.897255
335.939833	2415.761252
336.332606	2430.279775
336.725315	2443.462393
337.117960	2451.830708
337.510540	2460.125927
337.903056	2471.009778
338.295508	2479.209215
338.687896	2490.350165
339.080220	2498.168994
339.472480	2502.766527
339.864676	2508.369769
340.256807	2509.892197
340.648875	2515.034174
341.040879	2517.365708
341.432818	2517.829494
341.824694	2522.704290
342.216506	2523.649506
342.608253	2522.056502
342.999937	2520.728158
343.391557	2523.538601
343.783113	2519.775380
344.174605	2518.099196
344.566033	2516.813702
344.957397	2514.409071
345.348697	2515.641633
345.739934	2512.022085
346.131106	2510.925634
346.522215	2509.110819
346.913260	2508.231137
347.304241	2508.142917
347.695159	2502.406084
348.086012	2504.132679
348.476802	2499.855260
348.867528	2501.972545
349.258191	2498.166474
349.648789	2496.669251
350.039324	2494.239415
350.429796	2494.597337
350.820203	2493.377378
351.210548	2490.766060
351.600828	2492.583396
351.991045	2491.953252
352.381198	2491.628097
352.771288	2489.697335
353.161314	2488.989053
353.551276	2486.965030
353.941175	2491.209681
354.331010	2491.068529
354.720782	2490.546770
355.110490	2489.394866
355.500135	2489.367140
355.889717	2489.956955
356.279235	2492.749754
356.668689	2491.953252
357.058080	2488.469814
357.447408	2488.646255
357.836672	2488.023672
358.225873	2488.394197
358.615010	2489.770432
359.004084	2492.890906
359.393095	2491.323107
359.782043	2493.490803
360.170927	2496.180259
360.559748	2495.086329
360.948505	2495.567759
361.337199	2496.059271
361.725830	2498.158912
362.114398	2502.101094
362.502903	2499.252842
362.891344	2497.697646
363.279722	2500.828203
363.668037	2501.753255
364.056289	2501.513800
364.444478	2502.267452
364.832603	2501.755775
365.220665	2502.953049
365.608665	2501.526403
365.996601	2506.804491
366.384474	2506.343225
366.772284	2507.343894
367.160031	2509.950171
367.547715	2507.900942
367.935336	2514.930831
368.322893	2515.283712
368.710388	2516.914525
369.097820	2527.798376
369.485189	2528.955321
369.872495	2535.896990
370.259738	2541.555685
370.646918	2549.240924
371.034035	2554.753426
371.421090	2567.426886
371.808081	2579.893660
372.195010	2584.508836
372.581875	2599.163470
372.968678	2612.343567
373.355418	2623.918056
373.742096	2640.079996
374.128710	2656.022645
374.515262	2667.196362
374.901751	2687.698735
375.288177	2697.551670
375.674540	2724.794065
376.060841	2738.132958
376.447079	2759.668768
376.833254	2781.668363
377.219367	2792.557255
377.605417	2832.052175
377.991404	2841.290090
378.377329	2863.352699
378.763191	2877.480533
379.148991	2916.080648
379.534727	2940.910851
379.920402	2970.726756
380.306013	2982.152531
380.691563	3031.944007
381.077049	3053.953685
381.462474	3069.155285
381.847835	3109.643312
382.233134	3134.234060
382.618371	3132.741879
383.003545	3201.672096
383.388657	3210.126111
383.773706	3242.087026
384.158693	3257.863317
384.543618	3283.099333
384.928480	3321.908656
385.313280	3362.187475
385.698017	3363.815768
386.082692	3417.889705
386.467305	3425.852207
386.851856	3454.019654
387.236344	3477.153509
387.620770	3504.751306
388.005133	3535.381357
388.389435	3562.613670
388.773674	3574.578849
389.157851	3614.083851
389.541965	3632.935246
389.926018	3596.356633
390.310008	3669.234074
390.693936	3688.511446
391.077802	3723.676015
391.461606	3711.909962
391.845348	3777.465126
392.229027	3777.717184
392.612645	3793.506078
392.996200	3869.904764
393.379694	3909.596289
393.763125	3975.713542
394.146494	3941.862194
394.529801	4006.288141
394.913047	4052.276067
395.296230	4016.400695
395.679351	4073.141402
396.062410	4095.987912
396.445408	4079.208431
396.828343	4113.826034
397.211217	4132.564003
397.594028	4055.089030
397.976778	4123.590749
398.359466	4151.198628
398.742092	4176.268287
399.124656	4098.006894
399.507158	4180.825490
399.889598	4207.289027
400.271977	4264.264148
400.654294	4236.530240
401.036549	4244.454933
401.418742	4213.774471
401.800874	4314.252229
402.182944	4335.377184
402.564952	4404.289757
402.946898	4391.265936
403.328783	4389.204104
403.710606	4304.152277
404.092367	4492.089013
404.474067	4459.278663
404.855705	4461.280002
405.237282	4394.572933
405.618797	4504.878421
406.000250	4535.911764
406.381642	4618.604331
406.762972	4581.942539
407.144240	4589.940330
407.525447	4591.649281
407.906593	4651.528107
408.287677	4694.632492
408.668700	4620.051142
409.049661	4676.451571
409.430560	4713.945153
409.811399	4644.180625
410.192176	4805.245490
410.572891	4740.060850
410.953545	4844.987427
411.334138	4724.917224
411.714669	4795.379952
412.095139	4688.938509
412.475547	4831.144418
412.855894	4806.616684
413.236180	4820.673942
413.616405	4771.452115
413.996568	4860.436043
414.376670	4807.755985
414.756711	4760.550620
415.136691	4790.346360
415.516609	4865.648596
415.896466	4902.350716
416.276262	4938.442857
416.655997	4921.978449
417.035670	5100.725161
417.415283	5192.695972
417.794834	5136.920646
418.174324	5089.047328
418.553753	5001.603474
418.933121	5187.606927
419.312428	5247.591617
419.691674	5189.109191
420.070859	5316.559642
420.449983	5230.202157
420.829045	5345.654662
421.208047	5249.066154
421.586988	5319.969983
421.965867	5334.780893
422.344686	5465.039267
422.723444	5318.550898
423.102141	5135.990553
423.480777	5433.423671
423.859352	5206.942273
424.237866	5466.201253
424.616319	5458.054749
424.994712	5563.225821
425.373044	5445.288027
425.751314	5589.507876
426.129524	5389.621085
426.507673	5584.547381
426.885762	5668.245658
427.263789	5601.949444
427.641756	5475.837419
428.019662	5600.858034
428.397508	5611.807420
428.775292	5555.500252
429.153016	5657.145037
429.530679	5578.810548
429.908282	5668.464948
430.285824	5534.944948
430.663305	5808.745137
431.040726	5546.022883
431.418086	5546.320311
431.795385	5652.507176
432.172624	5667.766749
432.549802	5659.022867
432.926920	5667.028220
433.303977	5682.640673
433.680974	5720.698864
434.057910	5738.990691
434.434786	5744.311629
434.811601	5712.970775
435.188355	5946.091373
435.565050	5811.900899
435.941683	5806.645496
436.318257	6016.473443
436.694770	5997.730433
437.071222	6035.891967
437.447614	5966.636596
437.823946	5876.727617
438.200218	6030.346698
438.576429	5893.353342
438.952580	5993.758003
439.328670	6038.941865
439.704700	5948.276713
440.080670	5935.961174
440.456580	6210.262958
440.832429	6088.284679
441.208218	5932.059321
441.583947	6089.197128
441.959616	6091.415236
442.335224	6017.504358
442.710773	6158.215565
443.086261	6188.333939
443.461689	5977.386856
443.837057	6132.072141
444.212365	6283.284072
444.587612	6173.333986
444.962800	6327.442059
445.337927	6310.556714
445.712995	5919.448875
446.088002	6500.411609
446.462949	6330.151679
446.837837	6260.669455
447.212664	6432.356032
447.587431	6574.435912
447.962139	7115.553366
448.336786	8047.627424
448.711374	7786.215871
449.085901	6855.147523
449.460369	6776.843280
449.834776	6710.781479
450.209124	7105.219000
450.583412	7261.154492
450.957640	7405.515494
451.331808	7164.903741
451.705917	6714.060750
452.079965	6644.351675
452.453954	6852.349682
452.827883	6732.518935
453.201752	6828.822617
453.575562	6621.091791
453.949311	6824.666186
454.323001	6716.483024
454.696632	6790.983717
455.070202	6924.574293
455.443713	7083.612615
455.817164	7187.057092
456.190556	7259.926971
456.563888	7344.184816
456.937160	7381.864921
457.310373	7039.205091
457.683526	7067.304482
458.056619	6953.213088
458.429653	6944.522139
458.802628	6880.522171
459.175542	6986.341031
459.548398	7345.019127
459.921194	7503.623909
460.293930	7513.481886
460.666607	8037.678707
461.039224	8347.321499
461.411782	8476.720357
461.784280	8498.614088
462.156719	8391.812203
462.529099	8264.933922
462.901419	7853.064091
463.273680	7745.190961
463.645882	7752.243535
464.018024	7623.242928
464.390106	7791.985471
464.762130	8177.316148
465.134094	8650.118405
465.505999	9667.642542
465.877845	10888.473892
466.249631	11542.041844
466.621358	11161.447332
466.993026	10531.361074
467.364634	10276.480336
467.736184	9907.835878
468.107674	9581.388399
468.479105	9614.476013
468.850477	9374.030618
469.221790	9147.481164
469.593043	8816.211822
469.964238	8674.986417
470.335373	8694.339407
470.706449	8749.403930
471.077467	8725.365188
471.448425	10038.754644
471.819324	11112.709456
472.190164	11147.044755
472.560945	9891.603363
472.931667	9099.048279
473.302330	8967.070871
473.672934	8609.474102
474.043479	8962.894275
474.413965	8904.810100
474.784393	8785.390207
475.154761	8944.562119
475.525070	9032.497486
475.895321	8861.282257
476.265513	9034.849184
476.635645	9197.973361
477.005719	9207.725473
477.375734	9316.586670
477.745691	9559.724041
478.115588	9694.025420
478.485427	9935.042986
478.855207	10477.077929
479.224928	11284.726228
479.594591	11921.048393
479.964194	11728.085627
480.333739	11670.553458
480.703226	11583.361662
481.072653	11677.114520
481.442022	11907.066753
481.811333	12105.194181
482.180584	11909.965416
482.549777	11622.498659
482.918912	11435.151738
483.287988	11466.333796
483.657005	11473.071298
484.025964	11156.963225
484.394864	11288.731425
484.763706	11255.822773
485.132489	11011.654486
485.501213	10974.443209
485.869879	11052.989427
486.238487	10889.456917
486.607036	11003.959165
486.975527	10785.568818
487.343959	10972.978754
487.712333	11022.117401
488.080648	10944.203848
488.448905	10997.274595
488.817104	10932.936869
489.185244	11200.813702
489.553326	11357.147444
489.921350	11890.047817
490.289315	12957.993575
490.657222	13297.016212
491.025070	13210.205022
491.392861	13077.519332
491.760593	12709.930997
492.128267	12349.700225
492.495883	12023.240143
492.863440	11689.493073
493.230939	11346.828202
493.598380	11283.990220
493.965763	11149.824951
494.333088	11052.346680
494.700354	10969.888527
495.067563	11033.742302
495.434713	10859.961126
495.801805	10990.753862
496.168839	10917.989848
496.535815	10841.961686
496.902733	10847.244815
497.269593	10777.205544
497.636395	10879.218333
498.003139	10871.336489
498.369825	10730.499254
498.736453	10890.765096
499.103023	10816.798767
499.469535	10846.531492
499.835989	10833.472383
500.202385	10797.496188
500.568723	10650.170988
500.935003	10873.116017
501.301226	10674.396253
501.667390	10938.219998
502.033497	11032.497137
502.399546	10892.373224
502.765537	10795.693976
503.131470	10871.137364
503.497345	11048.217975
503.863163	10654.508901
504.228923	10973.167797
504.594625	11034.972343
504.960269	10786.443459
505.325856	11002.807261
505.691385	10798.905191
506.056856	10945.403642
506.422270	10972.777108
506.787625	10863.331137
507.152924	10988.245888
507.518164	10959.402927
507.883347	10878.547860
508.248472	10797.642382
508.613540	11028.585201
508.978550	10911.406101
509.343503	10887.137986
509.708398	11005.708445
510.073236	11115.764395
510.438016	11120.379572
510.802738	11065.930069
511.167403	11123.842844
511.532010	11021.698985
511.896561	11251.636094
512.261053	11326.376241
512.625488	11190.068483
512.989866	11168.774649
513.354186	11162.120326
513.718449	11063.059132
514.082655	11256.712536
514.446803	11154.929120
514.810894	11282.848398
515.174927	11139.883796
515.538904	11163.478917
515.902822	11316.520786
516.266684	11196.193484
516.630488	11140.725669
516.994235	11198.832528
517.357925	11253.881928
517.721558	11343.553973
518.085133	11364.111798
518.448651	11373.601771
518.812112	11252.092319
519.175516	11268.554207
519.538863	11385.299768
519.902152	11298.430605
520.265385	11459.561005
520.628560	11368.628672
520.991678	11344.915085
521.354739	11404.199054
521.717743	11336.408137
522.080690	11317.002216
522.443580	11450.847371
522.806413	11399.803168
523.169189	11428.376428
523.531908	11482.745272
523.894569	11304.003601
524.257174	11296.651078
524.619722	11417.802608
524.982213	11362.118022
525.344647	11405.633262
525.707025	11357.596107
526.069345	11449.720673
526.431608	11361.916376
526.793815	11474.689508
527.155964	11256.122721
527.518057	11299.713579
527.880093	11250.272462
528.242072	11317.927267
528.603995	11216.602596
528.965860	11120.855961
529.327669	11176.364106
529.689421	11115.852616
530.051117	11089.016033
530.412755	11187.174860
530.774337	11066.782024
531.135862	11036.582992
531.497331	11062.350850
531.858743	10903.756150
532.220098	11062.318082
532.581396	10928.079717
532.942638	10901.631303
533.303824	10859.585560
533.664953	10862.567402
534.026025	10774.143043
534.387040	10858.962977
534.747999	10858.869716
535.108902	10906.357385
535.469748	10655.829683
535.830537	10744.876625
536.191270	10715.879908
536.551947	10726.736032
536.912567	10718.541637
537.273131	10636.136416
537.633638	10603.772208
537.994089	10575.161139
538.354483	10516.474547
538.714821	10649.674434
539.075103	10638.014245
539.435328	10594.115878
539.795497	10413.239278
540.155609	10554.678931
540.515665	10624.201484
540.875665	10356.307007
541.235609	10404.031610
541.595496	10382.551254
541.955328	10514.392550
542.315102	10392.003417
542.674821	10326.927162
543.034483	10315.108177
543.394090	10302.323811
543.753640	10221.430936
544.113134	10398.708152
544.472571	10243.758206
544.831953	10364.234221
545.191278	10154.585236
545.550548	10169.333131
545.909761	10286.398806
546.268918	10231.540970
546.628019	10283.482498
546.987064	10138.864397
547.346053	10050.591273
547.704986	10115.589390
548.063863	10076.137320
548.422684	10050.442559
548.781449	9947.983628
549.140158	10019.936016
549.498811	9882.383093
549.857408	9731.060257
550.215949	9902.545187
550.574434	9744.651208
550.932864	9802.763109
551.291237	9833.171349
551.649555	9753.947095
552.007817	9742.854036
552.366022	9689.760604
552.724173	9644.818717
553.082267	9609.553326
553.440305	9680.943626
553.798288	9497.357406
554.156215	9584.108102
554.514086	9532.779073
554.871902	9374.701092
555.229661	9381.746104
555.587365	9322.164707
555.945014	9210.914003
556.302606	9273.683930
556.660143	9162.939863
557.017625	9237.352334
557.375050	9130.963824
557.732421	9201.444196
558.089735	9096.008463
558.446994	9064.380264
558.804197	9063.155263
559.161345	9018.929221
559.518437	8879.397644
559.875474	8897.797855
560.232455	8878.873364
560.589381	8814.873395
560.946251	8760.958255
561.303065	8825.991660
561.659825	8724.989622
562.016528	8638.438052
562.373177	8519.670988
562.729770	8548.370277
563.086307	8455.487017
563.442789	8491.501020
563.799216	8341.420829
564.155587	8350.999021
564.511904	8276.188298
564.868164	8227.876400
565.224370	8213.068011
565.580520	8095.503262
565.936615	8089.705935
566.292654	7943.220087
566.648638	8000.452306
567.004567	7922.783249
567.360441	7878.468986
567.716260	7769.716174
568.072023	7809.102709
568.427732	7715.130560
568.783385	7633.937736
569.138982	7624.977085
569.494525	7598.667303
569.850013	7476.172306
570.205445	7481.193295
570.560823	7390.001343
570.916145	7287.050899
571.271412	7291.787063
571.626625	7216.961217
571.981782	7165.783423
572.336884	7110.759228
572.691931	7085.117399
573.046923	6999.294276
573.401860	6930.422032
573.756743	6853.042841
574.111570	6836.565830
574.466342	6799.538555
574.821059	6776.278671
575.175722	6674.757394
575.530330	6631.937833
575.884882	6594.164468
576.239380	6508.512743
576.593823	6466.126722
576.948211	6432.121618
577.302544	6342.318504
577.656823	6292.758920
578.011047	6267.061638
578.365216	6210.295726
578.719330	6138.948275
579.073389	6099.791113
579.427394	6044.532505
579.781344	5996.248333
580.135239	5932.208035
580.489080	5909.661475
580.842866	5817.078164
581.196597	5789.850892
581.550273	5771.208705
581.903895	5716.139140
582.257463	5717.192742
582.610975	5614.567452
582.964434	5606.113437
583.317837	5529.215676
583.671186	5496.054966
584.024481	5452.892607
584.377721	5384.620261
584.730906	5343.003015
585.084037	5318.681968
585.437113	5272.273106
585.790135	5237.645420
586.143103	5168.836191
586.496016	5132.701200
586.848874	5114.376606
587.201679	5090.375672
587.554428	5005.936345
587.907124	4990.661649
588.259765	4950.760917
588.612352	4920.395526
588.964884	4853.481771
589.317362	4823.993541
589.669786	4790.870640
590.022155	4789.469199
590.374470	4757.858644
590.726731	4714.600503
591.078937	4625.664467
591.431090	4626.942399
591.783188	4565.682298
592.135232	4529.023027
592.487222	4511.134492
592.839157	4493.770238
593.191038	4446.645532
593.542866	4403.243718
593.894639	4346.591231
594.246358	4338.061599
594.598022	4312.724759
594.949633	4260.238786
595.301190	4225.621183
595.652692	4213.472002
596.004141	4206.343810
596.355535	4128.732726
596.706876	4098.427830
597.058162	4059.144639
597.409395	4052.969225
597.760573	4048.575860
598.111698	4001.320083
598.462768	3973.137513
598.813785	3945.653142
599.164748	3910.833892
599.515657	3897.484917
599.866511	3841.654138
600.217312	3858.768856
600.568060	3803.263231
600.918753	3802.310453
601.269392	3775.859519
601.619978	3733.269331
601.970510	3728.288671
602.320988	3712.149417
602.671412	3696.862118
603.021783	3665.768281
603.372100	3644.287924
603.722363	3617.431177
604.072572	3602.915174
604.422728	3584.386413
604.772830	3548.783264
605.122878	3533.304402
605.472872	3517.313862
605.822813	3504.093436
606.172701	3478.774240
606.522534	3473.730566
606.872314	3462.060295
607.222041	3434.079370
607.571714	3430.358999
607.921333	3407.250350
608.270899	3390.969943
608.620411	3391.761404
608.969870	3362.542877
609.319276	3347.520238
609.668627	3336.434741
610.017926	3330.191272
610.367171	3325.629028
610.716362	3310.490443
611.065500	3292.158287
611.414585	3277.528858
611.763616	3265.558638
612.112594	3250.765372
612.461518	3237.371027
612.810389	3232.496231
613.159207	3214.234651
613.507971	3197.326621
613.856682	3198.677650
614.205340	3179.236441
614.553945	3176.481450
614.902496	3152.440187
615.250994	3152.155362
615.599439	3138.871922
615.947830	3125.996815
616.296169	3117.058849
616.644454	3109.330760
616.992686	3098.010849
617.340864	3093.105807
617.688990	3075.771799
618.037063	3074.637539
618.385082	3063.688153
618.733048	3057.684139
619.080961	3049.053684
619.428821	3040.970193
619.776628	3033.332845
620.124382	3019.015968
620.472083	3003.668176
620.819731	3000.598113
621.167326	2979.894094
621.514868	2971.006540
621.862357	2953.639765
622.209793	2946.998045
622.557176	2930.815941
622.904506	2920.552152
623.251783	2903.757548
623.599007	2896.155488
623.946179	2885.168293
624.293297	2877.924155
624.640363	2867.738503
624.987376	2859.380270
625.334336	2849.970957
625.681243	2839.296313
626.028097	2832.702484
626.374899	2827.507575
626.721647	2821.569096
627.068343	2811.126346
627.414987	2807.214410
627.761577	2799.254428
628.108115	2795.347534
628.454600	2785.461831
628.801032	2784.498971
629.147412	2777.716098
629.493739	2775.321550
629.840014	2767.006167
630.186236	2768.634460
630.532405	2756.041657
630.878521	2755.855135
631.224585	2750.874475
631.570597	2745.649319
631.916556	2741.739904
632.262462	2740.184708
632.608316	2732.534757
632.954117	2731.524006
633.299866	2729.215157
633.645562	2724.037892
633.991206	2715.563713
634.336797	2709.234544
634.682336	2705.027701
635.027823	2701.032587
635.373257	2696.127544
635.718639	2687.232428
636.063968	2688.956503
636.409245	2680.885615
636.754470	2676.618279
637.099642	2676.406550
637.444762	2668.968328
637.789829	2668.542350
638.134845	2663.773419
638.479808	2662.762667
638.824719	2661.618325
639.169577	2658.732265
639.514383	2656.804023
639.859137	2651.180616
640.203839	2650.328661
640.548489	2648.619710
640.893086	2643.439925
641.237632	2638.764254
641.582125	2641.604945
641.926566	2634.499438
642.270955	2639.104532
642.615292	2635.996661
642.959576	2636.508338
643.303809	2633.246712
643.647990	2633.491208
643.992118	2632.558594
644.336195	2629.251597
644.680219	2627.860239
645.024192	2625.201030
645.368112	2627.842595
645.711981	2627.893006
646.055797	2629.138171
646.399562	2628.258490
646.743274	2627.096504
647.086935	2631.946094
647.430544	2629.080198
647.774101	2628.911319
648.117606	2625.581637
648.461059	2626.357975
648.804460	2630.146402
649.147810	2621.992336
649.491108	2621.130298
649.834354	2621.568879
650.177548	2615.726181
650.520690	2614.849021
650.863781	2612.628392
651.206820	2616.338682
651.549807	2610.584204
651.892742	2608.754266
652.235626	2608.661004
652.578458	2605.875767
652.921238	2606.102619
653.263967	2605.603544
653.606644	2604.577670
653.949269	2603.350149
654.291843	2604.592793
654.634365	2602.934253
654.976836	2601.563060
655.319255	2601.351331
655.661622	2598.939139
656.003938	2600.776640
656.346203	2598.891248
656.688416	2597.983840
657.030577	2597.086515
657.372687	2596.121134
657.714746	2596.713470
658.056753	2596.824375
658.398708	2592.315063
658.740612	2593.318252
659.082465	2589.580237
659.424266	2593.595516
659.766016	2589.978488
660.107715	2593.955958
660.449362	2591.647110
660.790958	2592.965372
661.132503	2592.899837
661.473996	2595.266658
661.815438	2592.234404
662.156829	2592.715835
662.498168	2592.809096
662.839456	2593.482090
663.180693	2591.916812
663.521879	2591.344641
663.863013	2592.927563
664.204097	2591.463108
664.545129	2591.188365
664.886110	2592.178952
665.227040	2588.597212
665.567918	2589.791965
665.908746	2589.519743
666.249522	2589.174424
666.590248	2588.319948
666.930922	2589.872624
667.271545	2591.629466
667.612118	2590.265834
667.952639	2591.185844
668.293109	2589.900350
668.633528	2587.132757
668.973896	2585.038157
669.314213	2590.074270
669.654480	2589.446646
669.994695	2586.638724
670.334859	2588.695514
670.674973	2587.762901
671.015035	2586.275761
671.355047	2586.414392
671.695008	2587.508323
672.034918	2585.784248
672.374777	2585.595205
672.714585	2586.462283
673.054342	2587.639393
673.394049	2586.951275
673.733705	2585.993456
674.073310	2588.612335
674.412864	2588.642582
674.752368	2584.574371
675.091820	2586.207705
675.431223	2581.350553
675.770574	2583.611511
676.109875	2579.823084
676.449125	2580.554051
676.788324	2577.635223
677.127473	2580.117991
677.466571	2578.230079
677.805619	2581.768969
678.144616	2580.410378
678.483562	2579.901222
678.822458	2581.612693
679.161303	2580.095306
679.500098	2581.809298
679.838842	2581.022878
680.177535	2579.722261
680.516179	2582.441963
680.854771	2579.674370
681.193314	2579.477765
681.531805	2582.946078
681.870247	2584.264340
682.208638	2585.569999
682.546978	2585.496902
682.885268	2585.569999
683.223508	2584.090420
683.561697	2583.956830
683.899836	2582.885585
684.237925	2579.258474
684.575963	2582.605801
684.913951	2579.402147
685.251889	2583.510688
685.589776	2579.170254
685.927614	2581.547158
686.265401	2581.141345
686.603137	2581.572364
686.940824	2581.532035
687.278460	2585.547314
687.616046	2581.111098
687.953582	2585.449011
688.291068	2584.617221
688.628504	2585.776686
688.965889	2585.789289
689.303224	2583.180492
689.640510	2583.447673
689.977745	2582.986408
690.314930	2580.879205
690.652065	2579.893660
690.989150	2578.230079
691.326185	2578.794688
691.663170	2576.309399
692.000105	2576.231262
692.336990	2575.197825
692.673825	2574.383679
693.010610	2572.967114
693.347345	2570.945612
693.684030	2569.365210
694.020665	2567.986454
694.357251	2565.659962
694.693786	2570.595252
695.030272	2571.948801
695.366707	2569.597103
695.703093	2568.132648
696.039429	2570.547361
696.375716	2571.046435
696.711952	2569.990313
697.048139	2567.182390
697.384276	2568.130127
697.720363	2569.075344
698.056400	2570.479305
698.392388	2566.877401
698.728326	2568.863615
699.064214	2567.631053
699.400053	2569.574418
699.735842	2566.408573
700.071581	2566.703481
700.407270	2568.959397
700.742910	2565.576783
701.078501	2566.015363
701.414042	2565.544015
701.749533	2564.114848
702.084974	2566.829510
702.420366	2566.567370
702.755709	2564.354303
703.091002	2563.756926
703.426246	2566.879921
703.761440	2564.654252
704.096584	2565.899417
704.431679	2563.736762
704.766725	2563.928326
705.101721	2563.666186
705.436668	2564.571073
705.771565	2564.477811
706.106413	2564.384550
706.441212	2562.761298
706.775961	2566.083419
707.110661	2563.920764
707.445311	2564.041752
707.779913	2565.564180
708.114465	2565.523851
708.448967	2564.266083
708.783421	2567.381516
709.117825	2566.466547
709.452180	2566.337997
709.786485	2568.251115
710.120742	2568.475446
710.454949	2568.828327
710.789107	2565.417987
711.123216	2566.862277
711.457275	2569.980231
711.791286	2567.603327
712.125247	2566.496793
712.459159	2570.660787
712.793023	2572.347053
713.126837	2569.224058
713.460602	2569.675241
713.794318	2566.587534
714.127985	2568.067113
714.461602	2565.508727
714.795171	2569.617268
715.128691	2566.673234
715.462162	2567.298337
715.795584	2567.391598
716.128957	2566.070816
716.462281	2564.944118
716.795556	2565.206258
717.128782	2561.695094
717.461960	2561.140567
717.795088	2561.692574
718.128167	2560.119734
718.461198	2562.211813
718.794180	2562.360527
719.127113	2562.184086
719.459997	2563.116700
719.792833	2562.231977
720.125619	2562.010167
720.458357	2560.477656
720.791046	2559.754250
721.123686	2558.206616
721.456278	2558.136040
721.788821	2561.780794
722.121315	2559.822306
722.453761	2557.158056
722.786158	2559.827347
723.118506	2560.127296
723.450805	2557.541184
723.783056	2559.978582
724.115259	2560.313818
724.447412	2558.365412
724.779518	2559.597974
725.111574	2559.419013
725.443582	2560.822975
725.775542	2560.001267
726.107453	2559.371123
726.439315	2562.642831
726.771129	2566.766495
727.102895	2564.850857
727.434612	2561.327090
727.766281	2563.449416
728.097901	2558.418344
728.429473	2558.942624
728.760996	2559.819785
729.092471	2556.923642
729.423897	2562.869683
729.755276	2561.828685
730.086606	2562.204251
730.417887	2562.708366
730.749120	2561.284240
731.080305	2564.818089
731.411442	2564.732390
731.742530	2565.455795
732.073570	2565.259190
732.404562	2567.915878
732.735506	2567.255487
733.066401	2563.396484
733.397249	2565.138202
733.728048	2562.574776
734.058798	2562.443706
734.389501	2560.790207
734.720156	2561.591751
735.050762	2561.732903
735.381320	2559.494631
735.711831	2559.086297
736.042293	2559.232491
736.372707	2558.171328
736.703073	2556.590926
737.033391	2558.251986
737.363661	2559.285423
737.693883	2558.647717
738.024056	2559.938252
738.354182	2558.025134
738.684260	2557.344579
739.014290	2559.764332
739.344272	2562.506720
739.674207	2558.569579
740.004093	2562.322718
740.333931	2562.688202
740.663722	2560.437327
740.993464	2560.339024
741.323159	2560.089487
741.652806	2560.732234
741.982405	2559.494631
742.311956	2558.340207
742.641460	2560.845660
742.970915	2556.863148
743.300323	2558.945145
743.629683	2558.529250
743.958996	2556.313663
744.288260	2556.114537
744.617477	2559.655948
744.946647	2550.712941
745.275768	2556.265772
745.604842	2550.355019
745.933869	2555.272664
746.262847	2550.584391
746.591778	2555.234856
746.920662	2553.490617
747.249498	2555.751574
747.578286	2554.892057
747.907027	2558.115875
748.235720	2555.862479
748.564365	2556.200237
748.892963	2554.208981
749.221514	2557.853735
749.550017	2557.069836
749.878473	2555.822150
750.206881	2556.873231
750.535242	2553.389793
750.863555	2552.938610
751.191821	2557.644527
751.520039	2554.324927
751.848210	2554.561862
752.176334	2553.939279
752.504411	2555.431461
752.832440	2553.934238
753.160421	2552.802499
753.488356	2555.532284
753.816243	2556.424568
754.144082	2554.471121
754.471875	2554.609753
754.799620	2554.745864
755.127318	2552.247972
755.454969	2552.043805
755.782572	2554.647561
756.110129	2552.759649
756.437638	2553.006666
756.765100	2551.199412
757.092515	2554.796275
757.419882	2553.029351
757.747203	2557.815927
758.074477	2558.315001
758.401703	2554.917263
758.728882	2557.480690
759.056014	2555.769218
759.383099	2553.984650
759.710138	2558.246945
760.037129	2555.675957
760.364073	2556.185113
760.690970	2553.319217
761.017820	2557.614280
761.344623	2553.969526
761.671379	2558.491441
761.998088	2553.863662
762.324751	2559.666030
762.651366	2560.941442
762.977935	2573.627506
763.304456	2576.475757
763.630931	2580.995152
763.957359	2577.214287
764.283740	2572.954512
764.610074	2567.265569
764.936362	2562.390774
765.262602	2562.584858
765.588796	2557.052192
765.914943	2554.970195
766.241044	2554.715617
766.567097	2557.221070
766.893104	2551.645554
767.219064	2553.488096
767.544978	2552.212684
767.870845	2552.247972
768.196665	2552.928528
768.522438	2550.654967
768.848165	2549.548434
769.173846	2548.696479
769.499479	2549.583722
769.825066	2550.470965
770.150607	2547.675646
770.476101	2550.352498
770.801548	2549.951727
771.126949	2552.308466
771.452303	2547.670604
771.777611	2550.826367
772.102872	2548.895605
772.428087	2548.580533
772.753256	2547.743701
773.078378	2550.591953
773.403453	2546.614483
773.728482	2547.342929
774.053465	2549.576161
774.378401	2544.076262
774.703291	2547.811757
775.028135	2546.097764
775.352932	2546.982487
775.677683	2546.478372
776.002388	2547.332847
776.327046	2543.975439
776.651658	2545.714637
776.976224	2547.642878
777.300743	2548.426778
777.625216	2543.647764
777.949643	2544.729091
778.274024	2546.932075
778.598359	2543.075593
778.922647	2540.935623
779.246889	2541.991745
779.571086	2539.791281
779.895236	2544.177085
780.219339	2545.059287
780.543397	2546.150697
780.867409	2543.567105
781.191374	2542.977290
781.515294	2544.696324
781.839167	2543.867054
782.162995	2547.138763
782.486776	2545.714637
782.810511	2545.734801
783.134201	2543.710778
783.457844	2544.015768
783.781441	2544.419060
784.104993	2548.749411
784.428498	2544.598021
784.751958	2545.833104
785.075372	2545.460058
785.398739	2545.896118
785.722061	2545.094575
786.045337	2545.442414
786.368568	2547.577343
786.691752	2544.630789
787.014891	2545.444935
787.337983	2545.139945
787.661030	2549.525749
787.984031	2548.746891
788.306987	2549.099772
788.629897	2549.314021
788.952760	2548.885522
789.275579	2547.942827
789.598351	2548.121788
789.921078	2545.180274
790.243759	2545.465100
790.566395	2546.382590
790.888984	2545.888557
791.211529	2544.358566
791.534027	2546.375028
791.856480	2545.034081
792.178888	2548.356201
792.501249	2544.897970
792.823566	2545.931406
793.145836	2541.974101
793.468062	2544.711447
793.790241	2544.678680
794.112375	2544.187167
794.434464	2545.054246
794.756507	2544.482075
795.078505	2545.868392
795.400457	2544.867723
795.722364	2540.973432
796.044226	2545.084492
796.366042	2543.299924
796.687812	2541.596014
797.009538	2545.606252
797.331218	2546.465769
797.652852	2545.268495
797.974442	2547.494164
798.295986	2544.953422
798.617484	2546.823691
798.938938	2547.584905
799.260346	2544.245140
799.581709	2543.468803
799.903026	2546.160779
800.224299	2545.021478
800.545526	2545.192877
800.866708	2544.000644
801.187845	2545.228165
801.508936	2544.189688
801.829983	2542.379913
802.150984	2543.138607
802.471940	2546.281767
802.792851	2542.052238
803.113717	2543.617517
803.434538	2539.456044
803.755314	2542.271529
804.076045	2543.521735
804.396731	2542.309337
804.717372	2543.829245
805.037967	2543.173895
805.358518	2542.677342
805.679024	2545.936447
805.999485	2542.274049
806.319901	2543.118442
806.640272	2542.150541
806.960598	2543.234389
807.280879	2544.068700
807.601115	2544.839997
807.921306	2544.535007
808.241453	2543.005017
808.561554	2545.152548
808.881611	2542.286652
809.201623	2544.398896
809.521590	2547.017775
809.841513	2544.134235
810.161390	2546.100285
810.481223	2544.214893
810.801011	2541.807743
811.120755	2544.058618
811.440453	2546.972405
811.760107	2544.023330
812.079716	2540.166847
812.399281	2537.121990
812.718801	2541.406971
813.038276	2539.685417
813.357707	2542.367311
813.677093	2542.289173
813.996434	2543.728422
814.315731	2543.415871
814.634983	2542.069882
814.954191	2545.772610
815.273354	2541.729605
815.592473	2540.600386
815.911547	2544.144317
816.230577	2542.231199
816.549562	2544.376210
816.868502	2541.026364
817.187399	2544.822353
817.506250	2546.962322
817.825058	2545.795295
818.143821	2545.581046
818.462539	2545.449976
818.781213	2547.035419
819.099843	2551.978270
819.418429	2550.854093
819.736970	2553.994732
820.055466	2554.027499
820.373919	2560.283571
820.692327	2561.289282
821.010691	2572.092474
821.329011	2587.110072
821.647286	2622.688015
821.965517	2662.296361
822.283704	2687.426512
822.601847	2692.407172
822.919945	2676.525017
823.237999	2652.355205
823.556010	2631.472225
823.873976	2612.837600
824.191897	2599.723038
824.509775	2587.684763
824.827609	2578.827456
825.145398	2576.264029
825.463144	2575.243195
825.780845	2576.226220
826.098502	2577.673032
826.416116	2590.497727
826.733685	2604.393667
827.051210	2605.795108
827.368692	2598.838316
827.686129	2589.741554
828.003522	2578.567836
828.320872	2565.803635
828.638177	2564.724828
828.955439	2555.716286
829.272656	2554.113199
829.589830	2548.288146
829.906960	2551.370811
830.224046	2547.829401
830.541088	2551.476676
830.858086	2547.665563
831.175041	2546.924514
831.491952	2548.041129
831.808819	2545.230686
832.125642	2547.479041
832.442421	2548.273022
832.759157	2553.137736
833.075849	2559.653427
833.392497	2569.334963
833.709101	2574.338308
834.025662	2573.345201
834.342179	2571.989131
834.658653	2562.113510
834.975083	2558.723334
835.291469	2563.149467
835.607811	2550.029864
835.924110	2550.652447
836.240366	2545.611293
836.556578	2545.402085
836.872746	2546.180943
837.188871	2540.174409
837.504952	2544.509801
837.820990	2540.746580
838.136984	2543.355377
838.452935	2541.263298
838.768842	2543.791437
839.084706	2539.259439
839.400526	2545.752445
839.716303	2551.431305
840.032037	2554.544218
840.347727	2552.926007
840.663373	2554.360216
840.978977	2545.777651
841.294537	2545.039122
841.610054	2542.077444
841.925527	2540.839841
842.240957	2539.115766
842.556344	2539.829090
842.871687	2539.375386
843.186987	2541.578370
843.502244	2537.318595
843.817458	2538.841023
844.132629	2537.215251
844.447756	2539.370345
844.762840	2535.055117
845.077881	2534.959335
845.392879	2534.551002
845.707833	2534.959335
846.022745	2533.993954
846.337613	2536.927906
846.652438	2537.240457
846.967221	2537.822710
847.281960	2536.315405
847.596656	2536.174253
847.911309	2535.292051
848.225919	2535.153419
848.540485	2536.801877
848.855009	2537.618544
849.169490	2537.797505
849.483928	2537.984027
849.798323	2537.265663
850.112675	2534.840868
850.426984	2536.295241
850.741251	2537.560570
851.055474	2537.547967
851.369654	2536.819521
851.683792	2537.802546
851.997887	2534.644263
852.311938	2537.681558
852.625947	2536.108718
852.939914	2535.929757
853.253837	2537.956301
853.567718	2536.499407
853.881555	2536.343132
854.195350	2536.569984
854.509103	2535.405477
854.822812	2535.287010
855.136479	2536.373379
855.450103	2534.840868
855.763685	2536.610313
856.077224	2534.109901
856.390720	2537.734490
856.704173	2537.822710
857.017584	2537.225334
857.330953	2534.707277
857.644278	2536.746424
857.957561	2534.969417
858.270802	2539.138452
858.584000	2534.959335
858.897155	2539.531662
859.210268	2537.495035
859.523339	2535.886907
859.836367	2538.190715
860.149352	2537.905889
860.462295	2537.618544
860.775195	2532.610157
861.088054	2533.512524
861.400869	2534.505631
861.713642	2532.940353
862.026373	2535.297092
862.339062	2534.873635
862.651708	2537.472350
862.964312	2537.691640
863.276873	2536.189377
863.589392	2537.986548
863.901869	2536.028060
864.214303	2537.689120
864.526696	2538.687268
864.839045	2538.122659
865.151353	2536.965714
865.463619	2538.304141
865.775842	2538.830941
866.088023	2540.802032
866.400162	2540.318082
866.712258	2537.041332
867.024313	2538.137782
867.336325	2536.186856
867.648296	2536.244829
867.960224	2536.322967
868.272110	2535.854140
868.583954	2538.747762
868.895755	2538.437731
869.207515	2539.667773
869.519233	2537.999151
869.830909	2537.706764
870.142542	2538.165509
870.454134	2539.551826
870.765684	2540.928061
871.077191	2538.530993
871.388657	2537.404295
871.700081	2537.270704
872.011463	2537.996630
872.322803	2538.044521
872.634101	2540.527289
872.945357	2538.629295
873.256571	2538.415046
873.567744	2540.232382
873.878874	2540.723894
874.189963	2539.277083
874.501010	2541.482588
874.812015	2541.860675
875.122979	2537.873122
875.433900	2539.952598
875.744780	2541.641384
876.055618	2541.056611
876.366415	2540.174409
876.677169	2541.885880
876.987882	2541.583411
877.298554	2534.077133
877.609183	2540.227341
877.919771	2538.883873
878.230317	2538.916641
878.540822	2545.523073
878.851285	2544.814791
879.161707	2546.795964
879.472087	2548.101623
879.782425	2555.902809
880.092722	2559.794579
880.402977	2570.653225
880.713191	2591.901688
881.023363	2611.237034
881.333494	2626.300002
881.643583	2630.274951
881.953631	2627.507358
882.263637	2624.457460
882.573602	2615.781634
882.883526	2603.168667
883.193408	2594.238263
883.503248	2585.474217
883.813048	2576.616910
884.122806	2573.017526
884.432522	2569.506362
884.742197	2558.599826
885.051831	2556.928683
885.361424	2553.079763
885.670975	2551.219577
885.980485	2549.341747
886.289954	2547.146324
886.599382	2547.005172
886.908768	2544.908052
887.218113	2546.475851
887.527417	2543.534338
887.836680	2541.394368
888.145901	2541.762372
888.455082	2541.417053
888.764221	2544.061138
889.073319	2542.674821
889.382376	2539.692978
889.691392	2541.628782
890.000366	2540.028215
890.309300	2542.561395
890.618193	2542.752959
890.927044	2543.481406
891.235855	2541.863195
891.544625	2541.921168
891.853353	2545.523073
892.162041	2543.415871
892.470687	2543.221786
892.779293	2544.850079
893.087858	2544.693803
893.396381	2546.816129
893.704864	2547.237065
894.013306	2552.749567
894.321707	2561.972358
894.630068	2569.138358
894.938387	2573.176322
895.246665	2571.119532
895.554903	2568.629202
895.863100	2561.420352
896.171256	2556.742161
896.479371	2553.377191
896.787446	2554.392983
897.095480	2547.441232
897.403473	2549.145142
897.711425	2545.429812
898.019336	2545.351674
898.327207	2545.465100
898.635038	2543.499050
898.942827	2543.408309
899.250576	2544.804708
899.558284	2544.630789
899.865952	2542.150541
900.173579	2539.834131
900.481165	2540.567619
900.788711	2539.229192
901.096216	2539.508976
901.403681	2539.146013
901.711105	2539.607279
902.018489	2538.556198
902.325832	2540.771785
902.633135	2540.837320
902.940397	2542.904193
903.247619	2543.108360
903.554800	2549.487940
903.861941	2561.415310
904.169041	2575.281004
904.476101	2582.184864
904.783121	2582.257961
905.090100	2576.216138
905.397039	2568.220868
905.703938	2558.357851
906.010796	2554.680329
906.317614	2552.439536
906.624391	2547.448794
906.931129	2545.757487
907.237826	2542.591642
907.544483	2542.044677
907.851099	2541.303627
908.157675	2540.066024
908.464211	2538.931764
908.770707	2533.920857
909.077163	2536.292720
909.383578	2532.368182
909.689954	2532.925229
909.996289	2532.254756
910.302584	2536.537216
910.608839	2537.091743
910.915054	2535.186187
911.221229	2535.932278
911.527363	2536.615354
911.833458	2537.800025
912.139513	2538.513348
912.445527	2533.744417
912.751502	2537.827752
913.057436	2538.692309
913.363331	2538.856147
913.669186	2536.854809
913.975000	2542.140459
914.280775	2542.596683
914.586510	2546.284287
914.892205	2548.822508
915.197859	2556.714434
915.503475	2562.531926
915.809050	2571.127093
916.114585	2577.511715
916.420081	2580.246541
916.725536	2576.826118
917.030952	2575.979204
917.336328	2568.525858
917.641665	2566.272462
917.946961	2559.368602
918.252218	2556.023796
918.557435	2552.338713
918.862612	2549.402241
919.167750	2545.951571
919.472848	2544.993752
919.777906	2543.728422
920.082925	2542.410160
920.387904	2543.478885
920.692843	2539.813966
920.997743	2540.146682
921.302603	2536.554860
921.607423	2540.345808
921.912204	2539.755993
922.216946	2538.200797
922.521647	2537.845396
922.826310	2537.089222
923.130932	2536.582587
923.435516	2537.008564
923.740059	2535.160981
924.044564	2534.036804
924.349028	2538.137782
924.653454	2530.477749
924.957840	2536.602751
925.262186	2531.067564
925.566493	2534.097298
925.870761	2527.538757
926.174989	2533.910775
926.479178	2536.091074
926.783328	2537.210210
927.087438	2533.832637
927.391509	2534.039324
927.695541	2532.998326
927.999533	2535.072761
928.303486	2533.086546
928.607400	2531.801052
928.911275	2532.093439
929.215110	2532.499252
929.518906	2533.608306
929.822663	2532.463964
930.126381	2529.822399
930.430060	2530.646628
930.733699	2531.823737
931.037299	2531.980013
931.340861	2531.682585
931.644383	2535.781043
931.947866	2532.698377
932.251309	2532.751310
932.554714	2532.327853
932.858080	2534.435055
933.161407	2532.748789
933.464694	2533.449509
933.767943	2529.945907
934.071153	2533.003367
934.374323	2531.997657
934.677455	2533.598223
934.980548	2533.169725
935.283602	2531.543953
935.586617	2528.562111
935.889593	2532.526978
936.192530	2531.130579
936.495428	2531.775846
936.798287	2532.474046
937.101108	2531.629653
937.403890	2536.451517
937.706632	2535.090405
938.009336	2533.958666
938.312002	2535.418080
938.614628	2536.635519
938.917216	2535.594520
939.219765	2534.021680
939.522275	2534.971938
939.824747	2534.987061
940.127179	2531.715352
940.429573	2531.659900
940.731929	2530.843233
941.034246	2529.590506
941.336524	2532.915147
941.638763	2533.114273
941.940964	2535.816331
942.243126	2532.247194
942.545250	2535.168543
942.847335	2534.540919
943.149381	2533.026052
943.451389	2533.373892
943.753359	2532.206865
944.055290	2532.330373
944.357182	2531.647297
944.659036	2534.838347
944.960851	2532.287523
945.262628	2532.325332
945.564367	2531.165867
945.866067	2533.507483
946.167729	2530.518078
946.469352	2531.896834
946.770937	2534.014119
947.072484	2532.448840
947.373992	2534.591331
947.675462	2531.569159
947.976893	2533.835158
948.278286	2532.234591
948.579641	2534.500590
948.880958	2533.177287
949.182236	2533.464633
949.483476	2529.988757
949.784678	2534.165353
950.085841	2531.985054
950.386967	2535.816331
950.688054	2531.007070
950.989103	2534.361958
951.290114	2535.105528
951.591087	2532.184180
951.892021	2531.206196
952.192917	2532.113604
952.493776	2532.206865
952.794596	2533.510003
953.095378	2531.944725
953.396122	2533.651156
953.696828	2533.199972
953.997496	2531.765764
954.298126	2533.648635
954.598718	2533.663758
954.899272	2531.054961
955.199788	2530.923891
955.500266	2532.098480
955.800706	2530.760054
956.101108	2529.066226
956.401472	2528.325177
956.701798	2527.541277
957.002087	2527.689991
957.302337	2530.374406
957.602550	2531.322142
957.902724	2527.261493
958.202861	2530.747451
958.502960	2530.437420
958.803022	2531.256608
959.103045	2531.039838
959.403031	2530.069416
959.702979	2529.492204
960.002889	2531.685106
960.302762	2530.384488
960.602596	2527.369878
960.902393	2529.693850
961.202153	2531.289375
961.501875	2530.321473
961.801559	2531.801052
962.101205	2525.605474
962.400814	2531.186031
962.700385	2530.792821
962.999918	2530.308871
963.299414	2532.431196
963.598873	2529.635877
963.898293	2527.178314
964.197677	2529.530012
964.497022	2527.629497
964.796331	2533.628470
965.095601	2528.574714
965.394835	2529.517409
965.694030	2528.783922
965.993189	2529.378778
966.292309	2530.205527
966.591393	2530.356762
966.890439	2529.895496
967.189447	2527.821061
967.488419	2528.420958
967.787353	2529.174611
968.086249	2527.889117
968.385108	2530.684437
968.683930	2529.477080
968.982714	2529.431710
969.281462	2528.365506
969.580172	2527.039682
969.878844	2530.951618
970.177480	2529.618233
970.476078	2526.984230
970.774639	2531.357431
971.073162	2530.200486
971.371649	2526.432223
971.670098	2523.866276
971.968510	2524.541791
972.266885	2521.726306
972.565223	2531.367513
972.863524	2525.297964
973.161788	2528.728469
973.460014	2529.905578
973.758204	2528.899868
974.056356	2529.867770
974.354471	2527.569003
974.652550	2529.154446
974.950591	2529.620753
975.248595	2527.760567
975.546563	2528.148736
975.844493	2529.499765
976.142386	2529.023376
976.440243	2528.912471
976.738062	2528.010104
977.035845	2527.155629
977.333590	2529.225023
977.631299	2528.998171
977.928971	2527.143026
978.226606	2528.299971
978.524204	2527.873993
978.821765	2527.556401
979.119290	2526.848118
979.416777	2528.920033
979.714228	2529.167049
980.011642	2526.641431
980.309020	2529.492204
980.606360	2529.444313
980.903664	2529.814838
981.200931	2527.712676
981.498162	2526.691843
981.795356	2529.898017
982.092513	2529.335928
982.389633	2529.832482
982.686717	2529.320804
982.983764	2530.611340
983.280775	2531.372554
983.577749	2528.786442
983.874686	2531.541433
984.171587	2532.186700
984.468451	2528.730989
984.765279	2529.441792
985.062070	2529.822399
985.358824	2530.729807
985.655543	2528.063037
985.952224	2528.383150
986.248869	2527.274096
986.545478	2522.613549
986.842050	2525.237470
987.138586	2522.255627
987.435086	2525.550021
987.731549	2523.490710
988.027975	2527.140505
988.324366	2528.005063
988.620719	2529.439272
988.917037	2527.110258
989.213318	2529.068747
989.509563	2526.984230
989.805772	2528.751154
990.101944	2528.042872
990.398080	2528.912471
990.694180	2526.059178
990.990244	2529.061185
991.286271	2529.502286
991.582262	2527.281658
991.878217	2529.371216
992.174136	2528.060516
992.470019	2526.407018
992.765865	2527.148067
993.061676	2527.715197
993.357450	2527.432892
993.653188	2530.636546
993.948890	2526.633869
994.244556	2528.811648
994.540186	2529.605630
994.835780	2526.177645
995.131337	2527.266534
995.426859	2527.841226
995.722345	2529.469518
996.017795	2529.071267
996.313208	2529.431710
996.608586	2527.909281
996.903928	2529.028418
997.199234	2527.755526
997.494504	2528.567152
997.789738	2527.402645
998.084936	2528.604961
998.380099	2529.285516
998.675225	2526.686802
998.970316	2528.882224
999.265371	2528.083201
999.560390	2527.758047
999.855373	2527.828623
1000.150320	2527.513551
1000.445232	2527.571524
1000.740108	2523.770494
1001.034948	2525.555062
1001.329752	2527.072450
1001.624521	2525.928108
1001.919254	2522.457273
1002.213951	2523.072294
1002.508613	2522.401821
1002.803239	2524.667819
1003.097829	2523.462984
1003.392384	2527.057326
1003.686903	2526.301153
1003.981386	2527.732841
1004.275834	2526.664116
1004.570246	2526.149919
1004.864623	2526.684281
1005.158964	2525.955834
1005.453270	2526.792666
1005.747540	2526.689322
1006.041775	2527.954652
1006.335974	2528.047913
1006.630138	2526.409538
1006.924266	2526.767460
1007.218359	2527.846267
1007.512416	2527.279137
1007.806438	2527.543798
1008.100425	2528.451205
1008.394376	2525.761750
1008.688292	2526.996832
1008.982172	2526.709487
1009.276017	2526.815351
1009.569827	2525.973478
1009.863602	2527.818541
1010.157341	2525.542460
1010.451045	2528.441123
1010.744714	2526.212933
1011.038347	2525.975999
1011.331945	2524.579599
1011.625508	2526.926256
1011.919036	2524.753519
1012.212528	2528.718387
1012.505986	2521.799403
1012.799408	2527.034641
1013.092795	2526.437264
1013.386147	2524.405679
1013.679464	2525.844929
1013.972745	2525.786956
1014.265992	2526.167563
1014.559204	2526.611184
1014.852380	2526.162522
1015.145521	2525.408869
1015.438628	2525.877696
1015.731699	2528.068078
1016.024736	2527.478263
1016.317737	2524.196472
1016.610703	2532.022863
1016.903635	2523.417613
1017.196531	2523.215967
1017.489393	2523.278982
1017.782219	2521.615401
1018.075011	2525.061029
1018.367768	2525.096317
1018.660490	2527.952131
1018.953177	2527.952131
1019.245829	2527.952131
