Dividing Wavelength (nm)	Counts (n)	Blue Motor Position (mm): 0.000000	Red Motor Position (mm): 13.100000	
326.493990	2127.591254
326.888308	2127.591254
327.282561	2127.591254
327.676750	2095.176635
328.070874	2094.927098
328.464933	2097.946749
328.858929	2101.646956
329.252859	2111.520056
329.646726	2124.012035
330.040528	2135.447893
330.434265	2154.773156
330.827938	2167.426452
331.221547	2187.984278
331.615091	2207.579243
332.008571	2228.457181
332.401986	2247.568195
332.795338	2265.474374
333.188625	2284.971036
333.581847	2305.233954
333.975006	2322.855308
334.368100	2343.271981
334.761129	2357.732530
335.154095	2375.653832
335.546996	2393.774260
335.939833	2405.172309
336.332606	2421.205698
336.725315	2436.379572
337.117960	2444.465582
337.510540	2454.011007
337.903056	2465.207410
338.295508	2472.759058
338.687896	2478.074955
339.080220	2489.367140
339.472480	2494.544405
339.864676	2498.569766
340.256807	2505.100581
340.648875	2506.312978
341.040879	2510.320696
341.432818	2511.646519
341.824694	2511.485202
342.216506	2514.507374
342.608253	2513.451252
342.999937	2513.887312
343.391557	2514.819925
343.783113	2510.219873
344.174605	2512.122908
344.566033	2508.904131
344.957397	2507.979080
345.348697	2505.173677
345.739934	2506.378513
346.131106	2504.019253
346.522215	2500.802997
346.913260	2497.420383
347.304241	2498.610095
347.695159	2497.243943
348.086012	2493.674806
348.476802	2492.933756
348.867528	2493.430310
349.258191	2487.252376
349.648789	2490.763539
350.039324	2485.835811
350.429796	2487.517036
350.820203	2484.504947
351.210548	2483.529483
351.600828	2480.860192
351.991045	2483.317755
352.381198	2482.249030
352.771288	2480.625779
353.161314	2480.759369
353.551276	2480.361118
353.941175	2480.552682
354.331010	2479.400778
354.720782	2480.235089
355.110490	2479.804071
355.500135	2481.250882
355.889717	2480.086375
356.279235	2481.780203
356.668689	2482.677528
357.058080	2481.538228
357.447408	2480.633341
357.836672	2479.138638
358.225873	2482.080152
358.615010	2478.294245
359.004084	2484.615852
359.393095	2484.474700
359.782043	2485.387149
360.170927	2486.234063
360.559748	2486.304639
360.948505	2485.742550
361.337199	2490.372850
361.725830	2487.171717
362.114398	2488.215236
362.502903	2487.312869
362.891344	2491.819661
363.279722	2488.550473
363.668037	2490.090545
364.056289	2492.038951
364.444478	2494.264621
364.832603	2492.906030
365.220665	2492.427120
365.608665	2491.640700
365.996601	2496.271000
366.384474	2492.301091
366.772284	2495.378716
367.160031	2497.921978
367.547715	2500.399705
367.935336	2503.880622
368.322893	2501.849037
368.710388	2507.303565
369.097820	2515.566016
369.485189	2519.621624
369.872495	2524.745957
370.259738	2529.928263
370.646918	2539.019984
371.034035	2542.541230
371.421090	2553.394835
371.808081	2563.615774
372.195010	2571.855540
372.581875	2585.232242
372.968678	2600.179263
373.355418	2610.417846
373.742096	2628.336628
374.128710	2640.195942
374.515262	2658.681853
374.901751	2672.245078
375.288177	2683.484330
375.674540	2705.695654
376.060841	2725.320866
376.447079	2743.988259
376.833254	2764.735127
377.219367	2777.093516
377.605417	2812.157262
377.991404	2822.620176
378.377329	2845.892663
378.763191	2864.852443
379.148991	2898.648338
379.534727	2926.883841
379.920402	2952.508026
380.306013	2965.534367
380.691563	3014.751152
381.077049	3034.731766
381.462474	3052.010320
381.847835	3091.283429
382.233134	3113.928292
382.618371	3112.937706
383.003545	3184.290197
383.388657	3190.783203
383.773706	3220.435270
384.158693	3236.889597
384.543618	3262.486055
384.928480	3300.609781
385.313280	3342.181656
385.698017	3340.187880
386.082692	3396.792476
386.467305	3398.713156
386.851856	3429.549894
387.236344	3452.177113
387.620770	3481.191474
388.005133	3505.008405
388.389435	3525.077238
388.773674	3535.094011
389.157851	3570.387129
389.541965	3577.628747
389.926018	3532.427241
390.310008	3596.417127
390.693936	3605.725618
391.077802	3631.894247
391.461606	3607.623612
391.845348	3652.121877
392.229027	3639.259373
392.612645	3632.594968
392.996200	3686.850386
393.379694	3701.426882
393.763125	3735.573138
394.146494	3686.003472
394.529801	3713.961711
394.913047	3728.134915
395.296230	3676.944519
395.679351	3694.356664
396.062410	3681.448790
396.445408	3640.537306
396.828343	3637.429434
397.211217	3623.397382
397.594028	3537.559135
397.976778	3546.902914
398.359466	3533.889175
398.742092	3514.952081
399.124656	3435.997529
399.507158	3448.910445
399.889598	3431.911674
400.271977	3424.730551
400.654294	3373.469578
401.036549	3341.017150
401.418742	3291.732309
401.800874	3299.828402
402.182944	3271.424021
402.564952	3260.724172
402.946898	3220.170610
403.328783	3182.397244
403.710606	3116.239662
404.092367	3141.828558
404.474067	3095.414655
404.855705	3066.654872
405.237282	3015.121677
405.618797	3010.186388
406.000250	2987.763335
406.381642	2975.886377
406.762972	2934.644697
407.144240	2905.869791
407.525447	2883.171996
407.906593	2866.011908
408.287677	2844.866788
408.668700	2809.233392
409.049661	2789.940897
409.430560	2774.320881
409.811399	2746.191243
410.192176	2738.435428
410.572891	2718.779969
410.953545	2705.521734
411.334138	2679.290090
411.714669	2670.173163
412.095139	2648.677683
412.475547	2641.829276
412.855894	2631.318470
413.236180	2620.028806
413.616405	2603.960128
413.996568	2598.450147
414.376670	2587.924218
414.756711	2579.003896
415.136691	2570.469223
415.516609	2569.395457
415.896466	2565.440672
416.276262	2558.221739
416.655997	2550.808723
417.035670	2548.283105
417.415283	2549.382076
417.794834	2539.728267
418.174324	2542.110212
418.553753	2539.123328
418.933121	2540.688606
419.312428	2538.793133
419.691674	2534.225847
420.070859	2533.941022
420.449983	2530.432379
420.829045	2535.856660
421.208047	2530.777698
421.586988	2532.025383
421.965867	2529.812317
422.344686	2531.763243
422.723444	2530.051772
423.102141	2529.083870
423.480777	2530.026566
423.859352	2529.482121
424.237866	2528.131092
424.616319	2528.705784
424.994712	2529.499765
425.373044	2529.618233
425.751314	2530.439941
426.129524	2529.096473
426.507673	2529.829961
426.885762	2525.844929
427.263789	2528.206709
427.641756	2528.536905
428.019662	2530.147554
428.397508	2528.610002
428.775292	2529.618232
429.153016	2527.828623
429.530679	2531.801052
429.908282	2529.802235
430.285824	2529.903058
430.663305	2527.667306
431.040726	2530.056813
431.418086	2528.494055
431.795385	2528.630166
432.172624	2526.661596
432.549802	2530.291227
432.926920	2528.809127
433.303977	2527.611853
433.680974	2529.212420
434.057910	2527.211082
434.434786	2528.325177
434.811601	2530.770136
435.188355	2529.663603
435.565050	2528.806607
435.941683	2531.075126
436.318257	2527.314425
436.694770	2526.424662
437.071222	2526.896009
437.447614	2528.410876
437.823946	2529.046062
438.200218	2529.688809
438.576429	2529.043541
438.952580	2527.286699
439.328670	2530.298788
439.704700	2529.149405
440.080670	2532.776515
440.456580	2531.664941
440.832429	2530.248377
441.208218	2531.493542
441.583947	2532.244674
441.959616	2530.669313
442.335224	2528.516740
442.710773	2532.945394
443.086261	2532.947915
443.461689	2529.658562
443.837057	2529.068747
444.212365	2533.459592
444.587612	2533.411701
444.962800	2532.471526
445.337927	2533.497400
445.712995	2532.436238
446.088002	2536.799356
446.462949	2530.281144
446.837837	2536.544778
447.212664	2533.174767
447.587431	2533.754499
447.962139	2534.389685
448.336786	2538.851106
448.711374	2537.379089
449.085901	2532.776515
449.460369	2532.784077
449.834776	2534.510672
450.209124	2535.339942
450.583412	2536.539737
450.957640	2536.446475
451.331808	2537.994110
451.705917	2536.509490
452.079965	2536.088553
452.453954	2533.570497
452.827883	2538.929244
453.201752	2536.748945
453.575562	2534.457740
453.949311	2535.062679
454.323001	2534.417411
454.696632	2538.321785
455.070202	2536.426311
455.443713	2536.280117
455.817164	2534.787936
456.190556	2534.135106
456.563888	2535.448327
456.937160	2532.791639
457.310373	2536.885056
457.683526	2537.341280
458.056619	2537.868081
458.429653	2538.435211
458.802628	2537.661393
459.175542	2535.261804
459.548398	2539.135931
459.921194	2539.425797
460.293930	2539.375386
460.666607	2538.929244
461.039224	2541.835469
461.411782	2540.403781
461.784280	2543.246992
462.156719	2543.025181
462.529099	2541.863195
462.901419	2537.457227
463.273680	2540.834800
463.645882	2540.804553
464.018024	2538.967052
464.390106	2541.560726
464.762130	2544.749256
465.134094	2543.640202
465.505999	2547.368135
465.877845	2549.475338
466.249631	2551.564896
466.621358	2549.848383
466.993026	2553.054557
467.364634	2554.700493
467.736184	2548.222611
468.107674	2548.041129
468.479105	2547.209339
468.850477	2547.390820
469.221790	2545.944009
469.593043	2546.180943
469.964238	2544.615665
470.335373	2544.865202
470.706449	2545.442414
471.077467	2546.082641
471.448425	2551.496840
471.819324	2552.507592
472.190164	2552.963816
472.560945	2549.770245
472.931667	2548.179761
473.302330	2544.512322
473.672934	2546.775800
474.043479	2546.304452
474.413965	2546.417878
474.784393	2544.603062
475.154761	2544.839997
475.525070	2543.690613
475.895321	2545.830583
476.265513	2543.330171
476.635645	2550.183620
477.005719	2545.666746
477.375734	2547.663043
477.745691	2550.294525
478.115588	2549.162786
478.485427	2547.481561
478.855207	2551.370811
479.224928	2553.783003
479.594591	2552.484906
479.964194	2551.728733
480.333739	2554.574465
480.703226	2553.412479
481.072653	2554.803837
481.442022	2554.622356
481.811333	2551.998435
482.180584	2549.951727
482.549777	2551.670760
482.918912	2550.148332
483.287988	2548.593136
483.657005	2551.408620
484.025964	2553.780483
484.394864	2549.440049
484.763706	2553.218394
485.132489	2550.171017
485.501213	2549.732436
485.869879	2552.038764
486.238487	2551.764021
486.607036	2551.297715
486.975527	2552.837787
487.343959	2550.644885
487.712333	2553.195709
488.080648	2550.017262
488.448905	2550.223949
488.817104	2550.440718
489.185244	2553.692263
489.553326	2553.982129
489.921350	2554.733261
490.289315	2556.038920
490.657222	2556.921122
491.025070	2552.169834
491.392861	2556.280895
491.760593	2553.959444
492.128267	2554.990360
492.495883	2552.154711
492.863440	2552.305945
493.230939	2552.426933
493.598380	2553.475493
493.965763	2545.757487
494.333088	2547.945347
494.700354	2548.119267
495.067563	2549.535831
495.434713	2543.599873
495.801805	2552.933569
496.168839	2548.638506
496.535815	2550.619679
496.902733	2550.891902
497.269593	2553.838456
497.636395	2550.332334
498.003139	2549.263609
498.369825	2552.061449
498.736453	2551.453990
499.103023	2551.199412
499.469535	2551.484237
499.835989	2552.011038
500.202385	2552.535318
500.568723	2551.174206
500.935003	2551.080945
501.301226	2547.731098
501.667390	2550.012220
502.033497	2555.481872
502.399546	2550.647406
502.765537	2553.346944
503.131470	2551.985832
503.497345	2553.445246
503.863163	2554.816440
504.228923	2552.053888
504.594625	2549.056922
504.960269	2549.487940
505.325856	2555.121430
505.691385	2553.268806
506.056856	2553.092365
506.422270	2552.273178
506.787625	2552.016079
507.152924	2551.821995
507.518164	2552.000956
507.883347	2553.755277
508.248472	2550.102961
508.613540	2552.868034
508.978550	2551.900133
509.343503	2553.646892
509.708398	2553.881306
510.073236	2552.986501
510.438016	2553.230997
510.802738	2551.169165
511.167403	2552.409289
511.532010	2551.206974
511.896561	2554.113199
512.261053	2552.580688
512.625488	2549.253527
512.989866	2549.422405
513.354186	2549.550955
513.718449	2547.232024
514.082655	2552.230328
514.446803	2553.964485
514.810894	2554.622356
515.174927	2554.312325
515.538904	2555.965823
515.902822	2553.258723
516.266684	2552.457180
516.630488	2551.590102
516.994235	2554.337530
517.357925	2552.240410
517.721558	2555.345761
518.085133	2552.626059
518.448651	2553.351985
518.812112	2554.750905
519.175516	2555.363405
519.538863	2555.338199
519.902152	2553.243600
520.265385	2551.317879
520.628560	2555.756615
520.991678	2554.360216
521.354739	2552.134546
521.717743	2551.585060
522.080690	2554.846687
522.443580	2555.842315
522.806413	2553.057077
523.169189	2553.601522
523.531908	2556.520350
523.894569	2555.741492
524.257174	2554.004814
524.619722	2555.058415
524.982213	2554.619835
525.344647	2552.991542
525.707025	2554.967675
526.069345	2555.560010
526.431608	2553.765359
526.793815	2554.700493
527.155964	2554.720658
527.518057	2552.779814
527.880093	2554.478683
528.242072	2555.625545
528.603995	2557.896585
528.965860	2553.730071
529.327669	2556.288457
529.689421	2554.435833
530.051117	2557.435319
530.412755	2552.676470
530.774337	2552.895760
531.135862	2554.055226
531.497331	2553.573796
531.858743	2549.465255
532.220098	2550.869217
532.581396	2549.029195
532.942638	2551.900133
533.303824	2554.045143
533.664953	2555.935576
534.026025	2555.736451
534.387040	2558.136040
534.747999	2554.236707
535.108902	2555.862479
535.469748	2550.952396
535.830537	2555.370967
536.191270	2553.165462
536.551947	2553.399876
536.912567	2555.963303
537.273131	2554.526574
537.633638	2552.258054
537.994089	2556.086811
538.354483	2552.399207
538.714821	2556.457336
539.075103	2554.188816
539.435328	2551.559855
539.795497	2552.500030
540.155609	2556.772408
540.515665	2555.988508
540.875665	2551.827036
541.235609	2553.178065
541.595496	2555.925494
541.955328	2554.584547
542.315102	2553.755277
542.674821	2554.347613
543.034483	2555.118909
543.394090	2554.488765
543.753640	2555.597819
544.113134	2553.283929
544.472571	2554.733261
544.831953	2555.101265
545.191278	2554.040102
545.550548	2556.285936
545.909761	2553.553631
546.268918	2554.438353
546.628019	2552.946172
546.987064	2552.096737
547.346053	2554.597150
547.704986	2552.648744
548.063863	2557.062274
548.422684	2554.279557
548.781449	2556.215360
549.140158	2554.171172
549.498811	2554.879454
549.857408	2553.828374
550.215949	2550.579350
550.574434	2550.949875
550.932864	2554.140925
551.291237	2550.292004
551.649555	2553.752757
552.007817	2552.850390
552.366022	2555.192006
552.724173	2554.561862
553.082267	2556.041440
553.440305	2553.052036
553.798288	2554.488765
554.156215	2554.050185
554.514086	2554.516491
554.871902	2554.226625
555.229661	2555.060936
555.587365	2555.446584
555.945014	2551.852242
556.302606	2556.525391
556.660143	2556.739640
557.017625	2553.054557
557.375050	2556.606050
557.732421	2553.372149
558.089735	2553.044474
558.446994	2555.242417
558.804197	2554.670247
559.161345	2556.545556
559.518437	2556.762325
559.875474	2555.179403
560.232455	2556.162428
560.589381	2552.822664
560.946251	2559.812223
561.303065	2555.232335
561.659825	2555.549928
562.016528	2552.568085
562.373177	2551.960626
562.729770	2553.530946
563.086307	2555.852397
563.442789	2550.397869
563.799216	2554.035061
564.155587	2556.285936
564.511904	2556.018755
564.868164	2552.711758
565.224370	2553.546069
565.580520	2554.292160
565.936615	2556.192675
566.292654	2553.049516
566.648638	2552.464742
567.004567	2552.681511
567.360441	2554.435833
567.716260	2553.193188
568.072023	2554.962633
568.427732	2550.060111
568.783385	2552.618497
569.138982	2551.769063
569.494525	2551.902653
569.850013	2548.414175
570.205445	2556.298539
570.560823	2550.418033
570.916145	2552.323589
571.271412	2553.798127
571.626625	2554.382901
571.981782	2552.764690
572.336884	2552.880637
572.691931	2554.975236
573.046923	2553.387273
573.401860	2555.292829
573.756743	2550.468445
574.111570	2553.185627
574.466342	2553.876265
574.821059	2554.783673
575.175722	2551.630431
575.530330	2553.709907
575.884882	2554.662685
576.239380	2553.954403
576.593823	2557.150494
576.948211	2554.249310
577.302544	2555.131512
577.656823	2552.063970
578.011047	2553.160421
578.365216	2554.975236
578.719330	2553.694783
579.073389	2554.297201
579.427394	2551.723692
579.781344	2551.879968
580.135239	2554.221584
580.489080	2552.842828
580.842866	2550.302087
581.196597	2554.224104
581.550273	2553.732592
581.903895	2553.641851
582.257463	2554.256872
582.610975	2554.045143
582.964434	2552.686553
583.317837	2551.993394
583.671186	2553.122612
584.024481	2555.638148
584.377721	2552.973898
584.730906	2552.310987
585.084037	2553.079762
585.437113	2554.559341
585.790135	2555.149156
586.143103	2552.603373
586.496016	2555.176882
586.848874	2550.352498
587.201679	2550.244113
587.554428	2548.207487
587.907124	2550.158414
588.259765	2548.126829
588.612352	2552.371480
588.964884	2549.873589
589.317362	2555.660833
589.669786	2548.925852
590.022155	2550.382745
590.374470	2552.245452
590.726731	2553.084804
591.078937	2552.714279
591.431090	2550.818805
591.783188	2551.864844
592.135232	2552.258054
592.487222	2551.832077
592.839157	2552.631100
593.191038	2550.065153
593.542866	2551.897612
593.894639	2547.726057
594.246358	2551.421223
594.598022	2552.535318
594.949633	2552.643703
595.301190	2548.325954
595.652692	2550.619679
596.004141	2550.607077
596.355535	2551.942982
596.706876	2553.120092
597.058162	2550.549103
597.409395	2552.399207
597.760573	2549.049360
598.111698	2548.764535
598.462768	2550.627241
598.813785	2551.179247
599.164748	2550.733105
599.515657	2550.178578
599.866511	2550.801161
600.217312	2551.716130
600.568060	2551.509443
600.918753	2552.048847
601.269392	2550.269319
601.619978	2549.210677
601.970510	2551.776624
602.320988	2550.866696
602.671412	2551.718651
603.021783	2550.228990
603.372100	2553.228477
603.722363	2552.986501
604.072572	2550.801161
604.422728	2553.818292
604.772830	2549.918959
605.122878	2545.649102
605.472872	2547.902498
605.822813	2546.296890
606.172701	2547.347971
606.522534	2551.995914
606.872314	2549.445091
607.222041	2547.279915
607.571714	2549.361912
607.921333	2551.635472
608.270899	2548.514998
608.620411	2547.680687
608.969870	2553.541028
609.319276	2552.351316
609.668627	2555.149156
610.017926	2558.327604
610.367171	2557.359702
610.716362	2556.797613
611.065500	2556.200237
611.414585	2555.101265
611.763616	2553.840977
612.112594	2553.097407
612.461518	2553.709907
612.810389	2550.496171
613.159207	2552.605894
613.507971	2550.266799
613.856682	2552.028682
614.205340	2554.519012
614.553945	2553.225956
614.902496	2550.619679
615.250994	2549.601366
615.599439	2551.890050
615.947830	2550.894422
616.296169	2553.261244
616.644454	2550.657488
616.992686	2550.551624
617.340864	2550.050029
617.688990	2548.905687
618.037063	2550.559186
618.385082	2550.294525
618.733048	2551.453990
619.080961	2552.542880
619.428821	2552.000956
619.776628	2550.095399
620.124382	2551.474155
620.472083	2549.258568
620.819731	2550.624721
621.167326	2551.302756
621.514868	2551.030533
621.862357	2548.618341
622.209793	2550.188661
622.557176	2550.150852
622.904506	2547.267312
623.251783	2543.226827
623.599007	2546.919472
623.946179	2547.113557
624.293297	2546.803526
624.640363	2548.832590
624.987376	2548.071376
625.334336	2551.244782
625.681243	2549.989535
626.028097	2548.038609
626.374899	2548.300749
626.721647	2549.520708
627.068343	2548.401572
627.414987	2547.973074
627.761577	2546.801005
628.108115	2545.828063
628.454600	2548.691438
628.801032	2549.089689
629.147412	2548.295708
629.493739	2548.978784
629.840014	2546.372507
630.186236	2549.016593
630.532405	2550.178578
630.878521	2547.985677
631.224585	2548.076417
631.570597	2548.734288
631.916556	2550.075235
632.262462	2546.516180
632.608316	2548.847714
632.954117	2545.354194
633.299866	2549.435008
633.645562	2549.566078
633.991206	2546.271684
634.336797	2546.090203
634.682336	2547.289997
635.027823	2548.192364
635.373257	2547.312682
635.718639	2543.904863
636.063968	2547.620193
636.409245	2544.814791
636.754470	2547.529452
637.099642	2544.577857
637.444762	2547.229503
637.789829	2544.542568
638.134845	2549.034237
638.479808	2548.066335
638.824719	2545.613814
639.169577	2547.025337
639.514383	2546.238917
639.859137	2544.232537
640.203839	2548.310831
640.548489	2544.172044
640.893086	2541.139790
641.237632	2543.804039
641.582125	2545.596170
641.926566	2541.384286
642.270955	2547.660522
642.615292	2543.630120
642.959576	2546.128011
643.303809	2547.630275
643.647990	2544.131714
643.992118	2544.484595
644.336195	2546.291849
644.680219	2545.986859
645.024192	2544.643392
645.368112	2547.368135
645.711981	2546.231355
646.055797	2547.940306
646.399562	2543.914945
646.743274	2544.666077
647.086935	2543.672969
647.430544	2544.270346
647.774101	2545.046684
648.117606	2544.648433
648.461059	2546.853937
648.804460	2543.993083
649.147810	2546.536345
649.491108	2547.705892
649.834354	2545.676828
650.177548	2545.505429
650.520690	2545.696993
650.863781	2545.651622
651.206820	2546.128011
651.549807	2546.816129
651.892742	2545.502908
652.235626	2545.823022
652.578458	2544.338402
652.921238	2545.296221
653.263967	2544.197249
653.606644	2545.475182
653.949269	2543.640202
654.291843	2544.555171
654.634365	2544.968546
654.976836	2545.260933
655.319255	2545.891077
655.661622	2544.373690
656.003938	2542.846220
656.346203	2542.964687
656.688416	2545.543237
657.030577	2543.630120
657.372687	2544.240099
657.714746	2541.510314
658.056753	2543.153731
658.398708	2539.874460
658.740612	2541.606096
659.082465	2540.297917
659.424266	2543.027702
659.766016	2539.347659
660.107715	2545.719678
660.449362	2545.147507
660.790958	2543.234389
661.132503	2542.997455
661.473996	2543.446118
661.815438	2541.931251
662.156829	2544.761859
662.498168	2543.793957
662.839456	2540.665921
663.180693	2542.163144
663.521879	2543.957795
663.863013	2542.286652
664.204097	2542.914276
664.545129	2543.919986
664.886110	2545.359235
665.227040	2543.922507
665.567918	2545.538196
665.908746	2543.589790
666.249522	2543.110881
666.590248	2540.451672
666.930922	2544.232538
667.271545	2543.131045
667.612118	2542.992414
667.952639	2543.592311
668.293109	2546.049873
668.633528	2544.729091
668.973896	2542.105171
669.314213	2545.457538
669.654480	2544.562733
669.994695	2545.081972
670.334859	2542.858823
670.674973	2542.281611
671.015035	2544.615665
671.355047	2543.632640
671.695008	2543.221786
672.034918	2543.279759
672.374777	2543.970397
672.714585	2543.176416
673.054342	2545.424770
673.394049	2542.097609
673.733705	2545.535676
674.073310	2544.698844
674.412864	2541.817825
674.752368	2541.820345
675.091820	2545.238248
675.431223	2542.838658
675.770574	2542.904193
676.109875	2537.820190
676.449125	2539.203987
676.788324	2537.774819
677.127473	2540.524769
677.466571	2538.803215
677.805619	2543.340253
678.144616	2541.878319
678.483562	2541.192722
678.822458	2541.656508
679.161303	2544.998793
679.500098	2544.134235
679.838842	2539.622402
680.177535	2544.356046
680.516179	2542.468134
680.854771	2543.758669
681.193314	2543.236910
681.531805	2543.640202
681.870247	2543.617517
682.208638	2542.032074
682.546978	2544.663556
682.885268	2544.177085
683.223508	2543.352856
683.561697	2543.819163
683.899836	2543.030222
684.237925	2543.325130
684.575963	2542.256405
684.913951	2541.475026
685.251889	2545.318906
685.589776	2542.614327
685.927614	2543.655325
686.265401	2541.810263
686.603137	2546.241437
686.940824	2540.844882
687.278460	2544.887887
687.616046	2543.758669
687.953582	2541.394368
688.291068	2540.602907
688.628504	2541.401930
688.965889	2544.323278
689.303224	2542.344625
689.640510	2540.756662
689.977745	2540.676003
690.314930	2542.576518
690.652065	2542.616848
690.989150	2539.882022
691.326185	2540.809594
691.663170	2541.601055
692.000105	2539.219110
692.336990	2541.444779
692.673825	2540.265149
693.010610	2542.667259
693.347345	2538.183153
693.684030	2539.435880
694.020665	2538.107536
694.357251	2538.541075
694.693786	2540.239944
695.030272	2542.503422
695.366707	2542.263967
695.703093	2537.994110
696.039429	2540.935623
696.375716	2539.768596
696.711952	2540.905376
697.048139	2542.717671
697.384276	2539.569470
697.720363	2540.766744
698.056400	2540.958308
698.392388	2541.006199
698.728326	2541.651467
699.064214	2542.276570
699.400053	2541.711961
699.735842	2537.752134
700.071581	2541.769934
700.407270	2536.859850
700.742910	2541.159954
701.078501	2541.016281
701.414042	2537.779861
701.749533	2540.560057
702.084974	2539.841692
702.420366	2541.780016
702.755709	2538.561239
703.091002	2540.466796
703.426246	2541.412012
703.761440	2539.733308
704.096584	2539.846734
704.431679	2537.437062
704.766725	2537.648791
705.101721	2538.657021
705.436668	2538.326826
705.771565	2541.280942
706.106413	2539.690458
706.441212	2538.949408
706.775961	2539.617361
707.110661	2538.475540
707.445311	2540.970911
707.779913	2540.189532
708.114465	2539.259439
708.448967	2539.927392
708.783421	2538.455375
709.117825	2541.351518
709.452180	2540.010571
709.786485	2540.532331
710.120742	2540.209697
710.454949	2538.462937
710.789107	2536.824562
711.123216	2536.650642
711.457275	2538.755324
711.791286	2534.805580
712.125247	2537.174922
712.459159	2540.877650
712.793023	2541.938812
713.126837	2541.752290
713.460602	2540.615510
713.794318	2538.843544
714.127985	2539.884542
714.461602	2539.390509
714.795171	2539.224151
715.128691	2542.453010
715.462162	2539.892104
715.795584	2541.296065
716.128957	2539.592155
716.462281	2541.089378
716.795556	2539.559388
717.128782	2543.216745
717.461960	2540.733977
717.795088	2538.110056
718.128167	2540.486960
718.461198	2537.984027
718.794180	2539.173740
719.127113	2538.762886
719.459997	2539.894625
719.792833	2536.365817
720.125619	2537.767258
720.458357	2539.642567
720.791046	2539.965201
721.123686	2538.462937
721.456278	2539.468647
721.788821	2537.147196
722.121315	2537.038811
722.453761	2539.110725
722.786158	2537.185004
723.118506	2538.896476
723.450805	2538.989737
723.783056	2535.481094
724.115259	2537.593338
724.447412	2539.899666
724.779518	2536.121321
725.111574	2537.921013
725.443582	2535.042514
725.775542	2539.675334
726.107453	2537.681558
726.439315	2537.792463
726.771129	2542.309337
727.102895	2536.406146
727.434612	2541.752290
727.766281	2536.149047
728.097901	2537.404295
728.429473	2534.818183
728.760996	2537.563091
729.092471	2533.804911
729.423897	2539.559388
729.755276	2535.760878
730.086606	2539.882022
730.417887	2540.360931
730.749120	2538.236085
731.080305	2537.333718
731.411442	2540.769265
731.742530	2539.942516
732.073570	2538.387320
732.404562	2539.072917
732.735506	2538.349511
733.066401	2539.748431
733.397249	2539.564429
733.728048	2536.035621
734.058798	2539.428318
734.389501	2538.720036
734.720156	2538.404964
735.050762	2537.817669
735.381320	2537.792463
735.711831	2538.732639
736.042293	2539.544264
736.372707	2536.728780
736.703073	2537.023687
737.033391	2540.113915
737.363661	2535.793646
737.693883	2538.785571
738.024056	2541.669111
738.354182	2537.558050
738.684260	2535.750796
739.014290	2537.885725
739.344272	2535.226516
739.674207	2537.089222
740.004093	2539.602238
740.333931	2537.399253
740.663722	2540.058462
740.993464	2536.048224
741.323159	2540.118956
741.652806	2538.273894
741.982405	2537.535365
742.311956	2537.311033
742.641460	2536.345652
742.970915	2537.338760
743.300323	2535.833975
743.629683	2536.280117
743.958996	2540.247505
744.288260	2534.596372
744.617477	2538.173071
744.946647	2533.600744
745.275768	2535.546629
745.604842	2532.660569
745.933869	2532.584952
746.262847	2533.973789
746.591778	2534.417411
746.920662	2538.626774
747.249498	2535.692823
747.578286	2537.091743
747.907027	2535.317257
748.235720	2536.088553
748.564365	2537.699202
748.892963	2535.140817
749.221514	2535.428162
749.550017	2535.115611
749.878473	2538.470499
750.206881	2535.281969
750.535242	2537.379089
750.863555	2534.949253
751.191821	2537.439583
751.520039	2536.847247
751.848210	2537.089222
752.176334	2537.487474
752.504411	2535.496218
752.832440	2537.255581
753.160421	2537.815149
753.488356	2538.941847
753.816243	2535.965045
754.144082	2536.756506
754.471875	2540.802032
754.799620	2535.410518
755.127318	2532.995806
755.454969	2536.665766
755.782572	2535.566794
756.110129	2536.406146
756.437638	2540.257588
756.765100	2534.790456
757.092515	2536.474202
757.419882	2537.787422
757.747203	2536.264994
758.074477	2535.415559
758.401703	2535.528985
758.728882	2535.254242
759.056014	2536.817000
759.383099	2538.657021
759.710138	2538.407484
760.037129	2534.959335
760.364073	2536.945550
760.690970	2536.171732
761.017820	2538.518390
761.344623	2536.154088
761.671379	2535.811290
761.998088	2533.441948
762.324751	2535.266845
762.651366	2534.689633
762.977935	2538.750283
763.304456	2537.260622
763.630931	2539.927392
763.957359	2542.475695
764.283740	2540.658359
764.610074	2537.963863
764.936362	2536.716177
765.262602	2539.698020
765.588796	2536.834644
765.914943	2535.662576
766.241044	2538.775488
766.567097	2534.896321
766.893104	2534.099818
767.219064	2538.727597
767.544978	2536.111239
767.870845	2536.196938
768.196665	2534.490508
768.522438	2536.703574
768.848165	2537.104346
769.173846	2535.130734
769.499479	2536.401105
769.825066	2535.571835
770.150607	2533.502442
770.476101	2534.145189
770.801548	2536.380940
771.126949	2534.833306
771.452303	2532.625281
771.777611	2534.200641
772.102872	2533.036135
772.428087	2536.000333
772.753256	2534.495549
773.078378	2536.753986
773.403453	2535.060158
773.728482	2533.545291
774.053465	2535.322298
774.378401	2535.627288
774.703291	2536.653163
775.028135	2532.821886
775.352932	2534.099818
775.677683	2534.518234
776.002388	2533.704088
776.327046	2535.418080
776.651658	2533.048738
776.976224	2535.075282
777.300743	2535.695343
777.625216	2533.661238
777.949643	2533.540250
778.274024	2536.547298
778.598359	2531.685106
778.922647	2529.930784
779.246889	2532.950435
779.571086	2530.263500
779.895236	2533.424304
780.219339	2532.128727
780.543397	2532.118645
780.867409	2531.770805
781.191374	2534.203162
781.515294	2533.696526
781.839167	2533.399098
782.162995	2534.122503
782.486776	2534.908923
782.810511	2533.646114
783.134201	2536.995961
783.457844	2533.141999
783.781441	2535.188707
784.104993	2533.784746
784.428498	2536.259953
784.751958	2532.174098
785.075372	2534.603934
785.398739	2533.366330
785.722061	2531.939684
786.045337	2534.409849
786.368568	2533.504962
786.691752	2534.792977
787.014891	2533.714170
787.337983	2534.067051
787.661030	2535.912113
787.984031	2536.239788
788.306987	2534.825744
788.629897	2536.058307
788.952760	2534.535878
789.275579	2532.751310
789.598351	2534.382123
789.921078	2538.271373
790.243759	2532.524458
790.566395	2532.930271
790.888984	2535.675179
791.211529	2533.719211
791.534027	2534.034283
791.856480	2535.670138
792.178888	2536.600231
792.501249	2533.648635
792.823566	2531.901875
793.145836	2533.278110
793.468062	2535.465971
793.790241	2532.474046
794.112375	2535.770961
794.434464	2532.537061
794.756507	2535.690302
795.078505	2532.428676
795.400457	2530.908768
795.722364	2530.850795
796.044226	2532.837009
796.366042	2530.939015
796.687812	2532.164015
797.009538	2530.739889
797.331218	2535.372710
797.652852	2534.364479
797.974442	2535.428162
798.295986	2533.482277
798.617484	2531.914478
798.938938	2533.865405
799.260346	2534.200641
799.581709	2537.527803
799.903026	2532.864736
800.224299	2533.376413
800.545526	2533.762061
800.866708	2533.343645
801.187845	2531.997657
801.508936	2529.540095
801.829983	2533.613347
802.150984	2532.494211
802.471940	2535.468492
802.792851	2529.872811
803.113717	2533.073943
803.434538	2530.553367
803.755314	2535.319777
804.076045	2533.124355
804.396731	2534.871115
804.717372	2534.230888
805.037967	2534.384643
805.358518	2532.010260
805.679024	2534.898841
805.999485	2533.562935
806.319901	2534.840868
806.640272	2535.289531
806.960598	2533.192411
807.280879	2530.989426
807.601115	2533.623429
807.921306	2533.164684
808.241453	2532.239633
808.561554	2533.358769
808.881611	2533.454551
809.201623	2534.266176
809.521590	2533.038655
809.841513	2533.391536
810.161390	2534.601413
810.481223	2532.907585
810.801011	2533.767102
811.120755	2531.309540
811.440453	2532.259797
811.760107	2532.952956
812.079716	2531.642256
812.399281	2527.470701
812.718801	2530.540764
813.038276	2529.192255
813.357707	2534.271218
813.677093	2531.992616
813.996434	2534.518234
814.315731	2531.909437
814.634983	2532.017822
814.954191	2533.978831
815.273354	2532.544622
815.592473	2533.570497
815.911547	2534.931609
816.230577	2533.588141
816.549562	2532.143851
816.868502	2534.513193
817.187399	2531.312060
817.506250	2531.617050
817.825058	2533.000847
818.143821	2534.379602
818.462539	2533.636032
818.781213	2533.978831
819.099843	2532.579910
819.418429	2536.572504
819.736970	2534.956814
820.055466	2535.181146
820.373919	2536.038142
820.692327	2535.574356
821.010691	2536.459078
821.329011	2542.074924
821.647286	2551.973229
821.965517	2557.442881
822.283704	2561.405228
822.601847	2560.250804
822.919945	2555.532284
823.237999	2552.739485
823.556010	2548.031047
823.873976	2545.460058
824.191897	2545.291180
824.509775	2539.347659
824.827609	2540.403781
825.145398	2535.178625
825.463144	2539.140972
825.780845	2537.162319
826.098502	2541.381765
826.416116	2542.130376
826.733685	2545.056766
827.051210	2542.415202
827.368692	2544.512322
827.686129	2539.811446
828.003522	2536.368337
828.320872	2534.054448
828.638177	2534.596372
828.955439	2532.859694
829.272656	2532.310209
829.589830	2527.493386
829.906960	2535.705426
830.224046	2534.188038
830.541088	2531.773326
830.858086	2535.987730
831.175041	2531.448171
831.491952	2531.755682
831.808819	2532.070754
832.125642	2535.498738
832.442421	2533.573018
832.759157	2533.729293
833.075849	2536.544778
833.392497	2534.939170
833.709101	2537.369007
834.025662	2538.644418
834.342179	2539.433359
834.658653	2536.605272
834.975083	2537.457227
835.291469	2539.418236
835.607811	2534.850950
835.924110	2534.006557
836.240366	2533.774664
836.556578	2533.915816
836.872746	2533.651156
837.188871	2531.720394
837.504952	2532.227030
837.820990	2532.801721
838.136984	2531.927081
838.452935	2531.896834
838.768842	2531.601927
839.084706	2532.078316
839.400526	2529.285516
839.716303	2531.949766
840.032037	2534.684592
840.347727	2533.104190
840.663373	2533.129396
840.978977	2532.612678
841.294537	2531.528830
841.610054	2531.231402
841.925527	2533.197452
842.240957	2532.348017
842.556344	2531.158305
842.871687	2532.693336
843.186987	2532.995806
843.502244	2532.239632
843.817458	2530.011442
844.132629	2529.603109
844.447756	2530.659231
844.762840	2525.953314
845.077881	2528.723428
845.392879	2527.944569
845.707833	2529.716535
846.022745	2526.777542
846.337613	2532.549663
846.652438	2530.901206
846.967221	2531.531350
847.281960	2530.172759
847.596656	2531.843902
847.911309	2530.785260
848.225919	2530.122348
848.540485	2534.114942
848.855009	2531.168387
849.169490	2530.419776
849.483928	2531.377595
849.798323	2528.945238
850.112675	2532.098480
850.426984	2529.219981
850.741251	2532.131248
851.055474	2532.968079
851.369654	2532.653007
851.683792	2530.775177
851.997887	2527.682429
852.311938	2531.075126
852.625947	2531.740558
852.939914	2530.805424
853.253837	2530.137471
853.567718	2531.859025
853.881555	2532.615198
854.195350	2532.360620
854.509103	2532.363141
854.822812	2527.695032
855.136479	2531.954807
855.450103	2532.118645
855.763685	2528.491535
856.077224	2528.511699
856.390720	2534.238450
856.704173	2529.756864
857.017584	2532.146371
857.330953	2527.982378
857.644278	2529.550177
857.957561	2535.213913
858.270802	2529.257790
858.584000	2530.971782
858.897155	2532.990764
859.210268	2530.089580
859.523339	2531.760723
859.836367	2529.361134
860.149352	2530.901206
860.462295	2530.964221
860.775195	2528.042872
861.088054	2528.925074
861.400869	2529.262831
861.713642	2528.022707
862.026373	2529.235105
862.339062	2529.633356
862.651708	2530.548325
862.964312	2531.077647
863.276873	2530.686957
863.589392	2529.227543
863.901869	2530.628984
864.214303	2530.553367
864.526696	2532.171577
864.839045	2527.904240
865.151353	2530.341638
865.463619	2531.254087
865.775842	2532.907585
866.088023	2531.702750
866.400162	2530.838192
866.712258	2531.591844
867.024313	2528.506658
867.336325	2529.938346
867.648296	2532.204344
867.960224	2529.383819
868.272110	2529.567821
868.583954	2530.220650
868.895755	2533.298275
869.207515	2529.865249
869.519233	2528.355423
869.830909	2531.543953
870.142542	2532.070754
870.454134	2528.531864
870.765684	2530.578572
871.077191	2530.686957
871.388657	2533.139478
871.700081	2530.560928
872.011463	2529.736700
872.322803	2530.971782
872.634101	2529.986237
872.945357	2530.734848
873.256571	2531.548994
873.567744	2529.998840
873.878874	2530.785260
874.189963	2531.362472
874.501010	2531.125538
874.812015	2529.686288
875.122979	2532.834489
875.433900	2527.485824
875.744780	2533.610826
876.055618	2531.168387
876.366415	2528.990609
876.677169	2531.359951
876.987882	2529.073788
877.298554	2525.522295
877.609183	2530.283665
877.919771	2528.413397
878.230317	2527.422810
878.540822	2532.032945
878.851285	2532.118645
879.161707	2532.796680
879.472087	2534.717360
879.782425	2531.657379
880.092722	2534.482946
880.402977	2537.366486
880.713191	2536.940508
881.023363	2542.808412
881.333494	2546.899308
881.643583	2545.631458
881.953631	2548.318393
882.263637	2548.106664
882.573602	2543.819163
882.883526	2542.286652
883.193408	2541.086857
883.503248	2537.895807
883.813048	2539.171219
884.122806	2534.137627
884.432522	2534.608975
884.742197	2536.189377
885.051831	2534.021680
885.361424	2532.237112
885.670975	2534.379602
885.980485	2531.864067
886.289954	2532.350538
886.599382	2531.675023
886.908768	2531.725435
887.218113	2532.254756
887.527417	2532.368182
887.836680	2531.851464
888.145901	2531.601927
888.455082	2531.007070
888.764221	2532.574869
889.073319	2530.707122
889.382376	2531.443130
889.691392	2529.703932
890.000366	2530.187883
890.309300	2530.422297
890.618193	2533.482277
890.927044	2530.949097
891.235855	2528.420958
891.544625	2529.154446
891.853353	2530.699560
892.162041	2529.361134
892.470687	2532.010260
892.779293	2528.385670
893.087858	2528.181504
893.396381	2529.280475
893.704864	2528.045393
894.013306	2527.453057
894.321707	2533.494880
894.630068	2535.665097
894.938387	2534.251053
895.246665	2535.513862
895.554903	2535.405477
895.863100	2534.936650
896.171256	2536.020498
896.479371	2531.700229
896.787446	2531.601927
897.095480	2532.068233
897.403473	2529.497245
897.711425	2530.250897
898.019336	2531.017153
898.327207	2532.733666
898.635038	2530.218130
898.942827	2530.686957
899.250576	2529.421627
899.558284	2528.920033
899.865952	2527.866432
900.173579	2531.543953
900.481165	2531.049920
900.788711	2531.433048
901.096216	2530.608819
901.403681	2532.234591
901.711105	2529.895496
902.018489	2531.654859
902.325832	2532.748789
902.633135	2532.443799
902.940397	2529.950949
903.247619	2531.138140
903.554800	2533.847761
903.861941	2533.754499
904.169041	2538.331867
904.476101	2535.992772
904.783121	2538.687268
905.090100	2533.668800
905.397039	2534.740045
905.703938	2531.901875
906.010796	2534.288862
906.317614	2528.236956
906.624391	2531.750641
906.931129	2532.731145
907.237826	2531.468336
907.544483	2530.238294
907.851099	2527.939528
908.157675	2530.341638
908.464211	2529.923222
908.770707	2524.198992
909.077163	2530.346679
909.383578	2524.229239
909.689954	2527.155629
909.996289	2524.854342
910.302584	2531.634694
910.608839	2525.343334
910.915054	2527.584127
911.221229	2527.395084
911.527363	2530.107224
911.833458	2529.610671
912.139513	2529.714014
912.445527	2528.587317
912.751502	2528.521782
913.057436	2529.151926
913.363331	2530.160157
913.669186	2526.046575
913.975000	2530.744930
914.280775	2527.064888
914.586510	2533.010929
914.892205	2531.201155
915.197859	2531.175949
915.503475	2536.007895
915.809050	2537.278266
916.114585	2537.769778
916.420081	2534.155271
916.725536	2536.776671
917.030952	2535.377751
917.336328	2534.366999
917.641665	2535.017308
917.946961	2531.717873
918.252218	2532.297606
918.557435	2532.090918
918.862612	2531.717873
919.167750	2529.209899
919.472848	2529.973634
919.777906	2530.565969
920.082925	2531.924560
920.387904	2527.584127
920.692843	2532.186700
920.997743	2526.283509
921.302603	2530.162677
921.607423	2528.287368
921.912204	2529.416586
922.216946	2529.749303
922.521647	2528.725948
922.826310	2527.347193
923.130932	2531.352389
923.435516	2527.974816
923.740059	2531.327184
924.044564	2528.284847
924.349028	2528.259642
924.653454	2524.020031
924.957840	2525.928108
925.262186	2523.619259
925.566493	2524.594723
925.870761	2525.066071
926.174989	2526.384332
926.479178	2529.598068
926.783328	2531.377595
927.087438	2528.804086
927.391509	2528.736031
927.695541	2529.202337
927.999533	2531.241484
928.303486	2528.428520
928.607400	2528.126051
928.911275	2529.837523
929.215110	2528.829292
929.518906	2528.241997
929.822663	2529.293078
930.126381	2527.543798
930.430060	2527.148067
930.733699	2527.546318
931.037299	2528.751154
931.340861	2528.181504
931.644383	2528.115969
931.947866	2527.778211
932.251309	2526.928777
932.554714	2526.999353
932.858080	2527.309384
933.161407	2527.637059
933.464694	2528.526823
933.767943	2529.575383
934.071153	2527.155629
934.374323	2525.061029
934.677455	2531.054961
934.980548	2529.162008
935.283602	2526.462470
935.586617	2527.460619
935.889593	2528.912471
936.192530	2527.185876
936.495428	2526.374250
936.798287	2531.864067
937.101108	2526.081863
937.403890	2527.879034
937.706632	2529.114117
938.009336	2530.387008
938.312002	2528.839374
938.614628	2530.049251
938.917216	2529.346010
939.219765	2529.230064
939.522275	2527.226205
939.824747	2532.224509
940.127179	2526.480114
940.429573	2525.665968
940.731929	2524.627490
941.034246	2525.827285
941.336524	2527.137985
941.638763	2525.219826
941.940964	2530.568490
942.243126	2529.857687
942.545250	2530.853315
942.847335	2531.518747
943.149381	2527.143026
943.451389	2528.927594
943.753359	2525.497089
944.055290	2526.487676
944.357182	2527.289219
944.659036	2529.242667
944.960851	2527.193438
945.262628	2528.594878
945.564367	2527.722759
945.866067	2528.937677
946.167729	2525.487007
946.469352	2526.223015
946.770937	2528.756195
947.072484	2526.855680
947.373992	2528.788963
947.675462	2530.833151
947.976893	2527.488345
948.278286	2528.604961
948.579641	2525.066071
948.880958	2528.882224
949.182236	2529.038500
949.483476	2529.865249
949.784678	2528.201668
950.085841	2527.125382
950.386967	2528.564631
950.688054	2528.360465
950.989103	2527.861390
951.290114	2527.286699
951.591087	2528.113448
951.892021	2528.693181
952.192917	2527.727800
952.493776	2528.063037
952.794596	2530.192924
953.095378	2528.045393
953.396122	2528.486493
953.696828	2529.275434
953.997496	2528.199148
954.298126	2526.732172
954.598718	2527.667306
954.899272	2526.911133
955.199788	2527.387522
955.500266	2526.865763
955.800706	2526.132275
956.101108	2523.611698
956.401472	2522.900895
956.701798	2524.748478
957.002087	2525.638242
957.302337	2529.058664
957.602550	2528.259642
957.902724	2526.674199
958.202861	2526.464991
958.502960	2525.749147
958.803022	2530.888603
959.103045	2527.347193
959.403031	2528.121010
959.702979	2527.412728
960.002889	2524.871986
960.302762	2527.881555
960.602596	2527.606812
960.902393	2525.487007
961.202153	2528.350382
961.501875	2526.911133
961.801559	2526.843077
962.101205	2527.422810
962.400814	2525.262676
962.700385	2526.071781
962.999918	2529.986237
963.299414	2523.100021
963.598873	2525.481966
963.898293	2527.516071
964.197677	2525.837367
964.497022	2525.701256
964.796331	2526.265865
965.095601	2525.189579
965.394835	2526.540608
965.694030	2525.607995
965.993189	2526.946421
966.292309	2528.907430
966.591393	2528.284847
966.890439	2525.388704
967.189447	2526.109589
967.488419	2524.488858
967.787353	2527.422810
968.086249	2526.722090
968.385108	2527.453057
968.683930	2525.502130
968.982714	2527.937008
969.281462	2525.285361
969.580172	2528.604961
969.878844	2524.892151
970.177480	2526.157480
970.476078	2526.928777
970.774639	2524.231760
971.073162	2527.682429
971.371649	2524.856863
971.670098	2522.737057
971.968510	2525.968437
972.266885	2521.925432
972.565223	2528.000022
972.863524	2526.134795
973.161788	2528.577234
973.460014	2531.410363
973.758204	2528.587317
974.056356	2529.197296
974.354471	2529.255269
974.652550	2526.225536
974.950591	2527.387522
975.248595	2526.102028
975.546563	2526.394415
975.844493	2524.700587
976.142386	2526.074301
976.440243	2524.877027
976.738062	2525.113962
977.035845	2525.464322
977.333590	2528.002543
977.631299	2527.198479
977.928971	2525.113962
978.226606	2528.065557
978.524204	2524.942562
978.821765	2527.994981
979.119290	2525.330731
979.416777	2528.698222
979.714228	2527.722759
980.011642	2526.709487
980.309020	2529.366175
980.606360	2527.296781
980.903664	2527.445495
981.200931	2527.062367
981.498162	2525.981040
981.795356	2524.945083
982.092513	2526.946421
982.389633	2527.180835
982.686717	2526.704446
982.983764	2526.747295
983.280775	2524.236801
983.577749	2525.305525
983.874686	2528.461288
984.171587	2525.262676
984.468451	2525.393746
984.765279	2525.877696
985.062070	2526.679240
985.358824	2523.856194
985.655543	2522.777387
985.952224	2527.125382
986.248869	2526.323838
986.545478	2522.580782
986.842050	2523.135309
987.138586	2519.097344
987.435086	2523.883920
987.731549	2521.373425
988.027975	2524.388035
988.324366	2526.636390
988.620719	2526.948942
988.917037	2525.930628
989.213318	2528.214271
989.509563	2523.452901
989.805772	2526.031452
990.101944	2527.011956
990.398080	2525.522295
990.694180	2526.417100
990.990244	2526.643952
991.286271	2527.047244
991.582262	2524.756040
991.878217	2523.944414
992.174136	2525.320649
992.470019	2529.391381
992.765865	2525.262676
993.061676	2525.492048
993.357450	2525.681091
993.653188	2525.912984
993.948890	2527.763088
994.244556	2526.059178
994.540186	2527.107738
994.835780	2525.466842
995.131337	2525.320649
995.426859	2526.344003
995.722345	2523.042047
996.017795	2527.158149
996.313208	2526.132275
996.608586	2527.158149
996.903928	2527.107738
997.199234	2523.931811
997.494504	2526.228057
997.789738	2526.452388
998.084936	2525.323169
998.380099	2526.966586
998.675225	2525.953314
998.970316	2527.470701
999.265371	2526.280989
999.560390	2524.272089
999.855373	2527.957172
1000.150320	2524.750998
1000.445232	2525.797038
1000.740108	2523.677233
1001.034948	2525.965917
1001.329752	2526.462470
1001.624521	2528.050434
1001.919254	2521.794362
1002.213951	2524.130937
1002.508613	2522.046419
1002.803239	2522.805113
1003.097829	2522.515247
1003.392384	2526.515402
1003.686903	2524.763601
1003.981386	2527.884076
1004.275834	2525.028262
1004.570246	2527.100176
1004.864623	2525.474404
1005.158964	2527.775691
1005.453270	2526.792666
1005.747540	2523.894002
1006.041775	2526.719569
1006.335974	2525.353416
1006.630138	2525.126564
1006.924266	2525.005577
1007.218359	2527.397604
1007.512416	2525.713859
1007.806438	2525.300484
1008.100425	2524.516585
1008.394376	2526.407017
1008.688292	2524.602284
1008.982172	2526.480114
1009.276017	2526.628828
1009.569827	2527.087573
1009.863602	2528.468849
1010.157341	2524.783766
1010.451045	2526.525485
1010.744714	2527.412728
1011.038347	2526.780063
1011.331945	2525.673530
1011.625508	2526.848118
1011.919036	2526.253262
1012.212528	2526.795186
1012.505986	2523.750329
1012.799408	2527.097656
1013.092795	2524.773684
1013.386147	2526.086904
1013.679464	2525.897861
1013.972745	2526.941380
1014.265992	2526.517923
1014.559204	2525.696215
1014.852380	2525.187058
1015.145521	2524.879548
1015.438628	2525.555062
1015.731699	2525.139167
1016.024736	2524.151101
1016.317737	2526.013808
1016.610703	2526.777542
1016.903635	2520.135822
1017.196531	2520.851666
1017.489393	2522.638755
1017.782219	2521.302849
1018.075011	2523.636903
1018.367768	2525.610515
1018.660490	2526.245701
1018.953177	2526.245701
1019.245829	2526.245701
