Dividing Wavelength (nm)	Counts (n)	Blue Motor Position (mm): 0.000000	Red Motor Position (mm): 40.000000	
326.493990	2139.349746
326.888308	2139.349746
327.282561	2139.349746
327.676750	2115.179934
328.070874	2117.755963
328.464933	2118.265120
328.858929	2129.602675
329.252859	2143.425519
329.646726	2155.708290
330.040528	2168.916113
330.434265	2190.701459
330.827938	2209.308358
331.221547	2227.136399
331.615091	2246.607856
332.008571	2267.778181
332.401986	2287.252158
332.795338	2309.523976
333.188625	2331.064827
333.581847	2348.640809
333.975006	2367.842564
334.368100	2385.748743
334.761129	2403.682648
335.154095	2417.760070
335.546996	2438.983327
335.939833	2457.164249
336.332606	2475.940026
336.725315	2485.848414
337.117960	2495.739158
337.510540	2500.054386
337.903056	2510.328257
338.295508	2518.689011
338.687896	2523.291584
339.080220	2531.027235
339.472480	2535.612164
339.864676	2542.248843
340.256807	2544.870243
340.648875	2546.667415
341.040879	2546.901828
341.432818	2547.922662
341.824694	2552.467262
342.216506	2552.948692
342.608253	2550.302087
342.999937	2549.026675
343.391557	2548.099103
343.783113	2548.419216
344.174605	2545.439894
344.566033	2545.046684
344.957397	2543.700696
345.348697	2543.718340
345.739934	2540.146682
346.131106	2538.410005
346.522215	2535.891948
346.913260	2532.446320
347.304241	2533.898172
347.695159	2527.710156
348.086012	2532.776515
348.476802	2527.032121
348.867528	2526.938859
349.258191	2526.964065
349.648789	2526.117151
350.039324	2522.187572
350.429796	2524.047758
350.820203	2521.380987
351.210548	2520.082890
351.600828	2518.865451
351.991045	2520.415606
352.381198	2518.910822
352.771288	2520.403003
353.161314	2516.223887
353.551276	2518.293280
353.941175	2520.256810
354.331010	2519.104906
354.720782	2518.774711
355.110490	2521.380987
355.500135	2519.314114
355.889717	2519.886285
356.279235	2521.196985
356.668689	2522.353930
357.058080	2522.588343
357.447408	2516.281860
357.836672	2516.433095
358.225873	2520.040040
358.615010	2519.767818
359.004084	2523.044568
359.393095	2524.325021
359.782043	2525.136647
360.170927	2527.624456
360.559748	2524.582120
360.948505	2527.505989
361.337199	2525.401307
361.725830	2525.928108
362.114398	2529.320804
362.502903	2527.337110
362.891344	2527.495907
363.279722	2528.690660
363.668037	2531.803573
364.056289	2530.465146
364.444478	2529.537574
364.832603	2529.769467
365.220665	2530.976823
365.608665	2531.929602
365.996601	2532.484128
366.384474	2528.751154
366.772284	2532.340456
367.160031	2531.876669
367.547715	2531.876669
367.935336	2533.875487
368.322893	2533.063861
368.710388	2536.020498
369.097820	2532.373223
369.485189	2531.425486
369.872495	2534.364479
370.259738	2532.549663
370.646918	2536.753986
371.034035	2535.604603
371.421090	2535.917154
371.808081	2535.947401
372.195010	2536.748945
372.581875	2538.689789
372.968678	2539.203987
373.355418	2539.387989
373.742096	2541.999306
374.128710	2541.112063
374.515262	2541.883360
374.901751	2542.861344
375.288177	2545.160110
375.674540	2544.625747
376.060841	2548.086500
376.447079	2548.199926
376.833254	2550.765873
377.219367	2551.403579
377.605417	2550.874258
377.991404	2555.648230
378.377329	2556.099414
378.763191	2556.288457
379.148991	2566.063254
379.534727	2567.454613
379.920402	2575.585994
380.306013	2579.810481
380.691563	2581.645461
381.077049	2584.352560
381.462474	2589.121492
381.847835	2596.000146
382.233134	2599.367637
382.618371	2601.923502
383.003545	2612.391458
383.388657	2616.051336
383.773706	2624.102058
384.158693	2631.119345
384.543618	2637.947587
384.928480	2642.779533
385.313280	2650.613487
385.698017	2659.501041
386.082692	2667.483708
386.467305	2673.820438
386.851856	2682.581964
387.236344	2692.283664
387.620770	2702.678523
388.005133	2709.531972
388.389435	2718.265771
388.773674	2722.848180
389.157851	2734.861250
389.541965	2745.729977
389.926018	2748.311048
390.310008	2761.672626
390.693936	2771.548247
391.077802	2779.382200
391.461606	2788.723458
391.845348	2796.638069
392.229027	2809.805563
392.612645	2821.690083
392.996200	2831.195179
393.379694	2841.486695
393.763125	2856.746267
394.146494	2868.736652
394.529801	2878.335009
394.913047	2893.463511
395.296230	2898.499624
395.679351	2902.799728
396.062410	2919.637182
396.445408	2916.806574
396.828343	2930.211002
397.211217	2939.280038
397.594028	2931.050354
397.976778	2943.368414
398.359466	2960.276444
398.742092	2955.298304
399.124656	2970.260449
399.507158	2984.098416
399.889598	2992.141577
400.271977	3003.700943
400.654294	3011.706295
401.036549	3023.994108
401.418742	3027.999305
401.800874	3051.937224
402.182944	3059.506516
402.564952	3085.508788
402.946898	3078.655339
403.328783	3086.988366
403.710606	3102.331118
404.092367	3123.952627
404.474067	3150.927841
404.855705	3142.748569
405.237282	3141.115235
405.618797	3175.233764
406.000250	3196.199923
406.381642	3224.145560
406.762972	3232.917167
407.144240	3220.672205
407.525447	3244.237078
407.906593	3242.190370
408.287677	3263.590068
408.668700	3284.178140
409.049661	3279.605814
409.430560	3297.365799
409.811399	3303.357210
410.192176	3321.704489
410.572891	3328.878051
410.953545	3367.838609
411.334138	3337.112776
411.714669	3387.224366
412.095139	3335.731500
412.475547	3386.201012
412.855894	3376.229609
413.236180	3407.504928
413.616405	3383.347719
413.996568	3412.041966
414.376670	3416.299221
414.756711	3408.916451
415.136691	3433.376129
415.516609	3455.194243
415.896466	3464.318732
416.276262	3489.035509
416.655997	3520.633461
417.035670	3525.914070
417.415283	3595.602981
417.794834	3612.062348
418.174324	3596.119699
418.553753	3598.415945
418.933121	3641.895897
419.312428	3634.127478
419.691674	3628.836787
420.070859	3664.742406
420.449983	3648.313285
420.829045	3698.419834
421.208047	3677.753624
421.586988	3725.742888
421.965867	3754.167434
422.344686	3763.866614
422.723444	3801.592089
423.102141	3706.533571
423.480777	3807.165084
423.859352	3777.601238
424.237866	3875.891135
424.616319	3860.132488
424.994712	3918.035181
425.373044	3908.595620
425.751314	3973.339159
426.129524	3909.321546
426.507673	4006.399046
426.885762	3982.894666
427.263789	4004.516175
427.641756	4013.038246
428.019662	4042.060168
428.397508	4041.911454
428.775292	4080.632557
429.153016	4088.582457
429.530679	4102.501082
429.908282	4106.728090
430.285824	4087.753187
430.663305	4156.572498
431.040726	4118.521869
431.418086	4107.940487
431.795385	4178.803987
432.172624	4216.743711
432.549802	4185.060059
432.926920	4205.633008
433.303977	4197.065567
433.680974	4240.358996
434.057910	4256.798199
434.434786	4264.722893
434.811601	4263.213067
435.188355	4365.989591
435.565050	4337.345755
435.941683	4333.431299
436.318257	4418.220986
436.694770	4428.336061
437.071222	4483.892097
437.447614	4417.681583
437.823946	4421.585956
438.200218	4436.676650
438.576429	4421.669135
438.952580	4447.154688
439.328670	4447.605872
439.704700	4494.150845
440.080670	4460.266730
440.456580	4520.901728
440.832429	4554.647212
441.208218	4457.161379
441.583947	4506.466384
441.959616	4524.085217
442.335224	4549.144792
442.710773	4571.051127
443.086261	4622.498622
443.461689	4576.460285
443.837057	4587.071913
444.212365	4661.484385
444.587612	4667.251465
444.962800	4635.978668
445.337927	4681.107077
445.712995	4563.665836
446.088002	4758.088017
446.462949	4778.298002
446.837837	4794.676711
447.212664	4783.540802
447.587431	5008.159494
447.962139	5302.956089
448.336786	5640.547038
448.711374	5633.411285
449.085901	5275.670844
449.460369	5211.081060
449.834776	5147.968334
450.209124	5381.217482
450.583412	5388.149068
450.957640	5514.243449
451.331808	5377.529878
451.705917	5225.420622
452.079965	5217.074992
452.453954	5257.074027
452.827883	5220.931475
453.201752	5226.564964
453.575562	5260.073514
453.949311	5394.024533
454.323001	5399.083331
454.696632	5393.437239
455.070202	5546.257297
455.443713	5576.358027
455.817164	5668.263302
456.190556	5737.317028
456.563888	5713.507658
456.937160	5795.065966
457.310373	5631.999762
457.683526	5692.763310
458.056619	5680.357030
458.429653	5659.743752
458.802628	5709.179827
459.175542	5742.111165
459.548398	5877.004880
459.921194	6060.863323
460.293930	6123.799608
460.666607	6378.604729
461.039224	6587.716832
461.411782	6716.543518
461.784280	6634.980170
462.156719	6633.205683
462.529099	6600.806188
462.901419	6452.334125
463.273680	6332.505898
463.645882	6316.260779
464.018024	6316.331356
464.390106	6386.925153
464.762130	6646.650441
465.134094	7023.620364
465.505999	7658.352044
465.877845	8362.951597
466.249631	8720.618942
466.621358	8644.255543
466.993026	8455.726472
467.364634	8234.104746
467.736184	7956.621994
468.107674	7802.629867
468.479105	7719.213895
468.850477	7647.919377
469.221790	7474.526369
469.593043	7254.744665
469.964238	7154.135837
470.335373	7129.252701
470.706449	7281.424971
471.077467	7465.399360
471.448425	8121.137529
471.819324	8701.901137
472.190164	8753.265454
472.560945	8272.402392
472.931667	7799.544681
473.302330	7606.793643
473.672934	7481.175651
474.043479	7559.205151
474.413965	7462.954401
474.784393	7414.357678
475.154761	7568.029691
475.525070	7578.827843
475.895321	7527.193824
476.265513	7622.355685
476.635645	7787.627394
477.005719	7777.040971
477.375734	7869.125207
477.745691	7974.991959
478.115588	8173.794902
478.485427	8411.654184
478.855207	8883.165906
479.224928	9312.052152
479.594591	9696.545997
479.964194	9706.303150
480.333739	9791.833887
480.703226	9792.527046
481.072653	9892.704855
481.442022	10008.578297
481.811333	10164.072687
482.180584	9997.422223
482.549777	9942.294685
482.918912	9879.484429
483.287988	9862.999856
483.657005	9772.662379
484.025964	9690.186582
484.394864	9751.802084
484.763706	9711.339263
485.132489	9623.514801
485.501213	9613.586249
485.869879	9673.369292
486.238487	9611.504252
486.607036	9681.757772
486.975527	9633.660123
487.343959	9682.947485
487.712333	9741.311443
488.080648	9774.981310
488.448905	9880.107012
488.817104	9884.570953
489.185244	10042.613647
489.553326	10253.858158
489.921350	10725.611855
490.289315	11341.444250
490.657222	11647.603606
491.025070	11824.101963
491.392861	11735.962430
491.760593	11579.245559
492.128267	11327.646612
492.495883	11088.143913
492.863440	10857.276711
493.230939	10633.363781
493.598380	10449.452406
493.965763	10431.982288
494.333088	10294.089086
494.700354	10221.846831
495.067563	10199.827071
495.434713	10209.682527
495.801805	10244.423638
496.168839	10206.942659
496.535815	10171.778091
496.902733	10220.425225
497.269593	10174.795221
497.636395	10181.739411
498.003139	10290.986256
498.369825	10216.556140
498.736453	10312.070882
499.103023	10255.741029
499.469535	10263.942986
499.835989	10313.111880
500.202385	10287.641450
500.568723	10308.615171
500.935003	10363.714982
501.301226	10342.849647
501.667390	10499.803451
502.033497	10606.605336
502.399546	10525.309169
502.765537	10439.874214
503.131470	10543.870697
503.497345	10626.371701
503.863163	10401.747967
504.228923	10534.663030
504.594625	10651.343056
504.960269	10554.182377
505.325856	10706.750378
505.691385	10584.809908
506.056856	10654.307255
506.422270	10755.649570
506.787625	10684.415546
507.152924	10743.523075
507.518164	10805.078084
507.883347	10677.327684
508.248472	10746.731769
508.613540	10859.807371
508.978550	10930.249934
509.343503	10912.109342
509.708398	10960.993411
510.073236	11089.048801
510.438016	11102.460790
510.802738	11012.365289
511.167403	11141.774229
511.532010	11202.731861
511.896561	11299.953033
512.261053	11496.656336
512.625488	11406.964127
512.989866	11396.934751
513.354186	11375.708973
513.718449	11383.550488
514.082655	11525.824452
514.446803	11478.959365
514.810894	11593.350708
515.174927	11586.177146
515.538904	11569.906822
515.902822	11731.304403
516.266684	11600.388159
516.630488	11699.930783
516.994235	11690.614730
517.357925	11800.990794
517.721558	11866.392203
518.085133	11925.189701
518.448651	11955.955863
518.812112	11920.516551
519.175516	11922.137282
519.538863	12013.525840
519.902152	12016.976510
520.265385	12124.630350
520.628560	12142.657516
520.991678	12098.623037
521.354739	12144.295891
521.717743	12219.214999
522.080690	12193.142151
522.443580	12325.129641
522.806413	12343.101355
523.169189	12326.679796
523.531908	12387.642470
523.894569	12350.753826
524.257174	12360.712626
524.619722	12466.246661
524.982213	12445.008280
525.344647	12433.461517
525.707025	12442.477621
526.069345	12546.579968
526.431608	12526.561546
526.793815	12604.172630
527.155964	12503.299142
527.518057	12529.515662
527.880093	12487.837923
528.242072	12605.354781
528.603995	12530.380220
528.965860	12542.526880
529.327669	12572.844380
529.689421	12520.605423
530.051117	12533.082279
530.412755	12570.543093
530.774337	12581.419382
531.135862	12528.227648
531.497331	12590.228799
531.858743	12557.705795
532.220098	12644.665698
532.581396	12561.811814
532.942638	12477.682518
533.303824	12553.375443
533.664953	12546.645503
534.026025	12489.113335
534.387040	12591.239550
534.747999	12570.409502
535.108902	12613.029938
535.469748	12486.101245
535.830537	12515.768436
536.191270	12559.644118
536.551947	12484.737613
536.912567	12542.448743
537.273131	12578.656830
537.633638	12459.438583
537.994089	12511.546469
538.354483	12436.176178
538.714821	12561.927761
539.075103	12642.044298
539.435328	12583.506420
539.795497	12548.379660
540.155609	12553.564487
540.515665	12658.947287
540.875665	12517.553004
541.235609	12615.608488
541.595496	12571.243813
541.955328	12742.275040
542.315102	12591.174015
542.674821	12532.797453
543.034483	12539.658464
543.394090	12543.948486
543.753640	12510.858352
544.113134	12750.066143
544.472571	12520.832275
544.831953	12797.470633
545.191278	12616.291564
545.550548	12550.247408
545.909761	12665.470540
546.268918	12711.408055
546.628019	12769.784616
546.987064	12657.790342
547.346053	12517.066533
547.704986	12711.216491
548.063863	12591.615116
548.422684	12647.700473
548.781449	12598.045108
549.140158	12691.984489
549.498811	12649.563179
549.857408	12517.827747
550.215949	12719.380640
550.574434	12677.304649
550.932864	12630.316054
551.291237	12823.309067
551.649555	12719.536915
552.007817	12777.137139
552.366022	12697.338194
552.724173	12736.013927
553.082267	12815.175166
553.440305	12908.650761
553.798288	12737.007034
554.156215	12810.489413
554.514086	12851.993233
554.871902	12797.697485
555.229661	12817.617605
555.587365	12770.210594
555.945014	12775.730657
556.302606	12766.517949
556.660143	12822.424345
557.017625	12862.136034
557.375050	12818.522492
557.732421	12921.115014
558.089735	12910.352150
558.446994	12879.679250
558.804197	12994.567146
559.161345	12988.210251
559.518437	12801.816108
559.875474	12900.658011
560.232455	12933.324688
560.589381	12978.987460
560.946251	12907.468610
561.303065	13089.565169
561.659825	13046.193602
562.016528	12958.525416
562.373177	12895.130386
562.729770	13014.404086
563.086307	12895.437897
563.442789	13008.878982
563.799216	13043.126060
564.155587	12989.301661
564.511904	13009.526770
564.868164	13015.104807
565.224370	13083.694746
565.580520	13025.338349
565.936615	13090.286054
566.292654	13010.217408
566.648638	13093.114142
567.004567	13088.783791
567.360441	13092.534409
567.716260	13054.745920
568.072023	13140.415288
568.427732	13109.081997
568.783385	13014.378880
569.138982	13128.364410
569.494525	13130.096046
569.850013	13071.893405
570.205445	13066.325450
570.560823	13073.627562
570.916145	13029.000747
571.271412	13046.521277
571.626625	12997.669976
571.981782	12989.699912
572.336884	12930.915017
572.691931	13024.912371
573.046923	12917.092173
573.401860	12887.969427
573.756743	12877.453580
574.111570	12905.835276
574.466342	12888.261814
574.821059	12933.654884
575.175722	12805.811222
575.530330	12823.455261
575.884882	12757.123758
576.239380	12744.573806
576.593823	12723.431207
576.948211	12722.488511
577.302544	12600.023761
577.656823	12611.232766
578.011047	12666.476251
578.365216	12602.493926
578.719330	12543.784648
579.073389	12515.876821
579.427394	12525.016432
579.781344	12509.330882
580.135239	12438.974019
580.489080	12456.398767
580.842866	12337.603977
581.196597	12417.334866
581.550273	12410.151222
581.903895	12370.527752
582.257463	12477.380049
582.610975	12327.564519
582.964434	12392.731514
583.317837	12312.874596
583.671186	12263.307451
584.024481	12308.902167
584.377721	12198.309334
584.730906	12259.035073
585.084037	12269.195519
585.437113	12179.838546
585.790135	12207.385932
586.143103	12113.907816
586.496016	12123.402829
586.848874	12129.752162
587.201679	12129.237965
587.554428	12005.328924
587.907124	12041.330324
588.259765	11976.216260
588.612352	12033.748428
588.964884	11895.759445
589.317362	11942.816095
589.669786	11934.266298
590.022155	11872.759180
590.374470	11973.282309
590.726731	11860.012623
591.078937	11732.884805
591.431090	11756.144689
591.783188	11689.649349
592.135232	11605.431833
592.487222	11656.607106
592.839157	11661.441573
593.191038	11589.022877
593.542866	11531.803261
593.894639	11390.053576
594.246358	11446.978285
594.598022	11445.612133
594.949633	11341.779487
595.301190	11325.743577
595.652692	11277.333376
596.004141	11356.240037
596.355535	11139.823302
596.706876	11118.680703
597.058162	11081.754251
597.409395	11154.974490
597.760573	11177.959631
598.111698	11072.357540
598.462768	11057.677700
598.813785	11060.904039
599.164748	10931.792527
599.515657	10994.854841
599.866511	10866.421364
600.217312	10978.680299
600.568060	10748.176060
600.918753	10895.592001
601.269392	10878.104238
601.619978	10781.916503
601.970510	10810.305760
602.320988	10846.806235
602.671412	10905.855790
603.021783	10823.125415
603.372100	10744.140616
603.722363	10749.406101
604.072572	10743.119783
604.422728	10739.792621
604.772830	10679.114773
605.122878	10664.891157
605.472872	10628.395724
605.822813	10670.791828
606.172701	10628.720878
606.522534	10659.519808
606.872314	10689.441576
607.222041	10615.959197
607.571714	10673.534215
607.921333	10538.925325
608.270899	10572.660727
608.620411	10614.504824
608.969870	10552.985103
609.319276	10527.507112
609.668627	10517.959167
610.017926	10578.082488
610.367171	10595.681156
610.716362	10570.916488
611.065500	10535.388956
611.414585	10529.642041
611.763616	10584.928375
612.112594	10528.719509
612.461518	10535.101610
612.810389	10555.309075
613.159207	10495.281536
613.507971	10472.906375
613.856682	10543.386747
614.205340	10481.022632
614.553945	10589.903994
614.902496	10471.144491
615.250994	10505.527681
615.599439	10474.607764
615.947830	10488.826338
616.296169	10444.018042
616.644454	10424.687738
616.992686	10418.401419
617.340864	10472.399739
617.688990	10355.288694
618.037063	10453.752511
618.385082	10401.135467
618.733048	10418.497201
619.080961	10385.870853
619.428821	10347.893321
619.776628	10338.534419
620.124382	10270.226784
620.472083	10263.665722
620.819731	10264.968861
621.167326	10178.117342
621.514868	10145.871601
621.862357	10042.984172
622.209793	10016.457620
622.557176	9925.263147
622.904506	9866.551349
623.251783	9776.128172
623.599007	9714.764727
623.946179	9653.882712
624.293297	9618.559347
624.640363	9485.384665
624.987376	9453.706055
625.334336	9381.317606
625.681243	9291.554821
626.028097	9243.673941
626.374899	9194.648720
626.721647	9156.971136
627.068343	9096.371426
627.414987	9027.773925
627.761577	8947.271739
628.108115	8970.647570
628.454600	8849.866565
628.801032	8845.377417
629.147412	8808.284607
629.493739	8762.425231
629.840014	8678.366511
630.186236	8692.695991
630.532405	8587.688756
630.878521	8588.455011
631.224585	8531.608440
631.570597	8446.390255
631.916556	8431.050024
632.262462	8400.888800
632.608316	8359.143005
632.954117	8311.259605
633.299866	8282.638454
633.645562	8241.230417
633.991206	8150.098958
634.336797	8061.888848
634.682336	8022.633383
635.027823	7966.109446
635.373257	7916.963237
635.718639	7835.593972
636.063968	7802.541647
636.409245	7698.560288
636.754470	7669.533324
637.099642	7606.932275
637.444762	7516.826691
637.789829	7502.512335
638.134845	7426.733710
638.479808	7387.082515
638.824719	7353.019438
639.169577	7269.767303
639.514383	7244.228818
639.859137	7181.040475
640.203839	7186.376536
640.548489	7106.849814
640.893086	7093.876404
641.237632	7022.060127
641.582125	7006.039340
641.926566	6976.823333
642.270955	6948.456760
642.615292	6919.056751
642.959576	6886.415279
643.303809	6863.301589
643.647990	6854.121648
643.992118	6809.555327
644.336195	6778.602643
644.680219	6758.959787
645.024192	6758.367451
645.368112	6785.471215
645.711981	6755.541884
646.055797	6814.757798
646.399562	6766.854234
646.743274	6846.123857
647.086935	6863.931733
647.430544	6826.276835
647.774101	6817.742161
648.117606	6814.548590
648.461059	6830.377813
648.804460	6764.321054
649.147810	6670.527866
649.491108	6629.487833
649.834354	6574.468679
650.177548	6467.223172
650.520690	6395.600979
650.863781	6370.692638
651.206820	6331.427091
651.549807	6260.500577
651.892742	6192.026584
652.235626	6143.049254
652.578458	6102.170537
652.921238	6025.043404
653.263967	6022.943763
653.606644	5966.155165
653.949269	5928.775010
654.291843	5874.161669
654.634365	5890.817642
654.976836	5835.007027
655.319255	5812.042051
655.661622	5775.796155
656.003938	5743.555456
656.346203	5703.566503
656.688416	5702.432243
657.030577	5656.759389
657.372687	5621.302434
657.714746	5618.955777
658.056753	5611.099138
658.398708	5536.006111
658.740612	5517.580693
659.082465	5521.220406
659.424266	5481.072657
659.766016	5468.699145
660.107715	5437.718734
660.449362	5430.285553
660.790958	5410.872069
661.132503	5384.022884
661.473996	5368.342375
661.815438	5357.574470
662.156829	5353.037432
662.498168	5307.515813
662.839456	5287.457061
663.180693	5286.857164
663.521879	5273.979537
663.863013	5250.573459
664.204097	5234.436726
664.545129	5249.421556
664.886110	5227.981528
665.227040	5213.006781
665.567918	5199.176375
665.908746	5189.625909
666.249522	5178.416904
666.590248	5159.474768
666.930922	5148.081760
667.271545	5125.504953
667.612118	5118.838027
667.952639	5086.783850
668.293109	5069.490172
668.633528	5040.939597
668.973896	5016.132079
669.314213	5001.457280
669.654480	4963.331034
669.994695	4944.797232
670.334859	4920.887039
670.674973	4893.211104
671.015035	4888.369076
671.355047	4861.872771
671.695008	4844.576572
672.034918	4815.010205
672.374777	4804.897651
672.714585	4779.643990
673.054342	4774.496972
673.394049	4746.894134
673.733705	4746.465636
674.073310	4711.016242
674.412864	4701.833781
674.752368	4664.015045
675.091820	4666.495292
675.431223	4619.836893
675.770574	4587.850772
676.109875	4558.884302
676.449125	4529.396072
676.788324	4507.116693
677.127473	4460.538952
677.466571	4438.153708
677.805619	4404.569541
678.144616	4393.746184
678.483562	4364.815002
678.822458	4335.838450
679.161303	4313.269204
679.500098	4288.549906
679.838842	4270.149695
680.177535	4259.006224
680.516179	4254.554885
680.854771	4250.756376
681.193314	4274.190179
681.531805	4316.465296
681.870247	4351.592056
682.208638	4387.958939
682.546978	4397.370774
682.885268	4392.601842
683.223508	4356.179506
683.561697	4326.391328
683.899836	4301.795538
684.237925	4261.625103
684.575963	4241.347062
684.913951	4205.670816
685.251889	4200.496072
685.589776	4184.976880
685.927614	4169.044313
686.265401	4164.134229
686.603137	4158.467972
686.940824	4168.018438
687.278460	4178.277186
687.616046	4174.690405
687.953582	4197.730999
688.291068	4189.622303
688.628504	4192.042057
688.965889	4186.864792
689.303224	4159.912263
689.640510	4131.381853
689.977745	4084.715892
690.314930	4038.796021
690.652065	4003.618850
690.989150	3955.223773
691.326185	3904.287954
691.663170	3857.342209
692.000105	3811.576094
692.336990	3768.207047
692.673825	3733.821337
693.010610	3699.062581
693.347345	3660.923732
693.684030	3620.899491
694.020665	3601.090277
694.357251	3562.409503
694.693786	3548.788306
695.030272	3532.160060
695.366707	3499.901716
695.703093	3478.398674
696.039429	3470.481542
696.375716	3450.369859
696.711952	3439.163374
697.048139	3430.298505
697.384276	3417.927513
697.720363	3413.806370
698.056400	3404.260945
698.392388	3390.488513
698.728326	3380.214642
699.064214	3369.328270
699.400053	3360.019779
699.735842	3337.420287
700.071581	3321.376814
700.407270	3305.393836
700.742910	3287.742236
701.078501	3271.008126
701.414042	3251.486257
701.749533	3234.384143
702.084974	3217.599621
702.420366	3214.302707
702.755709	3196.930891
703.091002	3177.232582
703.426246	3174.061696
703.761440	3163.371929
704.096584	3148.261071
704.431679	3140.754793
704.766725	3131.264821
705.101721	3126.342134
705.436668	3122.631845
705.771565	3106.142230
706.106413	3111.427880
706.441212	3106.331274
706.775961	3104.019905
707.110661	3099.881117
707.445311	3105.950667
707.779913	3094.315683
708.114465	3101.960593
708.448967	3102.878083
708.783421	3115.637244
709.117825	3122.694859
709.452180	3125.890951
709.786485	3131.836992
710.120742	3153.914725
710.454949	3155.043943
710.789107	3164.843946
711.123216	3185.142152
711.457275	3192.633307
711.791286	3209.969835
712.125247	3210.877243
712.459159	3208.034032
712.793023	3223.374263
713.126837	3190.049716
713.460602	3192.908050
713.794318	3173.091274
714.127985	3155.031340
714.461602	3123.123357
714.795171	3114.906276
715.128691	3080.160123
715.462162	3061.737227
715.795584	3040.040101
716.128957	3027.260776
716.462281	3008.898373
716.795556	2997.197855
717.128782	2978.734629
717.461960	2962.055971
717.795088	2952.578602
718.128167	2944.787499
718.461198	2926.099941
718.794180	2921.210022
719.127113	2912.937489
719.459997	2900.125396
719.792833	2894.338152
720.125619	2888.117368
720.458357	2878.677807
720.791046	2871.176570
721.123686	2863.640045
721.456278	2857.590661
721.788821	2852.158817
722.121315	2845.287725
722.453761	2844.471058
722.786158	2840.977538
723.118506	2837.660459
723.450805	2834.476970
723.783056	2832.032011
724.115259	2829.405569
724.447412	2826.978254
724.779518	2831.953873
725.111574	2830.144098
725.443582	2834.086281
725.775542	2829.965137
726.107453	2834.088801
726.439315	2831.963955
726.771129	2841.257322
727.102895	2844.927282
727.434612	2849.363497
727.766281	2849.771831
728.097901	2853.134281
728.429473	2851.264012
728.760996	2852.063035
729.092471	2849.373580
729.423897	2850.366687
729.755276	2839.392095
730.086606	2842.313444
730.417887	2843.770337
730.749120	2850.598580
731.080305	2848.153621
731.411442	2853.870289
731.742530	2850.074300
732.073570	2850.396934
732.404562	2851.712675
732.735506	2852.783920
733.066401	2847.084896
733.397249	2836.301868
733.728048	2823.484734
734.058798	2807.428659
734.389501	2794.311577
734.720156	2779.835904
735.050762	2769.776281
735.381320	2760.646752
735.711831	2753.831112
736.042293	2748.832807
736.372707	2747.912797
736.703073	2744.207549
737.033391	2744.673856
737.363661	2740.963566
737.693883	2741.548340
738.024056	2746.728126
738.354182	2746.660070
738.684260	2751.302973
739.014290	2754.844383
739.344272	2754.410844
739.674207	2763.389139
740.004093	2763.215219
740.333931	2761.841505
740.663722	2765.960128
740.993464	2763.056423
741.323159	2758.259765
741.652806	2753.687439
741.982405	2750.471182
742.311956	2740.507342
742.641460	2740.885428
742.970915	2732.197000
743.300323	2727.251628
743.629683	2722.465052
743.958996	2716.929865
744.288260	2706.570294
744.617477	2703.901003
744.946647	2699.505117
745.275768	2696.298943
745.604842	2690.045392
745.933869	2687.202181
746.262847	2685.221008
746.591778	2689.412727
746.920662	2684.749660
747.249498	2685.934331
747.578286	2686.451049
747.907027	2688.800227
748.235720	2686.453570
748.564365	2688.873324
748.892963	2688.192768
749.221514	2691.035979
749.550017	2684.558096
749.878473	2683.242355
750.206881	2678.934689
750.535242	2682.350071
750.863555	2679.090965
751.191821	2675.922599
751.520039	2677.137517
751.848210	2674.924451
752.176334	2671.864471
752.504411	2671.330108
752.832440	2668.945642
753.160421	2670.936898
753.488356	2667.302226
753.816243	2671.597289
754.144082	2667.125786
754.471875	2665.623522
754.799620	2664.716114
755.127318	2661.126813
755.454969	2662.959272
755.782572	2659.937101
756.110129	2662.477842
756.437638	2660.257214
756.765100	2657.963489
757.092515	2658.971720
757.419882	2656.614980
757.747203	2660.055568
758.074477	2660.078253
758.401703	2658.606236
758.728882	2660.917605
759.056014	2663.717966
759.383099	2664.330466
759.710138	2662.253511
760.037129	2662.883655
760.364073	2665.545384
760.690970	2663.372647
761.017820	2663.423058
761.344623	2663.483552
761.671379	2665.913388
761.998088	2661.809889
762.324751	2671.715757
762.651366	2691.277954
762.977935	2722.898592
763.304456	2745.639237
763.630931	2758.857142
763.957359	2753.480751
764.283740	2739.168916
764.610074	2723.944631
764.936362	2708.450645
765.262602	2691.802234
765.588796	2681.707323
765.914943	2667.153512
766.241044	2658.447440
766.567097	2653.217242
766.893104	2644.755666
767.219064	2641.073103
767.544978	2639.472537
767.870845	2633.922226
768.196665	2634.905251
768.522438	2627.777060
768.848165	2627.610702
769.173846	2624.616256
769.499479	2626.088273
769.825066	2624.316307
770.150607	2621.929321
770.476101	2620.285905
770.801548	2619.204577
771.126949	2618.236676
771.452303	2615.499329
771.777611	2615.085955
772.102872	2612.782147
772.428087	2612.875409
772.753256	2610.846344
773.078378	2612.683845
773.403453	2610.977414
773.728482	2609.384410
774.053465	2608.565222
774.378401	2606.939450
774.703291	2607.972887
775.028135	2605.369131
775.352932	2604.756631
775.677683	2602.062134
776.002388	2604.703698
776.327046	2608.504728
776.651658	2603.418204
776.976224	2601.585745
777.300743	2603.866867
777.625216	2602.132710
777.949643	2601.321084
778.274024	2603.461054
778.598359	2596.186669
778.922647	2597.474684
779.246889	2597.933429
779.571086	2596.428644
779.895236	2596.814293
780.219339	2600.905189
780.543397	2596.221957
780.867409	2601.230343
781.191374	2599.289499
781.515294	2600.141454
781.839167	2598.296392
782.162995	2599.632298
782.486776	2597.978799
782.810511	2599.539036
783.134201	2597.469643
783.457844	2600.738831
783.781441	2598.795466
784.104993	2594.583582
784.428498	2598.346803
784.751958	2596.269848
785.075372	2598.097266
785.398739	2595.133068
785.722061	2593.519899
786.045337	2594.374374
786.368568	2597.169694
786.691752	2594.202975
787.014891	2597.973758
787.337983	2600.058275
787.661030	2604.129007
787.984031	2606.407608
788.306987	2606.949532
788.629897	2607.801487
788.952760	2606.594131
789.275579	2606.417691
789.598351	2606.316868
789.921078	2604.494491
790.243759	2601.371496
790.566395	2599.725559
790.888984	2600.663214
791.211529	2596.932760
791.534027	2593.802203
791.856480	2595.306988
792.178888	2595.125506
792.501249	2594.407142
792.823566	2591.286667
793.145836	2592.965372
793.468062	2593.814806
793.790241	2592.627614
794.112375	2591.415217
794.434464	2592.463777
794.756507	2592.509147
795.078505	2594.727255
795.400457	2595.054930
795.722364	2594.170207
796.044226	2593.643407
796.366042	2596.000146
796.687812	2593.968561
797.009538	2598.364447
797.331218	2596.627770
797.652852	2598.001484
797.974442	2599.234047
798.295986	2595.148191
798.617484	2596.456371
798.938938	2595.102821
799.260346	2595.309508
799.581709	2593.920670
799.903026	2594.054261
800.224299	2592.925043
800.545526	2591.291709
800.866708	2592.559559
801.187845	2589.199630
801.508936	2591.132912
801.829983	2590.318766
802.150984	2587.341965
802.471940	2592.035279
802.792851	2590.858169
803.113717	2590.144846
803.434538	2586.926069
803.755314	2590.916143
804.076045	2588.675350
804.396731	2586.351378
804.717372	2589.862542
805.037967	2590.248190
805.358518	2586.734506
805.679024	2590.233066
805.999485	2588.846749
806.319901	2588.864393
806.640272	2587.402458
806.960598	2587.099989
807.280879	2589.287850
807.601115	2586.774835
807.921306	2589.537387
808.241453	2589.141657
808.561554	2586.734506
808.881611	2587.747777
809.201623	2588.372881
809.521590	2591.067377
809.841513	2587.967068
810.161390	2587.024372
810.481223	2587.919177
810.801011	2588.478745
811.120755	2588.705597
811.440453	2588.662747
811.760107	2585.572520
812.079716	2584.034968
812.399281	2583.692169
812.718801	2580.216294
813.038276	2583.803075
813.357707	2586.976481
813.677093	2587.097469
813.996434	2588.267016
814.315731	2587.518405
814.634983	2586.497571
814.954191	2588.640062
815.273354	2586.676532
815.592473	2587.709969
815.911547	2588.284660
816.230577	2589.718869
816.549562	2587.909094
816.868502	2587.132757
817.187399	2589.774321
817.506250	2590.293560
817.825058	2587.551172
818.143821	2591.160639
818.462539	2593.298088
818.781213	2596.786566
819.099843	2596.146340
819.418429	2600.181783
819.736970	2603.123297
820.055466	2607.315016
820.373919	2611.683176
820.692327	2619.242386
821.010691	2634.711167
821.329011	2661.444406
821.647286	2718.870710
821.965517	2784.435957
822.283704	2838.895542
822.601847	2870.269163
822.919945	2851.561441
823.237999	2822.882316
823.556010	2795.670168
823.873976	2764.898965
824.191897	2738.843761
824.509775	2716.980277
824.827609	2693.004549
825.145398	2680.013496
825.463144	2667.576969
825.780845	2662.470280
826.098502	2662.712256
826.416116	2673.432269
826.733685	2689.218643
827.051210	2694.398428
827.368692	2691.424147
827.686129	2680.565502
828.003522	2666.520847
828.320872	2648.753301
828.638177	2639.311220
828.955439	2630.970631
829.272656	2619.774228
829.589830	2613.190481
829.906960	2610.997579
830.224046	2604.771754
830.541088	2601.880652
830.858086	2596.557194
831.175041	2598.102307
831.491952	2592.935125
831.808819	2594.865887
832.125642	2596.718511
832.442421	2595.937132
832.759157	2603.176229
833.075849	2613.117384
833.392497	2622.909826
833.709101	2634.391053
834.025662	2633.390384
834.342179	2630.106073
834.658653	2623.882768
834.975083	2618.269443
835.291469	2612.787189
835.607811	2608.098916
835.924110	2602.793101
836.240366	2599.982658
836.556578	2593.414034
836.872746	2592.705752
837.188871	2588.995463
837.504952	2584.324834
837.820990	2584.481110
838.136984	2582.512539
838.452935	2581.889957
838.768842	2584.874320
839.084706	2582.147056
839.400526	2587.712489
839.716303	2591.326997
840.032037	2599.168512
840.347727	2600.723707
840.663373	2597.147009
840.978977	2596.978130
841.294537	2590.601071
841.610054	2587.626790
841.925527	2586.482448
842.240957	2582.515060
842.556344	2586.016141
842.871687	2582.310893
843.186987	2581.292580
843.502244	2576.977352
843.817458	2579.165213
844.132629	2578.598083
844.447756	2574.068607
844.762840	2572.891497
845.077881	2572.823442
845.392879	2571.038873
845.707833	2573.125911
846.022745	2571.187587
846.337613	2574.895356
846.652438	2571.507700
846.967221	2573.249419
847.281960	2574.703792
847.596656	2573.425859
847.911309	2573.844275
848.225919	2575.419636
848.540485	2574.625654
848.855009	2575.525500
849.169490	2576.407702
849.483928	2572.977197
849.798323	2573.829152
850.112675	2574.786971
850.426984	2571.099367
850.741251	2572.006775
851.055474	2572.710016
851.369654	2573.337639
851.683792	2572.402505
851.997887	2573.708164
852.311938	2570.791857
852.625947	2571.863102
852.939914	2573.536765
853.253837	2573.745973
853.567718	2575.827969
853.881555	2575.490212
854.195350	2572.868812
854.509103	2571.142217
854.822812	2573.458627
855.136479	2574.618092
855.450103	2574.184553
855.763685	2572.946950
856.077224	2572.526013
856.390720	2569.516445
856.704173	2572.997361
857.017584	2572.417629
857.330953	2572.881415
857.644278	2573.042732
857.957561	2574.355952
858.270802	2572.052145
858.584000	2572.921744
858.897155	2572.193297
859.210268	2572.541137
859.523339	2573.292269
859.836367	2572.092474
860.149352	2574.048442
860.462295	2572.931826
860.775195	2568.591393
861.088054	2569.783626
861.400869	2569.518965
861.713642	2568.881259
862.026373	2570.484346
862.339062	2570.940571
862.651708	2574.141703
862.964312	2574.633216
863.276873	2575.369224
863.589392	2572.621795
863.901869	2572.382341
864.214303	2575.921231
864.526696	2575.500294
864.839045	2574.837382
865.151353	2574.086251
865.463619	2575.384348
865.775842	2575.288566
866.088023	2573.514080
866.400162	2575.497774
866.712258	2574.885273
867.024313	2577.547003
867.336325	2575.497774
867.648296	2574.514749
867.960224	2577.249575
868.272110	2575.555747
868.583954	2573.995510
868.895755	2575.328895
869.207515	2575.253278
869.519233	2578.164544
869.830909	2573.171281
870.142542	2576.753021
870.454134	2575.991807
870.765684	2574.040880
871.077191	2573.067937
871.388657	2575.752352
871.700081	2576.604307
872.011463	2577.562126
872.322803	2576.090109
872.634101	2576.198494
872.945357	2576.924420
873.256571	2577.599935
873.567744	2576.785788
873.878874	2579.654205
874.189963	2579.543300
874.501010	2577.957857
874.812015	2574.890315
875.122979	2576.435428
875.433900	2580.612024
875.744780	2575.641447
876.055618	2578.802250
876.366415	2578.197312
876.677169	2581.060687
876.987882	2575.800243
877.298554	2575.187743
877.609183	2577.438618
877.919771	2575.913669
878.230317	2577.267219
878.540822	2582.464648
878.851285	2582.076479
879.161707	2584.181161
879.472087	2588.932449
879.782425	2594.775146
880.092722	2603.244284
880.402977	2613.119905
880.713191	2632.125055
881.023363	2650.358908
881.333494	2670.805828
881.643583	2681.046932
881.953631	2683.323013
882.263637	2678.493588
882.573602	2673.661642
882.883526	2667.594613
883.193408	2660.776453
883.503248	2657.212357
883.813048	2645.852117
884.122806	2639.815335
884.432522	2631.535240
884.742197	2623.832357
885.051831	2618.428240
885.361424	2612.235182
885.670975	2607.216714
885.980485	2601.454675
886.289954	2597.363778
886.599382	2593.986205
886.908768	2591.952100
887.218113	2589.242480
887.527417	2588.244331
887.836680	2586.737026
888.145901	2581.131263
888.455082	2583.392221
888.764221	2582.068918
889.073319	2582.280646
889.382376	2579.084555
889.691392	2580.491037
890.000366	2580.160841
890.309300	2581.463979
890.618193	2576.765624
890.927044	2582.497416
891.235855	2581.224524
891.544625	2579.775193
891.853353	2578.698906
892.162041	2582.751994
892.470687	2580.995152
892.779293	2582.366346
893.087858	2582.028588
893.396381	2583.361974
893.704864	2585.854824
894.013306	2589.620566
894.321707	2598.311515
894.630068	2605.235540
894.938387	2607.360387
895.246665	2608.023298
895.554903	2605.449789
895.863100	2604.123966
896.171256	2601.857967
896.479371	2598.104828
896.787446	2597.946032
897.095480	2593.789600
897.403473	2592.892275
897.711425	2590.550659
898.019336	2590.187696
898.327207	2584.826429
898.635038	2588.483786
898.942827	2583.984556
899.250576	2586.389187
899.558284	2582.928434
899.865952	2578.295614
900.173579	2579.490367
900.481165	2579.296283
900.788711	2580.667477
901.096216	2577.841910
901.403681	2577.247054
901.711105	2578.439287
902.018489	2576.062383
902.325832	2579.954154
902.633135	2577.965418
902.940397	2580.531366
903.247619	2584.649988
903.554800	2587.157963
903.861941	2599.740682
904.169041	2606.831065
904.476101	2611.131170
904.783121	2614.546551
905.090100	2611.660491
905.397039	2608.343412
905.703938	2604.590272
906.010796	2600.519541
906.317614	2597.953593
906.624391	2594.724734
906.931129	2593.938314
907.237826	2591.689960
907.544483	2587.072263
907.851099	2585.002869
908.157675	2584.652509
908.464211	2581.166551
908.770707	2576.165727
909.077163	2574.502146
909.383578	2571.663976
909.689954	2572.664645
909.996289	2573.052814
910.302584	2572.236147
910.608839	2571.742114
910.915054	2573.503997
911.221229	2573.844275
911.527363	2574.693710
911.833458	2575.021385
912.139513	2575.641447
912.445527	2572.198338
912.751502	2573.458627
913.057436	2572.258832
913.363331	2578.459452
913.669186	2575.709502
913.975000	2578.179667
914.280775	2578.625810
914.586510	2581.910121
914.892205	2583.268712
915.197859	2591.256421
915.503475	2595.075095
915.809050	2604.015581
916.114585	2606.795777
916.420081	2613.825666
916.725536	2612.348608
917.030952	2612.882971
917.336328	2611.695779
917.641665	2610.543875
917.946961	2605.117073
918.252218	2604.897783
918.557435	2604.174377
918.862612	2601.762185
919.167750	2598.180445
919.472848	2594.480238
919.777906	2592.741040
920.082925	2589.953282
920.387904	2586.946234
920.692843	2583.114957
920.997743	2583.762745
921.302603	2580.254102
921.607423	2580.871644
921.912204	2578.013309
922.216946	2577.393247
922.521647	2576.747980
922.826310	2577.191601
923.130932	2577.090778
923.435516	2575.671693
923.740059	2573.173802
924.044564	2574.544996
924.349028	2571.411918
924.653454	2568.082236
924.957840	2571.061558
925.262186	2570.854871
925.566493	2571.101887
925.870761	2565.743141
926.174989	2569.385375
926.479178	2571.404357
926.783328	2571.598441
927.087438	2568.062072
927.391509	2571.031311
927.695541	2567.459654
927.999533	2569.282031
928.303486	2566.698440
928.607400	2567.739438
928.911275	2567.452092
929.215110	2568.936712
929.518906	2571.043914
929.822663	2569.622309
930.126381	2568.611557
930.430060	2569.955025
930.733699	2569.027453
931.037299	2566.915209
931.340861	2568.634243
931.644383	2569.249263
931.947866	2565.909499
932.251309	2570.610375
932.554714	2567.822617
932.858080	2567.910837
933.161407	2566.814386
933.464694	2569.090467
933.767943	2567.925961
934.071153	2570.610375
934.374323	2567.137020
934.677455	2570.388564
934.980548	2567.875549
935.283602	2568.188101
935.586617	2569.269428
935.889593	2569.299675
936.192530	2568.092319
936.495428	2566.630384
936.798287	2567.346228
937.101108	2569.647515
937.403890	2569.692885
937.706632	2569.816393
938.009336	2570.338153
938.312002	2569.319840
938.614628	2566.907648
938.917216	2566.839592
939.219765	2569.143399
939.522275	2571.457289
939.824747	2571.921075
940.127179	2569.977710
940.429573	2566.169118
940.731929	2567.812535
941.034246	2568.520817
941.336524	2569.564336
941.638763	2569.312278
941.940964	2569.634912
942.243126	2569.415622
942.545250	2572.155489
942.847335	2569.929819
943.149381	2568.016701
943.451389	2570.759089
943.753359	2570.743966
944.055290	2568.883780
944.357182	2571.946281
944.659036	2570.524675
944.960851	2567.792370
945.262628	2566.516958
945.564367	2571.109449
945.866067	2570.464182
946.167729	2570.204562
946.469352	2567.747000
946.770937	2568.354459
947.072484	2567.505024
947.373992	2569.657597
947.675462	2569.521486
947.976893	2568.384706
948.278286	2567.391598
948.579641	2566.476629
948.880958	2569.549212
949.182236	2567.797411
949.483476	2569.433266
949.784678	2568.001578
950.085841	2568.946794
950.386967	2570.194480
950.688054	2568.200703
950.989103	2569.574418
951.290114	2568.485529
951.591087	2569.765982
951.892021	2568.765313
952.192917	2571.916034
952.493776	2569.783626
952.794596	2568.707339
953.095378	2571.981569
953.396122	2568.692216
953.696828	2568.067113
953.997496	2568.724983
954.298126	2569.503842
954.598718	2572.558781
954.899272	2568.793039
955.199788	2565.438151
955.500266	2570.418811
955.800706	2567.068964
956.101108	2561.831206
956.401472	2563.981258
956.701798	2563.648542
957.002087	2565.453275
957.302337	2566.070816
957.602550	2566.176680
957.902724	2565.100394
958.202861	2564.462688
958.502960	2565.249108
958.803022	2564.871021
959.103045	2565.123079
959.403031	2564.699622
959.702979	2565.226423
960.002889	2563.998902
960.302762	2565.034859
960.602596	2566.335477
960.902393	2561.707697
961.202153	2565.438151
961.501875	2564.548387
961.801559	2565.284396
962.101205	2560.389436
962.400814	2563.371278
962.700385	2565.556618
962.999918	2566.471588
963.299414	2564.165260
963.598873	2563.862791
963.898293	2563.711556
964.197677	2564.129972
964.497022	2563.436813
964.796331	2564.772719
965.095601	2563.255332
965.394835	2563.903120
965.694030	2564.001422
965.993189	2564.878583
966.292309	2564.039231
966.591393	2564.122410
966.890439	2561.221226
967.189447	2562.463870
967.488419	2562.915054
967.787353	2563.814900
968.086249	2564.024107
968.385108	2561.296843
968.683930	2563.212482
968.982714	2564.508058
969.281462	2561.395146
969.580172	2563.570404
969.878844	2562.819272
970.177480	2564.273645
970.476078	2565.591906
970.774639	2561.006977
971.073162	2562.970506
971.371649	2558.251986
971.670098	2558.841801
971.968510	2562.426062
972.266885	2558.435988
972.565223	2562.221895
972.863524	2562.257183
973.161788	2561.309446
973.460014	2562.274827
973.758204	2565.818758
974.056356	2562.622667
974.354471	2564.649211
974.652550	2562.390774
974.950591	2562.267265
975.248595	2563.298181
975.546563	2563.603171
975.844493	2562.617626
976.142386	2561.974878
976.440243	2562.015208
976.738062	2565.634756
977.035845	2564.913871
977.333590	2562.829354
977.631299	2563.242729
977.928971	2562.484035
978.226606	2562.879766
978.524204	2565.337328
978.821765	2561.972358
979.119290	2564.220712
979.416777	2561.947152
979.714228	2564.283727
980.011642	2562.925136
980.309020	2565.536454
980.606360	2563.731721
980.903664	2561.561504
981.200931	2564.001422
981.498162	2561.901782
981.795356	2566.148954
982.092513	2568.102401
982.389633	2563.434292
982.686717	2565.859088
982.983764	2568.387226
983.280775	2567.719273
983.577749	2568.336815
983.874686	2568.672051
984.171587	2567.285734
984.468451	2566.819427
984.765279	2569.249263
985.062070	2568.873697
985.358824	2566.504355
985.655543	2567.268090
985.952224	2567.139541
986.248869	2565.334807
986.545478	2559.993705
986.842050	2560.517985
987.138586	2558.982954
987.435086	2561.866494
987.731549	2558.262069
988.027975	2563.779612
988.324366	2559.509754
988.620719	2562.536967
988.917037	2560.482697
989.213318	2561.584189
989.509563	2562.395815
989.805772	2559.660989
990.101944	2560.696946
990.398080	2562.042934
990.694180	2558.012532
990.990244	2558.269630
991.286271	2559.633262
991.582262	2560.780125
991.878217	2559.834909
992.174136	2562.670558
992.470019	2559.943293
992.765865	2561.183417
993.061676	2561.637121
993.357450	2560.086966
993.653188	2560.679302
993.948890	2563.444375
994.244556	2560.333983
994.540186	2560.510423
994.835780	2563.928326
995.131337	2563.905640
995.426859	2559.605536
995.722345	2561.594271
996.017795	2562.831875
996.313208	2563.840105
996.608586	2564.772719
996.903928	2563.567883
997.199234	2565.720456
997.494504	2566.146433
997.789738	2563.099056
998.084936	2563.875393
998.380099	2562.431103
998.675225	2563.469581
998.970316	2561.632080
999.265371	2565.838923
999.560390	2562.201730
999.855373	2560.817934
1000.150320	2563.809858
1000.445232	2559.587892
1000.740108	2559.519837
1001.034948	2562.920095
1001.329752	2559.277861
1001.624521	2561.014539
1001.919254	2559.290464
1002.213951	2557.432799
1002.508613	2558.874569
1002.803239	2557.568910
1003.097829	2554.818961
1003.392384	2560.492779
1003.686903	2559.766853
1003.981386	2560.389436
1004.275834	2557.447922
1004.570246	2558.521688
1004.864623	2557.967161
1005.158964	2557.889023
1005.453270	2561.763150
1005.747540	2559.378684
1006.041775	2560.046637
1006.335974	2559.547563
1006.630138	2560.092007
1006.924266	2557.515978
1007.218359	2560.545711
1007.512416	2558.967830
1007.806438	2558.146122
1008.100425	2558.110834
1008.394376	2558.914898
1008.688292	2557.972202
1008.982172	2557.279044
1009.276017	2557.551266
1009.569827	2558.993036
1009.863602	2559.182079
1010.157341	2560.487738
1010.451045	2556.505227
1010.744714	2561.238870
1011.038347	2557.856256
1011.331945	2558.539332
1011.625508	2559.058571
1011.919036	2559.343396
1012.212528	2559.257697
1012.505986	2557.150494
1012.799408	2558.650237
1013.092795	2556.527912
1013.386147	2559.383725
1013.679464	2559.933211
1013.972745	2559.413972
1014.265992	2557.689898
1014.559204	2560.291133
1014.852380	2559.547563
1015.145521	2559.557645
1015.438628	2558.652758
1015.731699	2561.160732
1016.024736	2556.981616
1016.317737	2560.722152
1016.610703	2558.347768
1016.903635	2553.775442
1017.196531	2554.836605
1017.489393	2551.892571
1017.782219	2553.921635
1018.075011	2558.231822
1018.367768	2558.088149
1018.660490	2558.468756
1018.953177	2558.468756
1019.245829	2558.468756
