Dividing Wavelength (nm)	Counts (n)	Blue Motor Position (mm): 0.000000	Red Motor Position (mm): 37.000000	
326.493990	2141.373769
326.888308	2141.373769
327.282561	2141.373769
327.676750	2114.355705
328.070874	2115.227825
328.464933	2120.553804
328.858929	2130.505041
329.252859	2141.335960
329.646726	2156.146870
330.040528	2172.424756
330.434265	2190.623322
330.827938	2210.462783
331.221547	2229.253683
331.615091	2246.958216
332.008571	2267.160640
332.401986	2288.542694
332.795338	2306.345529
333.188625	2328.508962
333.581847	2345.159893
333.975006	2368.755013
334.368100	2382.991232
334.761129	2402.308933
335.154095	2419.330389
335.546996	2439.512649
335.939833	2454.265585
336.332606	2471.851651
336.725315	2486.037458
337.117960	2490.924856
337.510540	2496.679333
337.903056	2507.953874
338.295508	2514.711541
338.687896	2522.232942
339.080220	2531.092770
339.472480	2536.106198
339.864676	2539.118287
340.256807	2541.517876
340.648875	2543.060469
341.040879	2545.187836
341.432818	2547.186654
341.824694	2551.738816
342.216506	2549.452652
342.608253	2548.898125
342.999937	2546.657332
343.391557	2547.872251
343.783113	2543.723381
344.174605	2543.972918
344.566033	2542.049718
344.957397	2540.991076
345.348697	2537.121990
345.739934	2536.431352
346.131106	2533.845240
346.522215	2536.020498
346.913260	2530.031607
347.304241	2532.589993
347.695159	2527.579086
348.086012	2528.420958
348.476802	2525.227388
348.867528	2524.120854
349.258191	2522.414424
349.648789	2524.110772
350.039324	2521.365864
350.429796	2522.096831
350.820203	2521.892664
351.210548	2518.159690
351.600828	2519.034330
351.991045	2515.467714
352.381198	2517.484175
352.771288	2516.349916
353.161314	2518.434433
353.551276	2520.234125
353.941175	2515.974350
354.331010	2518.431912
354.720782	2517.388393
355.110490	2517.791686
355.500135	2518.739423
355.889717	2516.922087
356.279235	2521.033147
356.668689	2521.315452
357.058080	2517.922756
357.447408	2516.085255
357.836672	2518.482324
358.225873	2517.237159
358.615010	2517.272447
359.004084	2519.286388
359.393095	2522.109434
359.782043	2523.727644
360.170927	2523.140350
360.559748	2520.428209
360.948505	2523.193282
361.337199	2526.472553
361.725830	2527.899199
362.114398	2526.331400
362.502903	2525.751667
362.891344	2527.092614
363.279722	2528.610002
363.668037	2527.979857
364.056289	2525.542460
364.444478	2528.226874
364.832603	2526.102028
365.220665	2529.731658
365.608665	2528.857018
365.996601	2530.092101
366.384474	2527.296781
366.772284	2530.139992
367.160031	2529.371216
367.547715	2529.451874
367.935336	2531.065044
368.322893	2531.675023
368.710388	2532.118645
369.097820	2536.045704
369.485189	2529.041020
369.872495	2532.025383
370.259738	2530.634025
370.646918	2531.604447
371.034035	2532.625281
371.421090	2532.776515
371.808081	2535.105528
372.195010	2534.495549
372.581875	2536.504449
372.968678	2536.874973
373.355418	2536.882535
373.742096	2540.141641
374.128710	2537.076620
374.515262	2542.049718
374.901751	2538.805735
375.288177	2541.434697
375.674540	2541.956457
376.060841	2546.012065
376.447079	2547.594987
376.833254	2549.024154
377.219367	2547.143804
377.605417	2549.886192
377.991404	2551.890050
378.377329	2553.246121
378.763191	2557.521019
379.148991	2565.440672
379.534727	2567.167267
379.920402	2570.575087
380.306013	2574.887794
380.691563	2578.409040
381.077049	2584.128229
381.462474	2588.259455
381.847835	2592.123499
382.233134	2598.394694
382.618371	2602.969542
383.003545	2610.309462
383.388657	2613.636623
383.773706	2622.481327
384.158693	2629.720424
384.543618	2634.756537
384.928480	2638.842392
385.313280	2650.764721
385.698017	2657.144301
386.082692	2665.794921
386.467305	2673.497804
386.851856	2681.311593
387.236344	2689.695032
387.620770	2697.597040
388.005133	2705.806559
388.389435	2714.295862
388.773674	2722.949003
389.157851	2730.767833
389.541965	2743.378279
389.926018	2743.983217
390.310008	2755.522419
390.693936	2766.781836
391.077802	2774.172167
391.461606	2786.127264
391.845348	2798.457926
392.229027	2804.834986
392.612645	2818.173879
392.996200	2825.201247
393.379694	2842.562981
393.763125	2856.128726
394.146494	2865.225488
394.529801	2876.404247
394.913047	2892.591392
395.296230	2893.395456
395.679351	2901.370561
396.062410	2918.971750
396.445408	2912.803898
396.828343	2926.904005
397.211217	2932.892896
397.594028	2928.635642
397.976778	2943.121397
398.359466	2955.409210
398.742092	2952.586164
399.124656	2969.000161
399.507158	2979.576501
399.889598	2987.312152
400.271977	3002.579286
400.654294	3007.605317
401.036549	3022.408665
401.418742	3027.222967
401.800874	3049.066287
402.182944	3056.522153
402.564952	3084.185485
402.946898	3075.214752
403.328783	3083.003334
403.710606	3099.845829
404.092367	3123.340127
404.474067	3150.348108
404.855705	3138.788743
405.237282	3140.417035
405.618797	3172.461130
406.000250	3196.492310
406.381642	3222.774366
406.762972	3224.369891
407.144240	3217.309755
407.525447	3240.859505
407.906593	3238.336408
408.287677	3263.343051
408.668700	3278.469033
409.049661	3278.121194
409.430560	3296.339924
409.811399	3297.466622
410.192176	3317.333809
410.572891	3325.835715
410.953545	3363.914071
411.334138	3331.305367
411.714669	3386.848800
412.095139	3328.696570
412.475547	3382.979714
412.855894	3375.072665
413.236180	3402.002508
413.616405	3382.031978
413.996568	3407.212541
414.376670	3409.486101
414.756711	3405.506110
415.136691	3432.693053
415.516609	3454.216259
415.896466	3461.848566
416.276262	3487.997031
416.655997	3518.289325
417.035670	3522.609594
417.415283	3590.914708
417.794834	3617.136269
418.174324	3596.744802
418.553753	3594.889657
418.933121	3635.755771
419.312428	3629.872745
419.691674	3625.580202
420.070859	3663.083866
420.449983	3641.880773
420.829045	3693.277857
421.208047	3678.066175
421.586988	3722.259451
421.965867	3753.401178
422.344686	3762.185389
422.723444	3800.336841
423.102141	3706.026935
423.480777	3806.053510
423.859352	3775.380609
424.237866	3872.465671
424.616319	3856.308773
424.994712	3918.206580
425.373044	3906.707708
425.751314	3969.240701
426.129524	3905.568407
426.507673	4005.221937
426.885762	3980.900890
427.263789	4004.165815
427.641756	4008.672606
428.019662	4035.383160
428.397508	4038.680075
428.775292	4077.048297
429.153016	4086.777723
429.530679	4097.717027
429.908282	4105.296402
430.285824	4082.948967
430.663305	4160.481913
431.040726	4115.053555
431.418086	4102.856484
431.795385	4182.564688
432.172624	4215.299420
432.549802	4180.240716
432.926920	4200.833829
433.303977	4193.700597
433.680974	4236.114344
434.057910	4257.496398
434.434786	4261.907408
434.811601	4256.165534
435.188355	4364.333572
435.565050	4333.665713
435.941683	4330.474662
436.318257	4418.200821
436.694770	4427.174075
437.071222	4480.050738
437.447614	4416.585132
437.823946	4419.902211
438.200218	4435.164304
438.576429	4420.212242
438.952580	4442.831899
439.328670	4448.573773
439.704700	4492.363756
440.080670	4456.261533
440.456580	4518.701264
440.832429	4547.632446
441.208218	4452.649546
441.583947	4505.367412
441.959616	4519.225544
442.335224	4548.118918
442.710773	4567.421496
443.086261	4623.955516
443.461689	4574.857198
443.837057	4591.414867
444.212365	4663.936907
444.587612	4664.360364
444.962800	4631.892812
445.337927	4673.588196
445.712995	4561.949323
446.088002	4752.792284
446.462949	4774.350779
446.837837	4791.578922
447.212664	4781.904948
447.587431	5004.277806
447.962139	5302.313342
448.336786	5635.994877
448.711374	5623.084482
449.085901	5273.271254
449.460369	5210.473601
449.834776	5143.106142
450.209124	5379.526175
450.583412	5388.176795
450.957640	5509.439230
451.331808	5371.596440
451.705917	5227.363987
452.079965	5215.575249
452.453954	5251.435497
452.827883	5220.908789
453.201752	5226.489347
453.575562	5258.006641
453.949311	5392.910438
454.323001	5396.073762
454.696632	5390.702413
455.070202	5537.641965
455.443713	5572.133540
455.817164	5661.850955
456.190556	5732.956430
456.563888	5713.747113
456.937160	5786.685047
457.310373	5632.985308
457.683526	5689.327764
458.056619	5678.401063
458.429653	5660.724257
458.802628	5706.966761
459.175542	5736.936421
459.548398	5874.325507
459.921194	6062.446245
460.293930	6115.948011
460.666607	6375.925356
461.039224	6587.273210
461.411782	6717.559311
461.784280	6634.342464
462.156719	6638.118288
462.529099	6595.054231
462.901419	6454.816893
463.273680	6323.799825
463.645882	6311.683412
464.018024	6315.739020
464.390106	6384.379371
464.762130	6637.478061
465.134094	7020.265476
465.505999	7655.758371
465.877845	8350.741922
466.249631	8716.921255
466.621358	8640.404102
466.993026	8448.530225
467.364634	8235.302020
467.736184	7952.962116
468.107674	7796.802294
468.479105	7712.443625
468.850477	7642.994169
469.221790	7471.587377
469.593043	7254.275837
469.964238	7151.549725
470.335373	7126.220447
470.706449	7287.260107
471.077467	7462.389792
471.448425	8114.722661
471.819324	8695.458543
472.190164	8740.647446
472.560945	8260.752285
472.931667	7792.973537
473.302330	7600.270390
473.672934	7479.499468
474.043479	7556.077115
474.413965	7460.766540
474.784393	7411.305259
475.154761	7564.901655
475.525070	7573.988335
475.895321	7526.296499
476.265513	7621.234029
476.635645	7783.879296
477.005719	7774.686752
477.375734	7862.475925
477.745691	7967.949467
478.115588	8171.586876
478.485427	8405.274604
478.855207	8874.749700
479.224928	9308.084764
479.594591	9689.836221
479.964194	9702.716369
480.333739	9789.373804
480.703226	9792.393455
481.072653	9881.304286
481.442022	9999.615125
481.811333	10155.802674
482.180584	9993.061625
482.549777	9935.342934
482.918912	9877.483091
483.287988	9858.417447
483.657005	9773.403429
484.025964	9689.775727
484.394864	9743.106094
484.763706	9709.748779
485.132489	9615.272515
485.501213	9613.049366
485.869879	9664.297736
486.238487	9603.942522
486.607036	9684.406899
486.975527	9626.720975
487.343959	9679.156537
487.712333	9725.762004
488.080648	9761.188713
488.448905	9866.662254
488.817104	9878.866888
489.185244	10040.818996
489.553326	10247.193752
489.921350	10711.098373
490.289315	11342.787718
490.657222	11636.518108
491.025070	11809.051599
491.392861	11719.886190
491.760593	11572.550907
492.128267	11317.254273
492.495883	11082.149982
492.863440	10850.140958
493.230939	10629.056115
493.598380	10442.210789
493.965763	10417.786398
494.333088	10279.898238
494.700354	10216.125121
495.067563	10189.966574
495.434713	10190.752994
495.801805	10237.320653
496.168839	10196.414210
496.535815	10164.428088
496.902733	10206.783863
497.269593	10164.007152
497.636395	10172.786322
498.003139	10275.225088
498.369825	10207.343431
498.736453	10301.474376
499.103023	10238.275951
499.469535	10251.519062
499.835989	10293.607656
500.202385	10268.293502
500.568723	10296.677718
500.935003	10349.551861
501.301226	10321.737294
501.667390	10484.536317
502.033497	10587.204456
502.399546	10514.538744
502.765537	10427.399879
503.131470	10522.778510
503.497345	10626.280960
503.863163	10390.007120
504.228923	10525.465445
504.594625	10640.020625
504.960269	10540.420027
505.325856	10693.923162
505.691385	10571.637373
506.056856	10638.697322
506.422270	10741.995605
506.787625	10672.034472
507.152924	10725.505991
507.518164	10791.361104
507.883347	10656.724488
508.248472	10728.097144
508.613540	10837.200316
508.978550	10908.333518
509.343503	10886.157482
509.708398	10944.415576
510.073236	11071.399721
510.438016	11073.885010
510.802738	10992.518266
511.167403	11123.154727
511.532010	11183.850219
511.896561	11276.781370
512.261053	11477.875517
512.625488	11393.912579
512.989866	11375.444312
513.354186	11356.673576
513.718449	11357.487722
514.082655	11501.533652
514.446803	11456.022115
514.810894	11566.778786
515.174927	11563.469268
515.538904	11552.189687
515.902822	11698.889784
516.266684	11576.838408
516.630488	11674.324242
516.994235	11666.575988
517.357925	11773.468614
517.721558	11837.143428
518.085133	11895.640978
518.448651	11935.934920
518.812112	11892.202911
519.175516	11896.944116
519.538863	11992.075730
519.902152	11996.637974
520.265385	12101.062956
520.628560	12124.335442
520.991678	12065.434601
521.354739	12122.429886
521.717743	12195.425794
522.080690	12161.284580
522.443580	12294.555043
522.806413	12306.875623
523.169189	12301.126187
523.531908	12357.060310
523.894569	12320.481697
524.257174	12333.500477
524.619722	12434.653750
524.982213	12414.320256
525.344647	12401.006568
525.707025	12415.020976
526.069345	12512.562262
526.431608	12495.119870
526.793815	12574.523084
527.155964	12472.366622
527.518057	12505.028258
527.880093	12456.512193
528.242072	12564.851630
528.603995	12486.993530
528.965860	12503.100016
529.327669	12526.906865
529.689421	12489.493942
530.051117	12492.011998
530.412755	12533.397351
530.774337	12541.558979
531.135862	12497.388389
531.497331	12546.852190
531.858743	12515.042510
532.220098	12599.602824
532.581396	12511.634690
532.942638	12443.374946
533.303824	12510.197961
533.664953	12493.378151
534.026025	12430.109150
534.387040	12540.712065
534.747999	12507.137980
535.108902	12553.332594
535.469748	12437.507043
535.830537	12460.676186
536.191270	12498.689007
536.551947	12422.736462
536.912567	12484.445226
537.273131	12517.351358
537.633638	12402.912125
537.994089	12459.461268
538.354483	12369.572454
538.714821	12495.019047
539.075103	12568.269533
539.435328	12500.745797
539.795497	12476.800317
540.155609	12472.056591
540.515665	12571.936972
540.875665	12426.713932
541.235609	12523.315043
541.595496	12483.618477
541.955328	12644.753919
542.315102	12492.019560
542.674821	12427.883480
543.034483	12438.989142
543.394090	12432.213831
543.753640	12401.029254
544.113134	12634.273360
544.472571	12406.390521
544.831953	12669.241323
545.191278	12485.531595
545.550548	12424.324426
545.909761	12530.765868
546.268918	12565.441445
546.628019	12616.450360
546.987064	12517.336235
547.346053	12360.216072
547.704986	12547.179865
548.063863	12439.044595
548.422684	12470.327475
548.781449	12428.095209
549.140158	12513.666275
549.498811	12463.963018
549.857408	12335.007782
550.215949	12517.144671
550.574434	12473.926859
550.932864	12421.161102
551.291237	12597.493101
551.649555	12489.413283
552.007817	12538.115871
552.366022	12451.576903
552.724173	12480.951707
553.082267	12555.147409
553.440305	12635.074903
553.798288	12453.973972
554.156215	12520.812110
554.514086	12556.891648
554.871902	12488.480670
555.229661	12499.127587
555.587365	12441.023248
555.945014	12450.266203
556.302606	12419.394177
556.660143	12466.518883
557.017625	12491.003768
557.375050	12445.129268
557.732421	12530.859130
558.089735	12502.994152
558.446994	12461.533182
558.804197	12562.757031
559.161345	12540.719627
559.518437	12356.614168
559.875474	12427.089498
560.232455	12445.429216
560.589381	12481.954896
560.946251	12406.035119
561.303065	12561.103532
561.659825	12494.265394
562.016528	12397.961712
562.373177	12326.755413
562.729770	12430.260384
563.086307	12299.555868
563.442789	12384.776574
563.799216	12405.082341
564.155587	12327.277173
564.511904	12334.032319
564.868164	12325.510248
565.224370	12366.711599
565.580520	12297.602421
565.936615	12331.098368
566.292654	12248.612488
566.648638	12298.527473
567.004567	12274.869338
567.360441	12261.742173
567.716260	12206.503730
568.072023	12263.456165
568.427732	12216.437323
568.783385	12109.433792
569.138982	12185.981192
569.494525	12162.902790
569.850013	12088.094588
570.205445	12061.459651
570.560823	12049.706201
570.916145	11983.551139
571.271412	11963.426853
571.626625	11904.490723
571.981782	11871.266999
572.336884	11801.603294
572.691931	11848.896879
573.046923	11732.662994
573.401860	11686.324708
573.756743	11649.650314
574.111570	11650.449337
574.466342	11594.671490
574.821059	11610.160435
575.175722	11487.431024
575.530330	11471.954682
575.884882	11377.344827
576.239380	11337.943169
576.593823	11296.189812
576.948211	11268.871799
577.302544	11143.775567
577.656823	11117.866557
578.011047	11140.188786
578.365216	11052.439941
578.719330	10976.552932
579.073389	10915.139075
579.427394	10893.888091
579.781344	10850.400578
580.135239	10766.556107
580.489080	10732.334234
580.842866	10610.245049
581.196597	10653.256174
581.550273	10611.457447
581.903895	10549.766327
582.257463	10586.942316
582.610975	10443.080388
582.964434	10450.778230
583.317837	10353.446152
583.671186	10275.812383
584.024481	10285.211614
584.377721	10162.724178
584.730906	10178.586169
585.084037	10151.928548
585.437113	10046.865860
585.790135	10033.673161
586.143103	9926.621738
586.496016	9902.605681
586.848874	9875.617864
587.201679	9829.622376
587.554428	9700.437768
587.907124	9692.888640
588.259765	9608.232543
588.612352	9622.887178
588.964884	9483.917690
589.317362	9482.465837
589.669786	9435.063868
590.022155	9364.349082
590.374470	9388.486127
590.726731	9276.590155
591.078937	9156.575406
591.431090	9137.688723
591.783188	9047.000886
592.135232	8956.401269
592.487222	8952.204508
592.839157	8916.540865
593.191038	8842.680400
593.542866	8765.926312
593.894639	8630.704922
594.246358	8632.595354
594.598022	8595.308460
594.949633	8501.232968
595.301190	8447.564844
595.652692	8384.011017
596.004141	8399.492401
596.355535	8224.700473
596.706876	8173.983945
597.058162	8118.637117
597.409395	8133.780743
597.760573	8103.042308
598.111698	8004.850713
598.462768	7964.201369
598.813785	7929.687109
599.164748	7814.776528
599.515657	7818.028072
599.866511	7700.130607
600.217312	7744.689366
600.568060	7563.172539
600.918753	7623.699153
601.269392	7578.853048
601.619978	7483.378636
601.970510	7470.833724
602.320988	7445.249868
602.671412	7446.550486
603.021783	7371.830504
603.372100	7291.325797
603.722363	7265.104236
604.072572	7224.724593
604.422728	7191.102618
604.772830	7120.581917
605.122878	7079.824188
605.472872	7035.643516
605.822813	7011.642582
606.172701	6964.752290
606.522534	6944.854855
606.872314	6931.609224
607.222041	6856.070054
607.571714	6861.285128
607.921333	6754.258911
608.270899	6744.554690
608.620411	6724.170784
608.969870	6664.473440
609.319276	6617.656244
609.668627	6588.225988
610.017926	6590.877635
610.367171	6561.971659
610.716362	6519.930957
611.065500	6478.752291
611.414585	6440.361384
611.763616	6433.802843
612.112594	6374.473503
612.461518	6351.059864
612.810389	6334.550086
613.159207	6269.259582
613.507971	6233.462348
613.856682	6237.165076
614.205340	6185.135327
614.553945	6202.071083
614.902496	6114.702846
615.250994	6107.143636
615.599439	6064.283746
615.947830	6044.212392
616.296169	5994.108363
616.644454	5961.494619
616.992686	5936.157779
617.340864	5929.637047
617.688990	5856.620975
618.037063	5874.481783
618.385082	5826.986552
618.733048	5809.894520
619.080961	5770.772645
619.428821	5735.603035
619.776628	5705.524991
620.124382	5654.074975
620.472083	5623.046673
620.819731	5595.307724
621.167326	5537.210946
621.514868	5495.865923
621.862357	5426.013175
622.209793	5392.527310
622.557176	5333.860883
622.904506	5274.922232
623.251783	5219.794694
623.599007	5167.439791
623.946179	5120.751145
624.293297	5081.901493
624.640363	5010.914485
624.987376	4974.262776
625.334336	4927.664870
625.681243	4869.157239
626.028097	4835.820088
626.374899	4797.156959
626.721647	4764.331486
627.068343	4725.519642
627.414987	4682.558929
627.761577	4637.054954
628.108115	4625.185557
628.454600	4567.580292
628.801032	4548.950708
629.147412	4517.965256
629.493739	4488.237572
629.840014	4447.500008
630.186236	4431.045681
630.532405	4386.194536
630.878521	4370.692988
631.224585	4341.630736
631.570597	4299.521978
631.916556	4281.343577
632.262462	4254.141511
632.608316	4232.020928
632.954117	4205.519582
633.299866	4181.092671
633.645562	4148.650325
633.991206	4110.468626
634.336797	4065.236873
634.682336	4045.979665
635.027823	4007.003984
635.373257	3981.979697
635.718639	3941.728604
636.063968	3915.423863
636.409245	3872.871483
636.754470	3853.347095
637.099642	3821.713854
637.444762	3786.655150
637.789829	3769.497583
638.134845	3738.933067
638.479808	3717.452710
638.824719	3695.932025
639.169577	3662.171417
639.514383	3645.903614
639.859137	3616.896815
640.203839	3605.957511
640.548489	3580.187132
640.893086	3563.987384
641.237632	3537.170967
641.582125	3522.022299
641.926566	3507.564270
642.270955	3492.024913
642.615292	3479.989158
642.959576	3461.324286
643.303809	3447.075465
643.647990	3436.133641
643.992118	3418.600508
644.336195	3404.835637
644.680219	3390.871641
645.024192	3386.453069
645.368112	3378.848489
645.711981	3370.606202
646.055797	3377.994013
646.399562	3363.941797
646.743274	3374.553426
647.086935	3374.462685
647.430544	3363.130171
647.774101	3356.153214
648.117606	3349.453521
648.461059	3345.206349
648.804460	3324.151970
649.147810	3296.738175
649.491108	3277.619599
649.834354	3259.234511
650.177548	3233.194431
650.520690	3211.192315
650.863781	3195.337886
651.206820	3186.606607
651.549807	3163.964265
651.892742	3145.609424
652.235626	3131.965541
652.578458	3120.932976
652.921238	3100.430603
653.263967	3096.569079
653.606644	3081.133066
653.949269	3070.103022
654.291843	3059.229253
654.634365	3054.603994
654.976836	3040.824000
655.319255	3034.557846
655.661622	3025.781197
656.003938	3014.350381
656.346203	3006.120697
656.688416	3002.359996
657.030577	2985.825012
657.372687	2977.439052
657.714746	2972.102991
658.056753	2968.785912
658.398708	2952.069445
658.740612	2946.239351
659.082465	2940.134514
659.424266	2934.730397
659.766016	2925.195054
660.107715	2923.954930
660.449362	2921.615835
660.790958	2912.791295
661.132503	2910.852972
661.473996	2905.635377
661.815438	2898.214799
662.156829	2894.643141
662.498168	2887.537635
662.839456	2880.192674
663.180693	2878.360214
663.521879	2873.702188
663.863013	2866.158102
664.204097	2858.611494
664.545129	2860.721217
664.886110	2855.685104
665.227040	2852.294928
665.567918	2850.495237
665.908746	2846.167406
666.249522	2845.693537
666.590248	2840.198680
666.930922	2836.100222
667.271545	2834.280365
667.612118	2830.423882
667.952639	2824.248469
668.293109	2821.102789
668.633528	2814.667756
668.973896	2810.478557
669.314213	2808.666262
669.654480	2800.565128
669.994695	2794.881227
670.334859	2791.191103
670.674973	2787.364867
671.015035	2784.932510
671.355047	2780.438322
671.695008	2776.982611
672.034918	2774.399019
672.374777	2772.082609
672.714585	2771.092022
673.054342	2768.841147
673.394049	2763.958790
673.733705	2761.521392
674.073310	2757.180958
674.412864	2755.681215
674.752368	2749.268867
675.091820	2750.463621
675.431223	2743.411047
675.770574	2739.196642
676.109875	2734.813359
676.449125	2729.217678
676.788324	2726.104765
677.127473	2721.116544
677.466571	2717.983467
677.805619	2720.299877
678.144616	2713.338043
678.483562	2713.050697
678.822458	2710.885522
679.161303	2707.742362
679.500098	2704.727752
679.838842	2704.460571
680.177535	2702.343287
680.516179	2700.780529
680.854771	2702.519727
681.193314	2702.106352
681.531805	2703.752289
681.870247	2707.044163
682.208638	2711.518187
682.546978	2711.467775
682.885268	2709.191694
683.223508	2705.985520
683.561697	2701.551826
683.899836	2703.180118
684.237925	2696.009077
684.575963	2698.726259
684.913951	2693.304498
685.251889	2696.722400
685.589776	2692.712162
685.927614	2692.301308
686.265401	2692.432378
686.603137	2691.245187
686.940824	2690.594878
687.278460	2689.816019
687.616046	2690.786442
687.953582	2696.235929
688.291068	2694.118644
688.628504	2693.987574
688.965889	2693.485979
689.303224	2689.997501
689.640510	2689.168231
689.977745	2683.010462
690.314930	2681.218332
690.652065	2676.865295
690.989150	2675.390758
691.326185	2668.784326
691.663170	2665.600837
692.000105	2662.331649
692.336990	2660.126144
692.673825	2658.465084
693.010610	2655.432830
693.347345	2649.267498
693.684030	2645.088382
694.020665	2647.024185
694.357251	2642.308186
694.693786	2641.120994
695.030272	2643.565953
695.366707	2642.144348
695.703093	2640.831127
696.039429	2639.689306
696.375716	2639.601086
696.711952	2635.628657
697.048139	2636.800725
697.384276	2633.594551
697.720363	2635.179994
698.056400	2635.190076
698.392388	2635.119500
698.728326	2634.297792
699.064214	2632.694705
699.400053	2633.355096
699.735842	2629.296967
700.071581	2625.581637
700.407270	2629.377626
700.742910	2626.501648
701.078501	2624.417131
701.414042	2622.977881
701.749533	2622.178858
702.084974	2621.324383
702.420366	2621.636934
702.755709	2620.268261
703.091002	2617.268774
703.426246	2619.055863
703.761440	2619.481841
704.096584	2615.758949
704.431679	2618.213991
704.766725	2617.581326
705.101721	2614.715430
705.436668	2616.754577
705.771565	2614.354987
706.106413	2614.770883
706.441212	2614.609566
706.775961	2616.273147
707.110661	2614.544031
707.445311	2618.158538
707.779913	2617.140225
708.114465	2615.327930
708.448967	2617.215842
708.783421	2618.922273
709.117825	2618.866820
709.452180	2616.779782
709.786485	2617.780452
710.120742	2622.246914
710.454949	2620.414454
710.789107	2619.242386
711.123216	2618.551748
711.457275	2621.452932
711.791286	2623.189610
712.125247	2621.757922
712.459159	2625.316977
712.793023	2626.262193
713.126837	2626.602471
713.460602	2624.515433
713.794318	2622.713221
714.127985	2622.924949
714.461602	2622.393107
714.795171	2619.524691
715.128691	2614.962447
715.462162	2613.745008
715.795584	2613.813063
716.128957	2613.770214
716.462281	2612.532610
716.795556	2609.747373
717.128782	2609.833072
717.461960	2609.686879
717.795088	2610.092692
718.128167	2609.785182
718.461198	2607.173864
718.794180	2608.166971
719.127113	2607.037753
719.459997	2605.142279
719.792833	2608.819801
720.125619	2603.894593
720.458357	2603.287134
720.791046	2603.629933
721.123686	2604.048348
721.456278	2603.476177
721.788821	2600.252360
722.121315	2600.552308
722.453761	2599.826382
722.786158	2601.419387
723.118506	2601.003492
723.450805	2601.459716
723.783056	2601.308481
724.115259	2603.007350
724.447412	2599.642380
724.779518	2604.746548
725.111574	2600.980806
725.443582	2599.876794
725.775542	2600.683378
726.107453	2601.668924
726.439315	2601.744541
726.771129	2607.173864
727.102895	2603.587083
727.434612	2605.790067
727.766281	2603.796291
728.097901	2602.089860
728.429473	2601.182452
728.760996	2602.004161
729.092471	2600.171701
729.423897	2604.928030
729.755276	2606.765530
730.086606	2602.760334
730.417887	2605.301075
730.749120	2604.098760
731.080305	2607.289810
731.411442	2606.536158
731.742530	2607.045314
732.073570	2606.468102
732.404562	2608.277877
732.735506	2609.696961
733.066401	2609.633947
733.397249	2609.112187
733.728048	2605.064141
734.058798	2605.598503
734.389501	2602.387288
734.720156	2602.397371
735.050762	2601.502566
735.381320	2600.998450
735.711831	2597.898141
736.042293	2597.860332
736.372707	2597.557863
736.703073	2598.251022
737.033391	2597.860332
737.363661	2598.283789
737.693883	2597.424272
738.024056	2599.622215
738.354182	2597.547781
738.684260	2600.842175
739.014290	2599.130703
739.344272	2599.642380
739.674207	2600.385950
740.004093	2603.972731
740.333931	2600.327977
740.663722	2600.577514
740.993464	2600.242277
741.323159	2601.575662
741.652806	2598.810590
741.982405	2600.953080
742.311956	2597.673809
742.641460	2600.103646
742.970915	2598.213213
743.300323	2597.467122
743.629683	2598.813110
743.958996	2595.337235
744.288260	2596.688264
744.617477	2596.542070
744.946647	2592.821699
745.275768	2591.493355
745.604842	2590.200299
745.933869	2591.692480
746.262847	2590.671647
746.591778	2592.567121
746.920662	2595.097780
747.249498	2594.250866
747.578286	2591.697522
747.907027	2594.616350
748.235720	2594.893613
748.564365	2595.551484
748.892963	2592.718355
749.221514	2593.658530
749.550017	2592.897316
749.878473	2594.417224
750.206881	2592.602409
750.535242	2593.880341
750.863555	2591.571493
751.191821	2590.016297
751.520039	2595.223809
751.848210	2593.207347
752.176334	2591.158118
752.504411	2593.010742
752.832440	2592.483942
753.160421	2591.848756
753.488356	2593.189703
753.816243	2594.901175
754.144082	2593.998808
754.471875	2591.808427
754.799620	2593.424117
755.127318	2588.740885
755.454969	2591.085021
755.782572	2593.308170
756.110129	2590.711976
756.437638	2592.831781
756.765100	2591.246338
757.092515	2593.033427
757.419882	2590.969075
757.747203	2590.931266
758.074477	2589.063519
758.401703	2590.719538
758.728882	2590.807758
759.056014	2593.656010
759.383099	2591.846236
759.710138	2591.894127
760.037129	2592.819178
760.364073	2592.352872
760.690970	2591.760536
761.017820	2594.114755
761.344623	2592.466297
761.671379	2593.340938
761.998088	2592.846905
762.324751	2593.648448
762.651366	2599.539036
762.977935	2609.981787
763.304456	2613.944133
763.630931	2619.779269
763.957359	2618.829012
764.283740	2615.922786
764.610074	2611.274842
764.936362	2610.659822
765.262602	2603.214037
765.588796	2601.086671
765.914943	2598.505600
766.241044	2597.454519
766.567097	2596.438727
766.893104	2588.725761
767.219064	2593.890423
767.544978	2590.258272
767.870845	2589.376070
768.196665	2587.437747
768.522438	2584.823908
768.848165	2587.082345
769.173846	2583.956830
769.499479	2587.611666
769.825066	2583.825760
770.150607	2582.346181
770.476101	2584.589495
770.801548	2586.399269
771.126949	2584.786100
771.452303	2585.358271
771.777611	2582.421798
772.102872	2585.731316
772.428087	2582.058835
772.753256	2580.375090
773.078378	2583.616552
773.403453	2581.310224
773.728482	2580.904411
774.053465	2581.484144
774.378401	2581.877354
774.703291	2581.504308
775.028135	2578.056159
775.352932	2579.815522
775.677683	2582.704103
776.002388	2581.852148
776.327046	2580.236458
776.651658	2582.890626
776.976224	2579.805440
777.300743	2583.044381
777.625216	2580.044894
777.949643	2578.330902
778.274024	2579.961715
778.598359	2579.031622
778.922647	2576.720253
779.246889	2575.477609
779.571086	2574.655901
779.895236	2577.920048
780.219339	2579.732343
780.543397	2579.828125
780.867409	2578.605645
781.191374	2579.074472
781.515294	2580.508681
781.839167	2580.072621
782.162995	2578.696386
782.486776	2580.233938
782.810511	2580.566654
783.134201	2579.603793
783.457844	2583.729978
783.781441	2580.037333
784.104993	2579.407188
784.428498	2578.524987
784.751958	2578.663618
785.075372	2578.300655
785.398739	2576.687486
785.722061	2578.797209
786.045337	2579.087075
786.368568	2577.826787
786.691752	2578.540110
787.014891	2579.477765
787.337983	2581.610173
787.661030	2582.633527
787.984031	2582.436922
788.306987	2581.915162
788.629897	2585.275092
788.952760	2583.606470
789.275579	2583.545976
789.598351	2586.169896
789.921078	2580.738053
790.243759	2582.094123
790.566395	2580.004565
790.888984	2581.267374
791.211529	2582.028588
791.534027	2579.823084
791.856480	2578.275449
792.178888	2581.113619
792.501249	2578.840059
792.823566	2578.300655
793.145836	2578.661098
793.468062	2578.983732
793.790241	2577.158834
794.112375	2579.137487
794.434464	2577.927610
794.756507	2578.847620
795.078505	2581.186716
795.400457	2576.667321
795.722364	2576.427867
796.044226	2578.247723
796.366042	2575.961560
796.687812	2580.412899
797.009538	2581.877354
797.331218	2580.269226
797.652852	2579.472723
797.974442	2584.488672
798.295986	2581.499267
798.617484	2581.277457
798.938938	2580.614545
799.260346	2579.308886
799.581709	2580.450707
799.903026	2578.822415
800.224299	2577.252095
800.545526	2578.209914
800.866708	2579.656726
801.187845	2577.206725
801.508936	2578.048597
801.829983	2576.150603
802.150984	2575.780078
802.471940	2577.617579
802.792851	2575.273442
803.113717	2578.015830
803.434538	2576.569019
803.755314	2578.436766
804.076045	2573.892166
804.396731	2577.514235
804.717372	2576.858885
805.037967	2577.088258
805.358518	2576.846282
805.679024	2577.758731
805.999485	2575.709502
806.319901	2577.347877
806.640272	2576.695048
806.960598	2577.478947
807.280879	2577.209245
807.601115	2579.162692
807.921306	2576.364852
808.241453	2574.769327
808.561554	2577.496591
808.881611	2579.056828
809.201623	2579.704617
809.521590	2580.790985
809.841513	2576.483319
810.161390	2578.588001
810.481223	2574.164388
810.801011	2578.648495
811.120755	2575.858216
811.440453	2578.260326
811.760107	2578.403999
812.079716	2574.461817
812.399281	2574.408884
812.718801	2574.514749
813.038276	2573.808987
813.357707	2575.649008
813.677093	2574.492063
813.996434	2578.378793
814.315731	2576.233782
814.634983	2578.633371
814.954191	2576.488360
815.273354	2576.730336
815.592473	2576.198494
815.911547	2580.294432
816.230577	2579.865933
816.549562	2577.715881
816.868502	2577.065572
817.187399	2576.687486
817.506250	2578.154462
817.825058	2581.647981
818.143821	2578.441807
818.462539	2581.617734
818.781213	2577.715881
819.099843	2582.477251
819.418429	2583.828280
819.736970	2588.337592
820.055466	2588.952613
820.373919	2595.639704
820.692327	2597.613316
821.010691	2606.747886
821.329011	2621.571399
821.647286	2655.521050
821.965517	2689.198478
822.283704	2717.617983
822.601847	2735.244377
822.919945	2727.909498
823.237999	2717.151676
823.556010	2701.453523
823.873976	2683.151614
824.191897	2670.936898
824.509775	2655.866369
824.827609	2643.858340
825.145398	2632.273769
825.463144	2627.615743
825.780845	2624.913684
826.098502	2625.586678
826.416116	2632.941722
826.733685	2640.148051
827.051210	2643.195429
827.368692	2641.962867
827.686129	2634.794346
828.003522	2629.465846
828.320872	2615.305245
828.638177	2608.378700
828.955439	2604.408791
829.272656	2595.743048
829.589830	2593.948397
829.906960	2593.023345
830.224046	2589.088724
830.541088	2585.980853
830.858086	2584.813826
831.175041	2585.156624
831.491952	2583.989597
831.808819	2581.930286
832.125642	2583.735019
832.442421	2582.023547
832.759157	2590.628797
833.075849	2594.820516
833.392497	2601.288317
833.709101	2607.325098
834.025662	2611.685697
834.342179	2609.409616
834.658653	2601.931064
834.975083	2597.860332
835.291469	2595.715321
835.607811	2592.922522
835.924110	2591.952100
836.240366	2586.789958
836.556578	2583.916501
836.872746	2585.096131
837.188871	2577.612538
837.504952	2577.181519
837.820990	2576.858885
838.136984	2575.359142
838.452935	2576.044739
838.768842	2575.328895
839.084706	2574.592887
839.400526	2576.780747
839.716303	2580.831314
840.032037	2584.770976
840.347727	2588.554362
840.663373	2584.831470
840.978977	2583.009093
841.294537	2579.860892
841.610054	2580.909452
841.925527	2577.413412
842.240957	2579.344174
842.556344	2574.502146
842.871687	2573.786302
843.186987	2572.886456
843.502244	2571.439645
843.817458	2573.897207
844.132629	2570.859912
844.447756	2572.218503
844.762840	2566.688357
845.077881	2569.309757
845.392879	2569.579459
845.707833	2567.079047
846.022745	2564.928995
846.337613	2570.494428
846.652438	2568.495611
846.967221	2569.138358
847.281960	2568.435117
847.596656	2569.816393
847.911309	2568.218348
848.225919	2570.033163
848.540485	2567.626012
848.855009	2568.528378
849.169490	2566.670713
849.483928	2568.881259
849.798323	2568.299006
850.112675	2568.296485
850.426984	2571.172464
850.741251	2568.417473
851.055474	2568.513255
851.369654	2570.149109
851.683792	2568.064592
851.997887	2570.275138
852.311938	2569.080385
852.625947	2570.885118
852.939914	2566.406053
853.253837	2570.547361
853.567718	2566.874880
853.881555	2568.619119
854.195350	2567.220199
854.509103	2567.373954
854.822812	2569.110632
855.136479	2569.455951
855.450103	2567.129458
855.763685	2567.507545
856.077224	2569.455951
856.390720	2568.750189
856.704173	2569.423183
857.017584	2570.829665
857.330953	2566.912689
857.644278	2571.449727
857.957561	2570.378482
858.270802	2569.486198
858.584000	2568.760272
858.897155	2571.525344
859.210268	2569.037535
859.523339	2568.873698
859.836367	2569.191290
860.149352	2569.234140
860.462295	2570.335632
860.775195	2562.645352
861.088054	2564.833213
861.400869	2568.679613
861.713642	2565.677606
862.026373	2566.670713
862.339062	2569.095508
862.651708	2569.914696
862.964312	2566.441341
863.276873	2568.188101
863.589392	2568.609037
863.901869	2568.919068
864.214303	2567.336146
864.526696	2568.840930
864.839045	2571.616085
865.151353	2570.476784
865.463619	2569.977710
865.775842	2571.878225
866.088023	2570.312947
866.400162	2572.715057
866.712258	2569.965107
867.024313	2571.442165
867.336325	2572.233627
867.648296	2571.222875
867.960224	2570.464182
868.272110	2568.046948
868.583954	2566.211968
868.895755	2572.699933
869.207515	2570.602813
869.519233	2570.214644
869.830909	2569.786146
870.142542	2570.151630
870.454134	2569.919737
870.765684	2571.520303
871.077191	2569.521486
871.388657	2572.515931
871.700081	2570.358317
872.011463	2570.262535
872.322803	2571.752196
872.634101	2573.025088
872.945357	2569.145920
873.256571	2571.023750
873.567744	2571.974007
873.878874	2572.364697
874.189963	2574.923082
874.501010	2573.511559
874.812015	2574.048442
875.122979	2573.682958
875.433900	2572.888977
875.744780	2575.160016
876.055618	2573.226734
876.366415	2571.840417
876.677169	2570.806980
876.987882	2568.651887
877.298554	2566.227092
877.609183	2567.237843
877.919771	2569.652556
878.230317	2571.048955
878.540822	2578.840059
878.851285	2578.887950
879.161707	2578.572877
879.472087	2580.475913
879.782425	2585.302818
880.092722	2591.538725
880.402977	2601.096753
880.713191	2614.949844
881.023363	2630.632873
881.333494	2643.142497
881.643583	2649.136428
881.953631	2651.334372
882.263637	2649.340595
882.573602	2644.153248
882.883526	2642.983700
883.193408	2635.510190
883.503248	2631.646145
883.813048	2626.791514
884.122806	2621.200874
884.432522	2614.942282
884.742197	2610.110336
885.051831	2605.553133
885.361424	2597.325970
885.670975	2596.421083
885.980485	2591.624425
886.289954	2589.880186
886.599382	2587.692325
886.908768	2586.757191
887.218113	2581.244689
887.527417	2581.504308
887.836680	2579.114802
888.145901	2580.271746
888.455082	2577.050449
888.764221	2576.415264
889.073319	2573.466189
889.382376	2576.732856
889.691392	2574.615572
890.000366	2576.359811
890.309300	2576.080027
890.618193	2573.866960
890.927044	2574.373596
891.235855	2572.815880
891.544625	2572.067268
891.853353	2574.996179
892.162041	2573.093143
892.470687	2575.558267
892.779293	2575.228072
893.087858	2572.692372
893.396381	2575.563309
893.704864	2578.401478
894.013306	2580.576736
894.321707	2590.273396
894.630068	2592.186513
894.938387	2596.713470
895.246665	2595.107862
895.554903	2596.257245
895.863100	2593.930753
896.171256	2591.516040
896.479371	2589.635690
896.787446	2586.721903
897.095480	2588.861872
897.403473	2587.233580
897.711425	2582.457087
898.019336	2582.923393
898.327207	2580.859041
898.635038	2578.562795
898.942827	2577.370562
899.250576	2577.867116
899.558284	2574.935685
899.865952	2574.963411
900.173579	2571.966445
900.481165	2570.673389
900.788711	2573.433421
901.096216	2571.754717
901.403681	2573.103226
901.711105	2571.331260
902.018489	2571.250602
902.325832	2574.494584
902.633135	2574.602969
902.940397	2573.687999
903.247619	2574.550037
903.554800	2579.936510
903.861941	2586.154773
904.169041	2597.154571
904.476101	2598.573655
904.783121	2600.620364
905.090100	2600.663214
905.397039	2598.545929
905.703938	2597.255394
906.010796	2591.206009
906.317614	2588.503951
906.624391	2586.608477
906.931129	2584.833991
907.237826	2582.736871
907.544483	2583.160327
907.851099	2577.375603
908.157675	2577.002558
908.464211	2573.877043
908.770707	2568.714901
909.077163	2571.013667
909.383578	2570.015519
909.689954	2565.828841
909.996289	2565.382698
910.302584	2568.840930
910.608839	2567.121897
910.915054	2571.094326
911.221229	2567.580642
911.527363	2570.996023
911.833458	2570.645663
912.139513	2569.866805
912.445527	2568.631722
912.751502	2570.449058
913.057436	2570.796898
913.363331	2569.723132
913.669186	2570.892680
913.975000	2571.573235
914.280775	2572.460478
914.586510	2576.153124
914.892205	2577.630182
915.197859	2584.077817
915.503475	2590.064188
915.809050	2593.779518
916.114585	2599.067688
916.420081	2600.688419
916.725536	2604.199583
917.030952	2603.019953
917.336328	2601.187494
917.641665	2596.884869
917.946961	2594.883531
918.252218	2593.398911
918.557435	2593.507296
918.862612	2590.938828
919.167750	2589.988570
919.472848	2585.522108
919.777906	2582.782241
920.082925	2583.200657
920.387904	2581.287539
920.692843	2578.056159
920.997743	2579.175295
921.302603	2574.590366
921.607423	2573.153637
921.912204	2572.210941
922.216946	2573.148596
922.521647	2572.140365
922.826310	2572.130283
923.130932	2572.034501
923.435516	2569.345045
923.740059	2567.867987
924.044564	2569.924778
924.349028	2573.176322
924.653454	2565.135682
924.957840	2567.510065
925.262186	2565.594427
925.566493	2564.129972
925.870761	2562.042934
926.174989	2565.770867
926.479178	2567.731876
926.783328	2568.223389
927.087438	2562.413459
927.391509	2567.870508
927.695541	2563.640980
927.999533	2563.903120
928.303486	2561.932029
928.607400	2562.819272
928.911275	2567.827658
929.215110	2565.256670
929.518906	2564.233315
929.822663	2565.866649
930.126381	2566.524520
930.430060	2567.048800
930.733699	2566.867318
931.037299	2562.413459
931.340861	2564.465208
931.644383	2564.697102
931.947866	2563.799776
932.251309	2565.012174
932.554714	2564.770198
932.858080	2564.843295
933.161407	2562.904971
933.464694	2565.599468
933.767943	2562.821792
934.071153	2564.407235
934.374323	2563.295661
934.677455	2564.382029
934.980548	2563.935887
935.283602	2565.186093
935.586617	2565.501166
935.889593	2564.215671
936.192530	2563.136864
936.495428	2563.749365
936.798287	2564.477811
937.101108	2563.479663
937.403890	2564.190466
937.706632	2566.942936
938.009336	2565.163408
938.312002	2564.618964
938.614628	2567.988975
938.917216	2567.855384
939.219765	2563.998902
939.522275	2565.312122
939.824747	2566.365723
940.127179	2565.097873
940.429573	2563.567883
940.731929	2564.626525
941.034246	2564.445044
941.336524	2568.858574
941.638763	2566.600137
941.940964	2571.185067
942.243126	2566.758933
942.545250	2566.247256
942.847335	2568.677092
943.149381	2568.082236
943.451389	2568.603996
943.753359	2567.116855
944.055290	2565.445713
944.357182	2567.711712
944.659036	2563.966134
944.960851	2566.703481
945.262628	2565.168449
945.564367	2565.009653
945.866067	2565.740620
946.167729	2565.796073
946.469352	2564.976886
946.770937	2565.917061
947.072484	2566.325394
947.373992	2566.794222
947.675462	2565.748182
947.976893	2566.211968
948.278286	2566.776578
948.579641	2565.720456
948.880958	2565.339849
949.182236	2566.698440
949.483476	2564.492935
949.784678	2563.232646
950.085841	2566.469067
950.386967	2566.519479
950.688054	2565.115517
950.989103	2566.844633
951.290114	2563.603171
951.591087	2565.440672
951.892021	2566.146433
952.192917	2568.780436
952.493776	2565.659962
952.794596	2563.656103
953.095378	2566.141392
953.396122	2563.895558
953.696828	2565.796073
953.997496	2568.399829
954.298126	2564.508058
954.598718	2565.052503
954.899272	2561.115362
955.199788	2564.356824
955.500266	2564.470250
955.800706	2560.717111
956.101108	2559.890361
956.401472	2558.032696
956.701798	2560.631411
957.002087	2561.526216
957.302337	2561.498489
957.602550	2564.649211
957.902724	2563.308264
958.202861	2562.652914
958.502960	2564.457647
958.803022	2563.900599
959.103045	2565.153326
959.403031	2562.947821
959.702979	2560.555794
960.002889	2559.383725
960.302762	2559.688715
960.602596	2562.640311
960.902393	2559.355999
961.202153	2563.056206
961.501875	2561.359858
961.801559	2562.363047
962.101205	2559.320711
962.400814	2560.679302
962.700385	2560.588561
962.999918	2562.610064
963.299414	2559.671071
963.598873	2561.644683
963.898293	2558.267110
964.197677	2560.467573
964.497022	2561.952193
964.796331	2559.076215
965.095601	2562.010167
965.394835	2561.881617
965.694030	2560.638973
965.993189	2564.513099
966.292309	2560.107131
966.591393	2561.523695
966.890439	2559.426575
967.189447	2562.516802
967.488419	2560.596123
967.787353	2558.632593
968.086249	2559.998746
968.385108	2562.345403
968.683930	2558.567058
968.982714	2563.835064
969.281462	2560.659137
969.580172	2560.293654
969.878844	2560.517985
970.177480	2561.735424
970.476078	2563.605692
970.774639	2562.605023
971.073162	2559.837429
971.371649	2559.033365
971.670098	2556.318704
971.968510	2561.148129
972.266885	2555.350802
972.565223	2559.003118
972.863524	2560.144940
973.161788	2559.945814
973.460014	2560.941442
973.758204	2561.647203
974.056356	2559.267779
974.354471	2560.399518
974.652550	2561.715259
974.950591	2559.696277
975.248595	2562.453788
975.546563	2562.322718
975.844493	2560.258366
976.142386	2563.988819
976.440243	2559.242573
976.738062	2561.538819
977.035845	2561.183417
977.333590	2562.191648
977.631299	2561.352296
977.928971	2558.294836
978.226606	2560.220557
978.524204	2559.217367
978.821765	2560.439847
979.119290	2558.050340
979.416777	2561.012018
979.714228	2560.747357
980.011642	2559.235011
980.309020	2565.428069
980.606360	2562.037893
980.903664	2561.039744
981.200931	2561.453119
981.498162	2561.490928
981.795356	2562.335321
982.092513	2562.436144
982.389633	2563.802297
982.686717	2564.886145
982.983764	2563.703994
983.280775	2565.629715
983.577749	2564.724828
983.874686	2565.271793
984.171587	2565.851526
984.468451	2564.802966
984.765279	2563.446895
985.062070	2564.044272
985.358824	2563.913202
985.655543	2564.613922
985.952224	2563.703994
986.248869	2562.252142
986.545478	2557.886503
986.842050	2559.040927
987.138586	2557.831050
987.435086	2556.263251
987.731549	2556.996739
988.027975	2560.984292
988.324366	2557.851215
988.620719	2562.398335
988.917037	2560.828016
989.213318	2559.449260
989.509563	2557.339538
989.805772	2558.428427
990.101944	2557.866338
990.398080	2556.480021
990.694180	2560.064281
990.990244	2558.146122
991.286271	2560.089487
991.582262	2560.011349
991.878217	2559.149312
992.174136	2558.367933
992.470019	2558.977913
992.765865	2561.800959
993.061676	2560.959086
993.357450	2556.137222
993.653188	2557.422717
993.948890	2557.533622
994.244556	2560.964127
994.540186	2559.209806
994.835780	2560.250804
995.131337	2559.754250
995.426859	2561.879097
995.722345	2558.420865
996.017795	2561.221226
996.313208	2560.608726
996.608586	2559.902964
996.903928	2561.075032
997.199234	2561.735424
997.494504	2565.808676
997.789738	2560.795248
998.084936	2560.873386
998.380099	2563.083932
998.675225	2560.409600
998.970316	2558.940104
999.265371	2558.168807
999.560390	2562.655434
999.855373	2560.943962
1000.150320	2560.429765
1000.445232	2560.485217
1000.740108	2557.500854
1001.034948	2560.238201
1001.329752	2559.287943
1001.624521	2560.225598
1001.919254	2556.785011
1002.213951	2556.278375
1002.508613	2553.636810
1002.803239	2556.182593
1003.097829	2555.582695
1003.392384	2559.177038
1003.686903	2558.317521
1003.981386	2559.068653
1004.275834	2557.480690
1004.570246	2558.602347
1004.864623	2556.245607
1005.158964	2556.875751
1005.453270	2555.817109
1005.747540	2559.035886
1006.041775	2559.648386
1006.335974	2556.981616
1006.630138	2555.665874
1006.924266	2556.159908
1007.218359	2555.895247
1007.512416	2557.301729
1007.806438	2557.072356
1008.100425	2557.657130
1008.394376	2556.903478
1008.688292	2555.083621
1008.982172	2557.100083
1009.276017	2555.307953
1009.569827	2558.667882
1009.863602	2561.707697
1010.157341	2558.055381
1010.451045	2555.287788
1010.744714	2554.123281
1011.038347	2558.665361
1011.331945	2558.007490
1011.625508	2557.246276
1011.919036	2553.906512
1012.212528	2556.028837
1012.505986	2557.533622
1012.799408	2557.846173
1013.092795	2558.211657
1013.386147	2556.374157
1013.679464	2558.196534
1013.972745	2554.980277
1014.265992	2558.657799
1014.559204	2556.573282
1014.852380	2557.084959
1015.145521	2557.747871
1015.438628	2555.197047
1015.731699	2557.314332
1016.024736	2556.989177
1016.317737	2557.271482
1016.610703	2556.061605
1016.903635	2554.733261
1017.196531	2552.545400
1017.489393	2555.053374
1017.782219	2553.508261
1018.075011	2553.669577
1018.367768	2556.273333
1018.660490	2557.047151
1018.953177	2557.047151
1019.245829	2557.047151
