Dividing Wavelength (nm)	Counts (n)	Blue Motor Position (mm): 0.000000	Red Motor Position (mm): 23.000000	
326.493990	2144.501805
326.888308	2144.501805
327.282561	2144.501805
327.676750	2121.262086
328.070874	2121.025152
328.464933	2126.325925
328.858929	2133.771709
329.252859	2148.355767
329.646726	2159.254742
330.040528	2177.342402
330.434265	2196.062727
330.827938	2210.810622
331.221547	2232.885835
331.615091	2252.042219
332.008571	2272.796650
332.401986	2290.067643
332.795338	2314.144194
333.188625	2334.752431
333.581847	2354.112982
333.975006	2372.193080
334.368100	2390.966337
334.761129	2409.008627
335.154095	2422.516398
335.546996	2441.894594
335.939833	2453.544700
336.332606	2470.946763
336.725315	2481.737353
337.117960	2487.290184
337.510540	2495.449292
337.903056	2507.427073
338.295508	2511.538134
338.687896	2518.424350
339.080220	2530.460105
339.472480	2534.440096
339.864676	2538.412525
340.256807	2539.115766
340.648875	2540.912938
341.040879	2543.670449
341.432818	2545.802857
341.824694	2544.759338
342.216506	2543.844369
342.608253	2543.680531
342.999937	2547.259750
343.391557	2543.098278
343.783113	2544.635830
344.174605	2540.466796
344.566033	2538.651980
344.957397	2539.934954
345.348697	2534.840868
345.739934	2535.685261
346.131106	2532.562266
346.522215	2529.681247
346.913260	2528.909950
347.304241	2527.818541
347.695159	2524.791328
348.086012	2524.317459
348.476802	2522.079187
348.867528	2521.791841
349.258191	2518.691532
349.648789	2520.042561
350.039324	2517.373270
350.429796	2519.437622
350.820203	2515.467714
351.210548	2516.049967
351.600828	2515.339164
351.991045	2514.643485
352.381198	2512.286746
352.771288	2514.368742
353.161314	2514.068793
353.551276	2517.101047
353.941175	2510.832373
354.331010	2515.392096
354.720782	2515.941582
355.110490	2515.618948
355.500135	2514.693897
355.889717	2515.021572
356.279235	2514.714061
356.668689	2513.509225
357.058080	2515.250944
357.447408	2514.073835
357.836672	2511.775068
358.225873	2514.784637
358.615010	2513.184071
359.004084	2517.501819
359.393095	2517.272447
359.782043	2519.172962
360.170927	2518.983918
360.559748	2521.451563
360.948505	2520.670184
361.337199	2522.787469
361.725830	2522.875689
362.114398	2519.029289
362.502903	2522.036337
362.891344	2523.437778
363.279722	2523.999867
363.668037	2524.476256
364.056289	2524.672861
364.444478	2526.427182
364.832603	2522.626152
365.220665	2529.111597
365.608665	2524.698066
365.996601	2524.589682
366.384474	2528.093283
366.772284	2528.549508
367.160031	2529.875331
367.547715	2527.059847
367.935336	2529.093952
368.322893	2529.479601
368.710388	2526.893489
369.097820	2532.589993
369.485189	2527.473222
369.872495	2531.206196
370.259738	2530.434899
370.646918	2530.676875
371.034035	2531.319622
371.421090	2532.874818
371.808081	2529.943387
372.195010	2531.491021
372.581875	2531.627132
372.968678	2534.225847
373.355418	2534.460261
373.742096	2537.517721
374.128710	2536.753986
374.515262	2537.744572
374.901751	2537.157278
375.288177	2538.170550
375.674540	2543.592311
376.060841	2541.059131
376.447079	2542.485778
376.833254	2544.716488
377.219367	2543.821683
377.605417	2548.119267
377.991404	2545.510470
378.377329	2552.021120
378.763191	2554.395504
379.148991	2560.626370
379.534727	2560.228119
379.920402	2568.432597
380.306013	2570.829665
380.691563	2576.407702
381.077049	2578.507342
381.462474	2586.835329
381.847835	2587.699887
382.233134	2594.679364
382.618371	2599.846547
383.003545	2606.309306
383.388657	2610.271653
383.773706	2619.761625
384.158693	2621.828498
384.543618	2631.850312
384.928480	2638.247536
385.313280	2647.240955
385.698017	2652.866882
386.082692	2663.440702
386.467305	2665.084119
386.851856	2677.061900
387.236344	2688.507840
387.620770	2693.445650
388.005133	2702.865046
388.389435	2714.678990
388.773674	2719.117726
389.157851	2727.639797
389.541965	2739.390726
389.926018	2740.053638
390.310008	2755.661050
390.693936	2764.951897
391.077802	2773.783998
391.461606	2781.877571
391.845348	2791.851494
392.229027	2802.369861
392.612645	2816.520380
392.996200	2822.927687
393.379694	2834.953359
393.763125	2855.395238
394.146494	2863.047710
394.529801	2873.102291
394.913047	2888.845814
395.296230	2895.232956
395.679351	2898.393760
396.062410	2915.596697
396.445408	2908.279463
396.828343	2922.636669
397.211217	2930.168153
397.594028	2923.775969
397.976778	2937.253494
398.359466	2951.081379
398.742092	2947.973508
399.124656	2964.952114
399.507158	2977.270173
399.889598	2984.083293
400.271977	2998.891682
400.654294	3005.850995
401.036549	3016.172758
401.418742	3022.083511
401.800874	3049.512429
402.182944	3054.331772
402.564952	3081.695155
402.946898	3070.292065
403.328783	3082.678180
403.710606	3099.707197
404.092367	3118.906432
404.474067	3147.951040
404.855705	3135.189359
405.237282	3136.731952
405.618797	3169.365861
406.000250	3193.868390
406.381642	3222.247565
406.762972	3224.974829
407.144240	3215.358828
407.525447	3237.880183
407.906593	3239.823548
408.287677	3259.015221
408.668700	3276.192953
409.049661	3276.046759
409.430560	3290.696352
409.811399	3292.168369
410.192176	3313.368942
410.572891	3324.799758
410.953545	3359.470293
411.334138	3329.213288
411.714669	3382.347050
412.095139	3326.324707
412.475547	3377.378993
412.855894	3368.262066
413.236180	3396.797517
413.616405	3379.024929
413.996568	3402.501583
414.376670	3407.094074
414.756711	3401.465626
415.136691	3427.672064
415.516609	3450.221145
415.896466	3456.603246
416.276262	3484.165754
416.655997	3510.604086
417.035670	3516.406454
417.415283	3585.765169
417.794834	3606.368365
418.174324	3589.866148
418.553753	3587.998400
418.933121	3633.814927
419.312428	3621.774131
419.691674	3621.675828
420.070859	3657.344512
420.449983	3641.527892
420.829045	3684.944830
421.208047	3671.013601
421.586988	3718.040005
421.965867	3746.633429
422.344686	3755.331940
422.723444	3795.648568
423.102141	3696.529401
423.480777	3801.584527
423.859352	3767.249228
424.237866	3862.469062
424.616319	3852.941282
424.994712	3913.150303
425.373044	3896.312849
425.751314	3962.679639
426.129524	3896.688415
426.507673	3992.976974
426.885762	3974.884273
427.263789	3996.165504
427.641756	4000.183303
428.019662	4029.482489
428.397508	4027.551727
428.775292	4065.945155
429.153016	4073.769026
429.530679	4089.386521
429.908282	4094.573868
430.285824	4072.546546
430.663305	4144.176301
431.040726	4104.512503
431.418086	4094.248713
431.795385	4166.337213
432.172624	4198.240156
432.549802	4165.177748
432.926920	4184.124925
433.303977	4176.530427
433.680974	4215.435531
434.057910	4236.346238
434.434786	4239.159201
434.811601	4233.808017
435.188355	4333.794262
435.565050	4303.139005
435.941683	4298.115496
436.318257	4386.744021
436.694770	4386.837283
437.071222	4442.158905
437.447614	4372.076784
437.823946	4373.498390
438.200218	4386.902818
438.576429	4364.184858
438.952580	4387.979104
439.328670	4387.827869
439.704700	4424.368673
440.080670	4384.079772
440.456580	4436.192699
440.832429	4467.405003
441.208218	4362.173438
441.583947	4404.735899
441.959616	4416.159154
442.335224	4431.340589
442.710773	4441.768216
443.086261	4485.061645
443.461689	4433.389818
443.837057	4431.398562
444.212365	4492.542717
444.587612	4484.638188
444.962800	4445.899441
445.337927	4476.844564
445.712995	4354.621789
446.088002	4516.238661
446.462949	4527.424981
446.837837	4525.279970
447.212664	4500.507740
447.587431	4677.840409
447.962139	4912.536367
448.336786	5181.865053
448.711374	5148.555629
449.085901	4831.653575
449.460369	4759.799488
449.834776	4689.704765
450.209124	4856.589642
450.583412	4837.271941
450.957640	4914.454527
451.331808	4782.956028
451.705917	4640.571159
452.079965	4609.878093
452.453954	4614.480667
452.827883	4559.592584
453.201752	4544.053227
453.575562	4541.141961
453.949311	4610.316674
454.323001	4583.769958
454.696632	4547.582035
455.070202	4627.728819
455.443713	4615.834217
455.817164	4640.677023
456.190556	4658.217718
456.563888	4607.977578
456.937160	4621.692038
457.310373	4490.395186
457.683526	4498.750898
458.056619	4453.062921
458.429653	4408.582300
458.802628	4399.959406
459.175542	4377.259090
459.548398	4419.350204
459.921194	4479.034945
460.293930	4475.748113
460.666607	4559.784148
461.039224	4628.180003
461.411782	4644.941839
461.784280	4564.784972
462.156719	4525.499260
462.529099	4455.132314
462.901419	4342.316333
463.273680	4243.436620
463.645882	4192.916697
464.018024	4149.862723
464.390106	4135.046772
464.762130	4192.205894
465.134094	4298.753202
465.505999	4492.421729
465.877845	4699.091393
466.249631	4766.181589
466.621358	4680.620605
466.993026	4552.908014
467.364634	4415.713012
467.736184	4267.518212
468.107674	4163.594826
468.479105	4088.748815
468.850477	4014.792567
469.221790	3919.454266
469.593043	3809.743634
469.964238	3737.985330
470.335373	3686.084131
470.706449	3681.907535
471.077467	3683.724871
471.448425	3782.458389
471.819324	3866.696070
472.190164	3832.781707
472.560945	3687.518339
472.931667	3550.182185
473.302330	3476.435145
473.672934	3413.050197
474.043479	3391.927763
474.413965	3338.592355
474.784393	3294.946045
475.154761	3284.679735
475.525070	3256.245107
475.895321	3217.763459
476.265513	3195.416024
476.635645	3192.431661
477.005719	3161.426044
477.375734	3140.843013
477.745691	3125.124695
478.115588	3119.453397
478.485427	3114.112295
478.855207	3133.946714
479.224928	3150.305259
479.594591	3150.436329
479.964194	3120.827112
480.333739	3092.027000
480.703226	3064.855180
481.072653	3046.495298
481.442022	3030.562731
481.811333	3015.076307
482.180584	2983.392655
482.549777	2955.792338
482.918912	2932.852567
483.287988	2917.429157
483.657005	2892.235990
484.025964	2871.610109
484.394864	2854.321472
484.763706	2838.484687
485.132489	2817.009372
485.501213	2809.175419
485.869879	2792.186731
486.238487	2778.850358
486.607036	2771.210489
486.975527	2757.349837
487.343959	2750.377921
487.712333	2743.171592
488.080648	2735.579614
488.448905	2726.979406
488.817104	2723.833726
489.185244	2716.229145
489.553326	2718.152345
489.921350	2722.371791
490.289315	2724.206771
490.657222	2724.163921
491.025070	2717.985987
491.392861	2711.233362
491.760593	2702.650797
492.128267	2694.413552
492.495883	2686.841739
492.863440	2680.152127
493.230939	2673.490243
493.598380	2665.925991
493.965763	2658.694456
494.333088	2658.676812
494.700354	2652.690442
495.067563	2650.938641
495.434713	2647.261119
495.801805	2646.525111
496.168839	2645.831952
496.535815	2643.432363
496.902733	2642.219965
497.269593	2639.107053
497.636395	2641.075623
498.003139	2638.454223
498.369825	2635.442134
498.736453	2635.825262
499.103023	2636.367186
499.469535	2634.610344
499.835989	2634.418780
500.202385	2632.586320
500.568723	2629.629684
500.935003	2630.776546
501.301226	2629.009622
501.667390	2630.035497
502.033497	2626.242028
502.399546	2629.428037
502.765537	2623.146760
503.131470	2623.010649
503.497345	2623.550052
503.863163	2625.064919
504.228923	2625.629528
504.594625	2622.244393
504.960269	2622.428395
505.325856	2625.211112
505.691385	2618.266923
506.056856	2620.195164
506.422270	2619.827160
506.787625	2617.031840
507.152924	2617.266254
507.518164	2615.915225
507.883347	2617.210801
508.248472	2617.291460
508.613540	2617.427571
508.978550	2614.975049
509.343503	2614.581839
509.708398	2616.220214
510.073236	2616.442025
510.438016	2614.508743
510.802738	2614.299535
511.167403	2617.815740
511.532010	2615.577467
511.896561	2614.239041
512.261053	2616.119391
512.625488	2611.599997
512.989866	2612.245265
513.354186	2613.757611
513.718449	2608.666045
514.082655	2611.504215
514.446803	2612.593104
514.810894	2616.857920
515.174927	2615.542179
515.538904	2613.339195
515.902822	2611.244596
516.266684	2616.101747
516.630488	2615.582508
516.994235	2614.526387
517.357925	2611.783999
517.721558	2616.754577
518.085133	2614.130656
518.448651	2614.113012
518.812112	2612.593104
519.175516	2615.196860
519.538863	2613.445059
519.902152	2616.071500
520.265385	2615.287601
520.628560	2615.285080
520.991678	2613.896242
521.354739	2614.889350
521.717743	2613.288783
522.080690	2615.401027
522.443580	2616.106788
522.806413	2616.560492
523.169189	2615.426233
523.531908	2613.218207
523.894569	2614.949844
524.257174	2613.308948
524.619722	2612.497322
524.982213	2613.722323
525.344647	2614.022271
525.707025	2612.162086
526.069345	2611.017744
526.431608	2614.917076
526.793815	2613.624020
527.155964	2612.252826
527.518057	2611.935234
527.880093	2615.950513
528.242072	2613.555965
528.603995	2613.616458
528.965860	2613.175357
529.327669	2613.182919
529.689421	2611.650408
530.051117	2612.232662
530.412755	2612.318361
530.774337	2611.569750
531.135862	2612.109153
531.497331	2611.514297
531.858743	2608.078751
532.220098	2609.956581
532.581396	2606.982300
532.942638	2607.448607
533.303824	2606.531117
533.664953	2609.162599
534.026025	2611.844493
534.387040	2612.187291
534.747999	2610.687548
535.108902	2611.574791
535.469748	2611.234513
535.830537	2610.090171
536.191270	2610.942126
536.551947	2609.545727
536.912567	2608.839965
537.273131	2606.659666
537.633638	2608.787033
537.994089	2607.370469
538.354483	2610.080089
538.714821	2609.276025
539.075103	2609.253340
539.435328	2607.337701
539.795497	2608.083792
540.155609	2610.284256
540.515665	2608.661004
540.875665	2609.023967
541.235609	2606.909203
541.595496	2609.782661
541.955328	2609.996910
542.315102	2609.674276
542.674821	2606.904162
543.034483	2607.771241
543.394090	2606.004316
543.753640	2609.066817
544.113134	2608.275356
544.472571	2606.180757
544.831953	2607.541868
545.191278	2609.797784
545.550548	2606.243771
545.909761	2607.877105
546.268918	2604.721343
546.628019	2610.692589
546.987064	2607.478854
547.346053	2606.498349
547.704986	2608.406426
548.063863	2608.235027
548.422684	2608.608072
548.781449	2607.211672
549.140158	2606.097577
549.498811	2608.471961
549.857408	2609.684358
550.215949	2603.798811
550.574434	2601.825200
550.932864	2603.758482
551.291237	2603.009871
551.649555	2606.447938
552.007817	2605.928699
552.366022	2606.221086
552.724173	2607.564553
553.082267	2608.237547
553.440305	2607.277207
553.798288	2606.314347
554.156215	2608.822321
554.514086	2610.291817
554.871902	2608.923144
555.229661	2606.223606
555.587365	2609.076899
555.945014	2610.057404
556.302606	2606.188318
556.660143	2607.975407
557.017625	2607.405757
557.375050	2607.864502
557.732421	2609.863319
558.089735	2607.546909
558.446994	2607.685541
558.804197	2607.347784
559.161345	2607.680500
559.518437	2609.442383
559.875474	2608.991200
560.232455	2607.819132
560.589381	2608.320726
560.946251	2611.312651
561.303065	2611.617641
561.659825	2609.886005
562.016528	2605.888370
562.373177	2605.691765
562.729770	2606.203442
563.086307	2610.639657
563.442789	2605.621188
563.799216	2607.884667
564.155587	2606.059769
564.511904	2608.789554
564.868164	2608.817280
565.224370	2611.637806
565.580520	2610.241406
565.936615	2609.447424
566.292654	2606.798298
566.648638	2607.057917
567.004567	2610.513628
567.360441	2607.529265
567.716260	2608.630757
568.072023	2609.011364
568.427732	2603.672782
568.783385	2607.035232
569.138982	2604.025663
569.494525	2603.355190
569.850013	2603.513986
570.205445	2609.354163
570.560823	2608.537496
570.916145	2607.534306
571.271412	2607.098247
571.626625	2609.500356
571.981782	2607.695623
572.336884	2609.384410
572.691931	2607.773761
573.046923	2607.756117
573.401860	2605.449789
573.756743	2606.846189
574.111570	2608.822321
574.466342	2609.888525
574.821059	2609.081941
575.175722	2605.676641
575.530330	2606.659666
575.884882	2608.287959
576.239380	2603.211517
576.593823	2608.441714
576.948211	2607.355345
577.302544	2606.820983
577.656823	2609.717126
578.011047	2605.681682
578.365216	2607.385592
578.719330	2606.027001
579.073389	2606.707557
579.427394	2603.211517
579.781344	2605.903493
580.135239	2605.482557
580.489080	2604.721342
580.842866	2603.423245
581.196597	2604.333174
581.550273	2611.126128
581.903895	2603.491301
582.257463	2606.672269
582.610975	2605.593462
582.964434	2606.367279
583.317837	2605.361569
583.671186	2606.551281
584.024481	2603.624892
584.377721	2604.449120
584.730906	2604.295365
585.084037	2605.172526
585.437113	2606.513473
585.790135	2607.436004
586.143103	2604.895262
586.496016	2604.678493
586.848874	2604.156733
587.201679	2602.656990
587.554428	2604.040787
587.907124	2598.997112
588.259765	2602.170519
588.612352	2605.686723
588.964884	2605.001127
589.317362	2605.916096
589.669786	2605.190170
590.022155	2605.858123
590.374470	2603.692947
590.726731	2605.502721
591.078937	2604.643205
591.431090	2605.540530
591.783188	2604.940633
592.135232	2602.757813
592.487222	2603.945005
592.839157	2604.411312
593.191038	2602.609099
593.542866	2601.013574
593.894639	2602.430138
594.246358	2605.273349
594.598022	2603.980293
594.949633	2601.779829
595.301190	2602.593976
595.652692	2602.785539
596.004141	2601.474839
596.355535	2602.362083
596.706876	2602.944336
597.058162	2602.606578
597.409395	2600.965683
597.760573	2603.211517
598.111698	2602.223451
598.462768	2603.196393
598.813785	2603.166147
599.164748	2602.972062
599.515657	2602.246136
599.866511	2603.211517
600.217312	2601.051383
600.568060	2599.289499
600.918753	2603.108173
601.269392	2603.521548
601.619978	2601.744541
601.970510	2601.580704
602.320988	2601.368975
602.671412	2603.115735
603.021783	2600.138934
603.372100	2599.496187
603.722363	2603.183791
604.072572	2600.882504
604.422728	2601.656321
604.772830	2594.886051
605.122878	2597.167173
605.472872	2596.627770
605.822813	2595.659868
606.172701	2599.211361
606.522534	2598.629108
606.872314	2601.404263
607.222041	2599.670106
607.571714	2601.865529
607.921333	2599.793615
608.270899	2602.291506
608.620411	2602.503235
608.969870	2600.514500
609.319276	2597.429313
609.668627	2602.374685
610.017926	2599.007195
610.367171	2600.690940
610.716362	2602.107504
611.065500	2603.985334
611.414585	2601.928543
611.763616	2602.926692
612.112594	2600.370827
612.461518	2600.726228
612.810389	2600.776640
613.159207	2597.693974
613.507971	2601.570621
613.856682	2600.436362
614.205340	2601.426948
614.553945	2602.790581
614.902496	2601.174891
615.250994	2601.552977
615.599439	2603.350149
615.947830	2600.428800
616.296169	2600.905189
616.644454	2602.974583
616.992686	2597.734303
617.340864	2602.427617
617.688990	2600.862339
618.037063	2604.688575
618.385082	2603.216558
618.733048	2602.089860
619.080961	2599.634818
619.428821	2600.204469
619.776628	2601.386619
620.124382	2602.472988
620.472083	2600.985847
620.819731	2602.863677
621.167326	2600.542226
621.514868	2602.009202
621.862357	2601.883173
622.209793	2602.717484
622.557176	2600.582555
622.904506	2595.347317
623.251783	2598.523244
623.599007	2596.118613
623.946179	2594.906216
624.293297	2597.053747
624.640363	2599.584407
624.987376	2600.343100
625.334336	2599.748244
625.681243	2597.487287
626.028097	2597.436875
626.374899	2598.737493
626.721647	2599.004674
627.068343	2598.435024
627.414987	2600.164139
627.761577	2597.394025
628.108115	2597.777153
628.454600	2600.600199
628.801032	2596.844540
629.147412	2596.844540
629.493739	2596.993254
629.840014	2599.362596
630.186236	2597.111721
630.532405	2597.567945
630.878521	2595.443099
631.224585	2596.554673
631.570597	2598.132554
631.916556	2598.470312
632.262462	2597.129365
632.608316	2596.670620
632.954117	2596.620208
633.299866	2596.411000
633.645562	2598.858481
633.991206	2595.697677
634.336797	2595.009560
634.682336	2595.070053
635.027823	2592.831781
635.373257	2595.440578
635.718639	2596.267327
636.063968	2597.134406
636.409245	2595.564087
636.754470	2592.640217
637.099642	2595.415372
637.444762	2594.084508
637.789829	2594.293716
638.134845	2594.596185
638.479808	2593.172059
638.824719	2593.736668
639.169577	2591.032089
639.514383	2594.271031
639.859137	2593.396390
640.203839	2594.298757
640.548489	2592.741040
640.893086	2591.135433
641.237632	2589.746595
641.582125	2588.965216
641.926566	2589.136615
642.270955	2592.380598
642.615292	2592.289857
642.959576	2593.645927
643.303809	2591.745412
643.647990	2588.806420
643.992118	2593.550146
644.336195	2592.481421
644.680219	2591.737851
645.024192	2590.701894
645.368112	2594.263469
645.711981	2594.437389
646.055797	2591.440423
646.399562	2591.795824
646.743274	2591.027048
647.086935	2592.231884
647.430544	2596.307657
647.774101	2594.147522
648.117606	2594.870928
648.461059	2594.659199
648.804460	2597.515013
649.147810	2593.361102
649.491108	2592.178952
649.834354	2594.654158
650.177548	2593.524940
650.520690	2593.650969
650.863781	2594.691967
651.206820	2593.376226
651.549807	2590.996801
651.892742	2588.975298
652.235626	2591.352202
652.578458	2590.805237
652.921238	2589.124013
653.263967	2591.916812
653.606644	2589.360947
653.949269	2588.932449
654.291843	2592.632656
654.634365	2589.953282
654.976836	2591.042172
655.319255	2591.450505
655.661622	2588.065370
656.003938	2591.349682
656.346203	2591.148036
656.688416	2587.495720
657.030577	2589.116451
657.372687	2589.018148
657.714746	2588.604774
658.056753	2592.277254
658.398708	2586.205184
658.740612	2586.714341
659.082465	2587.646954
659.424266	2586.021182
659.766016	2584.970102
660.107715	2593.260279
660.449362	2587.793148
660.790958	2588.153590
661.132503	2590.858169
661.473996	2591.072418
661.815438	2587.936821
662.156829	2591.861359
662.498168	2588.902202
662.839456	2589.275247
663.180693	2589.723910
663.521879	2589.892788
663.863013	2586.454722
664.204097	2591.168200
664.545129	2588.561924
664.886110	2592.027717
665.227040	2588.163673
665.567918	2589.181986
665.908746	2591.652151
666.249522	2591.904209
666.590248	2591.211050
666.930922	2588.715679
667.271545	2588.017479
667.612118	2591.997470
667.952639	2590.802717
668.293109	2591.584096
668.633528	2588.816502
668.973896	2587.994794
669.314213	2587.921697
669.654480	2589.252562
669.994695	2589.214753
670.334859	2589.628128
670.674973	2588.889599
671.015035	2588.146029
671.355047	2586.890781
671.695008	2588.932449
672.034918	2585.532190
672.374777	2591.493355
672.714585	2590.306163
673.054342	2592.317583
673.394049	2589.754157
673.733705	2590.780032
674.073310	2587.793148
674.412864	2587.243662
674.752368	2586.142170
675.091820	2589.504620
675.431223	2588.294743
675.770574	2586.452201
676.109875	2586.157293
676.449125	2586.182499
676.788324	2584.985225
677.127473	2588.382963
677.466571	2584.090420
677.805619	2588.761049
678.144616	2587.362129
678.483562	2586.777355
678.822458	2587.649475
679.161303	2590.107037
679.500098	2585.176789
679.838842	2589.297932
680.177535	2585.454052
680.516179	2588.834146
680.854771	2590.573344
681.193314	2589.655854
681.531805	2588.861872
681.870247	2588.471183
682.208638	2588.304825
682.546978	2593.852615
682.885268	2589.562593
683.223508	2588.927407
683.561697	2591.979826
683.899836	2588.813982
684.237925	2586.711820
684.575963	2590.268354
684.913951	2589.318097
685.251889	2590.437233
685.589776	2589.653334
685.927614	2590.492686
686.265401	2589.023189
686.603137	2589.678539
686.940824	2587.929259
687.278460	2589.867583
687.616046	2590.432192
687.953582	2589.784404
688.291068	2590.820361
688.628504	2587.712489
688.965889	2590.359095
689.303224	2590.139805
689.640510	2589.998653
689.977745	2590.835484
690.314930	2586.724423
690.652065	2589.572675
690.989150	2587.601584
691.326185	2588.766091
691.663170	2587.783066
692.000105	2589.093766
692.336990	2586.646285
692.673825	2587.972109
693.010610	2587.084866
693.347345	2583.913980
693.684030	2582.973805
694.020665	2581.025399
694.357251	2581.521952
694.693786	2582.923393
695.030272	2584.627303
695.366707	2583.011613
695.703093	2584.181161
696.039429	2584.274422
696.375716	2584.196285
696.711952	2582.754515
697.048139	2583.392221
697.384276	2582.999011
697.720363	2581.128742
698.056400	2582.993969
698.392388	2582.701583
698.728326	2584.241655
699.064214	2583.288877
699.400053	2582.557910
699.735842	2580.891808
700.071581	2583.971953
700.407270	2580.352405
700.742910	2580.727971
701.078501	2584.642427
701.414042	2584.619742
701.749533	2580.599421
702.084974	2583.183013
702.420366	2582.620924
702.755709	2583.326686
703.091002	2581.743763
703.426246	2578.711509
703.761440	2581.993300
704.096584	2581.801737
704.431679	2580.410378
704.766725	2581.269895
705.101721	2579.984401
705.436668	2581.615214
705.771565	2582.396593
706.106413	2579.984401
706.441212	2578.789647
706.775961	2583.946747
707.110661	2579.949112
707.445311	2580.962384
707.779913	2580.851479
708.114465	2581.698393
708.448967	2583.228383
708.783421	2585.181830
709.117825	2581.718558
709.452180	2582.439442
709.786485	2580.992631
710.120742	2586.071594
710.454949	2582.247879
710.789107	2579.031622
711.123216	2578.799729
711.457275	2577.398289
711.791286	2581.267374
712.125247	2581.774010
712.459159	2583.538414
712.793023	2582.310893
713.126837	2583.427509
713.460602	2583.969433
713.794318	2585.620411
714.127985	2584.380287
714.461602	2582.522622
714.795171	2585.597725
715.128691	2580.738053
715.462162	2583.999680
715.795584	2582.504977
716.128957	2582.961202
716.462281	2581.574885
716.795556	2582.479772
717.128782	2582.865420
717.461960	2580.785944
717.795088	2581.529514
718.128167	2581.322827
718.461198	2577.534400
718.794180	2582.436922
719.127113	2580.604463
719.459997	2581.766448
719.792833	2579.049267
720.125619	2579.387024
720.458357	2580.929617
720.791046	2578.789647
721.123686	2579.888619
721.456278	2581.232086
721.788821	2580.647312
722.121315	2575.744790
722.453761	2578.714030
722.786158	2578.892991
723.118506	2578.683783
723.450805	2579.618917
723.783056	2577.158834
724.115259	2578.726633
724.447412	2577.426015
724.779518	2580.332240
725.111574	2577.826787
725.443582	2578.262847
725.775542	2579.034143
726.107453	2578.953485
726.439315	2579.001376
726.771129	2580.054977
727.102895	2580.128073
727.434612	2581.738722
727.766281	2577.703278
728.097901	2577.604976
728.429473	2578.900552
728.760996	2577.854513
729.092471	2573.163719
729.423897	2580.183526
729.755276	2578.673701
730.086606	2581.383321
730.417887	2579.190419
730.749120	2579.525656
731.080305	2580.843917
731.411442	2578.824935
731.742530	2581.358115
732.073570	2581.491706
732.404562	2584.108064
732.735506	2581.897518
733.066401	2581.965574
733.397249	2581.547158
733.728048	2580.937179
734.058798	2579.197981
734.389501	2580.561613
734.720156	2579.074472
735.050762	2578.472054
735.381320	2577.181519
735.711831	2578.761921
736.042293	2579.553382
736.372707	2576.493402
736.703073	2576.571539
737.033391	2578.734194
737.363661	2577.972980
737.693883	2580.601942
738.024056	2582.381469
738.354182	2579.896180
738.684260	2579.535738
739.014290	2577.277301
739.344272	2577.105902
739.674207	2576.952147
740.004093	2583.142683
740.333931	2578.877867
740.663722	2579.679411
740.993464	2580.004565
741.323159	2579.729822
741.652806	2579.424833
741.982405	2582.373908
742.311956	2577.612538
742.641460	2581.239648
742.970915	2579.402147
743.300323	2578.003227
743.629683	2576.158165
743.958996	2575.936354
744.288260	2579.807960
744.617477	2575.981724
744.946647	2576.006930
745.275768	2576.415264
745.604842	2573.602300
745.933869	2574.025757
746.262847	2573.244378
746.591778	2574.197156
746.920662	2577.463824
747.249498	2577.307548
747.578286	2576.994996
747.907027	2577.617579
748.235720	2576.571539
748.564365	2579.099678
748.892963	2577.383165
749.221514	2579.024061
749.550017	2574.471899
749.878473	2577.904925
750.206881	2578.093968
750.535242	2577.110943
750.863555	2576.916858
751.191821	2578.693865
751.520039	2577.788978
751.848210	2576.735377
752.176334	2575.107084
752.504411	2577.915007
752.832440	2575.374265
753.160421	2578.131777
753.488356	2575.167578
753.816243	2576.226220
754.144082	2574.688668
754.471875	2578.514904
754.799620	2578.595563
755.127318	2572.720098
755.454969	2576.826118
755.782572	2579.308886
756.110129	2577.317630
756.437638	2575.795202
756.765100	2574.295458
757.092515	2575.835531
757.419882	2574.877712
757.747203	2577.731005
758.074477	2575.742270
758.401703	2575.918710
758.728882	2574.257650
759.056014	2576.952147
759.383099	2578.033474
759.710138	2579.225707
760.037129	2577.063052
760.364073	2577.305027
760.690970	2577.531879
761.017820	2580.233938
761.344623	2578.852662
761.671379	2579.472723
761.998088	2574.562640
762.324751	2575.795202
762.651366	2576.029615
762.977935	2581.849627
763.304456	2584.801223
763.630931	2585.343147
763.957359	2587.445308
764.283740	2585.098651
764.610074	2584.786100
764.936362	2585.958168
765.262602	2581.758887
765.588796	2578.023392
765.914943	2577.909966
766.241044	2580.072621
766.567097	2576.339646
766.893104	2576.087589
767.219064	2577.441138
767.544978	2574.176991
767.870845	2571.815211
768.196665	2578.277970
768.522438	2575.394430
768.848165	2572.581466
769.173846	2574.991138
769.499479	2575.160016
769.825066	2573.519121
770.150607	2572.266394
770.476101	2575.361662
770.801548	2576.299317
771.126949	2572.944429
771.452303	2573.498956
771.777611	2574.333267
772.102872	2571.139696
772.428087	2571.177505
772.753256	2574.005592
773.078378	2571.565674
773.403453	2576.395099
773.728482	2572.692372
774.053465	2572.664645
774.378401	2571.447207
774.703291	2571.089285
775.028135	2569.846640
775.352932	2572.531055
775.677683	2571.827814
776.002388	2573.272104
776.327046	2572.894018
776.651658	2570.920406
776.976224	2569.818914
777.300743	2572.357135
777.625216	2568.694737
777.949643	2570.965776
778.274024	2572.800756
778.598359	2569.241702
778.922647	2567.923440
779.246889	2570.973338
779.571086	2567.799932
779.895236	2566.874880
780.219339	2569.438307
780.543397	2574.360993
780.867409	2569.574418
781.191374	2570.741445
781.515294	2569.992834
781.839167	2573.488874
782.162995	2571.779923
782.486776	2574.905438
782.810511	2570.824624
783.134201	2572.452917
783.457844	2571.790005
783.781441	2570.912844
784.104993	2572.485684
784.428498	2572.009295
784.751958	2569.080385
785.075372	2571.011147
785.398739	2571.180025
785.722061	2571.026270
786.045337	2572.805797
786.368568	2573.375448
786.691752	2572.284038
787.014891	2570.060889
787.337983	2571.923596
787.661030	2572.629357
787.984031	2574.968452
788.306987	2574.938206
788.629897	2573.052814
788.952760	2572.936867
789.275579	2575.439800
789.598351	2574.897876
789.921078	2572.039542
790.243759	2571.847978
790.566395	2572.112639
790.888984	2572.730180
791.211529	2574.504666
791.534027	2569.130796
791.856480	2571.742114
792.178888	2570.819583
792.501249	2570.784295
792.823566	2571.482495
793.145836	2572.571384
793.468062	2572.815880
793.790241	2570.128945
794.112375	2570.633060
794.434464	2573.468709
794.756507	2575.054152
795.078505	2572.175653
795.400457	2569.944943
795.722364	2569.546692
796.044226	2568.039387
796.366042	2569.463512
796.687812	2570.403688
797.009538	2571.583318
797.331218	2571.243040
797.652852	2570.219686
797.974442	2573.972825
798.295986	2572.152968
798.617484	2572.831003
798.938938	2570.252453
799.260346	2572.626837
799.581709	2571.608523
799.903026	2571.631209
800.224299	2570.244891
800.545526	2573.287228
800.866708	2568.026784
801.187845	2571.253122
801.508936	2570.053327
801.829983	2571.336301
802.150984	2570.307906
802.471940	2568.019222
802.792851	2571.424521
803.113717	2569.564336
803.434538	2568.712381
803.755314	2570.922927
804.076045	2570.504511
804.396731	2571.306054
804.717372	2570.068451
805.037967	2568.609037
805.358518	2570.794377
805.679024	2569.748338
805.999485	2570.373441
806.319901	2571.195149
806.640272	2570.441496
806.960598	2571.742114
807.280879	2569.902093
807.601115	2570.484346
807.921306	2572.924265
808.241453	2568.609037
808.561554	2568.067113
808.881611	2569.745817
809.201623	2569.619788
809.521590	2570.678431
809.841513	2572.094995
810.161390	2571.898390
810.481223	2573.884604
810.801011	2570.985941
811.120755	2572.820921
811.440453	2572.372258
811.760107	2571.757237
812.079716	2570.731363
812.399281	2565.163408
812.718801	2568.571228
813.038276	2567.353790
813.357707	2568.021742
813.677093	2568.661969
813.996434	2571.555591
814.315731	2569.695406
814.634983	2570.764130
814.954191	2569.680282
815.273354	2570.113821
815.592473	2569.589541
815.911547	2568.198183
816.230577	2569.524006
816.549562	2571.714388
816.868502	2568.684654
817.187399	2567.585683
817.506250	2570.585169
817.825058	2572.495767
818.143821	2571.890828
818.462539	2571.623647
818.781213	2574.129100
819.099843	2572.583987
819.418429	2572.702454
819.736970	2575.177660
820.055466	2576.085068
820.373919	2575.233113
820.692327	2577.224369
821.010691	2581.824422
821.329011	2587.725092
821.647286	2602.052052
821.965517	2615.597632
822.283704	2627.872842
822.601847	2636.493215
822.919945	2629.601957
823.237999	2626.330248
823.556010	2618.266923
823.873976	2613.462703
824.191897	2607.841817
824.509775	2600.121290
824.827609	2597.540219
825.145398	2593.109045
825.463144	2591.001842
825.780845	2590.946390
826.098502	2590.807758
826.416116	2591.072418
826.733685	2596.562235
827.051210	2597.996443
827.368692	2594.944025
827.686129	2593.477049
828.003522	2590.464959
828.320872	2580.722930
828.638177	2581.665625
828.955439	2579.460121
829.272656	2578.802250
829.589830	2575.192784
829.906960	2577.209245
830.224046	2576.110274
830.541088	2574.797053
830.858086	2574.620613
831.175041	2571.984089
831.491952	2571.026270
831.808819	2574.550037
832.125642	2570.184398
832.442421	2571.936198
832.759157	2577.274780
833.075849	2575.255798
833.392497	2581.837025
833.709101	2581.776531
834.025662	2579.825604
834.342179	2582.870461
834.658653	2582.809967
834.975083	2578.852662
835.291469	2582.547827
835.607811	2574.809656
835.924110	2574.678586
836.240366	2572.107598
836.556578	2570.181877
836.872746	2571.409398
837.188871	2572.258832
837.504952	2569.715570
837.820990	2568.596434
838.136984	2566.993347
838.452935	2568.992165
838.768842	2568.573749
839.084706	2571.477453
839.400526	2572.659604
839.716303	2572.745304
840.032037	2574.098853
840.347727	2570.862433
840.663373	2572.742783
840.978977	2570.648184
841.294537	2571.301013
841.610054	2570.509552
841.925527	2567.338666
842.240957	2568.669531
842.556344	2571.638770
842.871687	2571.230437
843.186987	2570.570046
843.502244	2567.237843
843.817458	2568.611557
844.132629	2566.769016
844.447756	2572.372258
844.762840	2564.747513
845.077881	2562.224416
845.392879	2565.274314
845.707833	2562.234498
846.022745	2563.338511
846.337613	2566.847154
846.652438	2565.339849
846.967221	2567.343707
847.281960	2565.722976
847.596656	2566.050651
847.911309	2568.339335
848.225919	2567.817576
848.540485	2564.833213
848.855009	2566.161557
849.169490	2567.424366
849.483928	2565.629715
849.798323	2568.205745
850.112675	2567.499983
850.426984	2566.970662
850.741251	2566.852195
851.055474	2567.661300
851.369654	2566.559808
851.683792	2563.242729
851.997887	2567.290775
852.311938	2568.790518
852.625947	2567.134499
852.939914	2566.592575
853.253837	2571.427042
853.567718	2563.598130
853.881555	2565.365054
854.195350	2567.106773
854.509103	2568.573749
854.822812	2565.647359
855.136479	2568.540981
855.450103	2568.001578
855.763685	2566.436300
856.077224	2565.347410
856.390720	2565.085270
856.704173	2567.371434
857.017584	2567.615930
857.330953	2566.350600
857.644278	2568.722463
857.957561	2568.694737
858.270802	2566.267421
858.584000	2566.582493
858.897155	2567.245405
859.210268	2567.013512
859.523339	2567.540312
859.836367	2567.784808
860.149352	2566.985785
860.462295	2568.858574
860.775195	2562.310115
861.088054	2563.547718
861.400869	2561.314487
861.713642	2561.450598
862.026373	2563.530074
862.339062	2566.418656
862.651708	2567.810014
862.964312	2565.410425
863.276873	2567.830179
863.589392	2564.699622
863.901869	2565.276834
864.214303	2565.448233
864.526696	2566.143913
864.839045	2570.539799
865.151353	2567.522668
865.463619	2563.600651
865.775842	2567.124417
866.088023	2566.562328
866.400162	2567.384037
866.712258	2565.609550
867.024313	2568.979562
867.336325	2565.722976
867.648296	2566.315312
867.960224	2565.690209
868.272110	2568.243553
868.583954	2565.697771
868.895755	2567.739438
869.207515	2566.640466
869.519233	2568.026784
869.830909	2567.691547
870.142542	2568.336815
870.454134	2566.557287
870.765684	2568.425035
871.077191	2568.248594
871.388657	2567.452092
871.700081	2565.448233
872.011463	2566.090981
872.322803	2567.220199
872.634101	2566.494273
872.945357	2565.324725
873.256571	2566.816907
873.567744	2567.754561
873.878874	2566.262380
874.189963	2567.512586
874.501010	2568.024263
874.812015	2569.660118
875.122979	2571.427042
875.433900	2569.760941
875.744780	2569.322360
876.055618	2568.094839
876.366415	2568.946794
876.677169	2569.806311
876.987882	2564.558470
877.298554	2563.439334
877.609183	2565.097873
877.919771	2563.756926
878.230317	2566.907647
878.540822	2566.897565
878.851285	2567.893193
879.161707	2570.933009
879.472087	2572.165571
879.782425	2573.735890
880.092722	2575.853175
880.402977	2579.876016
880.713191	2585.028075
881.023363	2593.310691
881.333494	2596.015270
881.643583	2597.267997
881.953631	2601.288317
882.263637	2600.017946
882.573602	2597.444437
882.883526	2594.278592
883.193408	2593.318252
883.503248	2592.070567
883.813048	2588.251893
884.122806	2585.277612
884.432522	2584.700400
884.742197	2583.283836
885.051831	2578.071283
885.361424	2579.180337
885.670975	2577.257136
885.980485	2575.855696
886.289954	2571.487536
886.599382	2572.410067
886.908768	2572.526013
887.218113	2570.396126
887.527417	2568.407391
887.836680	2569.032494
888.145901	2570.698595
888.455082	2567.852864
888.764221	2568.873697
889.073319	2568.926630
889.382376	2570.151630
889.691392	2567.245405
890.000366	2569.839078
890.309300	2569.032494
890.618193	2568.908986
890.927044	2566.673234
891.235855	2567.328584
891.544625	2569.221537
891.853353	2566.806824
892.162041	2568.084757
892.470687	2570.023081
892.779293	2566.887483
893.087858	2565.639797
893.396381	2567.769685
893.704864	2567.467216
894.013306	2570.038204
894.321707	2574.169430
894.630068	2575.036508
894.938387	2575.192784
895.246665	2576.901735
895.554903	2577.549523
895.863100	2575.311251
896.171256	2574.759245
896.479371	2575.333936
896.787446	2572.652042
897.095480	2571.537947
897.403473	2571.089285
897.711425	2572.284038
898.019336	2571.195149
898.327207	2570.993503
898.635038	2569.655076
898.942827	2568.558625
899.250576	2569.203893
899.558284	2570.171795
899.865952	2569.294634
900.173579	2568.215827
900.481165	2568.109963
900.788711	2567.900755
901.096216	2568.989644
901.403681	2566.837071
901.711105	2565.934705
902.018489	2568.951835
902.325832	2571.752196
902.633135	2568.409911
902.940397	2568.301527
903.247619	2566.297668
903.554800	2572.221024
903.861941	2574.991138
904.169041	2575.071796
904.476101	2579.291242
904.783121	2580.017168
905.090100	2577.637743
905.397039	2575.654049
905.703938	2574.965932
906.010796	2575.868298
906.317614	2574.343349
906.624391	2571.613565
906.931129	2571.684141
907.237826	2571.311095
907.544483	2572.498287
907.851099	2567.477298
908.157675	2565.017215
908.464211	2564.797925
908.770707	2563.464539
909.077163	2561.727862
909.383578	2561.329611
909.689954	2564.596278
909.996289	2563.280537
910.302584	2568.266238
910.608839	2566.718604
910.915054	2565.037379
911.221229	2565.319684
911.527363	2564.510579
911.833458	2567.237843
912.139513	2567.129458
912.445527	2567.016032
912.751502	2566.698440
913.057436	2564.702143
913.363331	2567.384037
913.669186	2567.242884
913.975000	2566.988306
914.280775	2567.381516
914.586510	2569.095508
914.892205	2572.110118
915.197859	2573.738411
915.503475	2573.539285
915.809050	2576.737897
916.114585	2578.867785
916.420081	2579.939030
916.725536	2578.953485
917.030952	2579.886098
917.336328	2576.750500
917.641665	2577.645305
917.946961	2576.138000
918.252218	2573.987948
918.557435	2575.124728
918.862612	2576.871488
919.167750	2573.690520
919.472848	2573.831672
919.777906	2572.780592
920.082925	2569.990313
920.387904	2568.815724
920.692843	2569.443348
920.997743	2568.041907
921.302603	2566.368244
921.607423	2569.758420
921.912204	2567.046279
922.216946	2567.623491
922.521647	2566.138872
922.826310	2563.671227
923.130932	2565.753223
923.435516	2564.845816
923.740059	2568.603996
924.044564	2565.107956
924.349028	2566.579972
924.653454	2563.005794
924.957840	2562.458829
925.262186	2562.776422
925.566493	2563.267934
925.870761	2561.042265
926.174989	2564.266083
926.479178	2565.536454
926.783328	2563.386402
927.087438	2563.698953
927.391509	2564.797925
927.695541	2563.978737
927.999533	2564.094684
928.303486	2563.550239
928.607400	2563.217523
928.911275	2561.833726
929.215110	2565.170970
929.518906	2565.188614
929.822663	2563.088973
930.126381	2562.128634
930.430060	2563.479663
930.733699	2564.661813
931.037299	2562.171483
931.340861	2564.145095
931.644383	2563.736762
931.947866	2560.112172
932.251309	2563.895558
932.554714	2564.913871
932.858080	2563.898079
933.161407	2561.006977
933.464694	2563.819941
933.767943	2562.098387
934.071153	2565.465877
934.374323	2562.294992
934.677455	2563.625856
934.980548	2562.789025
935.283602	2562.363047
935.586617	2562.627708
935.889593	2563.802297
936.192530	2563.971175
936.495428	2563.537636
936.798287	2563.978737
937.101108	2562.368088
937.403890	2566.723645
937.706632	2563.570404
938.009336	2562.110990
938.312002	2565.622153
938.614628	2565.440672
938.917216	2563.595609
939.219765	2563.988819
939.522275	2563.673747
939.824747	2564.162739
940.127179	2562.237018
940.429573	2559.252655
940.731929	2563.061247
941.034246	2559.769374
941.336524	2561.133006
941.638763	2563.754406
941.940964	2562.622667
942.243126	2561.400187
942.545250	2564.167780
942.847335	2563.456978
943.149381	2563.020918
943.451389	2565.463357
943.753359	2564.843295
944.055290	2566.653069
944.357182	2565.392781
944.659036	2564.192986
944.960851	2562.874724
945.262628	2563.451937
945.564367	2563.872873
945.866067	2561.919426
946.167729	2565.158367
946.469352	2563.731721
946.770937	2561.957234
947.072484	2562.867163
947.373992	2563.031000
947.675462	2562.910012
947.976893	2563.154508
948.278286	2562.587379
948.579641	2562.705846
948.880958	2564.369427
949.182236	2563.749365
949.483476	2563.071329
949.784678	2563.162070
950.085841	2562.221895
950.386967	2565.307081
950.688054	2562.965465
950.989103	2565.523851
951.290114	2563.961093
951.591087	2564.780281
951.892021	2564.530743
952.192917	2564.034190
952.493776	2564.508058
952.794596	2564.624005
953.095378	2562.786504
953.396122	2562.955383
953.696828	2564.926474
953.997496	2564.646690
954.298126	2563.184755
954.598718	2563.416648
954.899272	2562.252142
955.199788	2561.130485
955.500266	2564.056875
955.800706	2558.499003
956.101108	2559.774415
956.401472	2560.994374
956.701798	2558.395659
957.002087	2559.844991
957.302337	2565.463357
957.602550	2560.538150
957.902724	2561.092677
958.202861	2563.250290
958.502960	2559.383725
958.803022	2560.611246
959.103045	2561.657286
959.403031	2561.831206
959.702979	2563.131823
960.002889	2562.599982
960.302762	2560.351627
960.602596	2563.784653
960.902393	2561.851370
961.202153	2564.210630
961.501875	2561.818603
961.801559	2563.540157
962.101205	2562.957903
962.400814	2562.022769
962.700385	2563.351113
962.999918	2561.281720
963.299414	2561.362378
963.598873	2561.692574
963.898293	2561.639642
964.197677	2561.319528
964.497022	2562.138716
964.796331	2562.872204
965.095601	2564.132492
965.394835	2564.366906
965.694030	2561.092677
965.993189	2563.887996
966.292309	2562.922615
966.591393	2561.274158
966.890439	2557.889023
967.189447	2561.921946
967.488419	2559.235011
967.787353	2561.755588
968.086249	2560.276010
968.385108	2562.796587
968.683930	2562.078222
968.982714	2561.337172
969.281462	2560.908674
969.580172	2561.175856
969.878844	2562.846998
970.177480	2563.381360
970.476078	2562.887327
970.774639	2565.037379
971.073162	2561.594271
971.371649	2558.554456
971.670098	2559.030845
971.968510	2560.034034
972.266885	2559.313149
972.565223	2560.197872
972.863524	2560.323901
973.161788	2560.553273
973.460014	2559.857594
973.758204	2563.146947
974.056356	2560.767522
974.354471	2562.443706
974.652550	2563.061247
974.950591	2562.723490
975.248595	2559.040927
975.546563	2563.666186
975.844493	2560.913716
976.142386	2560.765002
976.440243	2562.345403
976.738062	2561.861453
977.035845	2560.480176
977.333590	2560.001267
977.631299	2562.567214
977.928971	2563.509910
978.226606	2563.383881
978.524204	2561.095197
978.821765	2562.289951
979.119290	2562.456309
979.416777	2560.666699
979.714228	2561.823644
980.011642	2563.514951
980.309020	2566.179201
980.606360	2559.537481
980.903664	2560.013870
981.200931	2562.176525
981.498162	2558.985474
981.795356	2562.579817
982.092513	2564.782801
982.389633	2560.966648
982.686717	2564.177863
982.983764	2562.973027
983.280775	2563.245249
983.577749	2562.481514
983.874686	2565.584345
984.171587	2564.036710
984.468451	2562.670558
984.765279	2563.462019
985.062070	2561.057388
985.358824	2563.199879
985.655543	2563.507389
985.952224	2562.635270
986.248869	2562.476473
986.545478	2557.921791
986.842050	2561.069991
987.138586	2556.573282
987.435086	2559.154353
987.731549	2556.646379
988.027975	2561.569066
988.324366	2559.464384
988.620719	2559.973540
988.917037	2559.192162
989.213318	2561.843808
989.509563	2560.457491
989.805772	2562.736093
990.101944	2560.646534
990.398080	2560.482697
990.694180	2563.431772
990.990244	2561.488407
991.286271	2562.574776
991.582262	2560.724672
991.878217	2560.593602
992.174136	2565.165929
992.470019	2560.704508
992.765865	2562.562173
993.061676	2558.093190
993.357450	2563.414128
993.653188	2563.366237
993.948890	2560.838098
994.244556	2558.756102
994.540186	2564.530743
994.835780	2558.917419
995.131337	2561.511092
995.426859	2559.739127
995.722345	2562.131154
996.017795	2560.553273
996.313208	2560.553273
996.608586	2560.560835
996.903928	2560.623849
997.199234	2562.816751
997.494504	2561.541339
997.789738	2559.887841
998.084936	2561.889179
998.380099	2563.000753
998.675225	2560.553273
998.970316	2563.724159
999.265371	2561.473284
999.560390	2561.274158
999.855373	2560.525547
1000.150320	2559.476987
1000.445232	2563.197358
1000.740108	2562.892368
1001.034948	2562.962945
1001.329752	2561.107800
1001.624521	2560.248283
1001.919254	2558.125957
1002.213951	2556.860628
1002.508613	2557.437840
1002.803239	2560.339024
1003.097829	2556.427089
1003.392384	2559.998746
1003.686903	2558.360371
1003.981386	2560.802810
1004.275834	2560.170145
1004.570246	2560.351627
1004.864623	2559.678633
1005.158964	2562.715928
1005.453270	2560.356668
1005.747540	2559.978582
1006.041775	2558.163766
1006.335974	2560.686864
1006.630138	2559.373643
1006.924266	2560.817934
1007.218359	2559.169476
1007.512416	2560.258366
1007.806438	2561.705177
1008.100425	2561.604354
1008.394376	2561.720300
1008.688292	2557.153015
1008.982172	2561.498489
1009.276017	2558.461194
1009.569827	2559.066133
1009.863602	2559.832388
1010.157341	2559.391287
1010.451045	2561.984961
1010.744714	2560.094528
1011.038347	2558.365412
1011.331945	2558.637635
1011.625508	2561.344734
1011.919036	2557.941955
1012.212528	2559.759291
1012.505986	2560.684343
1012.799408	2558.433468
1013.092795	2558.672923
1013.386147	2559.330793
1013.679464	2560.170145
1013.972745	2556.447253
1014.265992	2557.977243
1014.559204	2560.225598
1014.852380	2557.705021
1015.145521	2558.819116
1015.438628	2561.238870
1015.731699	2559.779456
1016.024736	2559.119065
1016.317737	2559.855073
1016.610703	2560.339024
1016.903635	2557.004301
1017.196531	2556.177552
1017.489393	2556.366595
1017.782219	2555.683518
1018.075011	2559.706359
1018.367768	2559.671071
1018.660490	2558.090669
1018.953177	2558.090669
1019.245829	2558.090669
