Dividing Wavelength (nm)	Counts (n)	Blue Motor Position (mm): 0.000000	Red Motor Position (mm): 26.500000	
326.493990	2145.005920
326.888308	2145.005920
327.282561	2145.005920
327.676750	2119.593464
328.070874	2118.497013
328.464933	2124.765688
328.858929	2135.780609
329.252859	2147.027423
329.646726	2160.656183
330.040528	2174.811743
330.434265	2194.328570
330.827938	2212.002855
331.221547	2232.795094
331.615091	2253.209247
332.008571	2272.869747
332.401986	2291.343055
332.795338	2312.311734
333.188625	2331.014415
333.581847	2352.081397
333.975006	2366.940198
334.368100	2389.411141
334.761129	2408.554923
335.154095	2421.351892
335.546996	2438.065837
335.939833	2456.045113
336.332606	2468.143882
336.725315	2480.711478
337.117960	2487.176758
337.510540	2497.397698
337.903056	2503.646208
338.295508	2511.480161
338.687896	2518.668846
339.080220	2527.180835
339.472480	2531.473377
339.864676	2535.791125
340.256807	2538.881353
340.648875	2545.399565
341.040879	2544.371169
341.432818	2543.630120
341.824694	2547.547096
342.216506	2545.785213
342.608253	2546.309493
342.999937	2545.460058
343.391557	2546.022147
343.783113	2542.241282
344.174605	2539.589635
344.566033	2540.250026
344.957397	2539.970242
345.348697	2534.729962
345.739934	2533.913296
346.131106	2531.324663
346.522215	2532.708460
346.913260	2532.095960
347.304241	2528.625125
347.695159	2528.156298
348.086012	2526.717048
348.476802	2524.375432
348.867528	2522.749660
349.258191	2520.493744
349.648789	2523.117665
350.039324	2520.289577
350.429796	2518.358815
350.820203	2518.411748
351.210548	2514.449401
351.600828	2516.629700
351.991045	2514.507374
352.381198	2515.147600
352.771288	2513.153824
353.161314	2511.588546
353.551276	2512.271622
353.941175	2516.367560
354.331010	2513.806653
354.720782	2512.364883
355.110490	2514.139370
355.500135	2513.400841
355.889717	2515.830677
356.279235	2515.404699
356.668689	2517.612725
357.058080	2515.233300
357.447408	2513.728516
357.836672	2512.286746
358.225873	2513.466376
358.615010	2511.780110
359.004084	2518.759587
359.393095	2519.430061
359.782043	2519.535925
360.170927	2518.550379
360.559748	2520.403003
360.948505	2522.132119
361.337199	2521.224711
361.725830	2522.542973
362.114398	2523.210926
362.502903	2523.447860
362.891344	2523.011800
363.279722	2523.876358
363.668037	2521.509537
364.056289	2527.747964
364.444478	2526.906092
364.832603	2527.473222
365.220665	2527.143026
365.608665	2525.575227
365.996601	2527.132944
366.384474	2527.511030
366.772284	2528.781401
367.160031	2526.759898
367.547715	2525.769312
367.935336	2526.228057
368.322893	2530.757533
368.710388	2526.472552
369.097820	2532.837009
369.485189	2530.452543
369.872495	2531.755682
370.259738	2530.429858
370.646918	2530.170239
371.034035	2531.904396
371.421090	2530.417255
371.808081	2532.272400
372.195010	2531.034797
372.581875	2534.205682
372.968678	2533.830117
373.355418	2535.826413
373.742096	2537.782381
374.128710	2535.493697
374.515262	2536.272556
374.901751	2538.473019
375.288177	2537.454706
375.674540	2540.489481
376.060841	2544.136756
376.447079	2546.148176
376.833254	2544.734132
377.219367	2542.957126
377.605417	2548.146993
377.991404	2547.121119
378.377329	2553.893909
378.763191	2553.230997
379.148991	2562.458829
379.534727	2563.605692
379.920402	2568.097360
380.306013	2572.989800
380.691563	2577.065572
381.077049	2581.794175
381.462474	2584.559248
381.847835	2590.001173
382.233134	2593.146853
382.618371	2599.959973
383.003545	2610.241406
383.388657	2612.099071
383.773706	2620.487551
384.158693	2626.347892
384.543618	2631.293264
384.928480	2640.448000
385.313280	2645.935296
385.698017	2652.801347
386.082692	2662.089673
386.467305	2668.063441
386.851856	2675.297496
387.236344	2687.522294
387.620770	2692.770136
388.005133	2703.916127
388.389435	2713.945502
388.773674	2719.773076
389.157851	2730.460322
389.541965	2739.554564
389.926018	2743.960532
390.310008	2755.383787
390.693936	2768.384923
391.077802	2773.733587
391.461606	2782.595935
391.845348	2791.869138
392.229027	2802.226188
392.612645	2815.998621
392.996200	2825.377687
393.379694	2838.323371
393.763125	2855.387676
394.146494	2864.199613
394.529801	2872.318392
394.913047	2891.568038
395.296230	2893.372771
395.679351	2896.440313
396.062410	2915.173240
396.445408	2911.326840
396.828343	2923.614653
397.211217	2932.386260
397.594028	2925.852925
397.976778	2937.888680
398.359466	2955.447018
398.742092	2948.364197
399.124656	2968.412866
399.507158	2976.095585
399.889598	2985.557830
400.271977	3001.339163
400.654294	3005.213289
401.036549	3018.980680
401.418742	3026.527288
401.800874	3046.618806
402.182944	3054.508212
402.564952	3083.204980
402.946898	3073.256263
403.328783	3081.712799
403.710606	3096.674943
404.092367	3123.221660
404.474067	3147.351142
404.855705	3137.213382
405.237282	3139.512148
405.618797	3170.001047
406.000250	3190.669777
406.381642	3223.437277
406.762972	3226.280488
407.144240	3214.746328
407.525447	3240.337746
407.906593	3237.716346
408.287677	3259.151332
408.668700	3280.805608
409.049661	3277.773354
409.430560	3290.225004
409.811399	3292.606949
410.192176	3316.754076
410.572891	3323.534428
410.953545	3366.094370
411.334138	3332.132116
411.714669	3382.838562
412.095139	3330.040037
412.475547	3378.351935
412.855894	3369.605533
413.236180	3402.126017
413.616405	3382.611710
413.996568	3407.255391
414.376670	3409.140782
414.756711	3403.141809
415.136691	3428.579472
415.516609	3450.614355
415.896466	3458.173565
416.276262	3484.841269
416.655997	3514.226155
417.035670	3520.028523
417.415283	3587.532093
417.794834	3608.377265
418.174324	3593.934359
418.553753	3593.463011
418.933121	3639.947491
419.312428	3627.188330
419.691674	3622.348822
420.070859	3660.265861
420.449983	3640.837254
420.829045	3689.875078
421.208047	3673.448478
421.586988	3721.422619
421.965867	3750.053852
422.344686	3756.655243
422.723444	3796.641676
423.102141	3703.561811
423.480777	3803.570742
423.859352	3770.268879
424.237866	3868.311760
424.616319	3853.334492
424.994712	3914.992844
425.373044	3906.692585
425.751314	3966.957058
426.129524	3902.037079
426.507673	4003.581041
426.885762	3976.358810
427.263789	4000.324456
427.641756	4002.063654
428.019662	4035.857028
428.397508	4040.391546
428.775292	4074.867997
429.153016	4079.720108
429.530679	4093.779886
429.908282	4101.591154
430.285824	4083.231272
430.663305	4154.619051
431.040726	4112.880818
431.418086	4101.515537
431.795385	4178.982948
432.172624	4209.497052
432.549802	4174.816434
432.926920	4195.018858
433.303977	4188.939227
433.680974	4226.737798
434.057910	4253.382817
434.434786	4262.063684
434.811601	4250.385851
435.188355	4357.870813
435.565050	4328.843849
435.941683	4328.601873
436.318257	4416.673352
436.694770	4417.215276
437.071222	4475.808607
437.447614	4411.967435
437.823946	4413.613371
438.200218	4429.828243
438.576429	4414.465326
438.952580	4437.891568
439.328670	4439.141774
439.704700	4484.328157
440.080670	4452.417653
440.456580	4509.244060
440.832429	4544.471643
441.208218	4444.810552
441.583947	4501.780632
441.959616	4513.660111
442.335224	4540.030386
442.710773	4563.280188
443.086261	4615.015029
443.461689	4562.380342
443.837057	4577.327363
444.212365	4652.075072
444.587612	4659.924148
444.962800	4625.762769
445.337927	4664.902288
445.712995	4552.547571
446.088002	4746.344649
446.462949	4766.935242
446.837837	4778.098877
447.212664	4768.886168
447.587431	4996.658102
447.962139	5289.246671
448.336786	5624.680007
448.711374	5611.000836
449.085901	5255.546557
449.460369	5193.825190
449.834776	5129.064008
450.209124	5359.543041
450.583412	5372.541656
450.957640	5492.153113
451.331808	5356.843503
451.705917	5204.353640
452.079965	5194.372156
452.453954	5232.468155
452.827883	5195.274522
453.201752	5192.131363
453.575562	5226.408688
453.949311	5356.180591
454.323001	5362.232496
454.696632	5351.003326
455.070202	5503.775493
455.443713	5530.344895
455.817164	5613.377740
456.190556	5683.427093
456.563888	5651.085571
456.937160	5730.801336
457.310373	5570.797634
457.683526	5618.353359
458.056619	5609.586792
458.429653	5579.843984
458.802628	5625.431139
459.175542	5643.380167
459.548398	5770.540752
459.921194	5943.787566
460.293930	5991.265153
460.666607	6224.766358
461.039224	6420.957983
461.411782	6530.434201
461.784280	6441.883813
462.156719	6439.012876
462.529099	6391.999075
462.901419	6250.882055
463.273680	6112.197392
463.645882	6090.969093
464.018024	6080.813689
464.390106	6126.937726
464.762130	6343.379667
465.134094	6675.672363
465.505999	7219.078501
465.877845	7840.128490
466.249631	8145.425808
466.621358	8062.708036
466.993026	7867.678396
467.364634	7652.958010
467.736184	7374.073817
468.107674	7215.884930
468.479105	7113.068077
468.850477	7028.127155
469.221790	6854.935794
469.593043	6639.030737
469.964238	6530.698861
470.335373	6479.694987
470.706449	6585.733138
471.077467	6702.347629
471.448425	7200.373300
471.819324	7652.811816
472.190164	7659.761047
472.560945	7228.717187
472.931667	6813.437016
473.302330	6617.913343
473.672934	6492.008005
474.043479	6513.009452
474.413965	6399.699437
474.784393	6324.704712
475.154761	6402.814870
475.525070	6373.336723
475.895321	6299.866947
476.265513	6329.680331
476.635645	6408.886940
477.005719	6355.188569
477.375734	6373.024172
477.745691	6404.218832
478.115588	6499.955384
478.485427	6615.201203
478.855207	6869.053546
479.224928	7099.908145
479.594591	7293.324615
479.964194	7242.955926
480.333739	7242.088848
480.703226	7176.342119
481.072653	7170.842221
481.442022	7169.602097
481.811333	7195.732918
482.180584	7029.954573
482.549777	6925.166629
482.918912	6820.482028
483.287988	6740.471355
483.657005	6624.537419
484.025964	6511.209760
484.394864	6474.220294
484.763706	6388.361882
485.132489	6273.050529
485.501213	6203.785075
485.869879	6156.967880
486.238487	6057.384927
486.607036	6033.555392
486.975527	5937.929745
487.343959	5892.100615
487.712333	5845.064129
488.080648	5794.342560
488.448905	5769.161997
488.817104	5701.708838
489.185244	5695.430080
489.553326	5710.372060
489.921350	5824.617209
490.289315	6000.825701
490.657222	6035.506319
491.025070	6023.309247
491.392861	5911.448564
491.760593	5780.020642
492.128267	5610.000167
492.495883	5448.844561
492.863440	5295.603566
493.230939	5147.738962
493.598380	5025.745559
493.965763	4945.588693
494.333088	4843.908620
494.700354	4762.665384
495.067563	4695.139128
495.434713	4633.379953
495.801805	4586.736677
496.168839	4517.635060
496.535815	4455.593580
496.902733	4408.221857
497.269593	4341.789532
497.636395	4289.376655
498.003139	4262.582923
498.369825	4191.656409
498.736453	4156.375893
499.103023	4097.384311
499.469535	4044.353893
499.835989	4005.786546
500.202385	3953.030871
500.568723	3908.202410
500.935003	3871.835526
501.301226	3825.098989
501.667390	3806.030825
502.033497	3776.124179
502.399546	3722.685428
502.765537	3669.135771
503.131470	3637.973879
503.497345	3611.906072
503.863163	3542.965773
504.228923	3524.860469
504.594625	3501.025893
504.960269	3454.054943
505.325856	3434.890996
505.691385	3391.436250
506.056856	3363.014225
506.422270	3341.138138
506.787625	3305.136737
507.152924	3283.217800
507.518164	3252.708737
507.883347	3218.020558
508.248472	3194.185982
508.613540	3179.299455
508.978550	3155.865651
509.343503	3129.807927
509.708398	3108.952674
510.073236	3093.927515
510.438016	3072.091757
510.802738	3045.484547
511.167403	3031.817979
511.532010	3013.102695
511.896561	3002.657424
512.261053	2993.104438
512.625488	2965.272227
512.989866	2949.508539
513.354186	2931.330138
513.718449	2914.260792
514.082655	2903.979358
514.446803	2888.583674
514.810894	2877.409957
515.174927	2868.885366
515.538904	2851.379959
515.902822	2844.072807
516.266684	2830.330621
516.630488	2820.006338
516.994235	2811.217086
517.357925	2803.499080
517.721558	2797.157308
518.085133	2785.083745
518.448651	2779.495626
518.812112	2767.971548
519.175516	2761.516351
519.538863	2755.598036
519.902152	2747.754001
520.265385	2741.850809
520.628560	2735.738410
520.991678	2730.782956
521.354739	2724.542008
521.717743	2720.756101
522.080690	2715.460369
522.443580	2711.029195
522.806413	2708.062476
523.169189	2702.776826
523.531908	2701.821527
523.894569	2693.478418
524.257174	2692.989426
524.619722	2689.175793
524.982213	2687.164372
525.344647	2680.973836
525.707025	2679.148938
526.069345	2676.721622
526.431608	2675.413443
526.793815	2671.274656
527.155964	2670.273987
527.518057	2668.355827
527.880093	2665.356341
528.242072	2664.275013
528.603995	2664.811896
528.965860	2661.575476
529.327669	2657.416524
529.689421	2656.708242
530.051117	2655.450474
530.412755	2655.823519
530.774337	2653.028199
531.135862	2652.090545
531.497331	2648.453352
531.858743	2645.844555
532.220098	2643.432363
532.581396	2645.549647
532.942638	2643.321457
533.303824	2643.190387
533.664953	2646.283135
534.026025	2642.509832
534.387040	2643.071920
534.747999	2640.868936
535.108902	2642.910603
535.469748	2639.820376
535.830537	2639.028915
536.191270	2639.543113
536.551947	2638.313071
536.912567	2641.272228
537.273131	2640.281642
537.633638	2637.377937
537.994089	2636.281486
538.354483	2632.732514
538.714821	2634.018008
539.075103	2633.193779
539.435328	2632.283851
539.795497	2633.402987
540.155609	2631.691516
540.515665	2632.298975
540.875665	2627.890486
541.235609	2631.809983
541.595496	2627.668675
541.955328	2632.898872
542.315102	2630.481639
542.674821	2628.997019
543.034483	2630.088429
543.394090	2628.684467
543.753640	2628.402163
544.113134	2627.489714
544.472571	2626.441154
544.831953	2628.210599
545.191278	2627.320835
545.550548	2625.753036
545.909761	2624.858232
546.268918	2628.051802
546.628019	2628.036679
546.987064	2625.480814
547.346053	2626.486524
547.704986	2624.933849
548.063863	2623.925618
548.422684	2623.658437
548.781449	2620.036368
549.140158	2624.775052
549.498811	2626.811679
549.857408	2622.612398
550.215949	2619.456635
550.574434	2618.534104
550.932864	2620.651389
551.291237	2619.965792
551.649555	2620.790020
552.007817	2621.442850
552.366022	2620.981584
552.724173	2623.814713
553.082267	2620.313631
553.440305	2621.604167
553.798288	2621.107613
554.156215	2622.070473
554.514086	2622.004938
554.871902	2618.115688
555.229661	2620.631224
555.587365	2622.859414
555.945014	2621.064763
556.302606	2623.376132
556.660143	2623.035854
557.017625	2622.904784
557.375050	2621.130298
557.732421	2622.383025
558.089735	2620.598457
558.446994	2620.860597
558.804197	2619.958230
559.161345	2621.752881
559.518437	2622.093159
559.875474	2620.109465
560.232455	2620.137191
560.589381	2621.692387
560.946251	2621.737757
561.303065	2620.399331
561.659825	2621.026955
562.016528	2619.471759
562.373177	2618.372787
562.729770	2621.049640
563.086307	2622.889661
563.442789	2617.873713
563.799216	2620.537963
564.155587	2619.305401
564.511904	2617.946810
564.868164	2621.253807
565.224370	2621.488220
565.580520	2620.686677
565.936615	2620.853035
566.292654	2619.930504
566.648638	2621.863786
567.004567	2617.104937
567.360441	2621.508385
567.716260	2618.571913
568.072023	2620.636265
568.427732	2616.936058
568.783385	2617.069649
569.138982	2616.484875
569.494525	2615.451438
569.850013	2614.864144
570.205445	2618.869341
570.560823	2618.413116
570.916145	2618.501337
571.271412	2618.637448
571.626625	2619.542335
571.981782	2619.680967
572.336884	2618.660133
572.691931	2618.350102
573.046923	2617.467900
573.401860	2619.547376
573.756743	2618.831532
574.111570	2620.003600
574.466342	2619.411265
574.821059	2617.540997
575.175722	2618.400513
575.530330	2617.573764
575.884882	2617.782972
576.239380	2615.406068
576.593823	2618.279526
576.948211	2617.046964
577.302544	2616.759618
577.656823	2616.240379
578.011047	2615.224587
578.365216	2615.711058
578.719330	2617.142746
579.073389	2616.898250
579.427394	2615.738784
579.781344	2614.997735
580.135239	2619.189454
580.489080	2617.974536
580.842866	2616.570575
581.196597	2616.464710
581.550273	2616.048815
581.903895	2615.002776
582.257463	2616.177365
582.610975	2614.433125
582.964434	2615.310286
583.317837	2615.610235
583.671186	2613.873557
584.024481	2616.494957
584.377721	2617.210801
584.730906	2613.687035
585.084037	2615.348095
585.437113	2614.672580
585.790135	2614.944802
586.143103	2614.599483
586.496016	2614.891870
586.848874	2611.307610
587.201679	2611.869699
587.554428	2609.903649
587.907124	2611.884822
588.259765	2610.412805
588.612352	2612.083948
588.964884	2615.469082
589.317362	2613.540841
589.669786	2614.453290
590.022155	2611.368104
590.374470	2612.046139
590.726731	2611.650408
591.078937	2613.447580
591.431090	2613.666870
591.783188	2613.092178
592.135232	2612.898094
592.487222	2612.915738
592.839157	2614.375152
593.191038	2612.419184
593.542866	2612.973711
593.894639	2613.613938
594.246358	2612.827518
594.598022	2610.972373
594.949633	2609.994389
595.301190	2611.042949
595.652692	2610.876591
596.004141	2609.260902
596.355535	2610.891715
596.706876	2610.753083
597.058162	2610.543875
597.409395	2611.297528
597.760573	2608.981117
598.111698	2609.061776
598.462768	2612.678804
598.813785	2611.884822
599.164748	2610.533793
599.515657	2613.475306
599.866511	2611.494133
600.217312	2611.720985
600.568060	2610.861468
600.918753	2612.341047
601.269392	2609.248299
601.619978	2609.386930
601.970510	2611.237034
602.320988	2608.282918
602.671412	2610.233844
603.021783	2610.163268
603.372100	2611.221910
603.722363	2609.565891
604.072572	2611.302569
604.422728	2613.034205
604.772830	2605.911055
605.122878	2605.522886
605.472872	2605.336363
605.822813	2607.289810
606.172701	2605.419542
606.522534	2606.523555
606.872314	2610.732918
607.222041	2610.909359
607.571714	2610.276694
607.921333	2609.838114
608.270899	2605.865684
608.620411	2607.481374
608.969870	2607.504059
609.319276	2606.112701
609.668627	2609.286107
610.017926	2606.183277
610.367171	2609.069338
610.716362	2608.948350
611.065500	2609.765017
611.414585	2607.181426
611.763616	2610.581684
612.112594	2609.611262
612.461518	2608.474482
612.810389	2610.412805
613.159207	2608.187136
613.507971	2611.174019
613.856682	2609.344081
614.205340	2610.286776
614.553945	2611.731067
614.902496	2609.563371
615.250994	2611.138731
615.599439	2610.216200
615.947830	2610.427929
616.296169	2609.424739
616.644454	2609.255860
616.992686	2608.015737
617.340864	2610.732918
617.688990	2611.705861
618.037063	2610.397682
618.385082	2610.969853
618.733048	2612.459514
619.080961	2611.370624
619.428821	2612.668722
619.776628	2609.833072
620.124382	2613.024123
620.472083	2610.977414
620.819731	2610.185953
621.167326	2609.560850
621.514868	2611.378186
621.862357	2611.552106
622.209793	2608.527414
622.557176	2609.611262
622.904506	2606.105139
623.251783	2604.958277
623.599007	2602.291506
623.946179	2603.196393
624.293297	2603.914758
624.640363	2605.613627
624.987376	2607.483895
625.334336	2606.523555
625.681243	2607.120932
626.028097	2606.599172
626.374899	2606.016919
626.721647	2604.759151
627.068343	2606.452979
627.414987	2606.276538
627.761577	2606.261415
628.108115	2604.655807
628.454600	2606.236209
628.801032	2608.287959
629.147412	2605.598503
629.493739	2606.029522
629.840014	2604.542382
630.186236	2604.983482
630.532405	2604.751589
630.878521	2603.710591
631.224585	2606.997423
631.570597	2604.617999
631.916556	2603.937443
632.262462	2604.960797
632.608316	2604.302927
632.954117	2602.165477
633.299866	2603.685385
633.645562	2605.417022
633.991206	2605.447269
634.336797	2603.118256
634.682336	2604.391147
635.027823	2605.185129
635.373257	2604.270159
635.718639	2601.752103
636.063968	2599.758327
636.409245	2604.497011
636.754470	2603.761003
637.099642	2604.164295
637.444762	2602.072216
637.789829	2598.508120
638.134845	2602.094901
638.479808	2600.353183
638.824719	2603.395519
639.169577	2602.034407
639.514383	2603.085488
639.859137	2601.265632
640.203839	2603.380396
640.548489	2599.483584
640.893086	2597.252873
641.237632	2595.705239
641.582125	2598.956783
641.926566	2594.855804
642.270955	2599.145826
642.615292	2599.980137
642.959576	2598.072061
643.303809	2596.902513
643.647990	2598.097266
643.992118	2598.840837
644.336195	2597.477204
644.680219	2599.415528
645.024192	2600.574993
645.368112	2602.883842
645.711981	2598.838316
646.055797	2600.292689
646.399562	2599.644901
646.743274	2600.307812
647.086935	2601.880652
647.430544	2600.154057
647.774101	2600.343100
648.117606	2600.330497
648.461059	2599.939808
648.804460	2602.165477
649.147810	2602.215889
649.491108	2601.636156
649.834354	2598.984509
650.177548	2600.418718
650.520690	2599.097935
650.863781	2598.553491
651.206820	2600.970724
651.549807	2600.486773
651.892742	2596.436206
652.235626	2595.979982
652.578458	2598.019128
652.921238	2597.285641
653.263967	2600.723708
653.606644	2596.491659
653.949269	2597.134406
654.291843	2597.492328
654.634365	2595.750609
654.976836	2595.861515
655.319255	2599.244129
655.661622	2597.562904
656.003938	2597.699015
656.346203	2595.112903
656.688416	2595.493510
657.030577	2594.608788
657.372687	2597.368820
657.714746	2595.778336
658.056753	2598.324118
658.398708	2593.358582
658.740612	2591.634507
659.082465	2592.859507
659.424266	2593.124168
659.766016	2591.808427
660.107715	2595.077615
660.449362	2593.983685
660.790958	2596.385795
661.132503	2595.554004
661.473996	2593.744230
661.815438	2594.631473
662.156829	2596.340424
662.498168	2598.182966
662.839456	2595.606936
663.180693	2595.042327
663.521879	2596.836978
663.863013	2594.613829
664.204097	2596.106011
664.545129	2593.507296
664.886110	2595.395208
665.227040	2595.576689
665.567918	2597.509972
665.908746	2592.935125
666.249522	2596.612647
666.590248	2598.240939
666.930922	2596.574838
667.271545	2594.855804
667.612118	2599.349993
667.952639	2597.371340
668.293109	2595.891762
668.633528	2596.831937
668.973896	2596.932760
669.314213	2596.995774
669.654480	2598.921495
669.994695	2593.993767
670.334859	2593.459405
670.674973	2596.736155
671.015035	2595.740527
671.355047	2595.922008
671.695008	2597.131885
672.034918	2593.429158
672.374777	2597.520054
672.714585	2595.624580
673.054342	2594.202975
673.394049	2595.876638
673.733705	2594.296236
674.073310	2596.048037
674.412864	2593.300608
674.752368	2594.336566
675.091820	2594.409662
675.431223	2593.824888
675.770574	2594.870928
676.109875	2595.929570
676.449125	2591.521081
676.788324	2593.124168
677.127473	2590.454877
677.466571	2591.274065
677.805619	2594.109714
678.144616	2595.460743
678.483562	2594.795311
678.822458	2591.931935
679.161303	2594.013932
679.500098	2593.086359
679.838842	2594.530650
680.177535	2594.470156
680.516179	2594.840681
680.854771	2593.824888
681.193314	2595.274220
681.531805	2593.497213
681.870247	2598.699684
682.208638	2595.664910
682.546978	2596.229519
682.885268	2594.298757
683.223508	2596.562235
683.561697	2595.838829
683.899836	2596.491659
684.237925	2593.867738
684.575963	2595.680033
684.913951	2595.604416
685.251889	2596.766402
685.589776	2592.902357
685.927614	2595.475866
686.265401	2596.209354
686.603137	2593.265320
686.940824	2594.954107
687.278460	2594.301277
687.616046	2595.622060
687.953582	2594.223140
688.291068	2597.242791
688.628504	2595.979982
688.965889	2594.714652
689.303224	2595.004518
689.640510	2595.758171
689.977745	2592.660382
690.314930	2593.582913
690.652065	2594.964189
690.989150	2594.487800
691.326185	2594.545773
691.663170	2591.397573
692.000105	2593.908067
692.336990	2594.187852
692.673825	2590.144846
693.010610	2594.127358
693.347345	2587.783066
693.684030	2586.064032
694.020665	2583.974474
694.357251	2584.874320
694.693786	2586.578230
695.030272	2588.987901
695.366707	2589.353385
695.703093	2589.214753
696.039429	2588.077973
696.375716	2589.285329
696.711952	2587.735175
697.048139	2589.434043
697.384276	2589.991091
697.720363	2585.592684
698.056400	2588.468662
698.392388	2587.253744
698.728326	2587.241142
699.064214	2587.601584
699.400053	2589.877665
699.735842	2588.667788
700.071581	2586.588312
700.407270	2586.321131
700.742910	2588.287181
701.078501	2585.610328
701.414042	2588.249372
701.749533	2584.670153
702.084974	2587.669640
702.420366	2583.417426
702.755709	2586.331213
703.091002	2584.755853
703.426246	2582.762076
703.761440	2586.830287
704.096584	2587.712489
704.431679	2584.050091
704.766725	2587.054619
705.101721	2584.458425
705.436668	2584.082859
705.771565	2585.723754
706.106413	2585.446491
706.441212	2583.571182
706.775961	2586.048909
707.110661	2583.808116
707.445311	2583.924062
707.779913	2586.023703
708.114465	2585.262489
708.448967	2584.770976
708.783421	2585.877509
709.117825	2584.879361
709.452180	2585.801892
709.786485	2588.140987
710.120742	2587.687284
710.454949	2586.469845
710.789107	2584.433219
711.123216	2583.954309
711.457275	2587.541090
711.791286	2586.159814
712.125247	2585.847262
712.459159	2588.579568
712.793023	2590.031420
713.126837	2589.781883
713.460602	2587.982191
713.794318	2587.410020
714.127985	2590.132243
714.461602	2586.903384
714.795171	2588.204002
715.128691	2589.786924
715.462162	2586.416913
715.795584	2586.782397
716.128957	2586.797520
716.462281	2583.919021
716.795556	2583.795513
717.128782	2588.692994
717.461960	2584.276943
717.795088	2585.756522
718.128167	2586.079156
718.461198	2584.899526
718.794180	2586.663929
719.127113	2582.777200
719.459997	2583.593867
719.792833	2583.273753
720.125619	2581.973136
720.458357	2587.087386
720.791046	2584.536562
721.123686	2585.688466
721.456278	2583.427509
721.788821	2582.497416
722.121315	2584.259299
722.453761	2580.533886
722.786158	2582.010944
723.118506	2581.176633
723.450805	2581.095975
723.783056	2583.634196
724.115259	2582.802406
724.447412	2581.806778
724.779518	2582.915832
725.111574	2582.205029
725.443582	2582.308372
725.775542	2580.846438
726.107453	2582.799885
726.439315	2582.144535
726.771129	2585.703590
727.102895	2584.869279
727.434612	2585.116295
727.766281	2583.808116
728.097901	2577.937692
728.429473	2578.550192
728.760996	2582.552868
729.092471	2580.533886
729.423897	2584.032447
729.755276	2582.396593
730.086606	2582.555389
730.417887	2583.004052
730.749120	2587.011769
731.080305	2584.458425
731.411442	2584.536562
731.742530	2586.313569
732.073570	2585.887592
732.404562	2587.621749
732.735506	2584.909608
733.066401	2585.333065
733.397249	2588.692994
733.728048	2585.983374
734.058798	2587.036975
734.389501	2583.770307
734.720156	2585.015472
735.050762	2584.261820
735.381320	2582.260482
735.711831	2579.500450
736.042293	2581.186716
736.372707	2582.850297
736.703073	2580.715368
737.033391	2580.566654
737.363661	2581.433732
737.693883	2584.191243
738.024056	2583.871130
738.354182	2579.621437
738.684260	2583.183013
739.014290	2584.410534
739.344272	2582.278126
739.674207	2581.942889
740.004093	2581.385841
740.333931	2584.614700
740.663722	2583.427509
740.993464	2583.213260
741.323159	2582.346181
741.652806	2583.553537
741.982405	2582.845255
742.311956	2579.818042
742.641460	2583.790472
742.970915	2583.924062
743.300323	2580.939699
743.629683	2580.662436
743.958996	2582.043712
744.288260	2580.279308
744.617477	2579.084555
744.946647	2577.095819
745.275768	2579.117322
745.604842	2577.796540
745.933869	2579.109760
746.262847	2573.241857
746.591778	2579.966757
746.920662	2579.896180
747.249498	2578.318299
747.578286	2580.780903
747.907027	2581.219483
748.235720	2583.109916
748.564365	2583.172930
748.892963	2580.415419
749.221514	2579.064390
749.550017	2580.589339
749.878473	2581.489185
750.206881	2578.772003
750.535242	2579.137487
750.863555	2580.644792
751.191821	2577.667990
751.520039	2578.600604
751.848210	2582.094123
752.176334	2578.209914
752.504411	2579.470203
752.832440	2577.080696
753.160421	2579.550861
753.488356	2579.787796
753.816243	2582.958681
754.144082	2578.393917
754.471875	2579.654205
754.799620	2577.796540
755.127318	2577.731005
755.454969	2577.998186
755.782572	2578.618248
756.110129	2579.162693
756.437638	2580.256623
756.765100	2577.509194
757.092515	2580.733012
757.419882	2578.247723
757.747203	2579.689493
758.074477	2577.579770
758.401703	2583.208218
758.728882	2576.899214
759.056014	2580.922055
759.383099	2582.530183
759.710138	2581.219483
760.037129	2580.735532
760.364073	2579.941551
760.690970	2579.971798
761.017820	2580.657395
761.344623	2579.409709
761.671379	2579.167734
761.998088	2574.970973
762.324751	2579.656726
762.651366	2584.642427
762.977935	2587.725092
763.304456	2589.338262
763.630931	2593.935794
763.957359	2592.504106
764.283740	2592.199116
764.610074	2590.253231
764.936362	2589.305494
765.262602	2586.129567
765.588796	2583.046902
765.914943	2581.658064
766.241044	2580.541448
766.567097	2579.807960
766.893104	2579.200501
767.219064	2576.135480
767.544978	2577.418453
767.870845	2578.184709
768.196665	2576.909297
768.522438	2577.040367
768.848165	2577.942733
769.173846	2575.354101
769.499479	2576.165727
769.825066	2574.754203
770.150607	2577.153793
770.476101	2576.611869
770.801548	2576.546334
771.126949	2579.437435
771.452303	2574.494584
771.777611	2574.751683
772.102872	2576.541292
772.428087	2576.856365
772.753256	2576.077506
773.078378	2575.868298
773.403453	2573.088102
773.728482	2571.212793
774.053465	2574.040880
774.378401	2573.317475
774.703291	2572.712536
775.028135	2576.339646
775.352932	2573.405695
775.677683	2574.698751
776.002388	2573.045252
776.327046	2575.457444
776.651658	2572.644481
776.976224	2574.358473
777.300743	2574.240006
777.625216	2572.543657
777.949643	2571.268246
778.274024	2574.970973
778.598359	2571.411918
778.922647	2569.975190
779.246889	2567.522668
779.571086	2569.604665
779.895236	2567.988975
780.219339	2576.369893
780.543397	2574.056004
780.867409	2572.006775
781.191374	2574.671024
781.515294	2571.086764
781.839167	2573.521641
782.162995	2575.616241
782.486776	2574.101374
782.810511	2574.532393
783.134201	2575.795202
783.457844	2573.156158
783.781441	2574.091292
784.104993	2572.483164
784.428498	2571.948801
784.751958	2573.635067
785.075372	2574.643298
785.398739	2570.438976
785.722061	2574.897876
786.045337	2573.793864
786.368568	2575.356621
786.691752	2571.953842
787.014891	2573.040211
787.337983	2573.246898
787.661030	2572.359655
787.984031	2573.559450
788.306987	2575.293607
788.629897	2575.182702
788.952760	2575.850654
789.275579	2575.321333
789.598351	2575.792681
789.921078	2574.948288
790.243759	2570.895200
790.566395	2575.401992
790.888984	2571.716908
791.211529	2573.332598
791.534027	2574.197156
791.856480	2572.185736
792.178888	2571.958884
792.501249	2574.756724
792.823566	2573.612382
793.145836	2572.795715
793.468062	2571.389233
793.790241	2572.697413
794.112375	2573.440983
794.434464	2572.251271
794.756507	2573.935016
795.078505	2573.095664
795.400457	2571.885787
795.722364	2569.662638
796.044226	2572.004254
796.366042	2570.728842
796.687812	2571.240519
797.009538	2575.349060
797.331218	2576.382496
797.652852	2575.906107
797.974442	2574.986097
798.295986	2573.980386
798.617484	2574.693710
798.938938	2573.151117
799.260346	2572.775551
799.581709	2574.411405
799.903026	2574.492063
800.224299	2572.117680
800.545526	2575.031467
800.866708	2572.266394
801.187845	2574.234965
801.508936	2573.035170
801.829983	2574.005592
802.150984	2571.928637
802.471940	2571.742114
802.792851	2570.698595
803.113717	2571.595921
803.434538	2569.327401
803.755314	2570.791857
804.076045	2570.582649
804.396731	2569.796229
804.717372	2572.170612
805.037967	2574.693710
805.358518	2571.122052
805.679024	2573.355283
805.999485	2569.682803
806.319901	2573.282187
806.640272	2570.892680
806.960598	2571.835375
807.280879	2570.507031
807.601115	2571.134655
807.921306	2571.127093
808.241453	2573.771178
808.561554	2572.984758
808.881611	2572.430232
809.201623	2570.300344
809.521590	2572.992320
809.841513	2572.495767
810.161390	2572.379820
810.481223	2573.262022
810.801011	2571.651373
811.120755	2575.081878
811.440453	2569.748338
811.760107	2572.740262
812.079716	2568.495611
812.399281	2570.307906
812.718801	2569.995354
813.038276	2567.076526
813.357707	2571.021229
813.677093	2568.833368
813.996434	2570.610375
814.315731	2572.382341
814.634983	2571.401836
814.954191	2573.551888
815.273354	2571.152299
815.592473	2573.443503
815.911547	2573.325036
816.230577	2570.491908
816.549562	2573.133472
816.868502	2572.258832
817.187399	2572.750345
817.506250	2573.072979
817.825058	2572.457958
818.143821	2572.536096
818.462539	2575.580953
818.781213	2573.478792
819.099843	2576.420305
819.418429	2573.060376
819.736970	2575.291086
820.055466	2577.287383
820.373919	2578.930799
820.692327	2581.552199
821.010691	2587.921697
821.329011	2594.046699
821.647286	2613.976901
821.965517	2631.736886
822.283704	2646.111736
822.601847	2654.313693
822.919945	2651.964516
823.237999	2644.523773
823.556010	2635.719397
823.873976	2628.359313
824.191897	2619.040740
824.509775	2610.274173
824.827609	2606.067331
825.145398	2602.624222
825.463144	2597.053747
825.780845	2596.100969
826.098502	2596.554673
826.416116	2599.349993
826.733685	2603.708071
827.051210	2606.039604
827.368692	2605.109511
827.686129	2602.757813
828.003522	2597.658686
828.320872	2590.989239
828.638177	2588.345154
828.955439	2584.113106
829.272656	2578.812332
829.589830	2576.843762
829.906960	2579.500450
830.224046	2579.034143
830.541088	2579.223186
830.858086	2575.875860
831.175041	2575.822928
831.491952	2573.733370
831.808819	2573.700602
832.125642	2575.129769
832.442421	2572.679769
832.759157	2577.970460
833.075849	2581.484144
833.392497	2585.312900
833.709101	2587.720051
834.025662	2588.574527
834.342179	2585.685946
834.658653	2588.388004
834.975083	2582.762076
835.291469	2587.583940
835.607811	2580.748135
835.924110	2575.938875
836.240366	2576.702609
836.556578	2575.543144
836.872746	2574.749162
837.188871	2570.055848
837.504952	2572.989800
837.820990	2568.195662
838.136984	2570.494428
838.452935	2571.033832
838.768842	2572.135324
839.084706	2572.488205
839.400526	2572.102557
839.716303	2574.950808
840.032037	2577.751169
840.347727	2574.376117
840.663373	2573.912331
840.978977	2574.660942
841.294537	2572.707495
841.610054	2572.967114
841.925527	2571.699264
842.240957	2570.461661
842.556344	2568.787998
842.871687	2567.729356
843.186987	2568.757751
843.502244	2564.508058
843.817458	2570.333112
844.132629	2565.934705
844.447756	2568.283882
844.762840	2566.804304
845.077881	2564.540826
845.392879	2564.399673
845.707833	2566.685837
846.022745	2563.555280
846.337613	2566.743810
846.652438	2565.969993
846.967221	2568.815724
847.281960	2567.378995
847.596656	2564.757595
847.911309	2566.007802
848.225919	2565.982596
848.540485	2566.040569
848.855009	2567.068964
849.169490	2565.843964
849.483928	2566.900086
849.798323	2566.479149
850.112675	2569.052658
850.426984	2567.923440
850.741251	2566.569890
851.055474	2566.693398
851.369654	2565.448233
851.683792	2565.488563
851.997887	2566.418656
852.311938	2567.467216
852.625947	2564.608881
852.939914	2567.018553
853.253837	2568.301527
853.567718	2568.004098
853.881555	2564.175342
854.195350	2564.248439
854.509103	2563.247770
854.822812	2565.281875
855.136479	2567.217678
855.450103	2566.040569
855.763685	2564.513099
856.077224	2566.327915
856.390720	2566.025446
856.704173	2566.108625
857.017584	2564.165260
857.330953	2564.077040
857.644278	2567.031156
857.957561	2570.010478
858.270802	2568.074675
858.584000	2564.971844
858.897155	2566.897565
859.210268	2565.838923
859.523339	2570.159192
859.836367	2567.298337
860.149352	2567.658779
860.462295	2568.525858
860.775195	2559.383725
861.088054	2565.423028
861.400869	2563.691391
861.713642	2561.614436
862.026373	2563.653583
862.339062	2565.039900
862.651708	2565.496124
862.964312	2563.887996
863.276873	2565.014694
863.589392	2566.055692
863.901869	2566.269942
864.214303	2567.527709
864.526696	2566.784139
864.839045	2565.294478
865.151353	2568.301527
865.463619	2565.097873
865.775842	2565.259190
866.088023	2571.011147
866.400162	2567.827658
866.712258	2566.201886
867.024313	2567.454613
867.336325	2566.189283
867.648296	2568.946794
867.960224	2569.332442
868.272110	2567.247925
868.583954	2568.152812
868.895755	2568.805642
869.207515	2569.397978
869.519233	2567.883111
869.830909	2566.368244
870.142542	2566.769016
870.454134	2569.692885
870.765684	2566.106104
871.077191	2567.361351
871.388657	2569.710529
871.700081	2568.324212
872.011463	2567.416804
872.322803	2567.447051
872.634101	2567.308419
872.945357	2569.024932
873.256571	2568.369582
873.567744	2568.175498
873.878874	2567.613409
874.189963	2569.213975
874.501010	2568.319171
874.812015	2566.136351
875.122979	2566.879921
875.433900	2566.655590
875.744780	2567.240364
876.055618	2569.130796
876.366415	2567.179870
876.677169	2570.214644
876.987882	2564.649211
877.298554	2566.224571
877.609183	2566.557287
877.919771	2565.072668
878.230317	2566.025446
878.540822	2568.906465
878.851285	2568.997206
879.161707	2571.608523
879.472087	2575.699420
879.782425	2570.832186
880.092722	2576.619430
880.402977	2581.650502
880.713191	2589.549990
881.023363	2600.128851
881.333494	2606.536158
881.643583	2610.990017
881.953631	2612.078907
882.263637	2610.717795
882.573602	2607.204111
882.883526	2604.973400
883.193408	2600.650611
883.503248	2600.363265
883.813048	2593.310691
884.122806	2593.650969
884.432522	2592.899837
884.742197	2588.778693
885.051831	2585.685946
885.361424	2581.544638
885.670975	2579.571026
885.980485	2578.880388
886.289954	2574.872671
886.599382	2573.680438
886.908768	2574.058524
887.218113	2572.049624
887.527417	2572.813359
887.836680	2572.457958
888.145901	2570.123904
888.455082	2570.534758
888.764221	2573.652711
889.073319	2564.800445
889.382376	2569.254305
889.691392	2568.082236
890.000366	2566.219530
890.309300	2567.963769
890.618193	2566.892524
890.927044	2569.271949
891.235855	2568.082236
891.544625	2568.331773
891.853353	2568.820765
892.162041	2564.820610
892.470687	2566.897565
892.779293	2571.689182
893.087858	2568.198183
893.396381	2566.776577
893.704864	2568.510734
894.013306	2569.637432
894.321707	2576.795871
894.630068	2578.749318
894.938387	2579.538258
895.246665	2580.541448
895.554903	2580.551530
895.863100	2575.727146
896.171256	2578.061200
896.479371	2573.922413
896.787446	2574.494584
897.095480	2572.858730
897.403473	2573.861919
897.711425	2571.863102
898.019336	2573.022567
898.327207	2571.202711
898.635038	2570.945612
898.942827	2570.938050
899.250576	2568.586352
899.558284	2570.363358
899.865952	2568.488049
900.173579	2568.740107
900.481165	2571.021229
900.788711	2565.773388
901.096216	2569.589541
901.403681	2567.066444
901.711105	2565.423028
902.018489	2563.608212
902.325832	2570.391085
902.633135	2566.587534
902.940397	2567.741958
903.247619	2569.788667
903.554800	2569.055179
903.861941	2576.059862
904.169041	2578.661098
904.476101	2580.445666
904.783121	2581.158989
905.090100	2579.525656
905.397039	2580.803588
905.703938	2579.056828
906.010796	2578.701427
906.317614	2576.914338
906.624391	2574.567681
906.931129	2574.499625
907.237826	2573.385530
907.544483	2571.716908
907.851099	2570.880077
908.157675	2568.934191
908.464211	2566.670713
908.770707	2563.242729
909.077163	2564.447564
909.383578	2562.736093
909.689954	2565.392781
909.996289	2563.283058
910.302584	2567.638615
910.608839	2567.016032
910.915054	2565.473439
911.221229	2565.551577
911.527363	2564.603840
911.833458	2566.882442
912.139513	2565.987637
912.445527	2563.809858
912.751502	2566.837071
913.057436	2566.766495
913.363331	2566.267421
913.669186	2566.403532
913.975000	2566.920250
914.280775	2568.036866
914.586510	2566.632905
914.892205	2569.687844
915.197859	2573.277145
915.503475	2577.415933
915.809050	2579.210583
916.114585	2580.881726
916.420081	2582.469689
916.725536	2582.744432
917.030952	2584.103023
917.336328	2582.089082
917.641665	2581.809298
917.946961	2582.013465
918.252218	2578.638412
918.557435	2579.313927
918.862612	2576.500963
919.167750	2576.047259
919.472848	2575.888463
919.777906	2572.105077
920.082925	2573.204049
920.387904	2570.675910
920.692843	2569.453430
920.997743	2569.022412
921.302603	2566.796742
921.607423	2568.130127
921.912204	2569.287072
922.216946	2567.535271
922.521647	2566.360682
922.826310	2567.023594
923.130932	2569.287072
923.435516	2565.856567
923.740059	2565.125600
924.044564	2567.074006
924.349028	2568.006619
924.653454	2561.760629
924.957840	2559.870197
925.262186	2561.591751
925.566493	2564.860939
925.870761	2561.863973
926.174989	2562.542008
926.479178	2563.356155
926.783328	2564.671896
927.087438	2564.550908
927.391509	2564.177863
927.695541	2562.068140
927.999533	2563.272976
928.303486	2565.722976
928.607400	2565.697771
928.911275	2563.262893
929.215110	2564.772719
929.518906	2563.305743
929.822663	2563.550239
930.126381	2564.707184
930.430060	2565.556618
930.733699	2562.005125
931.037299	2564.442523
931.340861	2563.182235
931.644383	2561.480845
931.947866	2562.844477
932.251309	2564.051834
932.554714	2564.462688
932.858080	2563.681309
933.161407	2562.814231
933.464694	2562.237018
933.767943	2562.733572
934.071153	2562.983109
934.374323	2561.458160
934.677455	2565.279355
934.980548	2561.180897
935.283602	2564.263562
935.586617	2562.035372
935.889593	2563.499827
936.192530	2560.777604
936.495428	2564.046793
936.798287	2562.247101
937.101108	2563.661144
937.403890	2563.020918
937.706632	2564.850857
938.009336	2562.801628
938.312002	2564.918912
938.614628	2561.919426
938.917216	2565.964952
939.219765	2564.392112
939.522275	2564.510579
939.824747	2566.590055
940.127179	2559.834909
940.429573	2561.702656
940.731929	2561.427913
941.034246	2561.120403
941.336524	2565.599468
941.638763	2562.637790
941.940964	2564.699622
942.243126	2563.706515
942.545250	2564.399673
942.847335	2565.259190
943.149381	2564.319015
943.451389	2566.136351
943.753359	2566.809345
944.055290	2565.375137
944.357182	2562.360527
944.659036	2562.899930
944.960851	2563.091494
945.262628	2561.750547
945.564367	2565.027297
945.866067	2563.545198
946.167729	2564.071998
946.469352	2565.770867
946.770937	2562.327759
947.072484	2561.748027
947.373992	2560.875907
947.675462	2562.902451
947.976893	2564.631567
948.278286	2563.335990
948.579641	2564.535785
948.880958	2562.678119
949.182236	2561.740465
949.483476	2561.647203
949.784678	2561.059909
950.085841	2562.975547
950.386967	2563.817420
950.688054	2563.600651
950.989103	2561.843808
951.290114	2563.545198
951.591087	2564.092163
951.892021	2564.218192
952.192917	2564.077040
952.493776	2562.509241
952.794596	2563.741803
953.095378	2559.960938
953.396122	2562.975547
953.696828	2562.050496
953.997496	2563.774570
954.298126	2564.208110
954.598718	2562.499158
954.899272	2563.315825
955.199788	2565.105435
955.500266	2564.704663
955.800706	2561.301884
956.101108	2560.099569
956.401472	2559.660989
956.701798	2559.459343
957.002087	2557.460525
957.302337	2563.683830
957.602550	2560.903633
957.902724	2562.902451
958.202861	2563.792214
958.502960	2563.915723
958.803022	2564.457647
959.103045	2562.070660
959.403031	2559.229970
959.702979	2560.530588
960.002889	2560.802810
960.302762	2559.794579
960.602596	2563.136864
960.902393	2562.925136
961.202153	2557.342058
961.501875	2562.549570
961.801559	2560.381874
962.101205	2561.962276
962.400814	2562.506720
962.700385	2560.165104
962.999918	2563.847667
963.299414	2559.708880
963.598873	2561.957234
963.898293	2561.279199
964.197677	2562.199210
964.497022	2559.361040
964.796331	2563.399004
965.095601	2562.042934
965.394835	2558.831719
965.694030	2561.064950
965.993189	2563.635939
966.292309	2559.751730
966.591393	2561.135526
966.890439	2559.973540
967.189447	2559.787018
967.488419	2562.262224
967.787353	2562.708366
968.086249	2559.895402
968.385108	2561.130485
968.683930	2558.821637
968.982714	2560.258366
969.281462	2561.294323
969.580172	2559.802141
969.878844	2560.694425
970.177480	2561.775753
970.476078	2560.157542
970.774639	2561.959755
971.073162	2559.822306
971.371649	2557.546225
971.670098	2558.405742
971.968510	2556.631255
972.266885	2558.057902
972.565223	2561.339693
972.863524	2561.841288
973.161788	2560.376833
973.460014	2561.019580
973.758204	2560.689384
974.056356	2562.042934
974.354471	2564.109807
974.652550	2561.432954
974.950591	2560.429765
975.248595	2558.073025
975.546563	2560.013870
975.844493	2560.933880
976.142386	2561.705177
976.440243	2563.308264
976.738062	2558.509085
977.035845	2560.555794
977.333590	2562.156360
977.631299	2562.294992
977.928971	2560.714590
978.226606	2560.079405
978.524204	2563.774570
978.821765	2559.794579
979.119290	2562.040413
979.416777	2560.152501
979.714228	2560.155022
980.011642	2561.659806
980.309020	2565.239026
980.606360	2560.943962
980.903664	2560.588561
981.200931	2561.160732
981.498162	2559.691236
981.795356	2562.284909
982.092513	2562.552091
982.389633	2558.783828
982.686717	2564.775239
982.983764	2562.526885
983.280775	2563.164591
983.577749	2563.835064
983.874686	2566.716084
984.171587	2562.983109
984.468451	2562.552091
984.765279	2565.009653
985.062070	2562.501679
985.358824	2559.875238
985.655543	2562.302553
985.952224	2562.224416
986.248869	2559.209806
986.545478	2559.446740
986.842050	2558.602347
987.138586	2558.156204
987.435086	2557.334496
987.731549	2554.181255
988.027975	2559.502192
988.324366	2560.233160
988.620719	2560.825495
988.917037	2560.472615
989.213318	2559.519837
989.509563	2563.890517
989.805772	2562.126113
990.101944	2560.424724
990.398080	2561.279199
990.694180	2559.045968
990.990244	2562.930177
991.286271	2560.631411
991.582262	2561.705177
991.878217	2560.276010
992.174136	2561.949673
992.470019	2558.834240
992.765865	2557.432799
993.061676	2561.160732
993.357450	2563.716597
993.653188	2560.573438
993.948890	2561.037224
994.244556	2561.657286
994.540186	2562.388253
994.835780	2559.998746
995.131337	2560.749878
995.426859	2560.928839
995.722345	2558.554456
996.017795	2559.877758
996.313208	2561.122923
996.608586	2561.745506
996.903928	2563.038562
997.199234	2563.053685
997.494504	2559.287943
997.789738	2560.641493
998.084936	2562.920095
998.380099	2560.485217
998.675225	2561.488407
998.970316	2563.061247
999.265371	2560.381874
999.560390	2562.138716
999.855373	2559.371122
1000.150320	2560.270968
1000.445232	2561.599313
1000.740108	2560.580999
1001.034948	2560.044117
1001.329752	2560.291133
1001.624521	2558.955227
1001.919254	2556.638817
1002.213951	2557.289126
1002.508613	2557.876420
1002.803239	2561.276679
1003.097829	2553.591440
1003.392384	2559.131668
1003.686903	2558.209137
1003.981386	2561.372461
1004.275834	2562.466391
1004.570246	2560.621329
1004.864623	2558.952707
1005.158964	2559.444219
1005.453270	2559.711400
1005.747540	2559.058571
1006.041775	2557.624363
1006.335974	2561.143088
1006.630138	2559.071174
1006.924266	2559.494631
1007.218359	2559.338355
1007.512416	2560.976730
1007.806438	2558.685526
1008.100425	2561.942111
1008.394376	2557.899106
1008.688292	2557.894064
1008.982172	2560.412121
1009.276017	2560.109652
1009.569827	2560.132337
1009.863602	2556.162428
1010.157341	2560.278530
1010.451045	2563.066288
1010.744714	2559.471946
1011.038347	2556.265772
1011.331945	2558.814075
1011.625508	2559.693756
1011.919036	2554.390462
1012.212528	2561.692574
1012.505986	2558.945145
1012.799408	2558.269630
1013.092795	2558.015052
1013.386147	2559.408931
1013.679464	2561.984961
1013.972745	2560.664178
1014.265992	2556.311142
1014.559204	2559.688715
1014.852380	2557.475649
1015.145521	2559.292985
1015.438628	2558.695608
1015.731699	2559.371122
1016.024736	2559.575289
1016.317737	2559.902964
1016.610703	2558.609908
1016.903635	2555.779300
1017.196531	2553.382232
1017.489393	2554.307283
1017.782219	2555.670916
1018.075011	2554.876934
1018.367768	2558.753581
1018.660490	2560.190310
1018.953177	2560.190310
1019.245829	2560.190310
