Dividing Wavelength (nm)	Counts (n)	Blue Motor Position (mm): 0.000000	Red Motor Position (mm): 20.000000	
326.493990	2145.353760
326.888308	2145.353760
327.282561	2145.353760
327.676750	2119.424585
328.070874	2121.690584
328.464933	2123.316356
328.858929	2135.304220
329.252859	2145.590694
329.646726	2160.245328
330.040528	2175.424243
330.434265	2194.840247
330.827938	2213.696683
331.221547	2233.891545
331.615091	2252.301839
332.008571	2273.441918
332.401986	2294.450926
332.795338	2311.817701
333.188625	2333.046000
333.581847	2352.018383
333.975006	2369.886752
334.368100	2390.288302
334.761129	2407.990314
335.154095	2423.121337
335.546996	2441.370314
335.939833	2454.855400
336.332606	2466.765126
336.725315	2478.188381
337.117960	2486.362612
337.510540	2494.524240
337.903056	2503.678975
338.295508	2511.344050
338.687896	2518.870492
339.080220	2528.045393
339.472480	2529.252749
339.864676	2536.920344
340.256807	2539.206507
340.648875	2540.355890
341.040879	2540.665921
341.432818	2544.371169
341.824694	2543.557023
342.216506	2544.167002
342.608253	2544.719009
342.999937	2542.158103
343.391557	2545.858310
343.783113	2540.640715
344.174605	2543.867054
344.566033	2541.091899
344.957397	2535.158461
345.348697	2537.225334
345.739934	2534.843388
346.131106	2530.702081
346.522215	2529.598068
346.913260	2529.845084
347.304241	2528.922553
347.695159	2525.479445
348.086012	2522.711852
348.476802	2521.033148
348.867528	2520.425688
349.258191	2522.364012
349.648789	2518.731861
350.039324	2517.494258
350.429796	2515.218177
350.820203	2515.901253
351.210548	2513.327744
351.600828	2512.201046
351.991045	2515.104751
352.381198	2512.909328
352.771288	2514.093999
353.161314	2512.881602
353.551276	2512.155676
353.941175	2514.363701
354.331010	2513.456293
354.720782	2513.635254
355.110490	2513.993176
355.500135	2513.642816
355.889717	2513.751201
356.279235	2514.189781
356.668689	2514.885460
357.058080	2513.564678
357.447408	2513.461334
357.836672	2514.411592
358.225873	2515.250944
358.615010	2511.318844
359.004084	2518.164731
359.393095	2517.211953
359.782043	2517.030471
360.170927	2519.324196
360.559748	2516.987622
360.948505	2522.240504
361.337199	2519.425019
361.725830	2521.721265
362.114398	2520.004752
362.502903	2519.021727
362.891344	2521.590195
363.279722	2518.991480
363.668037	2523.720083
364.056289	2522.840401
364.444478	2525.325690
364.832603	2523.455422
365.220665	2525.393746
365.608665	2526.495238
365.996601	2526.956503
366.384474	2525.537418
366.772284	2525.741585
367.160031	2526.379291
367.547715	2525.983561
367.935336	2527.760567
368.322893	2525.945752
368.710388	2524.035155
369.097820	2531.024714
369.485189	2527.238808
369.872495	2528.723428
370.259738	2529.565300
370.646918	2529.633356
371.034035	2529.081350
371.421090	2532.075795
371.808081	2532.332894
372.195010	2531.773326
372.581875	2533.068902
372.968678	2530.087060
373.355418	2534.145189
373.742096	2532.874818
374.128710	2535.029911
374.515262	2536.418749
374.901751	2537.361445
375.288177	2540.623071
375.674540	2536.877494
376.060841	2541.419574
376.447079	2541.157434
376.833254	2545.132383
377.219367	2545.064328
377.605417	2543.683052
377.991404	2547.519370
378.377329	2552.578168
378.763191	2552.671429
379.148991	2560.094528
379.534727	2562.554611
379.920402	2567.389078
380.306013	2571.656414
380.691563	2572.667166
381.077049	2579.876016
381.462474	2581.990780
381.847835	2589.431523
382.233134	2593.802203
382.618371	2600.915271
383.003545	2604.073554
383.388657	2610.254009
383.773706	2619.824639
384.158693	2624.923767
384.543618	2628.805455
384.928480	2637.304840
385.313280	2643.775161
385.698017	2654.722027
386.082692	2663.418017
386.467305	2666.777946
386.851856	2673.482681
387.236344	2683.703620
387.620770	2691.721576
388.005133	2701.473688
388.389435	2714.835266
388.773674	2718.515308
389.157851	2726.190465
389.541965	2737.618761
389.926018	2742.034812
390.310008	2754.751122
390.693936	2765.040117
391.077802	2770.466919
391.461606	2780.939916
391.845348	2788.990639
392.229027	2800.381126
392.612645	2815.766728
392.996200	2823.963644
393.379694	2836.881601
393.763125	2852.176461
394.146494	2859.644931
394.529801	2870.322095
394.913047	2886.685680
395.296230	2890.358161
395.679351	2894.655744
396.062410	2911.745256
396.445408	2912.922365
396.828343	2920.398396
397.211217	2927.997936
397.594028	2925.547935
397.976778	2935.315171
398.359466	2952.863427
398.742092	2947.308076
399.124656	2964.977320
399.507158	2977.280256
399.889598	2981.156903
400.271977	2997.061743
400.654294	3002.687671
401.036549	3014.355422
401.418742	3018.484127
401.800874	3044.073024
402.182944	3050.223231
402.564952	3079.923189
402.946898	3070.221489
403.328783	3077.657191
403.710606	3095.770056
404.092367	3117.953654
404.474067	3142.932571
404.855705	3132.431848
405.237282	3136.522744
405.618797	3167.074657
406.000250	3189.061649
406.381642	3219.880743
406.762972	3222.378635
407.144240	3211.424208
407.525447	3234.938670
407.906593	3236.186356
408.287677	3255.110847
408.668700	3275.845113
409.049661	3274.027777
409.430560	3288.629479
409.811399	3292.652320
410.192176	3311.657470
410.572891	3318.863799
410.953545	3361.131354
411.334138	3329.540963
411.714669	3380.769168
412.095139	3323.055519
412.475547	3374.187942
412.855894	3363.752754
413.236180	3396.520254
413.616405	3375.150803
413.996568	3399.849936
414.376670	3403.875297
414.756711	3395.204513
415.136691	3424.417999
415.516609	3448.023202
415.896466	3452.156948
416.276262	3481.456134
416.655997	3508.320443
417.035670	3514.911752
417.415283	3581.283583
417.794834	3603.270576
418.174324	3587.063266
418.553753	3588.058894
418.933121	3627.752939
419.312428	3617.017802
419.691674	3611.172584
420.070859	3648.736742
420.449983	3630.543218
420.829045	3673.798839
421.208047	3656.991632
421.586988	3700.932849
421.965867	3731.598188
422.344686	3739.238057
422.723444	3775.738531
423.102141	3677.541895
423.480777	3777.112246
423.859352	3741.123448
424.237866	3833.910926
424.616319	3813.615241
424.994712	3870.718911
425.373044	3853.904142
425.751314	3911.655601
426.129524	3844.187318
426.507673	3934.214764
426.885762	3909.974376
427.263789	3919.671035
427.641756	3917.929317
428.019662	3937.811627
428.397508	3932.450360
428.775292	3959.695276
429.153016	3957.285605
429.530679	3959.864155
429.908282	3955.879123
430.285824	3927.615894
430.663305	3983.061024
431.040726	3934.494548
431.418086	3914.098040
431.795385	3966.218529
432.172624	3982.715705
432.549802	3941.942853
432.926920	3948.357721
433.303977	3927.343671
433.680974	3945.600210
434.057910	3946.870581
434.434786	3937.383129
434.811601	3912.036208
435.188355	3982.549347
435.565050	3939.119807
435.941683	3920.699431
436.318257	3968.355978
436.694770	3954.225624
437.071222	3975.771516
437.447614	3905.008839
437.823946	3889.809760
438.200218	3881.048235
438.576429	3847.421218
438.952580	3843.353007
439.328670	3821.492043
439.704700	3824.609997
440.080670	3779.852113
440.456580	3795.260399
440.832429	3792.916263
441.208218	3710.153120
441.583947	3717.306517
441.959616	3704.156667
442.335224	3692.529246
442.710773	3680.004499
443.086261	3680.143131
443.461689	3631.538846
443.837057	3612.614354
444.212365	3621.426291
444.587612	3597.102724
444.962800	3553.224521
445.337927	3548.818553
445.712995	3470.844505
446.088002	3533.904299
446.462949	3510.654497
446.837837	3490.189933
447.212664	3458.773463
447.587431	3517.384438
447.962139	3596.777570
448.336786	3690.948844
448.711374	3655.096158
449.085901	3501.802231
449.460369	3442.896348
449.834776	3390.440622
450.209124	3428.912188
450.583412	3404.780184
450.957640	3410.262439
451.331808	3339.368693
451.705917	3269.846140
452.079965	3241.013260
452.453954	3220.901577
452.827883	3186.725075
453.201752	3159.412103
453.575562	3141.410143
453.949311	3144.003816
454.323001	3120.537245
454.696632	3095.296188
455.070202	3098.073864
455.443713	3079.663570
455.817164	3070.224009
456.190556	3055.405537
456.563888	3027.817823
456.937160	3012.394413
457.310373	2970.222640
457.683526	2957.339972
458.056619	2934.516148
458.429653	2915.163158
458.802628	2898.431568
459.175542	2881.306769
459.548398	2879.534803
459.921194	2881.032026
460.293930	2870.294368
460.666607	2877.788043
461.039224	2879.131511
461.411782	2873.266128
461.784280	2849.640761
462.156719	2827.701659
462.529099	2809.356901
462.901419	2783.339506
463.273680	2762.063316
463.645882	2746.294587
464.018024	2735.191445
464.390106	2725.272975
464.762130	2728.733727
465.134094	2737.379306
465.505999	2756.001328
465.877845	2773.680655
466.249631	2774.255346
466.621358	2752.732140
466.993026	2734.137844
467.364634	2718.084290
467.736184	2700.064685
468.107674	2686.735874
468.479105	2679.804288
468.850477	2671.496466
469.221790	2663.276865
469.593043	2650.762201
469.964238	2646.063845
470.335373	2639.775006
470.706449	2643.311375
471.077467	2638.620582
471.448425	2645.826911
471.819324	2651.079793
472.190164	2648.077786
472.560945	2637.929943
472.931667	2629.957359
473.302330	2622.317490
473.672934	2621.336986
474.043479	2620.185082
474.413965	2615.305245
474.784393	2610.700151
475.154761	2615.027982
475.525070	2612.323402
475.895321	2608.053545
476.265513	2607.990531
476.635645	2614.324741
477.005719	2609.815428
477.375734	2610.861468
477.745691	2610.334667
478.115588	2611.121087
478.485427	2613.334154
478.855207	2617.830863
479.224928	2618.241717
479.594591	2620.742129
479.964194	2619.065946
480.333739	2617.074690
480.703226	2619.789351
481.072653	2617.931686
481.442022	2619.116357
481.811333	2619.275154
482.180584	2618.841614
482.549777	2616.641151
482.918912	2616.449587
483.287988	2616.373970
483.657005	2613.679473
484.025964	2611.605038
484.394864	2612.482199
484.763706	2612.164606
485.132489	2612.590584
485.501213	2611.728546
485.869879	2611.012702
486.238487	2608.207300
486.607036	2608.159409
486.975527	2610.672425
487.343959	2610.841303
487.712333	2610.301900
488.080648	2611.917590
488.448905	2610.417846
488.817104	2607.859461
489.185244	2611.247116
489.553326	2610.889194
489.921350	2613.122425
490.289315	2616.270626
490.657222	2619.197016
491.025070	2619.305401
491.392861	2619.053343
491.760593	2615.469082
492.128267	2616.691562
492.495883	2612.905656
492.863440	2611.047991
493.230939	2612.076386
493.598380	2609.137393
493.965763	2602.614140
494.333088	2602.911568
494.700354	2602.253698
495.067563	2604.675972
495.434713	2604.343256
495.801805	2603.564398
496.168839	2602.772937
496.535815	2607.204111
496.902733	2604.186980
497.269593	2605.520365
497.636395	2603.501383
498.003139	2603.609768
498.369825	2601.389140
498.736453	2603.594645
499.103023	2602.830910
499.469535	2602.082298
499.835989	2603.481219
500.202385	2603.728235
500.568723	2601.167329
500.935003	2604.925509
501.301226	2602.820827
501.667390	2601.036259
502.033497	2603.398040
502.399546	2601.719335
502.765537	2599.770929
503.131470	2602.455344
503.497345	2603.055241
503.863163	2603.897114
504.228923	2603.501383
504.594625	2599.901999
504.960269	2600.648090
505.325856	2600.322936
505.691385	2600.108687
506.056856	2601.832761
506.422270	2599.599530
506.787625	2600.753954
507.152924	2602.125148
507.518164	2599.886876
507.883347	2599.599530
508.248472	2603.695468
508.613540	2598.712287
508.978550	2603.158585
509.343503	2603.922320
509.708398	2604.396188
510.073236	2603.710591
510.438016	2602.513317
510.802738	2599.375199
511.167403	2602.823348
511.532010	2604.164295
511.896561	2603.113214
512.261053	2601.767226
512.625488	2600.118769
512.989866	2599.347472
513.354186	2600.365786
513.718449	2595.846391
514.082655	2599.128182
514.446803	2603.647577
514.810894	2601.290837
515.174927	2602.727566
515.538904	2602.404932
515.902822	2602.863677
516.266684	2601.772267
516.630488	2600.816969
516.994235	2600.131372
517.357925	2602.813266
517.721558	2601.908379
518.085133	2600.017946
518.448651	2602.104984
518.812112	2601.457195
519.175516	2602.737648
519.538863	2601.666403
519.902152	2601.500045
520.265385	2600.133892
520.628560	2602.563729
520.991678	2601.613471
521.354739	2599.823862
521.717743	2602.488111
522.080690	2603.692947
522.443580	2601.618512
522.806413	2603.640015
523.169189	2601.663883
523.531908	2603.284614
523.894569	2602.208327
524.257174	2599.740682
524.619722	2602.415015
524.982213	2601.890735
525.344647	2602.120107
525.707025	2602.094901
526.069345	2598.556011
526.431608	2600.728749
526.793815	2599.866711
527.155964	2601.374016
527.518057	2602.687237
527.880093	2600.456526
528.242072	2602.997268
528.603995	2602.606578
528.965860	2602.563729
529.327669	2601.091712
529.689421	2599.375199
530.051117	2599.760847
530.412755	2598.881166
530.774337	2599.080291
531.135862	2599.876794
531.497331	2598.883686
531.858743	2594.928901
532.220098	2595.400249
532.581396	2597.376381
532.942638	2593.572831
533.303824	2599.798656
533.664953	2601.479881
534.026025	2600.496856
534.387040	2601.426948
534.747999	2601.396702
535.108902	2598.639190
535.469748	2598.515682
535.830537	2602.742690
536.191270	2599.990220
536.551947	2599.405446
536.912567	2598.971907
537.273131	2599.753285
537.633638	2599.909561
537.994089	2597.807400
538.354483	2597.845209
538.714821	2599.831423
539.075103	2600.917792
539.435328	2597.784715
539.795497	2598.651793
540.155609	2600.297730
540.515665	2598.387133
540.875665	2597.958635
541.235609	2598.460229
541.595496	2600.217072
541.955328	2602.064654
542.315102	2600.091043
542.674821	2596.327821
543.034483	2599.387802
543.394090	2598.959304
543.753640	2600.091043
544.113134	2599.319746
544.472571	2598.818151
544.831953	2599.405446
545.191278	2600.398553
545.550548	2597.343614
545.909761	2597.767071
546.268918	2599.155909
546.628019	2598.530806
546.987064	2598.372009
547.346053	2598.563573
547.704986	2597.081474
548.063863	2598.346803
548.422684	2598.510641
548.781449	2598.550970
549.140158	2597.648604
549.498811	2599.092894
549.857408	2598.757657
550.215949	2595.228850
550.574434	2595.304467
550.932864	2596.027873
551.291237	2595.440578
551.649555	2598.999633
552.007817	2597.759509
552.366022	2601.679006
552.724173	2597.469643
553.082267	2598.724890
553.440305	2599.604571
553.798288	2599.476022
554.156215	2599.276896
554.514086	2602.064654
554.871902	2600.948039
555.229661	2598.379571
555.587365	2597.830085
555.945014	2599.279417
556.302606	2598.636670
556.660143	2597.139447
557.017625	2599.891917
557.375050	2597.552822
557.732421	2597.257914
558.089735	2597.998964
558.446994	2596.932760
558.804197	2598.429982
559.161345	2601.653800
559.518437	2600.534664
559.875474	2599.513831
560.232455	2600.396032
560.589381	2598.757657
560.946251	2601.973914
561.303065	2596.448809
561.659825	2598.941660
562.016528	2599.528954
562.373177	2597.772112
562.729770	2600.086002
563.086307	2598.871083
563.442789	2599.344952
563.799216	2599.355034
564.155587	2599.077771
564.511904	2597.751947
564.868164	2598.218254
565.224370	2599.299582
565.580520	2597.199941
565.936615	2599.937288
566.292654	2597.958635
566.648638	2597.951073
567.004567	2598.684561
567.360441	2600.950559
567.716260	2601.850405
568.072023	2598.051896
568.427732	2593.988726
568.783385	2595.755650
569.138982	2594.515527
569.494525	2595.561566
569.850013	2595.720362
570.205445	2597.739344
570.560823	2596.804210
570.916145	2596.932760
571.271412	2597.358737
571.626625	2599.687750
571.981782	2599.017277
572.336884	2595.458222
572.691931	2597.900661
573.046923	2597.439396
573.401860	2599.150867
573.756743	2599.188676
574.111570	2598.644232
574.466342	2595.322111
574.821059	2597.699015
575.175722	2595.581731
575.530330	2594.402101
575.884882	2598.273707
576.239380	2598.296392
576.593823	2598.951742
576.948211	2598.268666
577.302544	2597.121803
577.656823	2596.506782
578.011047	2598.435024
578.365216	2599.841506
578.719330	2597.290682
579.073389	2598.384612
579.427394	2596.970568
579.781344	2593.303129
580.135239	2596.521906
580.489080	2596.161463
580.842866	2594.379415
581.196597	2597.925867
581.550273	2595.617019
581.903895	2594.374374
582.257463	2597.764550
582.610975	2595.218767
582.964434	2593.414034
583.317837	2595.395208
583.671186	2597.177256
584.024481	2596.907554
584.377721	2597.532657
584.730906	2594.581062
585.084037	2598.286310
585.437113	2596.577358
585.790135	2595.004518
586.143103	2595.717842
586.496016	2596.922677
586.848874	2591.263982
587.201679	2590.858169
587.554428	2591.984867
587.907124	2595.682554
588.259765	2592.703232
588.612352	2595.899323
588.964884	2592.788931
589.317362	2593.910588
589.669786	2595.695157
590.022155	2595.770774
590.374470	2595.433017
590.726731	2595.410331
591.078937	2597.237750
591.431090	2593.756833
591.783188	2596.169025
592.135232	2597.489807
592.487222	2595.861515
592.839157	2597.310846
593.191038	2594.689446
593.542866	2592.070567
593.894639	2593.484611
594.246358	2595.652307
594.598022	2596.274889
594.949633	2594.495362
595.301190	2593.308170
595.652692	2593.277923
596.004141	2594.329004
596.355535	2594.185331
596.706876	2593.093921
597.058162	2594.754981
597.409395	2593.635845
597.760573	2595.148191
598.111698	2592.630135
598.462768	2594.301277
598.813785	2592.156267
599.164748	2592.642738
599.515657	2591.977306
599.866511	2590.280957
600.217312	2591.725248
600.568060	2591.977306
600.918753	2595.128027
601.269392	2593.618201
601.619978	2591.999991
601.970510	2595.654827
602.320988	2594.560897
602.671412	2595.238932
603.021783	2590.185175
603.372100	2591.397573
603.722363	2592.131061
604.072572	2596.315218
604.422728	2595.153232
604.772830	2589.991091
605.122878	2588.314907
605.472872	2590.328848
605.822813	2589.320618
606.172701	2592.236925
606.522534	2592.209199
606.872314	2591.684919
607.222041	2592.892275
607.571714	2591.702563
607.921333	2593.295567
608.270899	2590.341451
608.620411	2592.335227
608.969870	2595.143150
609.319276	2592.839343
609.668627	2594.795311
610.017926	2592.297419
610.367171	2593.903026
610.716362	2591.097624
611.065500	2592.436051
611.414585	2592.325145
611.763616	2594.636514
612.112594	2594.883531
612.461518	2592.975454
612.810389	2591.823550
613.159207	2594.258428
613.507971	2593.885382
613.856682	2593.613160
614.205340	2589.434043
614.553945	2592.942687
614.902496	2592.095773
615.250994	2594.397059
615.599439	2593.550146
615.947830	2591.773139
616.296169	2591.916812
616.644454	2590.626276
616.992686	2593.524940
617.340864	2592.645258
617.688990	2593.464446
618.037063	2593.865218
618.385082	2590.958992
618.733048	2594.034096
619.080961	2591.783221
619.428821	2592.262131
619.776628	2592.189034
620.124382	2596.411000
620.472083	2592.988057
620.819731	2592.730958
621.167326	2592.431009
621.514868	2595.543922
621.862357	2590.568303
622.209793	2591.833633
622.557176	2592.766246
622.904506	2588.534198
623.251783	2590.888416
623.599007	2587.770463
623.946179	2587.281471
624.293297	2588.592171
624.640363	2588.902202
624.987376	2591.599219
625.334336	2591.531163
625.681243	2592.577203
626.028097	2590.908581
626.374899	2592.221802
626.721647	2592.715835
627.068343	2592.375557
627.414987	2590.623756
627.761577	2589.449167
628.108115	2589.933118
628.454600	2589.068560
628.801032	2590.762387
629.147412	2589.756677
629.493739	2590.412027
629.840014	2591.427820
630.186236	2587.044537
630.532405	2591.165680
630.878521	2589.219794
631.224585	2590.558221
631.570597	2589.915474
631.916556	2590.550659
632.262462	2588.035123
632.608316	2590.026379
632.954117	2589.781883
633.299866	2588.123343
633.645562	2588.884558
633.991206	2589.277768
634.336797	2589.532346
634.682336	2588.839187
635.027823	2589.262644
635.373257	2587.004207
635.718639	2586.290884
636.063968	2589.199630
636.409245	2587.974629
636.754470	2587.599063
637.099642	2586.467324
637.444762	2585.285174
637.789829	2586.938672
638.134845	2585.247365
638.479808	2587.664598
638.824719	2584.554207
639.169577	2582.784762
639.514383	2586.928590
639.859137	2585.559917
640.203839	2588.738364
640.548489	2586.921028
640.893086	2582.273084
641.237632	2582.555389
641.582125	2583.898857
641.926566	2582.368866
642.270955	2585.476738
642.615292	2585.426326
642.959576	2588.876996
643.303809	2583.639237
643.647990	2587.228539
643.992118	2586.295925
644.336195	2587.435226
644.680219	2587.951944
645.024192	2587.349526
645.368112	2586.278281
645.711981	2585.849783
646.055797	2584.967581
646.399562	2586.157293
646.743274	2583.976994
647.086935	2588.879517
647.430544	2587.556214
647.774101	2586.424475
648.117606	2588.564444
648.461059	2588.204002
648.804460	2585.948086
649.147810	2589.638210
649.491108	2584.745770
649.834354	2587.117633
650.177548	2583.752663
650.520690	2587.306677
650.863781	2586.779876
651.206820	2586.588312
651.549807	2585.265009
651.892742	2585.265009
652.235626	2583.467838
652.578458	2582.033630
652.921238	2584.037488
653.263967	2584.357602
653.606644	2585.237283
653.949269	2587.135277
654.291843	2584.682756
654.634365	2584.171079
654.976836	2584.183682
655.319255	2584.486151
655.661622	2584.738209
656.003938	2584.400451
656.346203	2586.230390
656.688416	2585.068404
657.030577	2584.609659
657.372687	2583.460276
657.714746	2583.770307
658.056753	2586.762232
658.398708	2582.557910
658.740612	2581.360636
659.082465	2582.517580
659.424266	2580.669997
659.766016	2580.571695
660.107715	2583.107395
660.449362	2584.526480
660.790958	2582.595718
661.132503	2583.795513
661.473996	2585.685946
661.815438	2583.740060
662.156829	2585.227201
662.498168	2581.905080
662.839456	2584.564289
663.180693	2585.948086
663.521879	2584.730647
663.863013	2582.704103
664.204097	2584.002200
664.545129	2581.431212
664.886110	2583.936665
665.227040	2585.796851
665.567918	2583.097313
665.908746	2582.714185
666.249522	2584.876840
666.590248	2583.893815
666.930922	2583.094793
667.271545	2584.143352
667.612118	2585.259968
667.952639	2582.688980
668.293109	2583.684607
668.633528	2583.024216
668.973896	2582.880543
669.314213	2584.448342
669.654480	2587.261306
669.994695	2584.680235
670.334859	2583.719896
670.674973	2582.210070
671.015035	2585.363312
671.355047	2582.562951
671.695008	2584.786100
672.034918	2582.711665
672.374777	2584.244176
672.714585	2583.213260
673.054342	2584.163517
673.394049	2585.479258
673.733705	2582.963722
674.073310	2582.341140
674.412864	2582.978846
674.752368	2582.212591
675.091820	2584.584453
675.431223	2583.876171
675.770574	2582.472210
676.109875	2576.894173
676.449125	2581.695872
676.788324	2581.869792
677.127473	2580.362487
677.466571	2578.630851
677.805619	2582.086562
678.144616	2583.142683
678.483562	2584.002200
678.822458	2581.214442
679.161303	2583.092272
679.500098	2582.971284
679.838842	2582.091603
680.177535	2583.460276
680.516179	2582.860379
680.854771	2583.561099
681.193314	2583.377097
681.531805	2581.940368
681.870247	2582.053794
682.208638	2585.058322
682.546978	2583.233424
682.885268	2585.446491
683.223508	2581.955492
683.561697	2582.021027
683.899836	2581.789134
684.237925	2583.976994
684.575963	2581.685790
684.913951	2582.633527
685.251889	2586.989084
685.589776	2583.276274
685.927614	2580.160841
686.265401	2581.857189
686.603137	2584.508836
686.940824	2578.804771
687.278460	2583.641758
687.616046	2584.070256
687.953582	2585.290215
688.291068	2582.353743
688.628504	2587.006728
688.965889	2581.587488
689.303224	2582.326017
689.640510	2581.637899
689.977745	2584.617221
690.314930	2582.603280
690.652065	2585.312900
690.989150	2583.281315
691.326185	2582.923393
691.663170	2582.744432
692.000105	2581.506829
692.336990	2584.793661
692.673825	2586.003538
693.010610	2583.659402
693.347345	2574.751683
693.684030	2576.442990
694.020665	2579.026581
694.357251	2577.748649
694.693786	2577.809143
695.030272	2578.943402
695.366707	2580.942220
695.703093	2580.332240
696.039429	2579.465162
696.375716	2578.729153
696.711952	2578.330902
697.048139	2579.901222
697.384276	2579.296283
697.720363	2577.410892
698.056400	2580.561613
698.392388	2578.056159
698.728326	2577.378124
699.064214	2578.436766
699.400053	2579.623958
699.735842	2580.763259
700.071581	2578.915676
700.407270	2576.145562
700.742910	2579.961715
701.078501	2579.258474
701.414042	2576.402661
701.749533	2580.735532
702.084974	2578.303176
702.420366	2578.467013
702.755709	2578.940882
703.091002	2577.211766
703.426246	2577.610017
703.761440	2577.814184
704.096584	2578.192270
704.431679	2577.499112
704.766725	2578.678742
705.101721	2576.712692
705.436668	2574.698751
705.771565	2575.454924
706.106413	2577.599935
706.441212	2576.561457
706.775961	2577.496591
707.110661	2577.337795
707.445311	2581.005234
707.779913	2579.276118
708.114465	2578.570357
708.448967	2578.202353
708.783421	2576.085068
709.117825	2578.552713
709.452180	2578.134297
709.786485	2580.291911
710.120742	2580.717888
710.454949	2577.105902
710.789107	2576.306879
711.123216	2575.543144
711.457275	2577.786457
711.791286	2576.296797
712.125247	2575.633885
712.459159	2577.640264
712.793023	2579.374421
713.126837	2580.443146
713.460602	2580.153279
713.794318	2579.510532
714.127985	2578.081365
714.461602	2580.314596
714.795171	2576.435428
715.128691	2578.015830
715.462162	2580.241499
715.795584	2576.911817
716.128957	2577.516756
716.462281	2576.682445
716.795556	2575.407033
717.128782	2578.356108
717.461960	2576.062383
717.795088	2578.066242
718.128167	2578.023392
718.461198	2575.754872
718.794180	2577.058011
719.127113	2574.552557
719.459997	2577.531879
719.792833	2574.537434
720.125619	2577.267219
720.458357	2578.262847
720.791046	2577.685634
721.123686	2575.500294
721.456278	2577.478947
721.788821	2577.194122
722.121315	2575.863257
722.453761	2575.026426
722.786158	2572.493246
723.118506	2576.218659
723.450805	2577.042887
723.783056	2574.124059
724.115259	2574.434090
724.447412	2577.851993
724.779518	2578.570357
725.111574	2575.623803
725.443582	2576.584142
725.775542	2576.442990
726.107453	2575.177660
726.439315	2572.155489
726.771129	2578.588001
727.102895	2577.541962
727.434612	2577.035326
727.766281	2577.506673
728.097901	2573.274625
728.429473	2571.827814
728.760996	2574.141703
729.092471	2573.259501
729.423897	2577.536920
729.755276	2577.010120
730.086606	2578.366190
730.417887	2577.655387
730.749120	2577.642785
731.080305	2579.263516
731.411442	2578.429205
731.742530	2577.146231
732.073570	2577.975501
732.404562	2578.610686
732.735506	2579.944071
733.066401	2578.091447
733.397249	2575.956519
733.728048	2577.680593
734.058798	2575.160016
734.389501	2576.054821
734.720156	2577.758731
735.050762	2577.746128
735.381320	2574.640777
735.711831	2576.674883
736.042293	2577.458782
736.372707	2574.270253
736.703073	2574.539954
737.033391	2575.848134
737.363661	2574.265212
737.693883	2574.565160
738.024056	2578.083886
738.354182	2572.394943
738.684260	2574.731518
739.014290	2576.783268
739.344272	2573.975345
739.674207	2575.031467
740.004093	2577.234451
740.333931	2575.717064
740.663722	2575.689337
740.993464	2576.891653
741.323159	2576.213617
741.652806	2577.388206
741.982405	2576.248906
742.311956	2575.449883
742.641460	2576.022054
742.970915	2574.794533
743.300323	2576.125397
743.629683	2574.676066
743.958996	2574.242526
744.288260	2572.851168
744.617477	2573.065417
744.946647	2570.680951
745.275768	2572.362176
745.604842	2571.321178
745.933869	2569.763461
746.262847	2571.850499
746.591778	2575.926272
746.920662	2574.671024
747.249498	2574.872671
747.578286	2573.551888
747.907027	2574.877712
748.235720	2575.207907
748.564365	2575.291086
748.892963	2571.074161
749.221514	2575.381827
749.550017	2576.097671
749.878473	2572.490725
750.206881	2577.347877
750.535242	2577.461303
750.863555	2571.956363
751.191821	2574.066086
751.520039	2575.901066
751.848210	2575.669173
752.176334	2574.131621
752.504411	2574.300500
752.832440	2572.566343
753.160421	2575.984245
753.488356	2574.550037
753.816243	2575.028946
754.144082	2572.231106
754.471875	2576.979873
754.799620	2575.449883
755.127318	2572.515931
755.454969	2574.005592
755.782572	2574.618092
756.110129	2573.309913
756.437638	2574.459296
756.765100	2572.848647
757.092515	2571.764799
757.419882	2572.304203
757.747203	2576.742939
758.074477	2572.657083
758.401703	2573.388051
758.728882	2572.342011
759.056014	2572.271435
759.383099	2574.996179
759.710138	2574.257650
760.037129	2575.664132
760.364073	2574.192115
760.690970	2570.678431
761.017820	2573.017526
761.344623	2575.301169
761.671379	2573.846796
761.998088	2572.659604
762.324751	2571.066599
762.651366	2571.280848
762.977935	2577.476427
763.304456	2577.378124
763.630931	2581.937848
763.957359	2581.161510
764.283740	2582.111767
764.610074	2578.547672
764.936362	2579.898701
765.262602	2578.802250
765.588796	2577.602455
765.914943	2574.885273
766.241044	2574.424008
766.567097	2571.069120
766.893104	2574.849985
767.219064	2574.597928
767.544978	2573.682958
767.870845	2571.472412
768.196665	2571.542988
768.522438	2569.002247
768.848165	2574.671024
769.173846	2571.679100
769.499479	2573.070458
769.825066	2572.687330
770.150607	2572.558781
770.476101	2571.790005
770.801548	2572.233627
771.126949	2571.250602
771.452303	2568.417473
771.777611	2571.847978
772.102872	2572.342011
772.428087	2573.057855
772.753256	2573.304872
773.078378	2572.190777
773.403453	2570.733883
773.728482	2568.246074
774.053465	2571.618606
774.378401	2569.710529
774.703291	2569.549212
775.028135	2571.215313
775.352932	2568.341856
775.677683	2568.051989
776.002388	2572.306723
776.327046	2573.952660
776.651658	2568.992165
776.976224	2570.592731
777.300743	2572.518452
777.625216	2568.054510
777.949643	2572.611713
778.274024	2570.859912
778.598359	2568.412432
778.922647	2567.225240
779.246889	2567.618450
779.571086	2564.578634
779.895236	2565.312122
780.219339	2567.525189
780.543397	2571.235478
780.867409	2570.542319
781.191374	2567.260528
781.515294	2570.494428
781.839167	2567.683985
782.162995	2569.435786
782.486776	2569.967628
782.810511	2570.368400
783.134201	2571.490056
783.457844	2572.062227
783.781441	2571.822773
784.104993	2569.471074
784.428498	2570.012998
784.751958	2569.481157
785.075372	2567.436969
785.398739	2569.622309
785.722061	2570.343194
786.045337	2571.318657
786.368568	2569.939902
786.691752	2570.154151
787.014891	2568.601475
787.337983	2568.883780
787.661030	2569.619788
787.984031	2571.419480
788.306987	2570.920406
788.629897	2572.762948
788.952760	2572.515931
789.275579	2568.903944
789.598351	2573.889646
789.921078	2569.166084
790.243759	2573.274625
790.566395	2569.952504
790.888984	2570.703636
791.211529	2567.673903
791.534027	2569.962587
791.856480	2568.530899
792.178888	2570.557443
792.501249	2568.984603
792.823566	2573.786302
793.145836	2569.143399
793.468062	2570.328070
793.790241	2568.157854
794.112375	2569.506362
794.434464	2567.638615
794.756507	2568.301527
795.078505	2568.795560
795.400457	2566.340518
795.722364	2565.375137
796.044226	2565.102914
796.366042	2567.691547
796.687812	2563.525033
797.009538	2573.587176
797.331218	2571.069120
797.652852	2570.055848
797.974442	2571.174984
798.295986	2571.981569
798.617484	2570.121383
798.938938	2571.074161
799.260346	2572.591548
799.581709	2570.544840
799.903026	2569.730694
800.224299	2570.018039
800.545526	2572.387382
800.866708	2568.903944
801.187845	2566.890003
801.508936	2569.871846
801.829983	2570.527196
802.150984	2567.157185
802.471940	2569.266907
802.792851	2567.905796
803.113717	2569.876887
803.434538	2570.922927
803.755314	2570.403688
804.076045	2572.994841
804.396731	2567.615930
804.717372	2570.628019
805.037967	2569.433266
805.358518	2568.301527
805.679024	2568.825807
805.999485	2568.845971
806.319901	2569.934860
806.640272	2567.283213
806.960598	2568.697257
807.280879	2567.255487
807.601115	2568.419994
807.921306	2568.699778
808.241453	2570.940571
808.561554	2568.205745
808.881611	2569.566856
809.201623	2570.277659
809.521590	2568.094839
809.841513	2567.258008
810.161390	2569.927299
810.481223	2570.920406
810.801011	2570.355797
811.120755	2569.226578
811.440453	2569.314798
811.760107	2569.241702
812.079716	2567.114335
812.399281	2566.219530
812.718801	2564.447564
813.038276	2564.129972
813.357707	2569.914696
813.677093	2568.397308
813.996434	2567.497462
814.315731	2567.840261
814.634983	2569.760941
814.954191	2568.359500
815.273354	2568.392267
815.592473	2569.176167
815.911547	2569.022412
816.230577	2572.069789
816.549562	2567.026115
816.868502	2568.004098
817.187399	2569.014850
817.506250	2567.966290
817.825058	2569.085426
818.143821	2570.131465
818.462539	2569.453430
818.781213	2570.353276
819.099843	2570.852350
819.418429	2573.282187
819.736970	2572.097515
820.055466	2572.788153
820.373919	2571.376630
820.692327	2575.275963
821.010691	2579.114802
821.329011	2583.578743
821.647286	2595.768253
821.965517	2604.708740
822.283704	2614.803650
822.601847	2617.966974
822.919945	2616.139556
823.237999	2612.207456
823.556010	2606.284100
823.873976	2604.194542
824.191897	2596.229519
824.509775	2595.914447
824.827609	2591.049733
825.145398	2585.867427
825.463144	2585.622931
825.780845	2582.383990
826.098502	2584.110585
826.416116	2587.556214
826.733685	2590.291040
827.051210	2591.490834
827.368692	2588.400607
827.686129	2585.867427
828.003522	2584.246696
828.320872	2575.114646
828.638177	2579.008937
828.955439	2576.775706
829.272656	2573.619944
829.589830	2570.673389
829.906960	2575.190263
830.224046	2572.208421
830.541088	2573.587176
830.858086	2569.917216
831.175041	2571.091805
831.491952	2571.265725
831.808819	2571.056517
832.125642	2571.495097
832.442421	2570.204562
832.759157	2572.773030
833.075849	2571.873184
833.392497	2576.289235
833.709101	2580.241499
834.025662	2581.111098
834.342179	2575.946436
834.658653	2577.312589
834.975083	2576.599266
835.291469	2576.768144
835.607811	2572.805797
835.924110	2570.570046
836.240366	2570.980900
836.556578	2569.423183
836.872746	2572.079871
837.188871	2569.128276
837.504952	2571.119532
837.820990	2568.120045
838.136984	2566.262380
838.452935	2567.416804
838.768842	2568.508214
839.084706	2567.706670
839.400526	2568.767833
839.716303	2567.502504
840.032037	2569.793708
840.347727	2569.561815
840.663373	2571.031311
840.978977	2571.570715
841.294537	2569.269428
841.610054	2569.975190
841.925527	2570.595252
842.240957	2570.333112
842.556344	2566.864798
842.871687	2571.301013
843.186987	2566.673234
843.502244	2566.648028
843.817458	2566.927812
844.132629	2567.144582
844.447756	2568.293965
844.762840	2563.555280
845.077881	2564.094684
845.392879	2565.365054
845.707833	2568.508214
846.022745	2564.145095
846.337613	2565.937225
846.652438	2563.756926
846.967221	2565.644838
847.281960	2564.129972
847.596656	2567.610888
847.911309	2562.809189
848.225919	2566.164077
848.540485	2566.741289
848.855009	2568.329253
849.169490	2567.706670
849.483928	2565.554098
849.798323	2566.537123
850.112675	2567.056362
850.426984	2565.362534
850.741251	2567.512586
851.055474	2565.843964
851.369654	2563.570404
851.683792	2564.520661
851.997887	2565.680127
852.311938	2566.012843
852.625947	2564.447564
852.939914	2565.412945
853.253837	2566.806824
853.567718	2564.079560
853.881555	2562.950342
854.195350	2565.465878
854.509103	2566.176680
854.822812	2563.837585
855.136479	2566.262380
855.450103	2564.860939
855.763685	2562.786504
856.077224	2563.532595
856.390720	2565.808676
856.704173	2566.060734
857.017584	2565.498645
857.330953	2563.688871
857.644278	2566.322874
857.957561	2564.044272
858.270802	2567.719273
858.584000	2565.465878
858.897155	2565.657441
859.210268	2565.682647
859.523339	2566.327915
859.836367	2568.356979
860.149352	2566.358162
860.462295	2566.683316
860.775195	2561.700136
861.088054	2560.497820
861.400869	2562.640311
861.713642	2560.165104
862.026373	2565.473439
862.339062	2565.261711
862.651708	2566.423697
862.964312	2565.400342
863.276873	2565.675085
863.589392	2566.635425
863.901869	2565.685168
864.214303	2564.124931
864.526696	2563.124262
864.839045	2565.344890
865.151353	2566.872359
865.463619	2565.770867
865.775842	2564.369427
866.088023	2565.150805
866.400162	2564.631567
866.712258	2566.625343
867.024313	2564.384550
867.336325	2568.329253
867.648296	2564.800445
867.960224	2565.854046
868.272110	2562.776422
868.583954	2566.811866
868.895755	2566.532082
869.207515	2566.501835
869.519233	2565.607030
869.830909	2563.404046
870.142542	2567.928481
870.454134	2564.802966
870.765684	2567.053841
871.077191	2564.165260
871.388657	2565.244067
871.700081	2563.908161
872.011463	2567.051320
872.322803	2563.391443
872.634101	2563.903120
872.945357	2567.089129
873.256571	2565.251628
873.567744	2566.096022
873.878874	2565.760785
874.189963	2567.321022
874.501010	2569.289593
874.812015	2566.872359
875.122979	2565.733059
875.433900	2565.639797
875.744780	2567.512586
876.055618	2565.327246
876.366415	2565.619633
876.677169	2565.612071
876.987882	2563.351113
877.298554	2564.034190
877.609183	2561.536298
877.919771	2562.678119
878.230317	2564.871021
878.540822	2565.705332
878.851285	2572.946950
879.161707	2566.917730
879.472087	2570.247412
879.782425	2569.720611
880.092722	2571.986610
880.402977	2575.202866
880.713191	2579.969277
881.023363	2584.783579
881.333494	2592.572162
881.643583	2592.173911
881.953631	2594.762543
882.263637	2591.616863
882.573602	2592.186513
882.883526	2589.194589
883.193408	2586.187540
883.503248	2586.605956
883.813048	2583.253589
884.122806	2580.836356
884.432522	2579.772672
884.742197	2576.818556
885.051831	2575.197825
885.361424	2575.308730
885.670975	2572.823442
885.980485	2571.679100
886.289954	2572.737742
886.599382	2572.818400
886.908768	2569.100549
887.218113	2568.316650
887.527417	2569.103070
887.836680	2565.949828
888.145901	2567.845302
888.455082	2565.579303
888.764221	2568.757751
889.073319	2564.472770
889.382376	2563.968655
889.691392	2566.035528
890.000366	2566.411094
890.309300	2564.626525
890.618193	2567.109294
890.927044	2564.427400
891.235855	2568.026784
891.544625	2567.114335
891.853353	2568.203224
892.162041	2565.455795
892.470687	2567.976372
892.779293	2565.705332
893.087858	2565.453275
893.396381	2567.444530
893.704864	2566.837071
894.013306	2565.856567
894.321707	2574.184553
894.630068	2572.883935
894.938387	2574.595407
895.246665	2573.519121
895.554903	2573.897207
895.863100	2571.981569
896.171256	2572.871332
896.479371	2572.213462
896.787446	2570.880077
897.095480	2571.016188
897.403473	2568.175498
897.711425	2566.958059
898.019336	2567.739438
898.327207	2568.079716
898.635038	2567.434448
898.942827	2566.748851
899.250576	2564.949159
899.558284	2564.911351
899.865952	2569.140879
900.173579	2566.438820
900.481165	2565.450754
900.788711	2565.765826
901.096216	2564.928995
901.403681	2568.122566
901.711105	2565.818758
902.018489	2564.334138
902.325832	2568.014181
902.633135	2565.042421
902.940397	2566.141392
903.247619	2566.622822
903.554800	2569.433266
903.861941	2570.963256
904.169041	2573.594738
904.476101	2574.058524
904.783121	2573.181363
905.090100	2575.454924
905.397039	2573.370407
905.703938	2574.418967
906.010796	2573.302351
906.317614	2570.169274
906.624391	2571.495097
906.931129	2569.700447
907.237826	2570.015519
907.544483	2567.467216
907.851099	2567.442010
908.157675	2563.290620
908.464211	2564.054354
908.770707	2560.165104
909.077163	2562.410938
909.383578	2562.126113
909.689954	2561.811041
909.996289	2562.433623
910.302584	2565.912020
910.608839	2566.544684
910.915054	2562.015208
911.221229	2567.008471
911.527363	2563.890517
911.833458	2562.242060
912.139513	2564.840774
912.445527	2564.936556
912.751502	2565.690209
913.057436	2564.676937
913.363331	2565.906978
913.669186	2565.107956
913.975000	2566.958059
914.280775	2565.775908
914.586510	2567.066444
914.892205	2569.939902
915.197859	2570.418811
915.503475	2570.754048
915.809050	2573.264542
916.114585	2573.299831
916.420081	2573.627506
916.725536	2574.010633
917.030952	2575.036508
917.336328	2575.076837
917.641665	2574.098853
917.946961	2573.834193
918.252218	2570.033163
918.557435	2572.561302
918.862612	2570.469223
919.167750	2569.856723
919.472848	2570.837227
919.777906	2567.729356
920.082925	2568.919068
920.387904	2567.174829
920.692843	2567.129458
920.997743	2566.854715
921.302603	2566.685837
921.607423	2564.523182
921.912204	2565.740620
922.216946	2564.548388
922.521647	2565.753223
922.826310	2565.062585
923.130932	2565.710373
923.435516	2563.749365
923.740059	2565.788511
924.044564	2565.622153
924.349028	2564.750034
924.653454	2558.241904
924.957840	2562.153839
925.262186	2560.669220
925.566493	2561.392625
925.870761	2559.318190
926.174989	2563.628377
926.479178	2563.610733
926.783328	2564.223233
927.087438	2562.597461
927.391509	2562.151319
927.695541	2564.699622
927.999533	2563.174673
928.303486	2561.117882
928.607400	2560.311298
928.911275	2564.399673
929.215110	2561.430434
929.518906	2561.584189
929.822663	2562.355486
930.126381	2565.995199
930.430060	2563.598130
930.733699	2559.860114
931.037299	2563.882955
931.340861	2561.647203
931.644383	2562.272307
931.947866	2563.822461
932.251309	2564.601320
932.554714	2561.851370
932.858080	2560.588561
933.161407	2563.179714
933.464694	2561.662327
933.767943	2561.659806
934.071153	2562.037893
934.374323	2562.289951
934.677455	2561.266596
934.980548	2563.043603
935.283602	2562.335321
935.586617	2563.880435
935.889593	2563.819941
936.192530	2562.834395
936.495428	2563.393963
936.798287	2560.797769
937.101108	2562.854560
937.403890	2564.248439
937.706632	2565.407904
938.009336	2563.436813
938.312002	2561.659806
938.614628	2564.954200
938.917216	2562.499158
939.219765	2563.469581
939.522275	2566.060734
939.824747	2565.251628
940.127179	2560.817934
940.429573	2558.937583
940.731929	2560.475135
941.034246	2560.707028
941.336524	2560.472615
941.638763	2562.869683
941.940964	2564.767678
942.243126	2563.399004
942.545250	2566.743810
942.847335	2563.456978
943.149381	2562.269786
943.451389	2561.095197
943.753359	2563.552760
944.055290	2564.876062
944.357182	2564.150136
944.659036	2560.434806
944.960851	2564.008984
945.262628	2563.230126
945.564367	2562.736093
945.866067	2563.033521
946.167729	2563.051165
946.469352	2560.195351
946.770937	2563.043603
947.072484	2561.485887
947.373992	2563.585527
947.675462	2562.751216
947.976893	2565.017215
948.278286	2561.541339
948.579641	2562.133675
948.880958	2563.010836
949.182236	2562.915054
949.483476	2563.290620
949.784678	2564.813048
950.085841	2563.303223
950.386967	2560.775084
950.688054	2562.383212
950.989103	2564.198027
951.290114	2564.503017
951.591087	2561.879097
951.892021	2564.815569
952.192917	2561.669889
952.493776	2565.279355
952.794596	2561.992522
953.095378	2561.798438
953.396122	2561.586710
953.696828	2561.705177
953.997496	2561.528736
954.298126	2563.335990
954.598718	2562.637790
954.899272	2559.920608
955.199788	2561.735424
955.500266	2563.209961
955.800706	2563.010836
956.101108	2558.004970
956.401472	2561.160732
956.701798	2557.836091
957.002087	2558.204095
957.302337	2559.923129
957.602550	2562.073181
957.902724	2562.012687
958.202861	2563.230126
958.502960	2561.347255
958.803022	2562.947821
959.103045	2560.429765
959.403031	2561.556463
959.702979	2562.587379
960.002889	2562.380691
960.302762	2561.027142
960.602596	2560.737275
960.902393	2560.699467
961.202153	2560.402038
961.501875	2560.749878
961.801559	2560.449929
962.101205	2560.833057
962.400814	2562.887327
962.700385	2560.427244
962.999918	2561.725341
963.299414	2561.553942
963.598873	2561.150650
963.898293	2561.473284
964.197677	2562.884807
964.497022	2561.448078
964.796331	2562.050496
965.095601	2560.099569
965.394835	2563.787173
965.694030	2559.487069
965.993189	2562.335321
966.292309	2560.495300
966.591393	2561.758109
966.890439	2558.743499
967.189447	2562.050496
967.488419	2560.293654
967.787353	2560.901113
968.086249	2560.606205
968.385108	2563.096535
968.683930	2562.587379
968.982714	2563.925805
969.281462	2561.826164
969.580172	2562.267265
969.878844	2560.454971
970.177480	2562.128634
970.476078	2559.650907
970.774639	2562.252142
971.073162	2561.279199
971.371649	2558.171328
971.670098	2559.789538
971.968510	2558.577141
972.266885	2558.307439
972.565223	2563.368757
972.863524	2560.664178
973.161788	2561.291802
973.460014	2558.499003
973.758204	2559.965979
974.056356	2563.252811
974.354471	2561.561504
974.652550	2560.127296
974.950591	2561.717780
975.248595	2562.950342
975.546563	2560.218036
975.844493	2560.553273
976.142386	2558.478838
976.440243	2560.626370
976.738062	2559.086297
977.035845	2562.116031
977.333590	2558.977912
977.631299	2558.050340
977.928971	2562.219374
978.226606	2561.619477
978.524204	2563.411607
978.821765	2560.704508
979.119290	2560.417162
979.416777	2563.376319
979.714228	2562.237018
980.011642	2560.170145
980.309020	2563.676268
980.606360	2561.863973
980.903664	2561.790876
981.200931	2561.627039
981.498162	2563.852708
981.795356	2561.861452
982.092513	2562.993192
982.389633	2562.141237
982.686717	2563.078891
982.983764	2562.005125
983.280775	2563.068809
983.577749	2564.533264
983.874686	2561.853891
984.171587	2562.133675
984.468451	2561.715259
984.765279	2561.657286
985.062070	2561.700136
985.358824	2562.511761
985.655543	2561.644683
985.952224	2562.146278
986.248869	2559.010680
986.545478	2556.611091
986.842050	2556.936245
987.138586	2557.432799
987.435086	2556.926163
987.731549	2554.652602
988.027975	2558.640155
988.324366	2558.743499
988.620719	2561.309446
988.917037	2561.553942
989.213318	2561.397666
989.509563	2559.459343
989.805772	2560.477656
990.101944	2560.097049
990.398080	2560.885989
990.694180	2560.298695
990.990244	2562.262224
991.286271	2559.091338
991.582262	2561.385063
991.878217	2559.257697
992.174136	2559.713921
992.470019	2562.789025
992.765865	2560.681822
993.061676	2562.012687
993.357450	2560.016390
993.653188	2561.067471
993.948890	2558.130999
994.244556	2559.131668
994.540186	2561.987481
994.835780	2558.378015
995.131337	2562.194169
995.426859	2561.490928
995.722345	2557.843653
996.017795	2562.025290
996.313208	2562.637790
996.608586	2559.620660
996.903928	2560.270968
997.199234	2560.011349
997.494504	2565.314643
997.789738	2562.998233
998.084936	2561.437996
998.380099	2560.492779
998.675225	2561.644683
998.970316	2562.224416
999.265371	2561.180897
999.560390	2561.405228
999.855373	2562.438665
1000.150320	2561.690053
1000.445232	2560.210475
1000.740108	2560.626370
1001.034948	2559.119065
1001.329752	2558.138560
1001.624521	2562.864642
1001.919254	2559.043447
1002.213951	2553.611604
1002.508613	2558.181410
1002.803239	2557.757953
1003.097829	2557.485731
1003.392384	2558.748540
1003.686903	2562.877245
1003.981386	2561.619477
1004.275834	2558.919939
1004.570246	2561.440516
1004.864623	2559.844991
1005.158964	2559.860114
1005.453270	2560.215516
1005.747540	2559.668551
1006.041775	2560.233160
1006.335974	2560.107131
1006.630138	2560.386915
1006.924266	2561.874055
1007.218359	2559.245094
1007.512416	2557.694939
1007.806438	2559.020762
1008.100425	2560.260886
1008.394376	2559.247614
1008.688292	2559.061092
1008.982172	2559.010680
1009.276017	2558.652758
1009.569827	2560.389436
1009.863602	2559.436657
1010.157341	2559.749209
1010.451045	2559.111503
1010.744714	2557.216029
1011.038347	2560.457491
1011.331945	2556.283416
1011.625508	2561.760629
1011.919036	2558.909857
1012.212528	2562.458829
1012.505986	2556.369115
1012.799408	2559.718962
1013.092795	2560.152501
1013.386147	2557.334496
1013.679464	2559.998746
1013.972745	2559.197203
1014.265992	2559.303067
1014.559204	2559.769374
1014.852380	2561.072512
1015.145521	2558.703170
1015.438628	2560.381874
1015.731699	2557.760474
1016.024736	2557.324414
1016.317737	2559.330793
1016.610703	2561.599312
1016.903635	2555.282747
1017.196531	2554.118240
1017.489393	2555.242417
1017.782219	2555.597819
1018.075011	2555.832232
1018.367768	2557.009342
1018.660490	2557.382387
1018.953177	2557.382387
1019.245829	2557.382387
