Dividing Wavelength (nm)	Counts (n)	Blue Motor Position (mm): 0.000000	Red Motor Position (mm): 19.500000	
326.493990	2145.467186
326.888308	2145.467186
327.282561	2145.467186
327.676750	2118.358381
328.070874	2121.975409
328.464933	2124.122941
328.858929	2134.721967
329.252859	2147.574388
329.646726	2160.996460
330.040528	2176.263595
330.434265	2191.946624
330.827938	2213.336240
331.221547	2231.325598
331.615091	2252.342168
332.008571	2271.319592
332.401986	2292.938580
332.795338	2311.525314
333.188625	2334.444920
333.581847	2353.891171
333.975006	2368.734849
334.368100	2391.548590
334.761129	2408.875036
335.154095	2424.593354
335.546996	2442.895263
335.939833	2453.771552
336.332606	2468.196814
336.725315	2478.062352
337.117960	2485.755153
337.510540	2495.658500
337.903056	2503.371465
338.295508	2511.817918
338.687896	2520.665143
339.080220	2525.865093
339.472480	2531.065044
339.864676	2533.262987
340.256807	2540.013092
340.648875	2538.861188
341.040879	2545.172713
341.432818	2543.050387
341.824694	2544.103988
342.216506	2542.213555
342.608253	2543.592311
342.999937	2541.727084
343.391557	2542.823535
343.783113	2542.024512
344.174605	2537.830272
344.566033	2539.365303
344.957397	2537.406815
345.348697	2533.880528
345.739934	2531.387677
346.131106	2533.363810
346.522215	2531.417924
346.913260	2526.142357
347.304241	2526.679240
347.695159	2525.401307
348.086012	2524.171266
348.476802	2520.985257
348.867528	2519.989629
349.258191	2521.713703
349.648789	2518.809999
350.039324	2519.117509
350.429796	2519.276305
350.820203	2514.971160
351.210548	2515.346726
351.600828	2515.649195
351.991045	2510.766838
352.381198	2511.815398
352.771288	2515.082065
353.161314	2513.841942
353.551276	2513.342867
353.941175	2512.962260
354.331010	2513.476458
354.720782	2514.179699
355.110490	2516.395286
355.500135	2512.891684
355.889717	2513.559637
356.279235	2511.591066
356.668689	2514.270440
357.058080	2514.807322
357.447408	2511.631396
357.836672	2513.496623
358.225873	2510.981087
358.615010	2512.349760
359.004084	2517.711027
359.393095	2517.615245
359.782043	2517.521984
360.170927	2517.474093
360.559748	2518.323527
360.948505	2520.579444
361.337199	2522.454753
361.725830	2520.965092
362.114398	2519.946779
362.502903	2520.231604
362.891344	2523.659589
363.279722	2521.065915
363.668037	2523.566327
364.056289	2525.083715
364.444478	2524.030113
364.832603	2523.626821
365.220665	2524.350227
365.608665	2525.358458
365.996601	2524.917357
366.384474	2526.689322
366.772284	2525.890299
367.160031	2525.348375
367.547715	2526.016328
367.935336	2524.725793
368.322893	2526.732172
368.710388	2524.277130
369.097820	2531.922040
369.485189	2528.448685
369.872495	2528.158818
370.259738	2531.662420
370.646918	2524.446009
371.034035	2527.876514
371.421090	2529.769467
371.808081	2528.582275
372.195010	2530.218130
372.581875	2531.296937
372.968678	2532.282482
373.355418	2534.772812
373.742096	2532.688295
374.128710	2534.276259
374.515262	2536.713657
374.901751	2537.263142
375.288177	2540.638195
375.674540	2539.922351
376.060841	2540.371014
376.447079	2543.267157
376.833254	2542.125335
377.219367	2542.203473
377.605417	2545.155069
377.991404	2546.753114
378.377329	2549.286294
378.763191	2554.455998
379.148991	2560.165104
379.534727	2563.134344
379.920402	2566.832030
380.306013	2570.638101
380.691563	2576.571539
381.077049	2579.674370
381.462474	2584.750812
381.847835	2587.510843
382.233134	2595.811103
382.618371	2598.939139
383.003545	2605.409460
383.388657	2612.540172
383.773706	2616.605863
384.158693	2622.274640
384.543618	2629.135651
384.928480	2634.534726
385.313280	2644.342291
385.698017	2651.588950
386.082692	2662.553459
386.467305	2664.950528
386.851856	2676.222548
387.236344	2687.484486
387.620770	2691.555217
388.005133	2702.411342
388.389435	2711.218238
388.773674	2717.597818
389.157851	2727.780949
389.541965	2736.224882
389.926018	2738.957187
390.310008	2753.926893
390.693936	2762.199427
391.077802	2770.534975
391.461606	2781.242386
391.845348	2793.295784
392.229027	2799.088070
392.612645	2815.285297
392.996200	2820.676812
393.379694	2837.446210
393.763125	2850.795185
394.146494	2861.747092
394.529801	2871.113556
394.913047	2888.077038
395.296230	2890.781618
395.679351	2890.610218
396.062410	2913.164341
396.445408	2909.138979
396.828343	2924.433840
397.211217	2930.730241
397.594028	2925.167328
397.976778	2936.414142
398.359466	2952.271092
398.742092	2947.691203
399.124656	2964.160653
399.507158	2978.716985
399.889598	2982.671770
400.271977	2995.501506
400.654294	3005.440141
401.036549	3019.383973
401.418742	3022.577544
401.800874	3044.478837
402.182944	3050.674415
402.564952	3081.213725
402.946898	3071.552353
403.328783	3080.913776
403.710606	3095.044130
404.092367	3117.578088
404.474067	3144.160092
404.855705	3134.612147
405.237282	3137.238588
405.618797	3167.919050
406.000250	3188.073583
406.381642	3220.473079
406.762972	3222.129098
407.144240	3213.554095
407.525447	3236.209041
407.906593	3235.639390
408.287677	3256.413985
408.668700	3275.393930
409.049661	3274.698250
409.430560	3288.987401
409.811399	3294.076446
410.192176	3312.799291
410.572891	3319.322544
410.953545	3357.859645
411.334138	3327.174141
411.714669	3381.215311
412.095139	3326.654903
412.475547	3375.677603
412.855894	3368.095708
413.236180	3395.428844
413.616405	3377.719270
413.996568	3402.945204
414.376670	3402.456212
414.756711	3396.396745
415.136691	3425.033020
415.516609	3445.374076
415.896466	3451.877164
416.276262	3481.365393
416.655997	3507.498735
417.035670	3511.577028
417.415283	3581.517997
417.794834	3599.361161
418.174324	3584.945982
418.553753	3580.605548
418.933121	3619.702217
419.312428	3608.218468
419.691674	3604.351903
420.070859	3641.545536
420.449983	3620.733133
420.829045	3664.376922
421.208047	3648.356135
421.586988	3689.113864
421.965867	3716.822566
422.344686	3725.952096
422.723444	3756.078031
423.102141	3656.611025
423.480777	3754.280860
423.859352	3720.600911
424.237866	3806.119045
424.616319	3788.691776
424.994712	3841.089529
425.373044	3818.616065
425.751314	3874.817369
426.129524	3802.756595
426.507673	3891.044843
426.885762	3857.334647
427.263789	3868.939383
427.641756	3863.472252
428.019662	3882.008575
428.397508	3873.673027
428.775292	3891.349833
429.153016	3886.835480
429.530679	3888.126015
429.908282	3880.501270
430.285824	3853.626879
430.663305	3899.234197
431.040726	3849.467927
431.418086	3830.056964
431.795385	3871.649004
432.172624	3886.081827
432.549802	3839.315043
432.926920	3836.796987
433.303977	3816.627330
433.680974	3832.678364
434.057910	3831.279444
434.434786	3815.961898
434.811601	3789.155562
435.188355	3850.307279
435.565050	3803.981596
435.941683	3786.962660
436.318257	3819.412568
436.694770	3800.888848
437.071222	3815.971980
437.447614	3749.849686
437.823946	3730.665575
438.200218	3717.246023
438.576429	3684.440714
438.952580	3675.059127
439.328670	3656.026251
439.704700	3655.403668
440.080670	3608.594034
440.456580	3614.164509
440.832429	3608.117645
441.208218	3532.646531
441.583947	3537.692726
441.959616	3519.201774
442.335224	3507.067716
442.710773	3487.162720
443.086261	3486.681290
443.461689	3437.535081
443.837057	3418.560178
444.212365	3423.109820
444.587612	3398.975296
444.962800	3362.184955
445.337927	3348.820856
445.712995	3279.799898
446.088002	3323.153821
446.462949	3306.613795
446.837837	3283.671504
447.212664	3250.362080
447.587431	3294.857825
447.962139	3351.046525
448.336786	3418.545055
448.711374	3383.209087
449.085901	3267.398660
449.460369	3213.990155
449.834776	3174.850637
450.209124	3198.581868
450.583412	3174.515400
450.957640	3175.722756
451.331808	3123.433388
451.705917	3068.595717
452.079965	3042.444731
452.453954	3022.814478
452.827883	2995.594768
453.201752	2974.447127
453.575562	2958.146556
453.949311	2958.358285
454.323001	2936.842640
454.696632	2915.488313
455.070202	2916.826739
455.443713	2903.661766
455.817164	2890.537122
456.190556	2881.392468
456.563888	2859.710466
456.937160	2848.544310
457.310373	2821.150680
457.683526	2808.220120
458.056619	2793.326031
458.429653	2778.003444
458.802628	2768.241250
459.175542	2758.579878
459.548398	2755.156935
459.921194	2753.321955
460.293930	2745.558578
460.666607	2750.471182
461.039224	2753.221132
461.411782	2746.160996
461.784280	2730.924108
462.156719	2719.407592
462.529099	2704.001826
462.901419	2690.952800
463.273680	2680.580626
463.645882	2669.003616
464.018024	2662.170332
464.390106	2659.188489
464.762130	2660.844508
465.134094	2664.617812
465.505999	2676.051149
465.877845	2686.289732
466.249631	2686.549352
466.621358	2676.167095
466.993026	2667.614778
467.364634	2656.584733
467.736184	2644.634678
468.107674	2638.451703
468.479105	2632.636732
468.850477	2631.081536
469.221790	2626.078191
469.593043	2619.950668
469.964238	2617.974536
470.335373	2616.265585
470.706449	2615.970677
471.077467	2615.637961
471.448425	2618.380349
471.819324	2623.388735
472.190164	2622.284722
472.560945	2617.349433
472.931667	2611.859616
473.302330	2607.922475
473.672934	2607.093205
474.043479	2607.846858
474.413965	2603.511466
474.784393	2599.208841
475.154761	2600.869901
475.525070	2602.757813
475.895321	2600.191866
476.265513	2599.239088
476.635645	2602.462906
477.005719	2605.452310
477.375734	2602.498194
477.745691	2604.499532
478.115588	2604.638163
478.485427	2603.818976
478.855207	2609.147476
479.224928	2610.639657
479.594591	2613.351798
479.964194	2612.520007
480.333739	2612.343567
480.703226	2610.478340
481.072653	2611.781478
481.442022	2611.640326
481.811333	2611.481530
482.180584	2612.814915
482.549777	2612.930862
482.918912	2610.067486
483.287988	2610.304420
483.657005	2609.379369
484.025964	2607.556992
484.394864	2610.029678
484.763706	2609.182764
485.132489	2610.669904
485.501213	2607.625047
485.869879	2605.822835
486.238487	2605.018771
486.607036	2605.510283
486.975527	2607.168823
487.343959	2606.581528
487.712333	2607.163782
488.080648	2606.478185
488.448905	2607.511621
488.817104	2606.931888
489.185244	2607.998092
489.553326	2607.892228
489.921350	2613.031685
490.289315	2612.472117
490.657222	2615.930348
491.025070	2614.803650
491.392861	2615.194340
491.760593	2615.474124
492.128267	2612.078907
492.495883	2610.327106
492.863440	2608.343412
493.230939	2606.208483
493.598380	2605.162443
493.965763	2601.061465
494.333088	2601.396702
494.700354	2604.257556
495.067563	2602.349480
495.434713	2597.756988
495.801805	2602.278903
496.168839	2600.932915
496.535815	2601.132041
496.902733	2600.731269
497.269593	2602.750251
497.636395	2601.177411
498.003139	2600.091043
498.369825	2599.468460
498.736453	2599.912082
499.103023	2597.441916
499.469535	2600.867380
499.835989	2598.021649
500.202385	2599.171032
500.568723	2599.705394
500.935003	2596.983171
501.301226	2599.196238
501.667390	2598.399736
502.033497	2600.517020
502.399546	2601.066506
502.765537	2597.562904
503.131470	2601.515169
503.497345	2598.281268
503.863163	2601.878132
504.228923	2599.561722
504.594625	2600.088522
504.960269	2599.420569
505.325856	2600.572473
505.691385	2597.489807
506.056856	2598.321598
506.422270	2599.062647
506.787625	2597.147009
507.152924	2599.564242
507.518164	2599.987699
507.883347	2596.733634
508.248472	2600.590117
508.613540	2599.155909
508.978550	2597.545260
509.343503	2598.089705
509.708398	2598.871083
510.073236	2596.148860
510.438016	2601.311002
510.802738	2598.341762
511.167403	2601.467278
511.532010	2599.423090
511.896561	2600.146495
512.261053	2599.700353
512.625488	2598.011567
512.989866	2594.185331
513.354186	2597.643562
513.718449	2595.556525
514.082655	2596.375712
514.446803	2598.692122
514.810894	2599.087853
515.174927	2601.837803
515.538904	2602.951897
515.902822	2600.287648
516.266684	2599.564242
516.630488	2597.726742
516.994235	2599.798656
517.357925	2600.529623
517.721558	2602.578852
518.085133	2602.092381
518.448651	2601.618512
518.812112	2599.057606
519.175516	2597.338573
519.538863	2600.280086
519.902152	2599.793615
520.265385	2598.918974
520.628560	2601.769747
520.991678	2599.675147
521.354739	2599.838985
521.717743	2598.498038
522.080690	2601.101794
522.443580	2601.497525
522.806413	2600.416197
523.169189	2601.308481
523.531908	2600.383430
523.894569	2597.545260
524.257174	2599.506269
524.619722	2598.102307
524.982213	2601.225302
525.344647	2599.292020
525.707025	2599.523913
526.069345	2600.605240
526.431608	2599.975096
526.793815	2600.305292
527.155964	2600.645570
527.518057	2599.090374
527.880093	2600.872422
528.242072	2598.495517
528.603995	2600.471650
528.965860	2598.848398
529.327669	2601.202617
529.689421	2598.417380
530.051117	2599.405446
530.412755	2595.629622
530.774337	2598.339242
531.135862	2602.077257
531.497331	2596.542070
531.858743	2596.887389
532.220098	2598.445106
532.581396	2597.033583
532.942638	2596.506782
533.303824	2598.117431
533.664953	2598.240939
534.026025	2595.377564
534.387040	2598.979468
534.747999	2598.135075
535.108902	2595.922008
535.469748	2596.025352
535.830537	2599.987699
536.191270	2597.275558
536.551947	2598.251022
536.912567	2598.450147
537.273131	2597.928388
537.633638	2596.675661
537.994089	2597.527616
538.354483	2595.919488
538.714821	2596.055599
539.075103	2596.910075
539.435328	2595.695157
539.795497	2597.046186
540.155609	2596.458891
540.515665	2597.225147
540.875665	2597.915785
541.235609	2597.620877
541.595496	2596.912595
541.955328	2597.928388
542.315102	2597.726742
542.674821	2598.306474
543.034483	2599.153388
543.394090	2597.797318
543.753640	2596.781525
544.113134	2596.574838
544.472571	2596.877307
544.831953	2598.598861
545.191278	2598.974427
545.550548	2596.942842
545.909761	2595.322111
546.268918	2597.794797
546.628019	2598.437544
546.987064	2599.498707
547.346053	2597.225147
547.704986	2597.598192
548.063863	2596.640373
548.422684	2596.353027
548.781449	2598.929057
549.140158	2595.042327
549.498811	2596.325301
549.857408	2597.643563
550.215949	2593.814806
550.574434	2595.611977
550.932864	2594.389498
551.291237	2593.819847
551.649555	2595.995105
552.007817	2594.064343
552.366022	2597.557863
552.724173	2599.932246
553.082267	2594.838160
553.440305	2599.465940
553.798288	2596.521906
554.156215	2596.698346
554.514086	2595.692636
554.871902	2595.012080
555.229661	2596.809252
555.587365	2595.748089
555.945014	2598.790425
556.302606	2596.385795
556.660143	2598.155240
557.017625	2595.846391
557.375050	2597.567945
557.732421	2598.361927
558.089735	2596.332862
558.446994	2599.554160
558.804197	2597.608274
559.161345	2596.587441
559.518437	2598.820672
559.875474	2598.122472
560.232455	2595.838829
560.589381	2598.871083
560.946251	2600.552308
561.303065	2598.046855
561.659825	2597.804879
562.016528	2597.454519
562.373177	2595.526278
562.729770	2597.194900
563.086307	2597.595672
563.442789	2597.555342
563.799216	2597.502410
564.155587	2596.083325
564.511904	2597.729262
564.868164	2596.234560
565.224370	2599.135744
565.580520	2602.208327
565.936615	2596.075764
566.292654	2597.888058
566.648638	2597.840167
567.004567	2598.485435
567.360441	2598.460229
567.716260	2597.756988
568.072023	2596.358068
568.427732	2594.303798
568.783385	2594.908737
569.138982	2596.562235
569.494525	2597.220106
569.850013	2592.476380
570.205445	2595.508634
570.560823	2596.108531
570.916145	2595.271700
571.271412	2597.179776
571.626625	2595.851432
571.981782	2594.858325
572.336884	2597.346134
572.691931	2595.143150
573.046923	2594.195413
573.401860	2596.393356
573.756743	2596.801690
574.111570	2596.847060
574.466342	2594.911257
574.821059	2597.731783
575.175722	2597.058789
575.530330	2595.450661
575.884882	2596.078284
576.239380	2594.891092
576.593823	2598.997112
576.948211	2597.341093
577.302544	2596.131216
577.656823	2594.528129
578.011047	2596.980651
578.365216	2595.788418
578.719330	2595.571648
579.073389	2595.617019
579.427394	2594.202975
579.781344	2595.755650
580.135239	2595.911926
580.489080	2594.749940
580.842866	2595.848912
581.196597	2596.063161
581.550273	2595.377564
581.903895	2592.514188
582.257463	2593.840012
582.610975	2593.666092
582.964434	2595.080136
583.317837	2594.621391
583.671186	2595.780856
584.024481	2592.867069
584.377721	2594.896134
584.730906	2594.155084
585.084037	2596.562235
585.437113	2595.092739
585.790135	2597.189859
586.143103	2591.853797
586.496016	2592.287337
586.848874	2590.439754
587.201679	2593.741709
587.554428	2589.779362
587.907124	2591.195927
588.259765	2589.970926
588.612352	2594.356730
588.964884	2593.557707
589.317362	2596.221957
589.669786	2595.097780
590.022155	2594.076946
590.374470	2593.943356
590.726731	2597.202462
591.078937	2591.218612
591.431090	2593.328335
591.783188	2593.945876
592.135232	2592.551997
592.487222	2592.809096
592.839157	2592.499065
593.191038	2592.221802
593.542866	2594.056782
593.894639	2590.926225
594.246358	2591.710124
594.598022	2592.035279
594.949633	2592.456215
595.301190	2592.597367
595.652692	2590.976637
596.004141	2592.846905
596.355535	2591.027048
596.706876	2594.770105
597.058162	2591.415217
597.409395	2591.047213
597.760573	2590.482603
598.111698	2590.598550
598.462768	2592.320104
598.813785	2589.146698
599.164748	2590.603591
599.515657	2592.947728
599.866511	2589.814651
600.217312	2591.405135
600.568060	2588.723241
600.918753	2592.471339
601.269392	2590.046544
601.619978	2591.334558
601.970510	2591.523602
602.320988	2591.218612
602.671412	2592.884713
603.021783	2589.887747
603.372100	2590.134764
603.722363	2590.197778
604.072572	2592.244487
604.422728	2592.108376
604.772830	2587.664598
605.122878	2588.274578
605.472872	2587.893971
605.822813	2587.972109
606.172701	2587.415061
606.522534	2589.489496
606.872314	2588.819023
607.222041	2590.419589
607.571714	2593.025866
607.921333	2589.136615
608.270899	2589.670978
608.620411	2593.391349
608.969870	2592.647779
609.319276	2592.615012
609.668627	2591.354723
610.017926	2590.283478
610.367171	2590.359095
610.716362	2591.120309
611.065500	2591.006883
611.414585	2592.221802
611.763616	2591.765577
612.112594	2589.920515
612.461518	2591.074939
612.810389	2593.167018
613.159207	2594.066864
613.507971	2590.659044
613.856682	2591.795824
614.205340	2587.354568
614.553945	2590.260793
614.902496	2591.213571
615.250994	2591.241297
615.599439	2590.346492
615.947830	2590.863211
616.296169	2588.221646
616.644454	2593.393870
616.992686	2590.885896
617.340864	2592.357913
617.688990	2592.947728
618.037063	2590.439754
618.385082	2592.667944
618.733048	2592.778849
619.080961	2592.315063
619.428821	2592.191555
619.776628	2592.254569
620.124382	2591.548807
620.472083	2592.549477
620.819731	2592.042841
621.167326	2591.997470
621.514868	2591.092583
621.862357	2591.271544
622.209793	2591.475711
622.557176	2593.111565
622.904506	2588.768611
623.251783	2585.950606
623.599007	2585.217118
623.946179	2587.851121
624.293297	2587.485638
624.640363	2588.821543
624.987376	2590.817840
625.334336	2589.880186
625.681243	2590.212902
626.028097	2587.954465
626.374899	2591.614342
626.721647	2588.198961
627.068343	2593.066195
627.414987	2591.299270
627.761577	2588.824064
628.108115	2587.341965
628.454600	2589.187027
628.801032	2587.604105
629.147412	2590.099476
629.493739	2590.608632
629.840014	2589.118971
630.186236	2588.110741
630.532405	2588.181317
630.878521	2586.777355
631.224585	2591.722727
631.570597	2587.382294
631.916556	2588.423292
632.262462	2588.536718
632.608316	2591.175762
632.954117	2588.561924
633.299866	2587.200812
633.645562	2586.464804
633.991206	2589.081163
634.336797	2588.483786
634.682336	2589.595360
635.027823	2585.842221
635.373257	2587.251224
635.718639	2586.689135
636.063968	2587.352047
636.409245	2588.597212
636.754470	2587.614187
637.099642	2587.967068
637.444762	2588.130905
637.789829	2587.410020
638.134845	2586.139649
638.479808	2587.152921
638.824719	2585.428847
639.169577	2583.649319
639.514383	2587.102510
639.859137	2586.232911
640.203839	2586.195102
640.548489	2586.260637
640.893086	2581.741243
641.237632	2581.355594
641.582125	2580.722930
641.926566	2582.172261
642.270955	2586.631162
642.615292	2585.393559
642.959576	2584.440781
643.303809	2581.975656
643.647990	2585.217118
643.992118	2584.740729
644.336195	2584.602097
644.680219	2585.365832
645.024192	2584.108064
645.368112	2588.241811
645.711981	2584.652509
646.055797	2585.451532
646.399562	2585.017993
646.743274	2584.458425
647.086935	2586.384145
647.430544	2585.862386
647.774101	2588.566965
648.117606	2585.446491
648.461059	2586.631162
648.804460	2587.669640
649.147810	2584.612180
649.491108	2586.008579
649.834354	2584.410534
650.177548	2583.377097
650.520690	2585.819536
650.863781	2584.506316
651.206820	2587.599063
651.549807	2585.222159
651.892742	2585.078487
652.235626	2583.044381
652.578458	2584.713003
652.921238	2581.625296
653.263967	2583.891295
653.606644	2582.066397
653.949269	2585.580081
654.291843	2584.390369
654.634365	2584.221490
654.976836	2585.348188
655.319255	2582.038671
655.661622	2583.177972
656.003938	2583.805595
656.346203	2583.692169
656.688416	2585.403641
657.030577	2583.825760
657.372687	2586.200143
657.714746	2584.040009
658.056753	2583.306521
658.398708	2579.981880
658.740612	2580.755697
659.082465	2581.395924
659.424266	2583.770307
659.766016	2578.078844
660.107715	2581.660584
660.449362	2584.529001
660.790958	2584.402972
661.132503	2581.680749
661.473996	2586.084197
661.815438	2582.562951
662.156829	2580.755697
662.498168	2585.149063
662.839456	2583.467838
663.180693	2583.530852
663.521879	2583.737540
663.863013	2582.895667
664.204097	2582.504977
664.545129	2579.760069
664.886110	2584.844073
665.227040	2583.694690
665.567918	2582.220152
665.908746	2582.691500
666.249522	2584.662591
666.590248	2582.986408
666.930922	2582.051274
667.271545	2585.385997
667.612118	2582.278126
667.952639	2583.598908
668.293109	2582.842735
668.633528	2582.663774
668.973896	2579.414750
669.314213	2581.625296
669.654480	2584.995307
669.994695	2583.931624
670.334859	2580.987590
670.674973	2583.674525
671.015035	2582.638568
671.355047	2584.491192
671.695008	2582.147056
672.034918	2582.205029
672.374777	2581.451376
672.714585	2582.527663
673.054342	2581.574885
673.394049	2582.809967
673.733705	2584.670153
674.073310	2584.105544
674.412864	2583.349371
674.752368	2582.096644
675.091820	2584.103023
675.431223	2583.656881
675.770574	2579.616396
676.109875	2578.855182
676.449125	2580.002045
676.788324	2578.255285
677.127473	2580.538927
677.466571	2579.109760
677.805619	2578.804771
678.144616	2583.369535
678.483562	2582.751994
678.822458	2581.408527
679.161303	2583.016655
679.500098	2584.307190
679.838842	2578.499781
680.177535	2582.328537
680.516179	2580.546489
680.854771	2578.920717
681.193314	2581.040522
681.531805	2583.848445
681.870247	2580.203691
682.208638	2582.741912
682.546978	2584.627303
682.885268	2581.705955
683.223508	2581.106057
683.561697	2582.865420
683.899836	2583.258630
684.237925	2581.857189
684.575963	2581.312745
684.913951	2578.716550
685.251889	2581.882395
685.589776	2581.678228
685.927614	2580.518763
686.265401	2582.928434
686.603137	2580.203691
686.940824	2582.535224
687.278460	2583.384659
687.616046	2579.490368
687.953582	2580.596901
688.291068	2581.955492
688.628504	2582.741912
688.965889	2584.266861
689.303224	2581.940368
689.640510	2582.726788
689.977745	2584.289546
690.314930	2582.073959
690.652065	2583.140163
690.989150	2579.717219
691.326185	2583.243507
691.663170	2580.138156
692.000105	2582.643609
692.336990	2581.000193
692.673825	2581.514391
693.010610	2581.143866
693.347345	2574.534913
693.684030	2577.398289
694.020665	2576.148082
694.357251	2573.503997
694.693786	2576.596745
695.030272	2578.577919
695.366707	2578.320820
695.703093	2579.354256
696.039429	2578.393917
696.375716	2577.400809
696.711952	2578.030953
697.048139	2578.338464
697.384276	2581.158989
697.720363	2577.756211
698.056400	2576.236303
698.392388	2578.691345
698.728326	2579.376942
699.064214	2576.521128
699.400053	2580.201170
699.735842	2578.504822
700.071581	2578.651015
700.407270	2578.169585
700.742910	2578.613207
701.078501	2575.880901
701.414042	2578.877867
701.749533	2577.816704
702.084974	2577.516756
702.420366	2574.421487
702.755709	2576.561457
703.091002	2576.926941
703.426246	2575.588514
703.761440	2575.154975
704.096584	2576.581622
704.431679	2576.654718
704.766725	2574.660942
705.101721	2576.087589
705.436668	2577.350398
705.771565	2577.388206
706.106413	2578.567836
706.441212	2576.596745
706.775961	2580.458269
707.110661	2573.246898
707.445311	2578.174626
707.779913	2578.857703
708.114465	2580.861561
708.448967	2575.744790
708.783421	2576.082547
709.117825	2577.662949
709.452180	2576.813515
709.786485	2576.463155
710.120742	2575.903587
710.454949	2576.760583
710.789107	2575.059193
711.123216	2574.663463
711.457275	2572.407546
711.791286	2570.431414
712.125247	2572.949470
712.459159	2577.002558
712.793023	2581.438773
713.126837	2579.518094
713.460602	2577.047928
713.794318	2577.468865
714.127985	2578.328382
714.461602	2582.010944
714.795171	2577.607497
715.128691	2580.211252
715.462162	2579.692014
715.795584	2577.940213
716.128957	2576.586663
716.462281	2578.860223
716.795556	2577.743608
717.128782	2578.628330
717.461960	2577.667990
717.795088	2576.440469
718.128167	2572.987279
718.461198	2575.364183
718.794180	2575.870819
719.127113	2575.535582
719.459997	2578.308217
719.792833	2576.067424
720.125619	2574.842424
720.458357	2575.651529
720.791046	2576.624472
721.123686	2574.197156
721.456278	2576.992476
721.788821	2577.468865
722.121315	2576.551375
722.453761	2574.081209
722.786158	2576.563978
723.118506	2573.544327
723.450805	2576.972311
723.783056	2573.705643
724.115259	2577.103381
724.447412	2573.655232
724.779518	2574.529872
725.111574	2576.289235
725.443582	2577.451221
725.775542	2575.006261
726.107453	2576.019533
726.439315	2576.480799
726.771129	2578.666139
727.102895	2577.930130
727.434612	2576.077506
727.766281	2574.219841
728.097901	2571.943760
728.429473	2572.601631
728.760996	2571.658935
729.092471	2570.945612
729.423897	2577.310068
729.755276	2573.168761
730.086606	2573.854358
730.417887	2576.269070
730.749120	2574.489543
731.080305	2575.969122
731.411442	2579.049267
731.742530	2576.150603
732.073570	2577.907445
732.404562	2576.526169
732.735506	2577.138669
733.066401	2579.157651
733.397249	2577.725964
733.728048	2578.744277
734.058798	2579.447518
734.389501	2574.295458
734.720156	2574.471899
735.050762	2573.201528
735.381320	2575.568350
735.711831	2575.649008
736.042293	2574.925603
736.372707	2575.288566
736.703073	2575.459965
737.033391	2575.951477
737.363661	2574.648339
737.693883	2574.040880
738.024056	2576.604307
738.354182	2575.336457
738.684260	2577.685634
739.014290	2575.119687
739.344272	2575.336457
739.674207	2577.564647
740.004093	2578.146900
740.333931	2574.260170
740.663722	2575.611200
740.993464	2577.741087
741.323159	2578.114132
741.652806	2575.225551
741.982405	2577.247054
742.311956	2573.463668
742.641460	2574.539954
742.970915	2577.594894
743.300323	2576.069945
743.629683	2575.749831
743.958996	2574.479461
744.288260	2572.442834
744.617477	2575.792681
744.946647	2571.106929
745.275768	2570.340673
745.604842	2573.607341
745.933869	2570.801939
746.262847	2568.440158
746.591778	2575.041549
746.920662	2573.655232
747.249498	2574.272773
747.578286	2576.324523
747.907027	2573.168761
748.235720	2575.815366
748.564365	2577.181519
748.892963	2574.973494
749.221514	2572.420149
749.550017	2573.687999
749.878473	2573.564491
750.206881	2575.071796
750.535242	2573.277145
750.863555	2574.481981
751.191821	2574.849985
751.520039	2575.437280
751.848210	2574.802094
752.176334	2576.281673
752.504411	2574.623133
752.832440	2575.875860
753.160421	2574.267732
753.488356	2574.794533
753.816243	2573.713205
754.144082	2574.310582
754.471875	2571.815211
754.799620	2569.740776
755.127318	2569.624829
755.454969	2572.450396
755.782572	2573.892166
756.110129	2575.646488
756.437638	2573.632547
756.765100	2575.777558
757.092515	2573.824111
757.419882	2574.250088
757.747203	2571.505180
758.074477	2571.825293
758.401703	2572.339491
758.728882	2573.975345
759.056014	2574.318144
759.383099	2573.710685
759.710138	2573.078020
760.037129	2570.312947
760.364073	2574.534913
760.690970	2572.571384
761.017820	2573.292269
761.344623	2576.304358
761.671379	2573.947619
761.998088	2570.922927
762.324751	2571.485015
762.651366	2571.880746
762.977935	2575.265881
763.304456	2573.909810
763.630931	2582.000862
763.957359	2582.573033
764.283740	2578.441807
764.610074	2577.156313
764.936362	2575.124728
765.262602	2575.578432
765.588796	2578.197312
765.914943	2573.811508
766.241044	2573.234296
766.567097	2573.211610
766.893104	2575.439800
767.219064	2573.017526
767.544978	2570.839747
767.870845	2572.518452
768.196665	2573.488874
768.522438	2570.580128
768.848165	2572.475602
769.173846	2573.498956
769.499479	2571.926116
769.825066	2571.023750
770.150607	2571.656414
770.476101	2571.235478
770.801548	2575.114646
771.126949	2569.639953
771.452303	2571.774882
771.777611	2573.418298
772.102872	2571.757238
772.428087	2571.154820
772.753256	2572.231106
773.078378	2569.665159
773.403453	2570.963256
773.728482	2566.627863
774.053465	2569.637432
774.378401	2570.156671
774.703291	2569.987793
775.028135	2569.624829
775.352932	2572.609192
775.677683	2571.071641
776.002388	2567.789849
776.327046	2570.040725
776.651658	2571.220355
776.976224	2569.375292
777.300743	2570.456620
777.625216	2570.297823
777.949643	2568.707339
778.274024	2570.711198
778.598359	2566.547205
778.922647	2565.748182
779.246889	2568.019222
779.571086	2567.131979
779.895236	2566.479149
780.219339	2567.051320
780.543397	2567.983934
780.867409	2569.609706
781.191374	2570.144068
781.515294	2567.111814
781.839167	2568.425035
782.162995	2568.172977
782.486776	2570.421332
782.810511	2569.022412
783.134201	2570.035683
783.457844	2571.822773
783.781441	2571.258163
784.104993	2569.408060
784.428498	2569.675241
784.751958	2570.076013
785.075372	2570.809501
785.398739	2570.144068
785.722061	2569.183728
786.045337	2570.065930
786.368568	2568.906465
786.691752	2566.345559
787.014891	2568.341856
787.337983	2570.126424
787.661030	2569.087947
787.984031	2573.398133
788.306987	2571.358986
788.629897	2570.514593
788.952760	2570.630540
789.275579	2570.383523
789.598351	2572.881415
789.921078	2567.991496
790.243759	2572.498287
790.566395	2569.259346
790.888984	2569.544171
791.211529	2568.525858
791.534027	2569.692885
791.856480	2569.433266
792.178888	2570.227247
792.501249	2567.671382
792.823566	2570.479305
793.145836	2568.656928
793.468062	2570.315468
793.790241	2567.126938
794.112375	2571.457289
794.434464	2566.305230
794.756507	2567.076526
795.078505	2570.378482
795.400457	2567.381516
795.722364	2566.295147
796.044226	2566.350600
796.366042	2565.884293
796.687812	2566.564849
797.009538	2569.534089
797.331218	2568.551064
797.652852	2570.184397
797.974442	2571.306054
798.295986	2570.363358
798.617484	2571.306054
798.938938	2573.730849
799.260346	2569.161043
799.581709	2568.341856
799.903026	2572.009295
800.224299	2569.276990
800.545526	2569.660117
800.866708	2569.834037
801.187845	2566.776578
801.508936	2570.270097
801.829983	2567.056362
802.150984	2570.297823
802.471940	2568.601475
802.792851	2569.042576
803.113717	2570.398647
803.434538	2569.708008
803.755314	2568.233471
804.076045	2569.660117
804.396731	2568.266238
804.717372	2568.341856
805.037967	2571.661456
805.358518	2567.759603
805.679024	2569.907134
805.999485	2565.791032
806.319901	2568.777916
806.640272	2565.357493
806.960598	2569.045097
807.280879	2569.471074
807.601115	2566.116186
807.921306	2569.513924
808.241453	2565.312122
808.561554	2566.103583
808.881611	2569.244222
809.201623	2568.803121
809.521590	2569.158523
809.841513	2568.679613
810.161390	2570.207083
810.481223	2566.186763
810.801011	2569.387895
811.120755	2568.339335
811.440453	2569.057700
811.760107	2570.315467
812.079716	2565.569221
812.399281	2567.058882
812.718801	2564.543346
813.038276	2562.622667
813.357707	2568.402350
813.677093	2570.355797
813.996434	2569.241702
814.315731	2568.984603
814.634983	2569.287072
814.954191	2568.714901
815.273354	2569.118193
815.592473	2567.638615
815.911547	2568.354459
816.230577	2568.949315
816.549562	2566.370765
816.868502	2568.311609
817.187399	2567.744479
817.506250	2566.252297
817.825058	2568.510734
818.143821	2569.977710
818.462539	2567.895714
818.781213	2569.753379
819.099843	2570.426373
819.418429	2570.345714
819.736970	2571.704305
820.055466	2571.656414
820.373919	2576.465675
820.692327	2574.265212
821.010691	2576.407702
821.329011	2581.249730
821.647286	2591.299270
821.965517	2601.857967
822.283704	2613.694596
822.601847	2617.876233
822.919945	2615.700976
823.237999	2608.658484
823.556010	2605.008688
823.873976	2600.254880
824.191897	2595.412852
824.509775	2589.900350
824.827609	2586.875658
825.145398	2585.703590
825.463144	2584.246696
825.780845	2583.503126
826.098502	2582.724268
826.416116	2584.760894
826.733685	2587.473035
827.051210	2589.161821
827.368692	2588.541759
827.686129	2582.235276
828.003522	2582.686459
828.320872	2577.768813
828.638177	2578.968608
828.955439	2575.165057
829.272656	2572.722618
829.589830	2571.074161
829.906960	2574.976014
830.224046	2573.710685
830.541088	2573.330077
830.858086	2567.646177
831.175041	2572.271435
831.491952	2571.023750
831.808819	2569.904613
832.125642	2569.168605
832.442421	2569.897052
832.759157	2570.489387
833.075849	2573.836713
833.392497	2575.959039
833.709101	2577.882239
834.025662	2576.458113
834.342179	2576.604307
834.658653	2574.396282
834.975083	2577.539441
835.291469	2574.996179
835.607811	2571.623647
835.924110	2571.663976
836.240366	2570.479305
836.556578	2572.798236
836.872746	2570.229768
837.188871	2568.109963
837.504952	2568.964438
837.820990	2570.912844
838.136984	2566.176680
838.452935	2566.978224
838.768842	2568.170457
839.084706	2567.931002
839.400526	2567.573080
839.716303	2569.823955
840.032037	2571.986610
840.347727	2572.256312
840.663373	2569.095508
840.978977	2569.067782
841.294537	2567.263049
841.610054	2567.870508
841.925527	2568.979562
842.240957	2567.973852
842.556344	2566.456464
842.871687	2567.497462
843.186987	2568.603996
843.502244	2567.520148
843.817458	2565.385219
844.132629	2566.577452
844.447756	2566.428738
844.762840	2563.419169
845.077881	2562.053016
845.392879	2562.337842
845.707833	2561.289282
846.022745	2560.517985
846.337613	2566.774057
846.652438	2564.566032
846.967221	2566.015363
847.281960	2568.654407
847.596656	2566.731207
847.911309	2564.122410
848.225919	2565.324725
848.540485	2565.256670
848.855009	2566.932853
849.169490	2566.758933
849.483928	2567.154664
849.798323	2565.634756
850.112675	2566.053172
850.426984	2564.092163
850.741251	2564.712225
851.055474	2566.365723
851.369654	2564.447564
851.683792	2566.481670
851.997887	2565.586865
852.311938	2566.716084
852.625947	2565.430589
852.939914	2564.714746
853.253837	2566.027966
853.567718	2565.276834
853.881555	2567.235322
854.195350	2566.859757
854.509103	2564.155178
854.822812	2564.750034
855.136479	2566.852195
855.450103	2563.792214
855.763685	2565.173491
856.077224	2564.064437
856.390720	2564.744993
856.704173	2567.305899
857.017584	2566.627863
857.330953	2567.925961
857.644278	2566.607699
857.957561	2571.018708
858.270802	2566.544684
858.584000	2566.532082
858.897155	2565.506207
859.210268	2565.095353
859.523339	2566.776577
859.836367	2568.205745
860.149352	2562.748696
860.462295	2563.353634
860.775195	2561.944632
861.088054	2561.697615
861.400869	2561.448078
861.713642	2558.088149
862.026373	2564.538305
862.339062	2562.645352
862.651708	2564.253480
862.964312	2569.057700
863.276873	2565.659962
863.589392	2567.313460
863.901869	2563.651062
864.214303	2565.569221
864.526696	2563.882955
864.839045	2564.848336
865.151353	2564.858418
865.463619	2566.718604
865.775842	2564.250959
866.088023	2565.037379
866.400162	2567.890673
866.712258	2564.140054
867.024313	2566.524520
867.336325	2565.488563
867.648296	2565.483522
867.960224	2565.375137
868.272110	2569.143399
868.583954	2563.451937
868.895755	2564.518141
869.207515	2565.496124
869.519233	2565.402863
869.830909	2566.751372
870.142542	2566.784139
870.454134	2565.115517
870.765684	2565.743141
871.077191	2566.390929
871.388657	2565.002091
871.700081	2567.200034
872.011463	2564.071998
872.322803	2565.425548
872.634101	2567.522668
872.945357	2565.289437
873.256571	2567.416804
873.567744	2565.034859
873.878874	2567.016032
874.189963	2565.571742
874.501010	2568.062072
874.812015	2566.219530
875.122979	2566.925292
875.433900	2564.288768
875.744780	2567.479818
876.055618	2567.184911
876.366415	2567.101732
876.677169	2567.499983
876.987882	2562.657955
877.298554	2562.897410
877.609183	2562.337842
877.919771	2562.887327
878.230317	2558.877089
878.540822	2567.313460
878.851285	2566.688357
879.161707	2568.835889
879.472087	2566.930333
879.782425	2571.167422
880.092722	2571.169943
880.402977	2574.459296
880.713191	2577.967939
881.023363	2583.843404
881.333494	2589.769280
881.643583	2591.062336
881.953631	2594.094590
882.263637	2592.229363
882.573602	2591.561410
882.883526	2586.230390
883.193408	2584.322313
883.503248	2584.846593
883.813048	2581.020358
884.122806	2582.946078
884.432522	2580.546489
884.742197	2577.882239
885.051831	2576.989955
885.361424	2572.833524
885.670975	2574.713874
885.980485	2570.980900
886.289954	2573.866960
886.599382	2569.362689
886.908768	2568.709860
887.218113	2570.935529
887.527417	2569.743297
887.836680	2566.300188
888.145901	2566.905127
888.455082	2565.405384
888.764221	2566.232133
889.073319	2567.066444
889.382376	2563.819941
889.691392	2564.989488
890.000366	2565.944787
890.309300	2565.932184
890.618193	2563.671227
890.927044	2567.696588
891.235855	2568.397308
891.544625	2566.660631
891.853353	2563.595609
892.162041	2567.444530
892.470687	2565.712894
892.779293	2568.251115
893.087858	2563.850188
893.396381	2566.151474
893.704864	2564.624005
894.013306	2563.792214
894.321707	2571.232958
894.630068	2570.549881
894.938387	2575.094481
895.246665	2572.150447
895.554903	2572.775551
895.863100	2571.477453
896.171256	2573.400654
896.479371	2571.666497
896.787446	2572.639439
897.095480	2571.991651
897.403473	2568.278841
897.711425	2566.615261
898.019336	2568.886300
898.327207	2567.439489
898.635038	2570.849830
898.942827	2567.227761
899.250576	2567.131979
899.558284	2567.593244
899.865952	2564.419838
900.173579	2565.942267
900.481165	2565.390260
900.788711	2566.448903
901.096216	2564.460167
901.403681	2566.806824
901.711105	2565.463357
902.018489	2565.675085
902.325832	2568.147771
902.633135	2569.584500
902.940397	2566.118707
903.247619	2565.710373
903.554800	2567.759603
903.861941	2570.270097
904.169041	2574.723957
904.476101	2572.299162
904.783121	2573.937537
905.090100	2574.504666
905.397039	2573.559450
905.703938	2570.817062
906.010796	2570.933009
906.317614	2571.900910
906.624391	2570.509552
906.931129	2566.869839
907.237826	2567.762123
907.544483	2567.628532
907.851099	2568.407391
908.157675	2567.575600
908.464211	2564.462688
908.770707	2559.918088
909.077163	2561.294323
909.383578	2562.345403
909.689954	2561.122923
909.996289	2563.540157
910.302584	2563.381360
910.608839	2564.427400
910.915054	2564.636608
911.221229	2565.102914
911.527363	2564.281206
911.833458	2565.163408
912.139513	2564.339180
912.445527	2565.347410
912.751502	2563.646021
913.057436	2565.120558
913.363331	2564.031669
913.669186	2565.614592
913.975000	2564.253480
914.280775	2566.660631
914.586510	2569.193811
914.892205	2566.360682
915.197859	2566.189283
915.503475	2569.062741
915.809050	2570.882597
916.114585	2573.660273
916.420081	2575.318813
916.725536	2575.533062
917.030952	2575.492732
917.336328	2574.378637
917.641665	2574.565160
917.946961	2571.449727
918.252218	2570.978379
918.557435	2570.007957
918.862612	2570.007957
919.167750	2570.542319
919.472848	2568.956877
919.777906	2566.305230
920.082925	2568.956877
920.387904	2567.739438
920.692843	2566.668193
920.997743	2566.227092
921.302603	2564.535785
921.607423	2566.572411
921.912204	2566.736248
922.216946	2564.571073
922.521647	2566.819427
922.826310	2565.851526
923.130932	2564.414797
923.435516	2564.850857
923.740059	2562.355486
924.044564	2564.835733
924.349028	2563.532595
924.653454	2558.773746
924.957840	2561.301884
925.262186	2560.013870
925.566493	2560.815413
925.870761	2559.693756
926.174989	2563.469581
926.479178	2562.733572
926.783328	2564.316494
927.087438	2563.686350
927.391509	2562.322718
927.695541	2562.521844
927.999533	2564.109807
928.303486	2562.347924
928.607400	2561.410269
928.911275	2563.547718
929.215110	2563.824982
929.518906	2561.468242
929.822663	2562.645352
930.126381	2560.570917
930.430060	2562.521844
930.733699	2561.644683
931.037299	2562.980589
931.340861	2564.901268
931.644383	2560.018911
931.947866	2561.677450
932.251309	2563.189797
932.554714	2565.554098
932.858080	2564.150136
933.161407	2562.002605
933.464694	2562.877245
933.767943	2560.402038
934.071153	2563.333469
934.374323	2563.068809
934.677455	2565.044941
934.980548	2565.070147
935.283602	2563.308264
935.586617	2563.530074
935.889593	2563.588048
936.192530	2565.460836
936.495428	2558.400700
936.798287	2563.701474
937.101108	2560.830537
937.403890	2564.291289
937.706632	2564.520661
938.009336	2562.347924
938.312002	2562.567214
938.614628	2563.777091
938.917216	2561.871535
939.219765	2563.709035
939.522275	2565.329766
939.824747	2565.939746
940.127179	2559.494631
940.429573	2558.544373
940.731929	2557.982285
941.034246	2557.337017
941.336524	2560.200392
941.638763	2562.980589
941.940964	2564.891186
942.243126	2561.483366
942.545250	2565.347410
942.847335	2562.352965
943.149381	2563.232646
943.451389	2563.570404
943.753359	2565.062585
944.055290	2562.441185
944.357182	2559.426575
944.659036	2562.937739
944.960851	2563.043603
945.262628	2563.464539
945.564367	2560.989333
945.866067	2565.491083
946.167729	2561.748027
946.469352	2560.311298
946.770937	2564.445044
947.072484	2560.109652
947.373992	2561.538819
947.675462	2562.368088
947.976893	2563.565362
948.278286	2562.521844
948.579641	2562.345403
948.880958	2562.859601
949.182236	2563.484704
949.483476	2561.780794
949.784678	2560.926318
950.085841	2560.404559
950.386967	2564.049313
950.688054	2563.245249
950.989103	2559.524878
951.290114	2562.073181
951.591087	2561.513613
951.892021	2561.652245
952.192917	2562.602502
952.493776	2563.066288
952.794596	2563.363716
953.095378	2560.611246
953.396122	2563.867832
953.696828	2560.880948
953.997496	2560.646534
954.298126	2563.976217
954.598718	2561.533778
954.899272	2559.267779
955.199788	2561.881617
955.500266	2563.517472
955.800706	2562.231977
956.101108	2556.651420
956.401472	2558.806513
956.701798	2554.645041
957.002087	2559.766853
957.302337	2559.726524
957.602550	2562.925136
957.902724	2561.183417
958.202861	2560.828016
958.502960	2562.418500
958.803022	2565.044941
959.103045	2560.805331
959.403031	2563.772050
959.702979	2560.376833
960.002889	2563.396484
960.302762	2562.042934
960.602596	2564.737431
960.902393	2561.725341
961.202153	2560.822975
961.501875	2561.911864
961.801559	2560.586041
962.101205	2560.767522
962.400814	2558.854404
962.700385	2562.294992
962.999918	2560.586041
963.299414	2562.090825
963.598873	2563.235167
963.898293	2560.838098
964.197677	2563.252811
964.497022	2561.521175
964.796331	2558.438509
965.095601	2561.024621
965.394835	2561.410269
965.694030	2556.880793
965.993189	2561.901782
966.292309	2561.551422
966.591393	2562.267265
966.890439	2558.728375
967.189447	2560.205433
967.488419	2562.985630
967.787353	2559.429096
968.086249	2560.318859
968.385108	2564.550908
968.683930	2561.909343
968.982714	2561.518654
969.281462	2560.291133
969.580172	2560.613767
969.878844	2562.206772
970.177480	2562.970506
970.476078	2561.208623
970.774639	2563.363716
971.073162	2561.294323
971.371649	2555.895247
971.670098	2558.803993
971.968510	2559.373643
972.266885	2556.011193
972.565223	2560.099569
972.863524	2559.666030
973.161788	2562.037893
973.460014	2560.843139
973.758204	2561.057388
974.056356	2559.895402
974.354471	2560.734755
974.652550	2560.339024
974.950591	2561.024621
975.248595	2562.297512
975.546563	2560.306257
975.844493	2561.248952
976.142386	2561.284240
976.440243	2558.609908
976.738062	2559.411452
977.035845	2561.778273
977.333590	2560.157543
977.631299	2561.700136
977.928971	2562.277348
978.226606	2560.838098
978.524204	2559.676112
978.821765	2560.079405
979.119290	2558.390618
979.416777	2558.884651
979.714228	2562.632749
980.011642	2555.912891
980.309020	2563.310784
980.606360	2560.422203
980.903664	2560.797769
981.200931	2558.448591
981.498162	2560.381874
981.795356	2557.533622
982.092513	2560.903633
982.389633	2563.368757
982.686717	2562.983109
982.983764	2563.151988
983.280775	2562.083263
983.577749	2563.300702
983.874686	2560.638973
984.171587	2559.812223
984.468451	2562.030331
984.765279	2558.410783
985.062070	2563.167111
985.358824	2562.484035
985.655543	2560.182748
985.952224	2561.102759
986.248869	2563.918243
986.545478	2558.186451
986.842050	2558.375495
987.138586	2557.672254
987.435086	2555.678477
987.731549	2558.030176
988.027975	2560.583520
988.324366	2560.580999
988.620719	2561.047306
988.917037	2560.898592
989.213318	2562.771381
989.509563	2560.210475
989.805772	2559.595454
990.101944	2561.319528
990.398080	2560.162584
990.694180	2560.586041
990.990244	2561.778273
991.286271	2562.846998
991.582262	2562.073181
991.878217	2559.005639
992.174136	2560.359189
992.470019	2557.808365
992.765865	2562.673078
993.061676	2557.649568
993.357450	2560.739796
993.653188	2559.877758
993.948890	2560.293654
994.244556	2558.877089
994.540186	2563.686350
994.835780	2563.182235
995.131337	2560.127296
995.426859	2558.856925
995.722345	2559.461863
996.017795	2560.064281
996.313208	2560.853222
996.608586	2559.348437
996.903928	2562.496638
997.199234	2560.389436
997.494504	2561.879097
997.789738	2558.554456
998.084936	2559.328273
998.380099	2561.001936
998.675225	2560.696946
998.970316	2563.300702
999.265371	2561.483366
999.560390	2559.512275
999.855373	2559.517316
1000.150320	2558.761143
1000.445232	2562.093346
1000.740108	2562.103428
1001.034948	2558.584702
1001.329752	2560.502862
1001.624521	2560.326421
1001.919254	2557.442881
1002.213951	2555.194527
1002.508613	2558.468756
1002.803239	2557.745350
1003.097829	2554.667726
1003.392384	2560.454971
1003.686903	2558.501523
1003.981386	2560.205433
1004.275834	2561.077553
1004.570246	2561.811041
1004.864623	2556.691749
1005.158964	2558.703170
1005.453270	2560.034034
1005.747540	2557.974723
1006.041775	2559.081256
1006.335974	2558.549414
1006.630138	2560.810372
1006.924266	2559.882800
1007.218359	2557.150494
1007.512416	2558.672923
1007.806438	2558.781308
1008.100425	2559.240053
1008.394376	2558.060422
1008.688292	2560.396997
1008.982172	2558.282233
1009.276017	2556.858107
1009.569827	2556.477500
1009.863602	2559.877758
1010.157341	2559.207285
1010.451045	2561.241391
1010.744714	2558.746019
1011.038347	2560.051678
1011.331945	2559.197203
1011.625508	2556.091852
1011.919036	2558.952707
1012.212528	2560.838098
1012.505986	2558.975392
1012.799408	2560.807851
1013.092795	2559.774415
1013.386147	2560.487738
1013.679464	2558.751061
1013.972745	2558.551935
1014.265992	2560.344065
1014.559204	2560.480176
1014.852380	2559.396328
1015.145521	2560.026472
1015.438628	2561.087635
1015.731699	2557.798282
1016.024736	2558.675443
1016.317737	2559.577810
1016.610703	2558.940104
1016.903635	2555.764177
1017.196531	2554.168652
1017.489393	2553.730071
1017.782219	2554.118240
1018.075011	2555.605381
1018.367768	2557.105124
1018.660490	2558.105793
1018.953177	2558.105793
1019.245829	2558.105793
