Dividing Wavelength (nm)	Counts (n)	Blue Motor Position (mm): 0.000000	Red Motor Position (mm): 38.000000	
326.493990	2140.179016
326.888308	2140.179016
327.282561	2140.179016
327.676750	2114.688421
328.070874	2115.585747
328.464933	2124.586727
328.858929	2127.954218
329.252859	2143.944758
329.646726	2155.907416
330.040528	2171.136741
330.434265	2187.694411
330.827938	2207.919520
331.221547	2227.557335
331.615091	2249.224214
332.008571	2266.845568
332.401986	2289.936573
332.795338	2307.305868
333.188625	2327.425113
333.581847	2346.314317
333.975006	2366.713346
334.368100	2381.302445
334.761129	2404.645508
335.154095	2417.807961
335.546996	2436.276228
335.939833	2456.871862
336.332606	2472.290231
336.725315	2481.969246
337.117960	2490.813951
337.510540	2502.375837
337.903056	2508.576456
338.295508	2516.937210
338.687896	2521.645648
339.080220	2529.955990
339.472480	2535.949922
339.864676	2540.302958
340.256807	2542.362269
340.648875	2544.950902
341.040879	2545.349153
341.432818	2547.494164
341.824694	2546.019627
342.216506	2547.408464
342.608253	2549.077086
342.999937	2548.391489
343.391557	2546.574153
343.783113	2547.766386
344.174605	2544.724050
344.566033	2543.277239
344.957397	2540.980993
345.348697	2538.820859
345.739934	2538.624254
346.131106	2536.567463
346.522215	2534.309026
346.913260	2530.906247
347.304241	2530.858356
347.695159	2531.969931
348.086012	2526.311236
348.476802	2525.653365
348.867528	2526.016328
349.258191	2522.651358
349.648789	2524.932480
350.039324	2519.538445
350.429796	2521.645648
350.820203	2521.522139
351.210548	2518.888137
351.600828	2520.589526
351.991045	2518.159690
352.381198	2515.066942
352.771288	2516.823784
353.161314	2519.321676
353.551276	2517.723630
353.941175	2517.305214
354.331010	2517.461490
354.720782	2518.411748
355.110490	2517.038033
355.500135	2517.814371
355.889717	2516.521315
356.279235	2516.644823
356.668689	2519.218332
357.058080	2519.873682
357.447408	2517.547190
357.836672	2517.693383
358.225873	2517.078362
358.615010	2517.506860
359.004084	2521.552386
359.393095	2520.317304
359.782043	2522.321162
360.170927	2523.876358
360.559748	2524.307377
360.948505	2523.278982
361.337199	2526.157480
361.725830	2526.311236
362.114398	2522.507685
362.502903	2526.165042
362.891344	2527.926925
363.279722	2528.599919
363.668037	2525.764270
364.056289	2526.858201
364.444478	2529.056144
364.832603	2526.323838
365.220665	2529.078829
365.608665	2529.373737
365.996601	2530.739889
366.384474	2529.930784
366.772284	2530.686957
367.160031	2530.019004
367.547715	2532.123686
367.935336	2530.092101
368.322893	2528.047913
368.710388	2532.579910
369.097820	2531.629653
369.485189	2533.376413
369.872495	2533.948584
370.259738	2530.833151
370.646918	2532.060672
371.034035	2535.934798
371.421090	2535.329860
371.808081	2536.171732
372.195010	2535.092926
372.581875	2537.288348
372.968678	2537.376568
373.355418	2539.082999
373.742096	2537.658873
374.128710	2538.467978
374.515262	2541.366642
374.901751	2542.591642
375.288177	2545.079451
375.674540	2543.761190
376.060841	2547.733619
376.447079	2549.170348
376.833254	2551.610266
377.219367	2549.223280
377.605417	2555.890206
377.991404	2555.512119
378.377329	2556.699311
378.763191	2561.339693
379.148991	2563.325908
379.534727	2568.039387
379.920402	2572.198338
380.306013	2574.494584
380.691563	2581.398444
381.077049	2585.368353
381.462474	2590.472521
381.847835	2592.834302
382.233134	2598.929057
382.618371	2601.863008
383.003545	2610.899277
383.388657	2616.578136
383.773706	2623.988632
384.158693	2628.634056
384.543618	2635.963893
384.928480	2641.269708
385.313280	2647.477889
385.698017	2655.384939
386.082692	2665.767195
386.467305	2670.168122
386.851856	2679.791685
387.236344	2692.974302
387.620770	2698.857329
388.005133	2705.236909
388.389435	2716.657643
388.773674	2721.570247
389.157851	2733.182545
389.541965	2746.085379
389.926018	2744.880543
390.310008	2759.474683
390.693936	2766.282762
391.077802	2777.814401
391.461606	2786.273457
391.845348	2795.904582
392.229027	2806.077630
392.612645	2819.618169
392.996200	2827.399190
393.379694	2839.192970
393.763125	2857.840198
394.146494	2868.545088
394.529801	2876.615975
394.913047	2893.158522
395.296230	2895.772360
395.679351	2902.580438
396.062410	2921.978798
396.445408	2915.634506
396.828343	2927.256886
397.211217	2935.390788
397.594028	2928.796959
397.976778	2940.578135
398.359466	2955.265537
398.742092	2952.666822
399.124656	2970.179791
399.507158	2984.917604
399.889598	2987.574292
400.271977	3002.969976
400.654294	3007.973321
401.036549	3020.964374
401.418742	3028.647093
401.800874	3049.499826
402.182944	3056.330589
402.564952	3088.417533
402.946898	3076.225503
403.328783	3085.377718
403.710606	3100.944801
404.092367	3124.812144
404.474067	3151.346257
404.855705	3142.100781
405.237282	3142.877118
405.618797	3171.427693
406.000250	3196.444419
406.381642	3227.051785
406.762972	3229.874831
407.144240	3217.012327
407.525447	3239.122828
407.906593	3240.005030
408.287677	3260.767022
408.668700	3282.136473
409.049661	3280.251081
409.430560	3298.631128
409.811399	3298.585758
410.192176	3320.716423
410.572891	3325.298832
410.953545	3369.131665
411.334138	3333.823423
411.714669	3384.746639
412.095139	3328.754543
412.475547	3381.389230
412.855894	3373.903117
413.236180	3404.951583
413.616405	3384.900394
413.996568	3410.963159
414.376670	3412.578849
414.756711	3405.856471
415.136691	3436.857046
415.516609	3453.800364
415.896466	3460.255562
416.276262	3486.303204
416.655997	3517.124818
417.035670	3525.357023
417.415283	3592.530397
417.794834	3612.359776
418.174324	3596.172631
418.553753	3598.047940
418.933121	3642.697440
419.312428	3628.819143
419.691674	3625.688587
420.070859	3662.758712
420.449983	3648.547699
420.829045	3696.105944
421.208047	3679.674303
421.586988	3723.421437
421.965867	3753.368411
422.344686	3763.002056
422.723444	3801.549239
423.102141	3704.406204
423.480777	3807.752379
423.859352	3774.221144
424.237866	3869.640104
424.616319	3857.921942
424.994712	3917.336981
425.373044	3906.677461
425.751314	3973.598778
426.129524	3904.769384
426.507673	4006.918285
426.885762	3983.734018
427.263789	4007.455168
427.641756	4009.154037
428.019662	4039.542112
428.397508	4041.646794
428.775292	4079.319336
429.153016	4082.893514
429.530679	4102.029734
429.908282	4103.531998
430.285824	4084.972990
430.663305	4158.354546
431.040726	4115.416518
431.418086	4106.158439
431.795385	4185.352446
432.172624	4217.832600
432.549802	4183.003268
432.926920	4202.199982
433.303977	4196.924414
433.680974	4234.831371
434.057910	4260.634517
434.434786	4264.175927
434.811601	4256.596553
435.188355	4365.671998
435.565050	4336.861804
435.941683	4333.393490
436.318257	4418.286521
436.694770	4425.404630
437.071222	4483.130883
437.447614	4419.148558
437.823946	4421.333898
438.200218	4437.894089
438.576429	4420.887756
438.952580	4444.956745
439.328670	4450.943116
439.704700	4491.872244
440.080670	4456.075010
440.456580	4516.974669
440.832429	4553.878436
441.208218	4456.712716
441.583947	4505.690046
441.959616	4523.628992
442.335224	4546.518351
442.710773	4568.391918
443.086261	4625.276298
443.461689	4576.208227
443.837057	4585.597376
444.212365	4662.966485
444.587612	4664.851876
444.962800	4634.584788
445.337927	4677.485008
445.712995	4562.430753
446.088002	4753.734980
446.462949	4779.379330
446.837837	4791.636895
447.212664	4783.344197
447.587431	5007.950286
447.962139	5299.588598
448.336786	5644.169107
448.711374	5630.704186
449.085901	5274.019866
449.460369	5209.162901
449.834776	5143.945494
450.209124	5379.044744
450.583412	5389.973966
450.957640	5515.612123
451.331808	5376.151122
451.705917	5228.853648
452.079965	5220.548347
452.453954	5254.059417
452.827883	5218.481474
453.201752	5227.154779
453.575562	5258.402371
453.949311	5394.095109
454.323001	5394.248864
454.696632	5390.805756
455.070202	5541.281678
455.443713	5569.136574
455.817164	5665.183157
456.190556	5738.471452
456.563888	5710.223346
456.937160	5786.932064
457.310373	5631.004134
457.683526	5689.622671
458.056619	5682.151681
458.429653	5661.490512
458.802628	5710.493048
459.175542	5739.653603
459.548398	5876.946907
459.921194	6059.098919
460.293930	6119.224761
460.666607	6378.249328
461.039224	6584.621563
461.411782	6716.503189
461.784280	6630.914479
462.156719	6638.393031
462.529099	6598.013388
462.901419	6452.871008
463.273680	6327.857954
463.645882	6314.700542
464.018024	6323.484753
464.390106	6381.420213
464.762130	6641.674822
465.134094	7022.806217
465.505999	7650.354254
465.877845	8354.086728
466.249631	8722.249755
466.621358	8647.134042
466.993026	8450.052653
467.364634	8239.118173
467.736184	7957.801624
468.107674	7801.573746
468.479105	7715.301959
468.850477	7651.811147
469.221790	7475.705999
469.593043	7256.148626
469.964238	7154.050137
470.335373	7133.537682
470.706449	7283.779190
471.077467	7466.039587
471.448425	8118.077549
471.819324	8705.674441
472.190164	8744.365297
472.560945	8268.198069
472.931667	7798.428066
473.302330	7602.773323
473.672934	7481.405024
474.043479	7558.506951
474.413965	7463.050183
474.784393	7414.476145
475.154761	7559.273207
475.525070	7575.581339
475.895321	7530.334463
476.265513	7624.150336
476.635645	7787.035058
477.005719	7780.363091
477.375734	7859.887293
477.745691	7976.516908
478.115588	8176.668359
478.485427	8407.641426
478.855207	8881.373776
479.224928	9315.127256
479.594591	9692.044247
479.964194	9708.513696
480.333739	9791.831367
480.703226	9793.298342
481.072653	9892.588908
481.442022	9999.726031
481.811333	10160.964816
482.180584	10003.194344
482.549777	9936.378891
482.918912	9874.488646
483.287988	9863.229228
483.657005	9775.198079
484.025964	9689.034678
484.394864	9751.610521
484.763706	9708.906906
485.132489	9616.668914
485.501213	9611.562226
485.869879	9669.613633
486.238487	9605.031411
486.607036	9681.598976
486.975527	9631.406728
487.343959	9685.170633
487.712333	9736.068643
488.080648	9774.255384
488.448905	9872.784736
488.817104	9879.045849
489.185244	10036.526454
489.553326	10249.172405
489.921350	10719.812008
490.289315	11339.185813
490.657222	11631.408899
491.025070	11816.598206
491.392861	11736.993346
491.760593	11576.193141
492.128267	11320.752834
492.495883	11083.695095
492.863440	10853.599190
493.230939	10630.543255
493.598380	10448.441655
493.965763	10423.450135
494.333088	10293.267378
494.700354	10224.135515
495.067563	10194.911946
495.434713	10194.523777
495.801805	10245.520089
496.168839	10193.175268
496.535815	10170.207771
496.902733	10211.809893
497.269593	10170.487555
497.636395	10176.884780
498.003139	10289.496595
498.369825	10213.549092
498.736453	10305.436723
499.103023	10249.590821
499.469535	10254.190874
499.835989	10304.103338
500.202385	10277.281879
500.568723	10299.031937
500.935003	10351.742242
501.301226	10324.414147
501.667390	10485.093364
502.033497	10593.266443
502.399546	10524.646257
502.765537	10423.684548
503.131470	10536.245952
503.497345	10625.045877
503.863163	10395.161700
504.228923	10529.561382
504.594625	10644.555142
504.960269	10551.497963
505.325856	10698.354336
505.691385	10577.603578
506.056856	10644.166974
506.422270	10741.050389
506.787625	10686.401761
507.152924	10734.118802
507.518164	10795.817484
507.883347	10657.848665
508.248472	10741.136088
508.613540	10844.202479
508.978550	10918.670403
509.343503	10897.928576
509.708398	10949.696185
510.073236	11080.519168
510.438016	11090.803122
510.802738	11004.624597
511.167403	11130.787034
511.532010	11184.929026
511.896561	11284.572473
512.261053	11480.486835
512.625488	11402.051522
512.989866	11385.975283
513.354186	11357.568381
513.718449	11368.341327
514.082655	11507.504899
514.446803	11457.733587
514.810894	11580.800755
515.174927	11569.788355
515.538904	11551.582228
515.902822	11711.840508
516.266684	11582.262690
516.630488	11678.100066
516.994235	11670.717296
517.357925	11789.663321
517.721558	11838.174344
518.085133	11905.957699
518.448651	11946.909512
518.812112	11901.518963
519.175516	11906.976012
519.538863	11997.968839
519.902152	12008.852690
520.265385	12110.701642
520.628560	12126.248560
520.991678	12076.003380
521.354739	12134.989921
521.717743	12210.093031
522.080690	12171.732371
522.443580	12308.075418
522.806413	12316.854587
523.169189	12306.273205
523.531908	12369.910211
523.894569	12338.198833
524.257174	12345.223681
524.619722	12447.778394
524.982213	12425.473809
525.344647	12422.524734
525.707025	12426.416504
526.069345	12533.563709
526.431608	12512.746264
526.793815	12588.570259
527.155964	12492.296823
527.518057	12517.192562
527.880093	12472.149852
528.242072	12582.596492
528.603995	12508.375584
528.965860	12517.464784
529.327669	12556.047255
529.689421	12511.216274
530.051117	12523.509127
530.412755	12548.477962
530.774337	12558.643449
531.135862	12517.212726
531.497331	12578.838312
531.858743	12538.216694
532.220098	12622.401442
532.581396	12539.882795
532.942638	12464.608286
533.303824	12534.768545
533.664953	12515.972603
534.026025	12470.919811
534.387040	12568.650140
534.747999	12543.353630
535.108902	12581.757140
535.469748	12460.073768
535.830537	12485.642500
536.191270	12527.804191
536.551947	12460.285497
536.912567	12517.321111
537.273131	12558.156978
537.633638	12437.426384
537.994089	12489.635094
538.354483	12405.450346
538.714821	12530.730580
539.075103	12611.736882
539.435328	12547.681460
539.795497	12514.336748
540.155609	12517.996626
540.515665	12628.561732
540.875665	12484.374650
541.235609	12574.938979
541.595496	12538.993032
541.955328	12705.880430
542.315102	12552.735217
542.674821	12491.034014
543.034483	12498.444511
543.394090	12512.869772
543.753640	12475.348464
544.113134	12710.359495
544.472571	12486.227274
544.831953	12754.164601
545.191278	12567.309193
545.550548	12507.427847
545.909761	12618.441616
546.268918	12659.632884
546.628019	12712.869989
546.987064	12612.538425
547.346053	12462.765744
547.704986	12655.121052
548.063863	12534.178730
548.422684	12586.047162
548.781449	12543.426726
549.140158	12636.007517
549.498811	12597.185591
549.857408	12464.628451
550.215949	12650.026966
550.574434	12619.109569
550.932864	12553.004919
551.291237	12748.831060
551.649555	12646.039413
552.007817	12700.032691
552.366022	12618.174435
552.724173	12651.758602
553.082267	12734.788926
553.440305	12821.809324
553.798288	12640.053043
554.156215	12710.195657
554.514086	12750.358530
554.871902	12699.483205
555.229661	12711.652551
555.587365	12664.605982
555.945014	12675.315914
556.302606	12653.442347
556.660143	12710.520812
557.017625	12744.301584
557.375050	12691.354345
557.732421	12785.112245
558.089735	12775.191254
558.446994	12747.243097
558.804197	12856.585724
559.161345	12841.515194
559.518437	12656.315805
559.875474	12750.053540
560.232455	12768.113474
560.589381	12815.316318
560.946251	12743.742016
561.303065	12914.213674
561.659825	12862.372968
562.016528	12761.113832
562.373177	12707.309597
562.729770	12828.541785
563.086307	12694.542875
563.442789	12801.402733
563.799216	12827.180673
564.155587	12764.211621
564.511904	12779.834157
564.868164	12788.199951
565.224370	12839.271881
565.580520	12772.900049
565.936615	12836.695851
566.292654	12751.701998
566.648638	12819.361844
567.004567	12811.873210
567.360441	12810.751553
567.716260	12759.167946
568.072023	12836.100995
568.427732	12801.367445
568.783385	12688.700177
569.138982	12789.228347
569.494525	12775.632355
569.850013	12719.420969
570.205445	12695.450282
570.560823	12706.132487
570.916145	12645.943631
571.271412	12655.357986
571.626625	12589.752410
571.981782	12568.750963
572.336884	12506.575892
572.691931	12577.973754
573.046923	12466.982669
573.401860	12431.084613
573.756743	12405.120150
574.111570	12426.797112
574.466342	12384.181717
574.821059	12419.709249
575.175722	12292.977162
575.530330	12295.255764
575.884882	12223.295813
576.239380	12201.944006
576.593823	12173.653051
576.948211	12150.839309
577.302544	12032.306658
577.656823	12027.578056
578.011047	12057.933364
578.365216	11989.802170
578.719330	11919.296592
579.073389	11877.775128
579.427394	11868.222142
579.781344	11841.617453
580.135239	11762.173909
580.489080	11759.668456
580.842866	11633.009465
581.196597	11696.243178
581.550273	11670.631596
581.903895	11624.968825
582.257463	11689.896366
582.610975	11535.319465
582.964434	11579.079201
583.317837	11482.704943
583.671186	11427.075810
584.024481	11447.618512
584.377721	11325.037815
584.730906	11364.999042
585.084037	11357.747342
585.437113	11254.741445
585.790135	11252.946794
586.143103	11156.575056
586.496016	11143.740279
586.848874	11138.134516
587.201679	11103.421130
587.554428	10971.733589
587.907124	10987.338481
588.259765	10906.185986
588.612352	10947.283993
588.964884	10797.866713
589.317362	10819.430249
589.669786	10786.793819
590.022155	10720.295958
590.374470	10771.546849
590.726731	10644.416511
591.078937	10531.711434
591.431090	10537.544049
591.783188	10444.169277
592.135232	10354.010761
592.487222	10378.052024
592.839157	10351.538075
593.191038	10272.321384
593.542866	10206.796466
593.894639	10055.801305
594.246358	10081.788453
594.598022	10060.146780
594.949633	9963.916194
595.301190	9919.148228
595.652692	9856.489206
596.004141	9904.445702
596.355535	9696.714876
596.706876	9652.635027
597.058162	9606.430331
597.409395	9647.866095
597.760573	9634.484352
598.111698	9525.998721
598.462768	9494.816664
598.813785	9469.988982
599.164748	9350.611938
599.515657	9377.168736
599.866511	9240.177901
600.217312	9309.992841
600.568060	9104.137323
600.918753	9197.149133
601.269392	9158.947269
601.619978	9068.725738
601.970510	9061.763905
602.320988	9058.265344
602.671412	9083.861803
603.021783	8990.003080
603.372100	8910.980473
603.722363	8893.613698
604.072572	8859.613636
604.422728	8833.714708
604.772830	8755.367615
605.122878	8730.295437
605.472872	8682.699383
605.822813	8691.740692
606.172701	8629.053944
606.522534	8625.719221
606.872314	8625.610836
607.222041	8546.956233
607.571714	8563.665137
607.921333	8439.675438
608.270899	8433.797453
608.620411	8447.590049
608.969870	8374.261426
609.319276	8327.892893
609.668627	8307.236765
610.017926	8323.313004
610.367171	8305.550499
610.716362	8265.576669
611.065500	8217.854586
611.414585	8188.058847
611.763616	8192.731996
612.112594	8130.705639
612.461518	8112.106302
612.810389	8104.176567
613.159207	8033.973459
613.507971	7989.298753
613.856682	8022.310749
614.205340	7959.548384
614.553945	8004.581011
614.902496	7890.028352
615.250994	7892.851398
615.599439	7846.341712
615.947830	7830.721697
616.296169	7778.462576
616.644454	7750.032989
616.992686	7719.680202
617.340864	7725.348979
617.688990	7632.299361
618.037063	7672.051380
618.385082	7615.726568
618.733048	7603.348015
619.080961	7557.654996
619.428821	7511.546083
619.776628	7482.400652
620.124382	7412.247955
620.472083	7387.011939
620.819731	7363.071499
621.167326	7292.452495
621.514868	7244.372491
621.862357	7155.764129
622.209793	7118.444467
622.557176	7043.754732
622.904506	6976.586398
623.251783	6905.133084
623.599007	6838.731005
623.946179	6783.119517
624.293297	6735.331899
624.640363	6641.881509
624.987376	6599.253512
625.334336	6533.151382
625.681243	6466.570343
626.028097	6418.182828
626.374899	6363.498912
626.721647	6321.498538
627.068343	6274.436847
627.414987	6212.400407
627.761577	6149.804400
628.108115	6143.959182
628.454600	6058.771244
628.801032	6032.458941
629.147412	5995.444269
629.493739	5955.019257
629.840014	5891.336881
630.186236	5880.969748
630.532405	5813.630015
630.878521	5794.176202
631.224585	5749.405715
631.570597	5692.014699
631.916556	5665.415050
632.262462	5631.374659
632.608316	5597.576243
632.954117	5554.781888
633.299866	5527.771386
633.645562	5487.923585
633.991206	5423.774902
634.336797	5358.875088
634.682336	5328.184543
635.027823	5280.013798
635.373257	5238.562910
635.718639	5185.086350
636.063968	5147.285258
636.409245	5080.820165
636.754470	5051.909148
637.099642	5005.906098
637.444762	4948.502480
637.789829	4919.228499
638.134845	4873.177559
638.479808	4843.724617
638.824719	4810.783198
639.169577	4760.122122
639.514383	4732.105910
639.859137	4689.979507
640.203839	4676.902754
640.548489	4630.264520
640.893086	4606.634111
641.237632	4562.019899
641.582125	4547.093043
641.926566	4512.798073
642.270955	4495.096062
642.615292	4467.795693
642.959576	4445.944812
643.303809	4421.696862
643.647990	4409.068771
643.992118	4378.141292
644.336195	4357.517932
644.680219	4332.715455
645.024192	4325.741019
645.368112	4328.745546
645.711981	4306.521620
646.055797	4323.164989
646.399562	4299.075835
646.743274	4322.580215
647.086935	4327.722192
647.430544	4306.720745
647.774101	4293.273467
648.117606	4284.708547
648.461059	4282.374493
648.804460	4243.623143
649.147810	4193.370401
649.491108	4162.223632
649.834354	4129.504023
650.177548	4073.403542
650.520690	4030.858724
650.863781	4011.417515
651.206820	3986.088237
651.549807	3948.952577
651.892742	3909.858429
652.235626	3883.155437
652.578458	3861.894371
652.921238	3823.894153
653.263967	3811.157678
653.606644	3784.671456
653.949269	3764.998353
654.291843	3735.815113
654.634365	3736.462902
654.976836	3708.295454
655.319255	3690.873227
655.661622	3674.590300
656.003938	3651.103564
656.346203	3631.178403
656.688416	3624.335037
657.030577	3600.286213
657.372687	3580.764344
657.714746	3575.420721
658.056753	3566.392015
658.398708	3531.567724
658.740612	3519.766383
659.082465	3514.034591
659.424266	3494.492558
659.766016	3484.327071
660.107715	3472.162767
660.449362	3461.919143
660.790958	3452.030919
661.132503	3436.955349
661.473996	3425.897578
661.815438	3419.094541
662.156829	3411.938623
662.498168	3393.493041
662.839456	3384.282853
663.180693	3372.368086
663.521879	3365.428937
663.863013	3353.302442
664.204097	3337.793332
664.545129	3338.985565
664.886110	3328.943586
665.227040	3319.377997
665.567918	3313.678973
665.908746	3306.709577
666.249522	3302.696819
666.590248	3288.586629
666.930922	3282.000362
667.271545	3273.332098
667.612118	3270.040224
667.952639	3254.551279
668.293109	3242.674321
668.633528	3228.450705
668.973896	3216.868654
669.314213	3209.049824
669.654480	3194.425437
669.994695	3185.681556
670.334859	3171.044566
670.674973	3159.056702
671.015035	3156.679798
671.355047	3145.909372
671.695008	3138.266983
672.034918	3129.787762
672.374777	3119.733181
672.714585	3113.134311
673.054342	3107.513424
673.394049	3098.462033
673.733705	3095.515478
674.073310	3086.539704
674.412864	3080.848241
674.752368	3063.413410
675.091820	3059.168759
675.431223	3048.305072
675.770574	3034.918288
676.109875	3021.294570
676.449125	3009.215965
676.788324	3000.363699
677.127473	2987.859117
677.466571	2977.373517
677.805619	2971.467805
678.144616	2964.253914
678.483562	2954.514405
678.822458	2944.522838
679.161303	2939.849688
679.500098	2932.698812
679.838842	2924.577513
680.177535	2920.549631
680.516179	2917.756832
680.854771	2913.537386
681.193314	2918.187850
681.531805	2929.159922
681.870247	2934.924481
682.208638	2941.326747
682.546978	2943.254988
682.885268	2937.155192
683.223508	2930.147988
683.561697	2921.056267
683.899836	2915.914290
684.237925	2904.579256
684.575963	2901.121024
684.913951	2888.997049
685.251889	2889.967471
685.589776	2888.412275
685.927614	2883.945813
686.265401	2884.583519
686.603137	2879.890205
686.940824	2881.894063
687.278460	2885.362377
687.616046	2885.614435
687.953582	2892.387225
688.291068	2889.826319
688.628504	2888.503016
688.965889	2888.566030
689.303224	2881.924310
689.640510	2873.613968
689.977745	2862.074767
690.314930	2850.417099
690.652065	2843.006602
690.989150	2830.408759
691.326185	2814.075421
691.663170	2806.990079
692.000105	2796.481794
692.336990	2784.130967
692.673825	2778.162241
693.010610	2771.686878
693.347345	2759.154570
693.684030	2752.505288
694.020665	2744.840214
694.357251	2741.389544
694.693786	2739.652866
695.030272	2735.609861
695.366707	2729.651217
695.703093	2726.671895
696.039429	2723.795917
696.375716	2719.531101
696.711952	2718.732078
697.048139	2715.117571
697.384276	2713.527087
697.720363	2713.935420
698.056400	2713.872406
698.392388	2707.666745
698.728326	2707.296220
699.064214	2704.717670
699.400053	2703.767413
699.735842	2699.573173
700.071581	2695.749457
700.407270	2690.057995
700.742910	2688.848118
701.078501	2687.129084
701.414042	2679.758917
701.749533	2680.265553
702.084974	2677.424863
702.420366	2674.009482
702.755709	2670.982269
703.091002	2673.273473
703.426246	2668.507062
703.761440	2667.594613
704.096584	2665.943635
704.431679	2661.767039
704.766725	2663.438182
705.101721	2660.022800
705.436668	2659.455670
705.771565	2655.606749
706.106413	2656.481390
706.441212	2656.844353
706.775961	2656.534322
707.110661	2654.772438
707.445311	2654.671615
707.779913	2655.243786
708.114465	2656.115906
708.448967	2655.957110
708.783421	2658.654127
709.117825	2657.063643
709.452180	2659.410300
709.786485	2657.744199
710.120742	2663.995229
710.454949	2664.716114
710.789107	2663.803666
711.123216	2666.624191
711.457275	2667.153512
711.791286	2671.655263
712.125247	2671.425890
712.459159	2672.111487
712.793023	2676.351097
713.126837	2672.318174
713.460602	2670.372289
713.794318	2668.343225
714.127985	2665.207627
714.461602	2659.001967
714.795171	2660.151350
715.128691	2654.379228
715.462162	2651.049546
715.795584	2647.825728
716.128957	2643.603762
716.462281	2643.213073
716.795556	2641.252064
717.128782	2638.366003
717.461960	2635.111938
717.795088	2635.553039
718.128167	2634.138996
718.461198	2629.473408
718.794180	2633.879376
719.127113	2628.041720
719.459997	2628.661782
719.792833	2626.458798
720.125619	2626.262193
720.458357	2625.977368
720.791046	2624.943931
721.123686	2622.168776
721.456278	2622.446039
721.788821	2621.412603
722.121315	2621.329424
722.453761	2618.823970
722.786158	2616.623507
723.118506	2618.012345
723.450805	2618.917232
723.783056	2618.095524
724.115259	2616.676439
724.447412	2617.563682
724.779518	2618.763477
725.111574	2620.434619
725.443582	2615.111161
725.775542	2617.762807
726.107453	2619.504526
726.439315	2617.057046
726.771129	2624.414610
727.102895	2622.241873
727.434612	2622.030144
727.766281	2624.013838
728.097901	2623.610546
728.429473	2621.021913
728.760996	2619.567541
729.092471	2620.217849
729.423897	2624.356637
729.755276	2622.188941
730.086606	2624.384363
730.417887	2624.621297
730.749120	2622.098200
731.080305	2623.325721
731.411442	2626.017697
731.742530	2624.119702
732.073570	2626.650362
732.404562	2625.294291
732.735506	2626.957872
733.066401	2625.808489
733.397249	2625.702625
733.728048	2622.443519
734.058798	2618.922273
734.389501	2617.316665
734.720156	2616.300873
735.050762	2613.593773
735.381320	2611.375666
735.711831	2609.739811
736.042293	2608.837445
736.372707	2609.744852
736.703073	2609.424739
737.033391	2611.448762
737.363661	2607.630088
737.693883	2611.249637
738.024056	2612.451952
738.354182	2608.746704
738.684260	2609.754935
739.014290	2610.218721
739.344272	2613.286263
739.674207	2612.489761
740.004093	2613.097220
740.333931	2612.371293
740.663722	2612.396499
740.993464	2611.360542
741.323159	2613.142590
741.652806	2611.405912
741.982405	2611.758793
742.311956	2607.375510
742.641460	2608.698813
742.970915	2605.482557
743.300323	2608.845006
743.629683	2604.922989
743.958996	2606.047166
744.288260	2604.063472
744.617477	2603.672782
744.946647	2601.719335
745.275768	2598.936618
745.604842	2599.271855
745.933869	2597.925867
746.262847	2597.449478
746.591778	2601.197576
746.920662	2599.130703
747.249498	2600.121290
747.578286	2599.735641
747.907027	2600.975765
748.235720	2603.813935
748.564365	2602.944336
748.892963	2600.587596
749.221514	2603.156064
749.550017	2602.082298
749.878473	2601.764706
750.206881	2599.445775
750.535242	2601.071547
750.863555	2600.786722
751.191821	2598.407297
751.520039	2600.249839
751.848210	2598.548450
752.176334	2600.270004
752.504411	2599.607092
752.832440	2596.819334
753.160421	2601.404263
753.488356	2596.960486
753.816243	2597.782194
754.144082	2598.654314
754.471875	2597.086515
754.799620	2599.486104
755.127318	2596.355548
755.454969	2597.124324
755.782572	2599.750765
756.110129	2597.157091
756.437638	2595.249014
756.765100	2594.933942
757.092515	2596.221957
757.419882	2599.733121
757.747203	2597.033583
758.074477	2595.317070
758.401703	2594.792790
758.728882	2595.533840
759.056014	2597.056268
759.383099	2595.496031
759.710138	2598.465271
760.037129	2594.712132
760.364073	2599.954932
760.690970	2598.256063
761.017820	2598.588779
761.344623	2596.963007
761.671379	2600.368306
761.998088	2596.471494
762.324751	2600.454006
762.651366	2606.863833
762.977935	2617.409927
763.304456	2621.258848
763.630931	2629.617081
763.957359	2629.972482
764.283740	2626.892337
764.610074	2621.336986
764.936362	2617.490585
765.262602	2611.874740
765.588796	2606.699995
765.914943	2604.267639
766.241044	2600.544747
766.567097	2597.890579
766.893104	2596.463932
767.219064	2595.604416
767.544978	2593.958479
767.870845	2591.054774
768.196665	2589.736513
768.522438	2592.446133
768.848165	2589.892788
769.173846	2590.613673
769.499479	2591.684919
769.825066	2589.945721
770.150607	2587.586461
770.476101	2588.022520
770.801548	2589.013107
771.126949	2589.827253
771.452303	2588.771132
771.777611	2586.376584
772.102872	2585.128898
772.428087	2585.975812
772.753256	2586.341296
773.078378	2588.541759
773.403453	2585.338106
773.728482	2586.648806
774.053465	2585.688466
774.378401	2582.598239
774.703291	2584.629824
775.028135	2583.369535
775.352932	2582.855338
775.677683	2585.320462
776.002388	2582.308372
776.327046	2582.809967
776.651658	2582.023547
776.976224	2582.625965
777.300743	2582.807447
777.625216	2579.500450
777.949643	2582.366346
778.274024	2581.078331
778.598359	2579.344174
778.922647	2579.220666
779.246889	2578.025912
779.571086	2575.724626
779.895236	2580.909452
780.219339	2582.386510
780.543397	2577.599935
780.867409	2583.031778
781.191374	2581.237127
781.515294	2583.341809
781.839167	2581.108578
782.162995	2580.072621
782.486776	2580.339802
782.810511	2580.516242
783.134201	2579.999524
783.457844	2580.435584
783.781441	2582.567992
784.104993	2579.502970
784.428498	2581.184195
784.751958	2580.155800
785.075372	2580.987590
785.398739	2581.534555
785.722061	2582.855338
786.045337	2581.317786
786.368568	2584.314752
786.691752	2581.499267
787.014891	2584.100503
787.337983	2584.130750
787.661030	2584.458425
787.984031	2584.418095
788.306987	2584.110585
788.629897	2588.420772
788.952760	2585.963209
789.275579	2588.849270
789.598351	2586.416913
789.921078	2584.042529
790.243759	2584.294587
790.566395	2584.821388
790.888984	2582.895667
791.211529	2583.729978
791.534027	2579.878536
791.856480	2580.034812
792.178888	2580.322158
792.501249	2582.797364
792.823566	2581.380800
793.145836	2580.589339
793.468062	2581.562282
793.790241	2577.814184
794.112375	2581.882395
794.434464	2580.533886
794.756507	2577.375603
795.078505	2582.003383
795.400457	2576.276632
795.722364	2578.388875
796.044226	2579.162692
796.366042	2580.274267
796.687812	2579.550861
797.009538	2586.273240
797.331218	2583.472879
797.652852	2583.482961
797.974442	2583.377097
798.295986	2584.715523
798.617484	2585.675863
798.938938	2581.683269
799.260346	2583.722416
799.581709	2581.479103
799.903026	2580.410378
800.224299	2580.112950
800.545526	2582.472210
800.866708	2579.288721
801.187845	2579.283680
801.508936	2579.366859
801.829983	2579.649164
802.150984	2580.465831
802.471940	2577.781416
802.792851	2577.441138
803.113717	2578.749318
803.434538	2578.288052
803.755314	2577.448700
804.076045	2577.922569
804.396731	2580.256623
804.717372	2578.782085
805.037967	2579.278639
805.358518	2578.744277
805.679024	2580.536407
805.999485	2576.982393
806.319901	2581.403485
806.640272	2578.734194
806.960598	2577.872157
807.280879	2578.842579
807.601115	2579.175295
807.921306	2577.221848
808.241453	2576.793350
808.561554	2577.541962
808.881611	2581.088413
809.201623	2578.386355
809.521590	2579.777713
809.841513	2577.804102
810.161390	2577.811663
810.481223	2574.786971
810.801011	2580.528845
811.120755	2579.321489
811.440453	2578.295614
811.760107	2580.221335
812.079716	2576.216138
812.399281	2574.955850
812.718801	2574.320664
813.038276	2571.364028
813.357707	2577.574729
813.677093	2579.631520
813.996434	2579.097157
814.315731	2579.114802
814.634983	2576.657239
814.954191	2576.563978
815.273354	2576.112794
815.592473	2576.256467
815.911547	2577.083217
816.230577	2580.138156
816.549562	2578.305696
816.868502	2577.937692
817.187399	2581.151428
817.506250	2580.677559
817.825058	2580.695203
818.143821	2582.560430
818.462539	2583.334247
818.781213	2583.611511
819.099843	2583.006572
819.418429	2588.337593
819.736970	2589.113930
820.055466	2590.248190
820.373919	2597.603233
820.692327	2600.320415
821.010691	2607.879625
821.329011	2629.584313
821.647286	2663.176042
821.965517	2698.396063
822.283704	2731.345045
822.601847	2749.825915
822.919945	2742.009606
823.237999	2727.659961
823.556010	2712.108002
823.873976	2692.870959
824.191897	2678.854030
824.509775	2666.677123
824.827609	2652.519043
825.145398	2639.555716
825.463144	2633.816362
825.780845	2631.303347
826.098502	2632.069602
826.416116	2637.811476
826.733685	2645.262302
827.051210	2651.377221
827.368692	2651.616676
827.686129	2642.477064
828.003522	2632.210754
828.320872	2621.531070
828.638177	2612.938423
828.955439	2608.446755
829.272656	2603.534151
829.589830	2598.364447
829.906960	2597.693974
830.224046	2590.850608
830.541088	2588.451018
830.858086	2587.994794
831.175041	2584.365163
831.491952	2584.443301
831.808819	2582.540266
832.125642	2586.507654
832.442421	2585.509505
832.759157	2590.313725
833.075849	2597.943511
833.392497	2607.574636
833.709101	2612.240223
834.025662	2615.784155
834.342179	2611.743670
834.658653	2607.171343
834.975083	2603.418204
835.291469	2601.437031
835.607811	2597.799838
835.924110	2593.532502
836.240366	2590.598550
836.556578	2584.856676
836.872746	2583.112437
837.188871	2584.377766
837.504952	2580.821232
837.820990	2579.336612
838.136984	2577.499112
838.452935	2575.122208
838.768842	2576.690007
839.084706	2576.327043
839.400526	2578.950964
839.716303	2584.680235
840.032037	2587.959506
840.347727	2588.047726
840.663373	2589.129054
840.978977	2584.760894
841.294537	2580.294432
841.610054	2581.844586
841.925527	2579.351736
842.240957	2578.845100
842.556344	2579.634040
842.871687	2575.979204
843.186987	2574.809656
843.502244	2574.751683
843.817458	2573.574573
844.132629	2575.228072
844.447756	2572.856209
844.762840	2570.282700
845.077881	2567.542833
845.392879	2568.853533
845.707833	2567.499983
846.022745	2565.339849
846.337613	2569.231619
846.652438	2570.166753
846.967221	2572.347052
847.281960	2570.038204
847.596656	2573.209090
847.911309	2569.110632
848.225919	2571.996692
848.540485	2572.420149
848.855009	2571.926116
849.169490	2567.507545
849.483928	2569.312278
849.798323	2570.862433
850.112675	2568.450241
850.426984	2567.825137
850.741251	2570.776733
851.055474	2569.077864
851.369654	2571.114490
851.683792	2569.531568
851.997887	2567.497462
852.311938	2570.323029
852.625947	2568.724983
852.939914	2568.931671
853.253837	2568.780436
853.567718	2570.509552
853.881555	2567.116855
854.195350	2568.775395
854.509103	2568.954356
854.822812	2569.743297
855.136479	2569.045097
855.450103	2568.737586
855.763685	2567.043759
856.077224	2570.058369
856.390720	2569.181208
856.704173	2568.099880
857.017584	2569.576938
857.330953	2569.395457
857.644278	2571.094326
857.957561	2570.038204
858.270802	2571.278328
858.584000	2572.531055
858.897155	2571.197669
859.210268	2569.607185
859.523339	2569.128276
859.836367	2569.967628
860.149352	2570.882597
860.462295	2571.679100
860.775195	2566.285065
861.088054	2567.263049
861.400869	2563.923284
861.713642	2567.686506
862.026373	2567.709191
862.339062	2567.736917
862.651708	2570.597772
862.964312	2570.444017
863.276873	2570.272618
863.589392	2570.350756
863.901869	2568.732545
864.214303	2571.162381
864.526696	2570.247412
864.839045	2570.698595
865.151353	2570.799418
865.463619	2570.055848
865.775842	2570.141548
866.088023	2568.994685
866.400162	2571.890828
866.712258	2570.670869
867.024313	2572.087433
867.336325	2568.614078
867.648296	2571.691702
867.960224	2568.351938
868.272110	2570.990982
868.583954	2569.460992
868.895755	2573.924934
869.207515	2572.977197
869.519233	2572.936868
869.830909	2572.130283
870.142542	2572.722618
870.454134	2569.632391
870.765684	2570.063410
871.077191	2573.319995
871.388657	2572.694892
871.700081	2571.558112
872.011463	2573.554409
872.322803	2572.757907
872.634101	2571.656414
872.945357	2574.265212
873.256571	2574.426528
873.567744	2572.520972
873.878874	2573.314954
874.189963	2571.185067
874.501010	2573.894687
874.812015	2570.358317
875.122979	2578.482137
875.433900	2572.473081
875.744780	2572.911662
876.055618	2571.684141
876.366415	2573.355283
876.677169	2572.994841
876.987882	2570.562484
877.298554	2573.229254
877.609183	2570.872515
877.919771	2573.405695
878.230317	2574.010633
878.540822	2576.032136
878.851285	2577.630182
879.161707	2579.278639
879.472087	2581.143866
879.782425	2585.648137
880.092722	2593.043510
880.402977	2604.166816
880.713191	2618.191306
881.023363	2634.764099
881.333494	2647.419916
881.643583	2655.117757
881.953631	2660.763850
882.263637	2657.126657
882.573602	2651.044505
882.883526	2646.583084
883.193408	2644.433032
883.503248	2635.391722
883.813048	2629.670013
884.122806	2623.819754
884.432522	2619.847325
884.742197	2612.290635
885.051831	2606.972218
885.361424	2603.627412
885.670975	2597.625918
885.980485	2592.766246
886.289954	2592.267172
886.599382	2587.888930
886.908768	2588.241811
887.218113	2581.559761
887.527417	2583.361974
887.836680	2581.781572
888.145901	2579.124884
888.455082	2577.673032
888.764221	2577.705799
889.073319	2578.401478
889.382376	2575.404512
889.691392	2572.536096
890.000366	2575.202866
890.309300	2573.262022
890.618193	2576.085068
890.927044	2574.139183
891.235855	2574.978535
891.544625	2577.836869
891.853353	2574.663463
892.162041	2575.512897
892.470687	2578.277970
892.779293	2578.686303
893.087858	2575.896025
893.396381	2576.747980
893.704864	2578.643454
894.013306	2585.113775
894.321707	2595.054930
894.630068	2595.985023
894.938387	2599.561722
895.246665	2600.859819
895.554903	2596.947883
895.863100	2593.393870
896.171256	2596.375712
896.479371	2590.399424
896.787446	2590.369178
897.095480	2586.938672
897.403473	2586.172417
897.711425	2585.748960
898.019336	2581.678228
898.327207	2583.896336
898.635038	2581.020358
898.942827	2582.381469
899.250576	2577.388206
899.558284	2578.923238
899.865952	2576.730336
900.173579	2575.452403
900.481165	2575.018864
900.788711	2572.367217
901.096216	2574.852506
901.403681	2575.097002
901.711105	2576.977352
902.018489	2574.751683
902.325832	2575.827969
902.633135	2574.010633
902.940397	2574.676066
903.247619	2577.118505
903.554800	2583.228383
903.861941	2590.850608
904.169041	2599.297061
904.476101	2605.094388
904.783121	2607.156220
905.090100	2602.614140
905.397039	2599.803697
905.703938	2595.420414
906.010796	2592.564600
906.317614	2591.944538
906.624391	2589.287850
906.931129	2586.883220
907.237826	2585.474217
907.544483	2584.067735
907.851099	2579.497929
908.157675	2580.140676
908.464211	2576.294276
908.770707	2568.815724
909.077163	2570.827145
909.383578	2571.732032
909.689954	2567.152143
909.996289	2568.120045
910.302584	2570.880077
910.608839	2570.970818
910.915054	2569.851681
911.221229	2568.389747
911.527363	2572.483164
911.833458	2570.620457
912.139513	2568.651887
912.445527	2569.748338
912.751502	2571.127093
913.057436	2570.842268
913.363331	2570.703636
913.669186	2571.144737
913.975000	2573.582135
914.280775	2574.378637
914.586510	2577.294945
914.892205	2581.882395
915.197859	2586.852973
915.503475	2590.084352
915.809050	2600.965683
916.114585	2601.805035
916.420081	2602.157916
916.725536	2607.370469
917.030952	2603.014912
917.336328	2601.318564
917.641665	2602.861157
917.946961	2599.783532
918.252218	2595.589292
918.557435	2594.336566
918.862612	2593.436720
919.167750	2590.873293
919.472848	2587.193251
919.777906	2588.014959
920.082925	2584.561768
920.387904	2580.493557
920.692843	2578.537589
920.997743	2575.112125
921.302603	2577.723443
921.607423	2574.610531
921.912204	2574.121539
922.216946	2572.974676
922.521647	2570.249933
922.826310	2570.539799
923.130932	2574.391240
923.435516	2571.031311
923.740059	2570.756568
924.044564	2570.723801
924.349028	2569.816393
924.653454	2566.451423
924.957840	2565.007132
925.262186	2564.999571
925.566493	2566.577452
925.870761	2566.136351
926.174989	2566.562328
926.479178	2567.023594
926.783328	2566.839592
927.087438	2566.421176
927.391509	2569.143399
927.695541	2565.763306
927.999533	2564.674416
928.303486	2566.209448
928.607400	2565.294478
928.911275	2565.075188
929.215110	2566.567370
929.518906	2563.812379
929.822663	2566.673234
930.126381	2567.116855
930.430060	2567.131979
930.733699	2566.136351
931.037299	2567.888152
931.340861	2565.281875
931.644383	2564.117369
931.947866	2564.981927
932.251309	2563.976217
932.554714	2566.002760
932.858080	2566.002760
933.161407	2565.188614
933.464694	2566.554767
933.767943	2566.426217
934.071153	2567.961249
934.374323	2564.618964
934.677455	2566.000240
934.980548	2565.428069
935.283602	2564.555949
935.586617	2562.199210
935.889593	2565.286917
936.192530	2565.881773
936.495428	2566.345559
936.798287	2566.960580
937.101108	2564.765157
937.403890	2565.007133
937.706632	2569.440827
938.009336	2566.310271
938.312002	2567.371434
938.614628	2566.015363
938.917216	2564.374468
939.219765	2569.617268
939.522275	2567.799932
939.824747	2568.999726
940.127179	2563.429251
940.429573	2563.930846
940.731929	2564.934036
941.034246	2562.932698
941.336524	2566.065775
941.638763	2566.645507
941.940964	2570.133986
942.243126	2567.963769
942.545250	2567.948646
942.847335	2566.567370
943.149381	2567.910837
943.451389	2567.394119
943.753359	2568.919068
944.055290	2565.269272
944.357182	2567.575600
944.659036	2567.734397
944.960851	2569.002247
945.262628	2568.556105
945.564367	2567.626012
945.866067	2566.171639
946.167729	2567.101732
946.469352	2565.284396
946.770937	2567.931002
947.072484	2565.244067
947.373992	2568.450241
947.675462	2565.889334
947.976893	2567.371434
948.278286	2563.651062
948.579641	2565.097873
948.880958	2565.027297
949.182236	2562.723490
949.483476	2565.591906
949.784678	2567.754561
950.085841	2564.218192
950.386967	2567.401681
950.688054	2563.204920
950.989103	2563.341031
951.290114	2565.654921
951.591087	2565.183573
951.892021	2566.353121
952.192917	2567.245405
952.493776	2562.693243
952.794596	2566.585014
953.095378	2563.787173
953.396122	2567.091650
953.696828	2566.232133
953.997496	2566.970662
954.298126	2563.981258
954.598718	2566.128789
954.899272	2569.294634
955.199788	2564.566032
955.500266	2564.147616
955.800706	2564.888665
956.101108	2561.279199
956.401472	2562.312636
956.701798	2560.626370
957.002087	2560.961607
957.302337	2566.731207
957.602550	2563.714077
957.902724	2562.854560
958.202861	2564.765157
958.502960	2563.232646
958.803022	2562.355486
959.103045	2559.620660
959.403031	2565.433110
959.702979	2561.863973
960.002889	2563.787173
960.302762	2561.133006
960.602596	2563.913202
960.902393	2563.255332
961.202153	2563.192317
961.501875	2562.237018
961.801559	2559.595454
962.101205	2562.715928
962.400814	2560.911195
962.700385	2562.156360
962.999918	2562.635270
963.299414	2561.362378
963.598873	2561.425393
963.898293	2560.454971
964.197677	2562.158881
964.497022	2564.326577
964.796331	2561.279199
965.095601	2561.906823
965.394835	2562.085784
965.694030	2561.821123
965.993189	2560.540670
966.292309	2559.068653
966.591393	2561.362378
966.890439	2563.078891
967.189447	2562.768860
967.488419	2560.525547
967.787353	2559.416493
968.086249	2558.478838
968.385108	2561.974878
968.683930	2562.088304
968.982714	2560.482697
969.281462	2561.168294
969.580172	2560.064281
969.878844	2562.088304
970.177480	2559.696277
970.476078	2560.959086
970.774639	2560.991853
971.073162	2560.419682
971.371649	2560.651576
971.670098	2556.802655
971.968510	2558.438509
972.266885	2556.946328
972.565223	2560.044117
972.863524	2559.497151
973.161788	2561.899261
973.460014	2560.379353
973.758204	2558.667882
974.056356	2558.773746
974.354471	2561.216185
974.652550	2562.100907
974.950591	2562.673078
975.248595	2561.627039
975.546563	2561.891699
975.844493	2563.819941
976.142386	2561.720300
976.440243	2559.885320
976.738062	2561.959755
977.035845	2559.955896
977.333590	2561.639642
977.631299	2561.841288
977.928971	2562.756257
978.226606	2560.507903
978.524204	2561.672409
978.821765	2560.946483
979.119290	2561.828685
979.416777	2561.380022
979.714228	2558.216698
980.011642	2562.002605
980.309020	2560.586041
980.606360	2561.748027
980.903664	2559.953376
981.200931	2559.247614
981.498162	2561.453119
981.795356	2559.839950
982.092513	2563.610733
982.389633	2563.167111
982.686717	2562.910013
982.983764	2565.649880
983.280775	2564.717266
983.577749	2568.351938
983.874686	2567.747000
984.171587	2565.833882
984.468451	2565.052503
984.765279	2566.075857
985.062070	2565.007132
985.358824	2563.421690
985.655543	2565.357493
985.952224	2561.591751
986.248869	2563.066288
986.545478	2556.643858
986.842050	2561.720300
987.138586	2557.193344
987.435086	2562.133675
987.731549	2555.686039
988.027975	2559.875238
988.324366	2561.206102
988.620719	2558.972871
988.917037	2560.396997
989.213318	2560.835578
989.509563	2560.046637
989.805772	2559.945814
990.101944	2561.276679
990.398080	2557.306770
990.694180	2559.885320
990.990244	2562.814231
991.286271	2557.405073
991.582262	2560.442368
991.878217	2559.214847
992.174136	2558.509085
992.470019	2559.774415
992.765865	2559.093859
993.061676	2556.926163
993.357450	2557.314332
993.653188	2561.077553
993.948890	2560.255845
994.244556	2560.149981
994.540186	2558.919939
994.835780	2561.087635
995.131337	2560.543191
995.426859	2563.091494
995.722345	2561.140568
996.017795	2563.956052
996.313208	2560.162584
996.608586	2559.976061
996.903928	2561.695094
997.199234	2559.676112
997.494504	2563.719118
997.789738	2563.081412
998.084936	2561.538819
998.380099	2561.662327
998.675225	2559.413972
998.970316	2563.399004
999.265371	2562.287430
999.560390	2558.733417
999.855373	2559.771894
1000.150320	2558.322562
1000.445232	2559.446740
1000.740108	2559.739127
1001.034948	2560.170145
1001.329752	2560.674261
1001.624521	2559.953376
1001.919254	2555.025648
1002.213951	2557.279044
1002.508613	2553.137736
1002.803239	2558.788869
1003.097829	2552.794937
1003.392384	2560.212995
1003.686903	2557.561348
1003.981386	2559.255176
1004.275834	2556.369115
1004.570246	2560.081925
1004.864623	2555.744012
1005.158964	2556.532953
1005.453270	2556.893395
1005.747540	2556.096893
1006.041775	2557.261400
1006.335974	2559.769374
1006.630138	2558.171328
1006.924266	2557.919270
1007.218359	2559.053530
1007.512416	2557.415155
1007.806438	2559.018242
1008.100425	2558.867007
1008.394376	2556.104455
1008.688292	2560.283571
1008.982172	2556.112017
1009.276017	2557.410114
1009.569827	2556.396842
1009.863602	2560.374312
1010.157341	2555.655792
1010.451045	2558.514126
1010.744714	2558.287274
1011.038347	2554.680329
1011.331945	2556.502706
1011.625508	2557.072356
1011.919036	2557.596636
1012.212528	2556.646379
1012.505986	2557.727706
1012.799408	2557.727706
1013.092795	2555.116389
1013.386147	2555.333158
1013.679464	2556.137222
1013.972745	2557.044630
1014.265992	2556.565720
1014.559204	2560.084446
1014.852380	2556.273333
1015.145521	2556.535473
1015.438628	2557.415155
1015.731699	2557.216029
1016.024736	2555.229815
1016.317737	2558.841801
1016.610703	2555.441543
1016.903635	2553.752757
1017.196531	2554.544218
1017.489393	2555.504558
1017.782219	2554.529094
1018.075011	2555.098745
1018.367768	2555.217212
1018.660490	2554.551779
1018.953177	2554.551779
1019.245829	2554.551779
