Dividing Wavelength (nm)	Counts (n)	Blue Motor Position (mm): 0.000000	Red Motor Position (mm): 36.500000	
326.493990	2138.470064
326.888308	2138.470064
327.282561	2138.470064
327.676750	2115.878133
328.070874	2116.919132
328.464933	2121.282250
328.858929	2129.421193
329.252859	2144.143883
329.646726	2157.717190
330.040528	2171.948367
330.434265	2190.386387
330.827938	2213.336240
331.221547	2229.556153
331.615091	2248.059708
332.008571	2270.928902
332.401986	2287.325255
332.795338	2309.390386
333.188625	2332.267142
333.581847	2347.995542
333.975006	2370.537061
334.368100	2386.837632
334.761129	2408.484347
335.154095	2418.337282
335.546996	2438.927875
335.939833	2457.368416
336.332606	2472.184367
336.725315	2483.690800
337.117960	2492.008704
337.510540	2500.470281
337.903056	2512.095182
338.295508	2514.570388
338.687896	2522.936183
339.080220	2530.316432
339.472480	2538.099974
339.864676	2538.188194
340.256807	2544.998793
340.648875	2544.141797
341.040879	2545.770089
341.432818	2548.676315
341.824694	2549.611449
342.216506	2546.674977
342.608253	2548.865358
342.999937	2546.286808
343.391557	2547.325285
343.783113	2545.686910
344.174605	2543.241951
344.566033	2542.420243
344.957397	2542.296734
345.348697	2538.596528
345.739934	2538.904038
346.131106	2539.314892
346.522215	2533.520086
346.913260	2534.281300
347.304241	2530.954138
347.695159	2529.038500
348.086012	2527.884076
348.476802	2527.672347
348.867528	2524.718231
349.258191	2524.209074
349.648789	2522.648837
350.039324	2520.700431
350.429796	2523.082377
350.820203	2519.737571
351.210548	2521.330576
351.600828	2515.477796
351.991045	2516.412930
352.381198	2516.954854
352.771288	2517.269926
353.161314	2517.642972
353.551276	2520.317304
353.941175	2517.559793
354.331010	2518.905781
354.720782	2517.216994
355.110490	2516.937210
355.500135	2518.867972
355.889717	2518.694052
356.279235	2518.661285
356.668689	2519.876203
357.058080	2519.931655
357.447408	2517.728671
357.836672	2515.974350
358.225873	2518.159690
358.615010	2517.244720
359.004084	2521.799403
359.393095	2522.560617
359.782043	2522.180010
360.170927	2521.557428
360.559748	2524.420803
360.948505	2523.773015
361.337199	2525.212264
361.725830	2525.088756
362.114398	2526.293592
362.502903	2528.418438
362.891344	2526.598581
363.279722	2525.577748
363.668037	2525.676050
364.056289	2529.179652
364.444478	2529.388860
364.832603	2529.464477
365.220665	2530.109745
365.608665	2527.642100
365.996601	2531.228881
366.384474	2529.701412
366.772284	2531.412883
367.160031	2530.583613
367.547715	2534.770292
367.935336	2531.425486
368.322893	2532.554705
368.710388	2533.774664
369.097820	2533.814993
369.485189	2533.532688
369.872495	2533.376413
370.259738	2533.963707
370.646918	2532.680733
371.034035	2535.917154
371.421090	2532.224509
371.808081	2536.083512
372.195010	2539.763555
372.581875	2536.174253
372.968678	2536.703574
373.355418	2539.584594
373.742096	2536.766589
374.128710	2540.839841
374.515262	2540.534851
374.901751	2541.613658
375.288177	2544.492157
375.674540	2546.145655
376.060841	2546.506098
376.447079	2546.773279
376.833254	2549.341747
377.219367	2549.132539
377.605417	2550.899463
377.991404	2552.850390
378.377329	2556.540515
378.763191	2559.809703
379.148991	2564.873542
379.534727	2567.363872
379.920402	2571.104408
380.306013	2574.250088
380.691563	2579.981880
381.077049	2584.198805
381.462474	2588.692994
381.847835	2593.726586
382.233134	2596.847060
382.618371	2606.299224
383.003545	2610.553957
383.388657	2616.442025
383.773706	2622.234311
384.158693	2630.403501
384.543618	2635.527834
384.928480	2641.869605
385.313280	2651.657005
385.698017	2656.925011
386.082692	2667.952535
386.467305	2672.098884
386.851856	2682.909639
387.236344	2694.161494
387.620770	2697.561752
388.005133	2706.545088
388.389435	2717.214691
388.773674	2725.993860
389.157851	2732.123903
389.541965	2745.586304
389.926018	2744.736870
390.310008	2759.147008
390.693936	2766.494490
391.077802	2780.627365
391.461606	2787.652213
391.845348	2795.692853
392.229027	2806.949750
392.612645	2820.260916
392.996200	2829.856753
393.379694	2843.256140
393.763125	2857.935980
394.146494	2867.748586
394.529801	2876.855430
394.913047	2894.207082
395.296230	2897.264541
395.679351	2899.868297
396.062410	2920.264806
396.445408	2913.113929
396.828343	2927.332503
397.211217	2935.267280
397.594028	2930.382402
397.976778	2946.050308
398.359466	2959.036320
398.742092	2954.511884
399.124656	2967.044193
399.507158	2982.268478
399.889598	2990.803151
400.271977	3003.181704
400.654294	3014.239475
401.036549	3023.489993
401.418742	3028.422762
401.800874	3050.457645
402.182944	3058.178172
402.564952	3086.786720
402.946898	3078.874629
403.328783	3085.286977
403.710606	3100.213833
404.092367	3124.103862
404.474067	3151.144611
404.855705	3140.164978
405.237282	3142.080616
405.618797	3174.908610
406.000250	3195.509285
406.381642	3225.869634
406.762972	3232.559245
407.144240	3218.628017
407.525447	3239.765575
407.906593	3244.186667
408.287677	3263.123761
408.668700	3281.970115
409.049661	3280.455248
409.430560	3293.037968
409.811399	3301.935605
410.192176	3320.257678
410.572891	3325.487875
410.953545	3366.520347
411.334138	3336.538085
411.714669	3386.145559
412.095139	3335.668486
412.475547	3387.705796
412.855894	3374.235833
413.236180	3404.810431
413.616405	3382.352091
413.996568	3411.434507
414.376670	3415.343922
414.756711	3411.197573
415.136691	3431.533588
415.516609	3455.806743
415.896466	3464.041468
416.276262	3491.137670
416.655997	3521.883667
417.035670	3528.071684
417.415283	3594.960234
417.794834	3613.715847
418.174324	3598.347889
418.553753	3599.250256
418.933121	3643.715753
419.312428	3628.065491
419.691674	3627.319400
420.070859	3662.264679
420.449983	3649.739932
420.829045	3692.564534
421.208047	3679.288655
421.586988	3726.156263
421.965867	3757.620624
422.344686	3762.777725
422.723444	3802.010504
423.102141	3707.839230
423.480777	3806.600475
423.859352	3776.613171
424.237866	3874.648490
424.616319	3859.046119
424.994712	3916.621137
425.373044	3906.392636
425.751314	3973.997030
426.129524	3905.767533
426.507673	4004.478366
426.885762	3984.744770
427.263789	4009.224613
427.641756	4011.351980
428.019662	4042.057648
428.397508	4046.168709
428.775292	4082.354111
429.153016	4086.744956
429.530679	4100.459415
429.908282	4110.297227
430.285824	4088.597580
430.663305	4160.300432
431.040726	4118.199235
431.418086	4109.281434
431.795385	4191.124567
432.172624	4220.030543
432.549802	4187.663815
432.926920	4206.321125
433.303977	4200.148232
433.680974	4238.526537
434.057910	4261.597377
434.434786	4270.593316
434.811601	4261.201647
435.188355	4365.160321
435.565050	4337.330631
435.941683	4334.492462
436.318257	4421.621244
436.694770	4426.700207
437.071222	4486.316892
437.447614	4421.074279
437.823946	4420.509670
438.200218	4444.346766
438.576429	4422.445473
438.952580	4446.113690
439.328670	4451.613589
439.704700	4492.822501
440.080670	4458.313282
440.456580	4518.855020
440.832429	4553.313827
441.208218	4458.509887
441.583947	4507.532588
441.959616	4522.421636
442.335224	4551.587232
442.710773	4572.487855
443.086261	4626.302173
443.461689	4581.267025
443.837057	4591.913942
444.212365	4666.089479
444.587612	4670.951672
444.962800	4635.164521
445.337927	4679.123383
445.712995	4563.587698
446.088002	4759.418881
446.462949	4775.714411
446.837837	4793.481958
447.212664	4785.214465
447.587431	5005.379298
447.962139	5305.171676
448.336786	5640.179034
448.711374	5632.811388
449.085901	5278.261997
449.460369	5214.912337
449.834776	5147.144106
450.209124	5382.066916
450.583412	5393.044029
450.957640	5513.736813
451.331808	5376.524168
451.705917	5231.167538
452.079965	5219.910641
452.453954	5259.846662
452.827883	5226.428853
453.201752	5229.952619
453.575562	5261.984111
453.949311	5393.744749
454.323001	5399.978136
454.696632	5397.959154
455.070202	5547.560435
455.443713	5575.077573
455.817164	5664.618548
456.190556	5742.310291
456.563888	5711.738213
456.937160	5794.977745
457.310373	5636.332634
457.683526	5692.097878
458.056619	5687.301220
458.429653	5665.503271
458.802628	5711.927256
459.175542	5744.576289
459.548398	5883.548298
459.921194	6066.201905
460.293930	6129.506194
460.666607	6379.544904
461.039224	6588.777995
461.411782	6717.095525
461.784280	6636.588298
462.156719	6645.889227
462.529099	6608.471262
462.901419	6461.932482
463.273680	6334.169478
463.645882	6318.093239
464.018024	6320.944011
464.390106	6384.444906
464.762130	6644.079452
465.134094	7030.524224
465.505999	7655.029924
465.877845	8360.617543
466.249631	8719.540135
466.621358	8653.470773
466.993026	8460.041699
467.364634	8240.060869
467.736184	7961.731203
468.107674	7802.892007
468.479105	7722.294040
468.850477	7654.445150
469.221790	7480.331258
469.593043	7261.023422
469.964238	7160.071795
470.335373	7134.911397
470.706449	7285.150384
471.077467	7470.753066
471.448425	8128.890824
471.819324	8705.399698
472.190164	8748.703210
472.560945	8267.638501
472.931667	7799.537120
473.302330	7609.447811
473.672934	7488.868452
474.043479	7563.913589
474.413965	7467.645194
474.784393	7415.643172
475.154761	7574.068993
475.525070	7582.530570
475.895321	7533.699433
476.265513	7632.901779
476.635645	7795.695760
477.005719	7780.796630
477.375734	7868.321143
477.745691	7981.931107
478.115588	8180.706324
478.485427	8413.408506
478.855207	8885.779745
479.224928	9314.091299
479.594591	9700.984733
479.964194	9714.893277
480.333739	9796.522160
480.703226	9800.638262
481.072653	9899.785156
481.442022	10010.551908
481.811333	10164.581844
482.180584	10007.123924
482.549777	9946.705695
482.918912	9882.705726
483.287988	9870.193582
483.657005	9779.135221
484.025964	9695.073980
484.394864	9751.933154
484.763706	9719.924348
485.132489	9627.187282
485.501213	9609.379406
485.869879	9676.761989
486.238487	9617.397361
486.607036	9690.683135
486.975527	9634.829671
487.343959	9687.406385
487.712333	9737.129806
488.080648	9774.378892
488.448905	9876.812618
488.817104	9883.797136
489.185244	10048.680676
489.553326	10254.430329
489.921350	10724.250744
490.289315	11352.040756
490.657222	11637.659930
491.025070	11815.053092
491.392861	11736.312790
491.760593	11579.452247
492.128267	11331.162817
492.495883	11090.568708
492.863440	10858.088337
493.230939	10627.092586
493.598380	10448.502149
493.965763	10429.229818
494.333088	10295.447677
494.700354	10230.981402
495.067563	10195.199292
495.434713	10194.990084
495.801805	10245.537733
496.168839	10197.432523
496.535815	10168.254324
496.902733	10217.793743
497.269593	10177.492239
497.636395	10185.842910
498.003139	10289.118508
498.369825	10215.489936
498.736453	10306.041662
499.103023	10251.148538
499.469535	10252.396223
499.835989	10307.654831
500.202385	10272.061764
500.568723	10295.576226
500.935003	10353.022695
501.301226	10331.529736
501.667390	10493.978398
502.033497	10593.331978
502.399546	10523.819508
502.765537	10432.486403
503.131470	10532.371825
503.497345	10620.891966
503.863163	10396.001052
504.228923	10531.545076
504.594625	10641.626232
504.960269	10557.847296
505.325856	10701.555469
505.691385	10587.824518
506.056856	10646.944649
506.422270	10741.330173
506.787625	10676.909268
507.152924	10738.923022
507.518164	10796.820674
507.883347	10667.504995
508.248472	10734.181817
508.613540	10849.835968
508.978550	10920.714591
509.343503	10901.210367
509.708398	10947.704929
510.073236	11080.095711
510.438016	11088.043090
510.802738	11004.828764
511.167403	11130.703855
511.532010	11185.791063
511.896561	11285.895776
512.261053	11485.230561
512.625488	11396.052549
512.989866	11379.638552
513.354186	11358.427897
513.718449	11367.431398
514.082655	11506.605053
514.446803	11464.254320
514.810894	11579.396794
515.174927	11566.582181
515.538904	11554.826210
515.902822	11702.370701
516.266684	11584.342166
516.630488	11686.813700
516.994235	11672.189313
517.357925	11785.854729
517.721558	11843.132319
518.085133	11905.440981
518.448651	11944.220057
518.812112	11892.134855
519.175516	11899.724312
519.538863	11996.131338
519.902152	12000.025630
520.265385	12101.156217
520.628560	12122.513065
520.991678	12076.741909
521.354739	12122.137499
521.717743	12200.693800
522.080690	12164.505877
522.443580	12295.638891
522.806413	12309.590285
523.169189	12308.876961
523.531908	12363.971732
523.894569	12321.568066
524.257174	12334.110457
524.619722	12421.428283
524.982213	12415.736820
525.344647	12405.626786
525.707025	12415.759505
526.069345	12512.842046
526.431608	12498.484840
526.793815	12576.405955
527.155964	12469.651960
527.518057	12497.214469
527.880093	12448.015328
528.242072	12561.368193
528.603995	12492.286741
528.965860	12500.024912
529.327669	12528.003316
529.689421	12478.516829
530.051117	12493.453768
530.412755	12524.650949
530.774337	12523.362934
531.135862	12479.908188
531.497331	12539.411447
531.858743	12504.466169
532.220098	12582.490628
532.581396	12506.263340
532.942638	12429.085795
533.303824	12495.399654
533.664953	12475.497178
534.026025	12430.792226
534.387040	12515.748271
534.747999	12489.241884
535.108902	12533.949357
535.469748	12414.980647
535.830537	12437.602825
536.191270	12471.691107
536.551947	12394.934499
536.912567	12454.599075
537.273131	12485.181235
537.633638	12370.656302
537.994089	12418.506934
538.354483	12339.847290
538.714821	12449.043723
539.075103	12537.158052
539.435328	12463.073255
539.795497	12438.762290
540.155609	12428.148141
540.515665	12526.579190
540.875665	12379.742982
541.235609	12477.127992
541.595496	12431.157710
541.955328	12582.415010
542.315102	12434.074017
542.674821	12366.517514
543.034483	12375.790717
543.394090	12376.042775
543.753640	12349.740554
544.113134	12567.873802
544.472571	12336.663801
544.831953	12599.035694
545.191278	12415.404104
545.550548	12346.274761
545.909761	12445.925770
546.268918	12475.895429
546.628019	12534.534131
546.987064	12420.004157
547.346053	12271.317845
547.704986	12449.812499
548.063863	12327.073006
548.422684	12364.354859
548.781449	12318.404742
549.140158	12391.907286
549.498811	12350.521933
549.857408	12215.928167
550.215949	12387.418138
550.574434	12349.584279
550.932864	12279.693722
551.291237	12461.875981
551.649555	12342.947600
552.007817	12382.692057
552.366022	12303.190540
552.724173	12313.658496
553.082267	12386.820762
553.440305	12455.559415
553.798288	12281.889144
554.156215	12332.741784
554.514086	12368.675128
554.871902	12296.604272
555.229661	12301.683235
555.587365	12242.865572
555.945014	12250.152560
556.302606	12213.563866
556.660143	12248.239442
557.017625	12261.623706
557.375050	12215.240049
557.732421	12277.851180
558.089735	12257.119435
558.446994	12210.934904
558.804197	12297.083182
559.161345	12266.443049
559.518437	12081.354565
559.875474	12150.156232
560.232455	12157.665031
560.589381	12178.928618
560.946251	12103.215528
561.303065	12231.578429
561.659825	12174.946107
562.016528	12072.824932
562.373177	12004.781958
562.729770	12083.615522
563.086307	11958.746142
563.442789	12029.909590
563.799216	12032.369673
564.155587	11956.301182
564.511904	11952.858074
564.868164	11944.149481
565.224370	11967.757204
565.580520	11891.779454
565.936615	11922.618713
566.292654	11832.429950
566.648638	11859.788292
567.004567	11838.224756
567.360441	11808.597895
567.716260	11750.478432
568.072023	11795.069958
568.427732	11735.193654
568.783385	11616.237546
569.138982	11685.873525
569.494525	11652.944708
569.850013	11577.314798
570.205445	11532.420802
570.560823	11513.990343
570.916145	11445.448295
571.271412	11421.578432
571.626625	11347.841474
571.981782	11313.024745
572.336884	11237.082283
572.691931	11259.764955
573.046923	11149.562811
573.401860	11096.960892
573.756743	11038.428054
574.111570	11034.765656
574.466342	10975.942952
574.821059	10982.204065
575.175722	10853.092554
575.530330	10826.873512
575.884882	10739.268341
576.239380	10686.021153
576.593823	10639.294698
576.948211	10596.424726
577.302544	10470.978133
577.656823	10435.551425
578.011047	10445.452251
578.365216	10356.400268
578.719330	10270.675447
579.073389	10207.214882
579.427394	10172.617443
579.781344	10120.819587
580.135239	10033.721052
580.489080	10004.177369
580.842866	9878.299758
581.196597	9899.593592
581.550273	9854.472744
581.903895	9787.047312
582.257463	9816.467485
582.610975	9666.402418
582.964434	9663.266820
583.317837	9570.945649
583.671186	9499.507458
584.024481	9487.474224
584.377721	9369.052479
584.730906	9366.652889
585.084037	9337.610802
585.437113	9232.142302
585.790135	9207.037356
586.143103	9100.807641
586.496016	9065.668278
586.848874	9035.040748
587.201679	8984.558634
587.554428	8870.900779
587.907124	8847.877829
588.259765	8763.138554
588.612352	8765.220550
588.964884	8633.855643
589.317362	8620.173951
589.669786	8570.523627
590.022155	8500.058379
590.374470	8509.870985
590.726731	8401.173625
591.078937	8287.971995
591.431090	8257.039475
591.783188	8182.324534
592.135232	8085.526818
592.487222	8078.232269
592.839157	8040.852113
593.191038	7957.095862
593.542866	7885.632466
593.894639	7761.486490
594.246358	7752.971982
594.598022	7708.995476
594.949633	7611.557534
595.301190	7564.763023
595.652692	7495.535378
596.004141	7508.362594
596.355535	7343.899991
596.706876	7293.455685
597.058162	7234.587611
597.409395	7240.768066
597.760573	7211.103396
598.111698	7117.073274
598.462768	7074.596511
598.813785	7036.175357
599.164748	6933.025788
599.515657	6926.774757
599.866511	6824.222564
600.217312	6846.958168
600.568060	6695.531989
600.918753	6730.986424
601.269392	6685.636204
601.619978	6604.914728
601.970510	6585.710452
602.320988	6568.452062
602.671412	6554.493107
603.021783	6481.645914
603.372100	6411.185706
603.722363	6375.161621
604.072572	6340.233987
604.422728	6301.154962
604.772830	6235.337657
605.122878	6202.958326
605.472872	6151.422610
605.822813	6136.828470
606.172701	6081.174132
606.522534	6061.322068
606.872314	6041.192740
607.222041	5976.933152
607.571714	5966.676925
607.921333	5881.292382
608.270899	5862.020050
608.620411	5847.924984
608.969870	5791.080933
609.319276	5748.092494
609.668627	5712.433892
610.017926	5703.503488
610.367171	5682.575138
610.716362	5639.377491
611.065500	5600.497592
611.414585	5569.933076
611.763616	5554.290376
612.112594	5503.410010
612.461518	5482.685826
612.810389	5460.718998
613.159207	5405.236059
613.507971	5372.886975
613.856682	5369.358167
614.205340	5321.562988
614.553945	5334.715358
614.902496	5261.638792
615.250994	5253.167133
615.599439	5210.571903
615.947830	5190.992062
616.296169	5148.548067
616.644454	5122.457575
616.992686	5094.138894
617.340864	5089.271660
617.688990	5029.561713
618.037063	5033.705541
618.385082	5002.604143
618.733048	4978.255370
619.080961	4946.438127
619.428821	4910.892951
619.776628	4887.499477
620.124382	4847.266028
620.472083	4818.367614
620.819731	4790.565650
621.167326	4745.291047
621.514868	4709.909709
621.862357	4650.282942
622.209793	4620.630875
622.557176	4571.469542
622.904506	4528.566803
623.251783	4479.070233
623.599007	4435.706228
623.946179	4395.709713
624.293297	4359.882233
624.640363	4307.930622
624.987376	4278.283596
625.334336	4237.828337
625.681243	4198.005742
626.028097	4163.483920
626.374899	4136.601968
626.721647	4107.643059
627.068343	4077.847319
627.414987	4040.862894
627.761577	4009.942977
628.108115	3992.246007
628.454600	3953.416519
628.801032	3934.809620
629.147412	3914.125766
629.493739	3891.203639
629.840014	3855.391282
630.186236	3848.638657
630.532405	3814.880570
630.878521	3800.097387
631.224585	3777.513017
631.570597	3747.319026
631.916556	3733.735637
632.262462	3716.497412
632.608316	3696.312632
632.954117	3675.971576
633.299866	3656.996673
633.645562	3633.822489
633.991206	3606.209568
634.336797	3572.675813
634.682336	3554.515056
635.027823	3525.543545
635.373257	3505.625946
635.718639	3478.423880
636.063968	3456.414203
636.409245	3428.035027
636.754470	3411.946184
637.099642	3389.051784
637.444762	3364.718135
637.789829	3348.135259
638.134845	3324.494768
638.479808	3309.484733
638.824719	3295.185500
639.169577	3273.614402
639.514383	3259.841970
639.859137	3241.575349
640.203839	3231.707290
640.548489	3216.183057
640.893086	3202.085470
641.237632	3180.988242
641.582125	3170.903413
641.926566	3161.063081
642.270955	3151.114364
642.615292	3139.829741
642.959576	3131.446302
643.303809	3119.707975
643.647990	3109.575256
643.992118	3096.359871
644.336195	3087.747060
644.680219	3080.853282
645.024192	3075.098805
645.368112	3074.453537
645.711981	3063.252093
646.055797	3070.171077
646.399562	3060.340827
646.743274	3066.448185
647.086935	3069.611509
647.430544	3059.811506
647.774101	3058.810837
648.117606	3049.260371
648.461059	3047.238868
648.804460	3032.657331
649.147810	3014.045391
649.491108	3003.501818
649.834354	2991.854232
650.177548	2973.267497
650.520690	2960.468008
650.863781	2951.222532
651.206820	2944.238013
651.549807	2932.973555
651.892742	2919.357398
652.235626	2911.253743
652.578458	2897.612381
652.921238	2892.190620
653.263967	2888.129971
653.606644	2879.635626
653.949269	2869.215561
654.291843	2864.302957
654.634365	2861.308512
654.976836	2853.393900
655.319255	2848.685462
655.661622	2842.570543
656.003938	2835.770026
656.346203	2828.561176
656.688416	2827.893223
657.030577	2821.317038
657.372687	2813.372180
657.714746	2810.140800
658.056753	2807.743731
658.398708	2798.616722
658.740612	2791.213788
659.082465	2790.732358
659.424266	2785.277829
659.766016	2781.854886
660.107715	2780.960081
660.449362	2779.984618
660.790958	2777.963115
661.132503	2772.906838
661.473996	2771.951539
661.815438	2767.585900
662.156829	2765.035076
662.498168	2762.469129
662.839456	2756.502923
663.180693	2755.051071
663.521879	2751.733992
663.863013	2749.319279
664.204097	2746.493712
664.545129	2745.185533
664.886110	2740.290572
665.227040	2740.298134
665.567918	2740.227558
665.908746	2737.265880
666.249522	2737.631364
666.590248	2735.806466
666.930922	2733.026270
667.271545	2730.462843
667.612118	2730.442678
667.952639	2727.284395
668.293109	2722.954044
668.633528	2722.467573
668.973896	2717.275184
669.314213	2716.519011
669.654480	2714.290821
669.994695	2710.492312
670.334859	2709.738659
670.674973	2706.915613
671.015035	2705.781354
671.355047	2702.754141
671.695008	2699.948739
672.034918	2695.943542
672.374777	2697.556711
672.714585	2695.686443
673.054342	2695.078984
673.394049	2690.307532
673.733705	2691.003211
674.073310	2692.691998
674.412864	2691.628314
674.752368	2686.158662
675.091820	2686.193950
675.431223	2680.588187
675.770574	2679.990811
676.109875	2676.383865
676.449125	2674.939574
676.788324	2671.733401
677.127473	2668.050838
677.466571	2665.850374
677.805619	2667.138389
678.144616	2663.791063
678.483562	2665.638646
678.822458	2664.766526
679.161303	2663.130672
679.500098	2661.867862
679.838842	2660.564724
680.177535	2658.858294
680.516179	2658.399549
680.854771	2657.383756
681.193314	2661.194868
681.531805	2660.884837
681.870247	2665.353820
682.208638	2665.847853
682.546978	2667.390447
682.885268	2664.637977
683.223508	2664.327946
683.561697	2665.555467
683.899836	2664.494304
684.237925	2658.790238
684.575963	2660.877276
684.913951	2656.632624
685.251889	2657.103972
685.589776	2654.626245
685.927614	2657.550114
686.265401	2653.786893
686.603137	2653.612973
686.940824	2656.027686
687.278460	2655.626914
687.616046	2657.870227
687.953582	2657.318221
688.291068	2655.649599
688.628504	2657.421565
688.965889	2655.155566
689.303224	2655.432830
689.640510	2655.105155
689.977745	2652.788744
690.314930	2651.178096
690.652065	2649.254896
690.989150	2646.903197
691.326185	2646.230203
691.663170	2641.546971
692.000105	2639.250726
692.336990	2636.914151
692.673825	2635.910961
693.010610	2636.291568
693.347345	2627.560290
693.684030	2625.256483
694.020665	2627.156998
694.357251	2626.254631
694.693786	2623.950824
695.030272	2625.793366
695.366707	2625.221195
695.703093	2624.129785
696.039429	2625.105248
696.375716	2620.900926
696.711952	2622.579630
697.048139	2620.565689
697.384276	2618.700462
697.720363	2619.650720
698.056400	2617.878754
698.392388	2620.883282
698.728326	2619.824639
699.064214	2620.235493
699.400053	2617.916563
699.735842	2616.938579
700.071581	2614.024792
700.407270	2616.822632
700.742910	2616.593260
701.078501	2614.581839
701.414042	2614.085286
701.749533	2610.047322
702.084974	2613.561006
702.420366	2613.518156
702.755709	2611.065635
703.091002	2611.904987
703.426246	2612.555296
703.761440	2609.674276
704.096584	2609.923813
704.431679	2610.180912
704.766725	2609.323916
705.101721	2607.491457
705.436668	2610.193515
705.771565	2607.612444
706.106413	2610.327106
706.441212	2609.535644
706.775961	2609.696961
707.110661	2610.367435
707.445311	2609.457507
707.779913	2608.358535
708.114465	2609.258381
708.448967	2607.927516
708.783421	2612.643516
709.117825	2609.439862
709.452180	2610.009513
709.786485	2613.392127
710.120742	2612.088989
710.454949	2613.886160
710.789107	2610.914400
711.123216	2611.352980
711.457275	2612.830038
711.791286	2612.910697
712.125247	2615.988321
712.459159	2617.107457
712.793023	2621.987294
713.126837	2615.630399
713.460602	2617.677108
713.794318	2617.172992
714.127985	2615.781634
714.461602	2612.023454
714.795171	2614.813732
715.128691	2611.017744
715.462162	2609.780140
715.795584	2608.028339
716.128957	2610.702672
716.462281	2608.958432
716.795556	2608.015737
717.128782	2606.258894
717.461960	2606.400047
717.795088	2603.534151
718.128167	2608.154368
718.461198	2601.850405
718.794180	2603.496342
719.127113	2600.842175
719.459997	2602.442741
719.792833	2603.128338
720.125619	2600.330497
720.458357	2599.239088
720.791046	2600.176742
721.123686	2600.469129
721.456278	2597.454519
721.788821	2598.777822
722.121315	2598.845878
722.453761	2598.180445
722.786158	2598.649273
723.118506	2598.024170
723.450805	2598.193048
723.783056	2597.036103
724.115259	2597.900661
724.447412	2598.374530
724.779518	2599.725559
725.111574	2601.184973
725.443582	2597.509972
725.775542	2597.371340
726.107453	2598.253542
726.439315	2600.557349
726.771129	2603.279572
727.102895	2601.119438
727.434612	2604.232351
727.766281	2600.643049
728.097901	2598.576176
728.429473	2595.642224
728.760996	2598.699684
729.092471	2597.759509
729.423897	2604.265118
729.755276	2601.457195
730.086606	2600.582555
730.417887	2601.346290
730.749120	2603.047679
731.080305	2605.822835
731.411442	2605.815273
731.742530	2605.575818
732.073570	2605.406939
732.404562	2604.383585
732.735506	2606.833586
733.066401	2601.603389
733.397249	2604.479367
733.728048	2603.047679
734.058798	2602.798142
734.389501	2603.234202
734.720156	2602.581373
735.050762	2597.877976
735.381320	2598.455188
735.711831	2598.578697
736.042293	2593.756833
736.372707	2595.427975
736.703073	2597.320929
737.033391	2595.790938
737.363661	2597.676330
737.693883	2596.915116
738.024056	2598.349324
738.354182	2595.168356
738.684260	2597.154571
739.014290	2596.665579
739.344272	2597.920826
739.674207	2599.874273
740.004093	2600.164139
740.333931	2599.115579
740.663722	2600.665734
740.993464	2598.296392
741.323159	2596.975610
741.652806	2598.145157
741.982405	2597.099118
742.311956	2599.415528
742.641460	2599.425610
742.970915	2599.702874
743.300323	2595.964858
743.629683	2597.951073
743.958996	2597.734303
744.288260	2593.434199
744.617477	2594.182810
744.946647	2591.316914
745.275768	2591.261462
745.604842	2590.389342
745.933869	2588.382963
746.262847	2589.681060
746.591778	2594.883531
746.920662	2594.134919
747.249498	2593.104003
747.578286	2594.187852
747.907027	2592.483942
748.235720	2593.676174
748.564365	2592.340269
748.892963	2592.156267
749.221514	2593.136771
749.550017	2592.972933
749.878473	2596.491659
750.206881	2592.914960
750.535242	2595.032245
750.863555	2592.960331
751.191821	2592.310022
751.520039	2594.792790
751.848210	2593.555187
752.176334	2594.349168
752.504411	2594.066864
752.832440	2593.086359
753.160421	2591.208530
753.488356	2591.256421
753.816243	2592.592326
754.144082	2590.840525
754.471875	2592.766246
754.799620	2590.114599
755.127318	2588.624938
755.454969	2590.167531
755.782572	2590.217943
756.110129	2593.497213
756.437638	2593.315732
756.765100	2591.079980
757.092515	2591.097624
757.419882	2591.087542
757.747203	2589.492017
758.074477	2591.382449
758.401703	2588.884558
758.728882	2592.723396
759.056014	2590.049064
759.383099	2593.933273
759.710138	2593.335897
760.037129	2592.766246
760.364073	2593.850094
760.690970	2591.437902
761.017820	2593.618201
761.344623	2591.193406
761.671379	2594.492841
761.998088	2588.730802
762.324751	2594.059302
762.651366	2600.275045
762.977935	2608.108998
763.304456	2609.006323
763.630931	2616.956223
763.957359	2618.869341
764.283740	2614.770883
764.610074	2610.284256
764.936362	2609.951540
765.262602	2603.360231
765.588796	2600.600199
765.914943	2598.009046
766.241044	2594.306319
766.567097	2594.457553
766.893104	2592.037799
767.219064	2590.099476
767.544978	2592.834302
767.870845	2588.599732
768.196665	2587.568817
768.522438	2587.175607
768.848165	2587.740216
769.173846	2587.485637
769.499479	2586.285843
769.825066	2584.770976
770.150607	2585.330544
770.476101	2586.994125
770.801548	2584.418095
771.126949	2583.321644
771.452303	2583.472879
771.777611	2582.580595
772.102872	2584.322313
772.428087	2583.251068
772.753256	2582.613362
773.078378	2584.387848
773.403453	2582.275605
773.728482	2582.943558
774.053465	2580.846438
774.378401	2583.488002
774.703291	2580.874164
775.028135	2581.025399
775.352932	2579.508012
775.677683	2582.913311
776.002388	2583.170410
776.327046	2584.818867
776.651658	2579.142528
776.976224	2580.133115
777.300743	2580.312076
777.625216	2580.473392
777.949643	2582.356263
778.274024	2581.960533
778.598359	2578.104050
778.922647	2577.191601
779.246889	2576.979873
779.571086	2574.855027
779.895236	2579.197981
780.219339	2579.845769
780.543397	2580.463310
780.867409	2577.826787
781.191374	2580.957343
781.515294	2580.397775
781.839167	2578.204873
782.162995	2578.875347
782.486776	2581.678228
782.810511	2581.975656
783.134201	2579.137487
783.457844	2576.420305
783.781441	2580.964905
784.104993	2578.729153
784.428498	2580.430543
784.751958	2577.032805
785.075372	2578.197312
785.398739	2578.484657
785.722061	2579.618917
786.045337	2578.461972
786.368568	2578.903073
786.691752	2579.737384
787.014891	2581.519432
787.337983	2579.742425
787.661030	2581.169072
787.984031	2585.466655
788.306987	2585.166707
788.629897	2587.886409
788.952760	2587.321800
789.275579	2584.060173
789.598351	2585.023034
789.921078	2582.336099
790.243759	2581.610173
790.566395	2579.548341
790.888984	2584.082859
791.211529	2579.588670
791.534027	2581.678228
791.856480	2580.123032
792.178888	2582.872982
792.501249	2581.927765
792.823566	2578.514904
793.145836	2578.865264
793.468062	2579.523135
793.790241	2578.552713
794.112375	2579.873495
794.434464	2576.828638
794.756507	2580.531366
795.078505	2579.906263
795.400457	2577.451221
795.722364	2577.277301
796.044226	2577.783937
796.366042	2579.293763
796.687812	2576.286714
797.009538	2581.025399
797.331218	2583.218301
797.652852	2581.075810
797.974442	2582.182344
798.295986	2579.034143
798.617484	2580.468351
798.938938	2581.597570
799.260346	2579.853331
799.581709	2580.911973
799.903026	2579.588670
800.224299	2581.146387
800.545526	2580.082703
800.866708	2576.425346
801.187845	2579.346695
801.508936	2577.781416
801.829983	2579.530697
802.150984	2580.155800
802.471940	2576.435428
802.792851	2580.347364
803.113717	2577.486509
803.434538	2577.161354
803.755314	2579.303845
804.076045	2577.042887
804.396731	2580.165882
804.717372	2578.761921
805.037967	2576.858885
805.358518	2574.421487
805.679024	2580.261664
805.999485	2579.175295
806.319901	2581.854669
806.640272	2577.541962
806.960598	2577.675552
807.280879	2578.023392
807.601115	2577.579770
807.921306	2578.129256
808.241453	2576.180850
808.561554	2577.796540
808.881611	2578.545151
809.201623	2577.060531
809.521590	2578.318299
809.841513	2577.214287
810.161390	2577.841910
810.481223	2579.064390
810.801011	2577.123546
811.120755	2578.691345
811.440453	2577.657908
811.760107	2576.173288
812.079716	2573.783781
812.399281	2573.521641
812.718801	2571.278328
813.038276	2570.471743
813.357707	2576.258988
813.677093	2577.927610
813.996434	2578.275449
814.315731	2578.640933
814.634983	2576.001889
814.954191	2576.493402
815.273354	2579.576067
815.592473	2574.658422
815.911547	2579.268557
816.230577	2580.044894
816.549562	2577.700758
816.868502	2579.497929
817.187399	2577.753690
817.506250	2581.927765
817.825058	2579.659246
818.143821	2580.256623
818.462539	2582.210070
818.781213	2582.273084
819.099843	2580.609504
819.418429	2581.607652
819.736970	2588.299784
820.055466	2588.198961
820.373919	2592.655341
820.692327	2595.332193
821.010691	2604.859974
821.329011	2622.128447
821.647286	2651.420071
821.965517	2686.690504
822.283704	2713.847200
822.601847	2731.324880
822.919945	2723.979919
823.237999	2713.567416
823.556010	2699.066537
823.873976	2684.043898
824.191897	2665.109324
824.509775	2656.216729
824.827609	2642.688793
825.145398	2634.227216
825.463144	2627.383850
825.780845	2625.354785
826.098502	2626.461318
826.416116	2630.794190
826.733685	2642.192239
827.051210	2640.982362
827.368692	2643.366828
827.686129	2636.180663
828.003522	2627.565331
828.320872	2616.043774
828.638177	2609.568412
828.955439	2603.178749
829.272656	2597.973758
829.589830	2591.337079
829.906960	2595.478387
830.224046	2589.078642
830.541088	2588.093097
830.858086	2586.313569
831.175041	2583.477920
831.491952	2580.072621
831.808819	2582.837694
832.125642	2582.683938
832.442421	2584.597056
832.759157	2589.668457
833.075849	2594.709611
833.392497	2600.753954
833.709101	2606.775613
834.025662	2608.693772
834.342179	2607.345263
834.658653	2605.175046
834.975083	2600.532144
835.291469	2598.800507
835.607811	2594.253387
835.924110	2588.756008
836.240366	2587.470514
836.556578	2585.166707
836.872746	2584.284505
837.188871	2580.861561
837.504952	2578.577919
837.820990	2575.853175
838.136984	2575.172619
838.452935	2576.634554
838.768842	2577.277301
839.084706	2577.403330
839.400526	2578.789647
839.716303	2581.448856
840.032037	2584.869279
840.347727	2587.639393
840.663373	2583.503126
840.978977	2585.834660
841.294537	2581.884916
841.610054	2579.571026
841.925527	2581.000193
842.240957	2576.599266
842.556344	2576.450552
842.871687	2574.280335
843.186987	2575.270922
843.502244	2572.977197
843.817458	2574.300500
844.132629	2571.729511
844.447756	2570.917885
844.762840	2569.327401
845.077881	2568.661969
845.392879	2568.732545
845.707833	2570.875036
846.022745	2566.438820
846.337613	2571.031311
846.652438	2570.239850
846.967221	2570.922927
847.281960	2567.275652
847.596656	2569.403019
847.911309	2568.964438
848.225919	2570.421332
848.540485	2567.903275
848.855009	2570.403688
849.169490	2570.673389
849.483928	2570.912844
849.798323	2570.015519
850.112675	2569.720611
850.426984	2568.412432
850.741251	2568.301527
851.055474	2570.043245
851.369654	2571.081723
851.683792	2568.051989
851.997887	2572.795715
852.311938	2568.500652
852.625947	2574.552557
852.939914	2568.765313
853.253837	2568.407391
853.567718	2569.682803
853.881555	2569.337484
854.195350	2566.708522
854.509103	2570.297823
854.822812	2568.798080
855.136479	2569.556774
855.450103	2569.836558
855.763685	2570.038204
856.077224	2566.572411
856.390720	2570.917885
856.704173	2569.828996
857.017584	2568.321691
857.330953	2568.336815
857.644278	2570.398647
857.957561	2571.558112
858.270802	2568.430076
858.584000	2568.309088
858.897155	2569.062741
859.210268	2566.390929
859.523339	2570.396126
859.836367	2566.862277
860.149352	2572.760427
860.462295	2571.689182
860.775195	2563.903120
861.088054	2567.313460
861.400869	2564.071998
861.713642	2565.049982
862.026373	2567.847823
862.339062	2570.300344
862.651708	2569.491239
862.964312	2569.975190
863.276873	2568.641804
863.589392	2569.851681
863.901869	2571.492577
864.214303	2567.116855
864.526696	2569.753379
864.839045	2570.892680
865.151353	2571.540468
865.463619	2571.127093
865.775842	2571.119532
866.088023	2571.767320
866.400162	2572.480643
866.712258	2571.449727
867.024313	2571.142217
867.336325	2569.836558
867.648296	2570.287741
867.960224	2571.031311
868.272110	2570.116342
868.583954	2569.307237
868.895755	2573.287228
869.207515	2571.621126
869.519233	2572.566343
869.830909	2572.979717
870.142542	2569.027453
870.454134	2571.984089
870.765684	2570.817062
871.077191	2571.661456
871.388657	2569.579459
871.700081	2569.914696
872.011463	2570.834706
872.322803	2570.421332
872.634101	2572.762948
872.945357	2569.728173
873.256571	2572.397464
873.567744	2571.696744
873.878874	2572.495767
874.189963	2574.499625
874.501010	2573.309913
874.812015	2571.946281
875.122979	2572.498287
875.433900	2572.770509
875.744780	2571.938719
876.055618	2572.694892
876.366415	2573.551888
876.677169	2574.865109
876.987882	2568.999726
877.298554	2571.384192
877.609183	2571.704305
877.919771	2572.185736
878.230317	2572.031980
878.540822	2578.973649
878.851285	2577.148752
879.161707	2577.219328
879.472087	2582.739391
879.782425	2584.254258
880.092722	2591.677357
880.402977	2602.392329
880.713191	2617.205760
881.023363	2630.121196
881.333494	2638.842392
881.643583	2649.655667
881.953631	2650.462252
882.263637	2649.514515
882.573602	2644.627116
882.883526	2642.421612
883.193408	2635.696712
883.503248	2631.142030
883.813048	2627.000722
884.122806	2618.682818
884.432522	2616.197529
884.742197	2609.810387
885.051831	2603.088009
885.361424	2596.915116
885.670975	2595.652307
885.980485	2591.102665
886.289954	2585.466655
886.599382	2585.232242
886.908768	2584.644947
887.218113	2580.821232
887.527417	2582.923393
887.836680	2581.388362
888.145901	2576.959708
888.455082	2577.259657
888.764221	2574.774368
889.073319	2574.965932
889.382376	2574.605489
889.691392	2575.439800
890.000366	2577.173957
890.309300	2573.655232
890.618193	2575.147413
890.927044	2574.824780
891.235855	2574.660942
891.544625	2574.209759
891.853353	2574.166909
892.162041	2575.086920
892.470687	2574.630695
892.779293	2575.800243
893.087858	2574.093812
893.396381	2574.981055
893.704864	2578.958526
894.013306	2581.627817
894.321707	2591.435382
894.630068	2593.154415
894.938387	2596.128696
895.246665	2594.810434
895.554903	2594.853284
895.863100	2592.093252
896.171256	2592.274734
896.479371	2587.720051
896.787446	2586.908425
897.095480	2587.248703
897.403473	2586.046388
897.711425	2584.695359
898.019336	2582.202508
898.327207	2581.035481
898.635038	2580.937179
898.942827	2579.974318
899.250576	2578.134297
899.558284	2576.427867
899.865952	2574.245047
900.173579	2574.378638
900.481165	2572.997361
900.788711	2570.804459
901.096216	2574.769327
901.403681	2575.071796
901.711105	2576.047259
902.018489	2572.447876
902.325832	2574.648339
902.633135	2573.612382
902.940397	2573.216652
903.247619	2577.093299
903.554800	2581.698393
903.861941	2588.345154
904.169041	2596.899992
904.476101	2600.640528
904.783121	2599.965014
905.090100	2599.995261
905.397039	2597.411669
905.703938	2595.009560
906.010796	2591.100145
906.317614	2589.940679
906.624391	2587.974629
906.931129	2589.116451
907.237826	2581.355594
907.544483	2581.022878
907.851099	2579.989442
908.157675	2579.167734
908.464211	2573.166240
908.770707	2570.930488
909.077163	2572.914182
909.383578	2571.795046
909.689954	2567.260528
909.996289	2565.453275
910.302584	2569.965107
910.608839	2568.286403
910.915054	2571.351425
911.221229	2571.227916
911.527363	2568.351938
911.833458	2568.125086
912.139513	2568.903944
912.445527	2569.123235
912.751502	2566.786660
913.057436	2570.509552
913.363331	2572.009295
913.669186	2572.684810
913.975000	2574.799574
914.280775	2575.031467
914.586510	2577.897363
914.892205	2579.820563
915.197859	2583.019175
915.503475	2587.609146
915.809050	2594.286154
916.114585	2596.330342
916.420081	2601.366455
916.725536	2603.937443
917.030952	2599.818820
917.336328	2596.625249
917.641665	2599.481063
917.946961	2596.937801
918.252218	2589.887747
918.557435	2592.040320
918.862612	2591.707604
919.167750	2588.435895
919.472848	2586.053950
919.777906	2587.273909
920.082925	2582.096644
920.387904	2581.196798
920.692843	2581.131263
920.997743	2579.354256
921.302603	2574.527352
921.607423	2575.021385
921.912204	2576.506004
922.216946	2573.481312
922.521647	2573.526682
922.826310	2573.340160
923.130932	2572.475602
923.435516	2568.419994
923.740059	2570.605334
924.044564	2572.563822
924.349028	2567.056362
924.653454	2565.107956
924.957840	2563.797256
925.262186	2566.269942
925.566493	2567.462174
925.870761	2564.606361
926.174989	2565.607030
926.479178	2565.733059
926.783328	2567.754561
927.087438	2569.231619
927.391509	2567.043759
927.695541	2567.706670
927.999533	2565.029818
928.303486	2567.948646
928.607400	2567.817576
928.911275	2569.695406
929.215110	2565.591906
929.518906	2565.251628
929.822663	2568.092319
930.126381	2567.182390
930.430060	2566.907647
930.733699	2566.025446
931.037299	2567.341187
931.340861	2564.044272
931.644383	2566.990827
931.947866	2565.574262
932.251309	2565.665003
932.554714	2565.072668
932.858080	2565.390260
933.161407	2564.848336
933.464694	2563.404046
933.767943	2567.207596
934.071153	2563.184755
934.374323	2564.094684
934.677455	2566.973182
934.980548	2562.783984
935.283602	2565.423028
935.586617	2565.843964
935.889593	2564.346741
936.192530	2565.513768
936.495428	2566.612740
936.798287	2563.363716
937.101108	2568.243553
937.403890	2566.113666
937.706632	2564.573593
938.009336	2564.500497
938.312002	2567.754561
938.614628	2566.892524
938.917216	2567.815055
939.219765	2565.909499
939.522275	2567.497462
939.824747	2569.965107
940.127179	2563.648542
940.429573	2566.756413
940.731929	2563.119220
941.034246	2564.167780
941.336524	2566.539643
941.638763	2566.453944
941.940964	2567.542833
942.243126	2566.068295
942.545250	2566.859757
942.847335	2567.066444
943.149381	2565.249108
943.451389	2565.377657
943.753359	2564.634087
944.055290	2567.489901
944.357182	2567.268090
944.659036	2566.161557
944.960851	2567.038718
945.262628	2565.785991
945.564367	2565.899417
945.866067	2565.488563
946.167729	2565.049982
946.469352	2563.560321
946.770937	2566.045610
947.072484	2566.612740
947.373992	2568.170457
947.675462	2564.525702
947.976893	2568.039387
948.278286	2564.180383
948.579641	2566.272462
948.880958	2564.775239
949.182236	2569.161043
949.483476	2565.899417
949.784678	2565.808676
950.085841	2563.850188
950.386967	2565.269273
950.688054	2564.946639
950.989103	2566.557287
951.290114	2564.631567
951.591087	2566.242215
951.892021	2566.002760
952.192917	2568.735066
952.493776	2564.523182
952.794596	2564.354303
953.095378	2566.461505
953.396122	2566.474108
953.696828	2565.735579
953.997496	2567.124417
954.298126	2567.169788
954.598718	2568.538461
954.899272	2565.279355
955.199788	2566.791701
955.500266	2565.778429
955.800706	2561.773232
956.101108	2562.791545
956.401472	2560.633932
956.701798	2560.187789
957.002087	2561.465722
957.302337	2564.056875
957.602550	2565.221382
957.902724	2564.039231
958.202861	2562.090825
958.502960	2563.446895
958.803022	2561.279199
959.103045	2561.339693
959.403031	2564.203068
959.702979	2563.325908
960.002889	2561.218705
960.302762	2562.327759
960.602596	2559.512275
960.902393	2562.655434
961.202153	2561.264076
961.501875	2559.504713
961.801559	2561.536298
962.101205	2562.194169
962.400814	2561.311967
962.700385	2561.064950
962.999918	2564.054354
963.299414	2560.308777
963.598873	2562.322718
963.898293	2563.169632
964.197677	2561.417831
964.497022	2562.012687
964.796331	2561.546380
965.095601	2558.809034
965.394835	2564.543346
965.694030	2562.116031
965.993189	2562.635270
966.292309	2560.860783
966.591393	2562.211813
966.890439	2562.020249
967.189447	2561.125444
967.488419	2563.925805
967.787353	2562.216854
968.086249	2561.246432
968.385108	2561.173335
968.683930	2562.284909
968.982714	2564.024107
969.281462	2563.116700
969.580172	2560.684343
969.878844	2561.223747
970.177480	2562.138716
970.476078	2562.410938
970.774639	2560.321380
971.073162	2562.400856
971.371649	2558.345248
971.670098	2558.020093
971.968510	2560.225598
972.266885	2557.226112
972.565223	2563.830023
972.863524	2562.249621
973.161788	2560.961607
973.460014	2560.013870
973.758204	2561.034703
974.056356	2561.183417
974.354471	2560.402038
974.652550	2559.792059
974.950591	2563.880435
975.248595	2564.503017
975.546563	2563.255332
975.844493	2562.521844
976.142386	2560.354147
976.440243	2560.454971
976.738062	2559.222408
977.035845	2559.940773
977.333590	2562.352965
977.631299	2561.717780
977.928971	2562.542008
978.226606	2559.824826
978.524204	2561.427913
978.821765	2559.887841
979.119290	2562.214333
979.416777	2561.856411
979.714228	2561.611915
980.011642	2562.610064
980.309020	2562.146278
980.606360	2562.105948
980.903664	2561.737944
981.200931	2562.688202
981.498162	2561.425393
981.795356	2564.634087
982.092513	2563.930846
982.389633	2564.003943
982.686717	2565.302040
982.983764	2562.859601
983.280775	2564.215671
983.577749	2567.348748
983.874686	2566.776578
984.171587	2563.673747
984.468451	2567.837740
984.765279	2566.892524
985.062070	2564.165260
985.358824	2564.462688
985.655543	2563.487225
985.952224	2563.013356
986.248869	2562.146278
986.545478	2560.313818
986.842050	2560.288613
987.138586	2556.792572
987.435086	2557.452963
987.731549	2557.440361
988.027975	2562.776422
988.324366	2560.298695
988.620719	2560.878427
988.917037	2562.128634
989.213318	2561.029662
989.509563	2561.866494
989.805772	2560.074363
990.101944	2560.523026
990.398080	2562.821792
990.694180	2558.816596
990.990244	2559.222408
991.286271	2558.768705
991.582262	2559.784497
991.878217	2558.509085
992.174136	2557.606719
992.470019	2557.107644
992.765865	2559.229970
993.061676	2561.362378
993.357450	2562.017728
993.653188	2560.200392
993.948890	2560.717111
994.244556	2558.975392
994.540186	2562.030331
994.835780	2561.281720
995.131337	2562.095866
995.426859	2561.745506
995.722345	2562.473953
996.017795	2560.190310
996.313208	2564.563511
996.608586	2562.859601
996.903928	2562.708366
997.199234	2560.540670
997.494504	2561.495969
997.789738	2561.546380
998.084936	2565.014694
998.380099	2563.923284
998.675225	2561.826164
998.970316	2562.322718
999.265371	2561.667368
999.560390	2559.348437
999.855373	2560.245763
1000.150320	2562.869683
1000.445232	2561.470763
1000.740108	2559.603016
1001.034948	2559.792059
1001.329752	2560.074363
1001.624521	2562.161401
1001.919254	2555.988508
1002.213951	2553.886347
1002.508613	2556.898437
1002.803239	2558.299877
1003.097829	2555.388611
1003.392384	2558.292316
1003.686903	2557.130330
1003.981386	2557.213509
1004.275834	2558.085628
1004.570246	2561.846329
1004.864623	2559.945814
1005.158964	2556.749722
1005.453270	2559.368602
1005.747540	2559.512275
1006.041775	2557.959599
1006.335974	2559.857594
1006.630138	2556.336348
1006.924266	2555.612942
1007.218359	2558.221739
1007.512416	2557.652089
1007.806438	2557.548745
1008.100425	2558.902295
1008.394376	2557.485731
1008.688292	2555.423899
1008.982172	2557.805844
1009.276017	2558.504044
1009.569827	2558.511606
1009.863602	2558.957748
1010.157341	2557.745350
1010.451045	2558.057902
1010.744714	2556.343910
1011.038347	2558.735937
1011.331945	2557.644527
1011.625508	2558.239383
1011.919036	2557.400031
1012.212528	2557.130330
1012.505986	2557.372305
1012.799408	2557.498334
1013.092795	2556.474980
1013.386147	2558.161246
1013.679464	2557.954558
1013.972745	2557.498334
1014.265992	2559.096380
1014.559204	2556.631255
1014.852380	2556.933725
1015.145521	2558.105793
1015.438628	2558.156204
1015.731699	2557.407593
1016.024736	2558.095711
1016.317737	2558.599826
1016.610703	2556.613611
1016.903635	2553.016748
1017.196531	2552.903322
1017.489393	2553.689742
1017.782219	2552.996583
1018.075011	2556.454815
1018.367768	2556.797613
1018.660490	2557.458005
1018.953177	2557.458005
1019.245829	2557.458005
