Dividing Wavelength (nm)	Counts (n)	Blue Motor Position (mm): 0.000000	Red Motor Position (mm): 48.000000	
326.493990	2139.092647
326.888308	2139.092647
327.282561	2139.092647
327.676750	2113.019799
328.070874	2114.121291
328.464933	2119.522888
328.858929	2128.975051
329.252859	2141.487195
329.646726	2152.993629
330.040528	2169.674807
330.434265	2186.242559
330.827938	2207.014633
331.221547	2226.891903
331.615091	2245.753380
332.008571	2264.473705
332.401986	2286.599329
332.795338	2307.225210
333.188625	2324.833960
333.581847	2345.081755
333.975006	2362.871987
334.368100	2383.061808
334.761129	2400.118552
335.154095	2415.980542
335.546996	2441.874429
335.939833	2471.360138
336.332606	2485.924032
336.725315	2497.725373
337.117960	2508.024450
337.510540	2512.858917
337.903056	2522.187572
338.295508	2529.779549
338.687896	2535.380271
339.080220	2545.142466
339.472480	2551.252344
339.864676	2554.256872
340.256807	2559.005639
340.648875	2558.526729
341.040879	2561.773232
341.432818	2563.023438
341.824694	2564.971844
342.216506	2562.579817
342.608253	2564.351782
342.999937	2563.741803
343.391557	2561.256514
343.783113	2559.474466
344.174605	2560.666699
344.566033	2556.207798
344.957397	2559.129147
345.348697	2554.574465
345.739934	2551.035575
346.131106	2552.749567
346.522215	2550.528939
346.913260	2546.339740
347.304241	2545.225645
347.695159	2543.814122
348.086012	2544.479554
348.476802	2540.275232
348.867528	2541.381765
349.258191	2539.546785
349.648789	2538.352032
350.039324	2535.438245
350.429796	2536.433873
350.820203	2533.578059
351.210548	2532.290044
351.600828	2534.752648
351.991045	2533.585621
352.381198	2531.347348
352.771288	2531.919519
353.161314	2531.307019
353.551276	2531.644776
353.941175	2531.150743
354.331010	2531.612009
354.720782	2533.066382
355.110490	2532.884900
355.500135	2532.602596
355.889717	2533.968748
356.279235	2531.546474
356.668689	2532.887421
357.058080	2537.767258
357.447408	2531.508665
357.836672	2533.182328
358.225873	2529.789632
358.615010	2530.709642
359.004084	2539.050231
359.393095	2537.505118
359.782043	2537.895807
360.170927	2539.251877
360.559748	2538.541075
360.948505	2538.654501
361.337199	2538.407484
361.725830	2543.020140
362.114398	2537.641229
362.502903	2540.113915
362.891344	2543.723381
363.279722	2539.808925
363.668037	2543.478885
364.056289	2539.629964
364.444478	2542.465613
364.832603	2544.630789
365.220665	2541.888401
365.608665	2544.323278
365.996601	2543.899821
366.384474	2546.228834
366.772284	2546.818649
367.160031	2545.003834
367.547715	2545.747404
367.935336	2545.613814
368.322893	2546.576674
368.710388	2544.144317
369.097820	2549.011551
369.485189	2548.416695
369.872495	2548.446942
370.259738	2548.981304
370.646918	2549.109854
371.034035	2550.423074
371.421090	2549.979453
371.808081	2549.034237
372.195010	2552.056408
372.581875	2550.899463
372.968678	2548.938455
373.355418	2552.540359
373.742096	2553.813250
374.128710	2554.118240
374.515262	2554.211502
374.901751	2554.755946
375.288177	2560.891030
375.674540	2557.432799
376.060841	2562.925136
376.447079	2559.852553
376.833254	2566.194324
377.219367	2561.077553
377.605417	2564.636608
377.991404	2566.486711
378.377329	2570.829665
378.763191	2570.862433
379.148991	2579.606314
379.534727	2582.820050
379.920402	2586.399269
380.306013	2589.958323
380.691563	2595.382605
381.077049	2596.479056
381.462474	2603.297217
381.847835	2608.504728
382.233134	2616.600822
382.618371	2619.834722
383.003545	2624.205402
383.388657	2631.739407
383.773706	2635.875673
384.158693	2641.892290
384.543618	2647.056952
384.928480	2653.955772
385.313280	2664.113697
385.698017	2671.325067
386.082692	2679.690862
386.467305	2685.089938
386.851856	2694.000177
387.236344	2702.552495
387.620770	2709.925182
388.005133	2717.829711
388.389435	2730.999726
388.773674	2738.654718
389.157851	2745.543455
389.541965	2755.608118
389.926018	2757.526277
390.310008	2772.795932
390.693936	2782.900925
391.077802	2791.511216
391.461606	2798.432720
391.845348	2810.226500
392.229027	2817.889053
392.612645	2835.727176
392.996200	2840.365038
393.379694	2852.206708
393.763125	2869.626415
394.146494	2879.582694
394.529801	2889.836401
394.913047	2906.104205
395.296230	2911.820873
395.679351	2915.611821
396.062410	2933.424738
396.445408	2929.021290
396.828343	2940.182405
397.211217	2947.522325
397.594028	2942.191304
397.976778	2957.385342
398.359466	2970.941005
398.742092	2967.298771
399.124656	2980.632623
399.507158	2994.105107
399.889598	3000.799759
400.271977	3017.097809
400.654294	3022.688449
401.036549	3033.907537
401.418742	3043.765513
401.800874	3064.111610
402.182944	3071.093608
402.564952	3099.989502
402.946898	3088.530959
403.328783	3099.790377
403.710606	3113.492233
404.092367	3138.138434
404.474067	3165.065757
404.855705	3153.871875
405.237282	3153.438336
405.618797	3184.302800
406.000250	3208.182746
406.381642	3239.019484
406.762972	3243.445617
407.144240	3230.943556
407.525447	3254.485744
407.906593	3253.227976
408.287677	3273.813528
408.668700	3295.913946
409.049661	3293.743730
409.430560	3306.560863
409.811399	3310.490443
410.192176	3335.484483
410.572891	3339.812314
410.953545	3380.315465
411.334138	3348.475537
411.714669	3399.701222
412.095139	3344.989579
412.475547	3396.162332
412.855894	3386.337123
413.236180	3419.359201
413.616405	3399.295409
413.996568	3420.619490
414.376670	3423.107299
414.756711	3419.402051
415.136691	3444.277625
415.516609	3468.873414
415.896466	3476.480515
416.276262	3504.693333
416.655997	3529.760470
417.035670	3538.043086
417.415283	3604.737552
417.794834	3628.824185
418.174324	3613.194087
418.553753	3609.798870
418.933121	3651.579953
419.312428	3643.453613
419.691674	3637.101759
420.070859	3675.575845
420.449983	3656.467352
420.829045	3709.591031
421.208047	3692.262065
421.586988	3735.920978
421.965867	3766.450205
422.344686	3775.126031
422.723444	3812.692709
423.102141	3717.999676
423.480777	3817.398627
423.859352	3782.838996
424.237866	3887.321951
424.616319	3870.267727
424.994712	3930.305349
425.373044	3921.316972
425.751314	3983.986076
426.129524	3918.282197
426.507673	4017.247609
426.885762	3993.980163
427.263789	4016.554450
427.641756	4023.423022
428.019662	4051.701375
428.397508	4054.055594
428.775292	4085.106581
429.153016	4096.267696
429.530679	4109.397381
429.908282	4117.997589
430.285824	4094.646965
430.663305	4171.234694
431.040726	4128.463025
431.418086	4120.009010
431.795385	4190.829659
432.172624	4230.717789
432.549802	4195.475083
432.926920	4214.840675
433.303977	4208.826579
433.680974	4247.900562
434.057910	4269.721197
434.434786	4278.018936
434.811601	4271.281434
435.188355	4374.927557
435.565050	4349.764637
435.941683	4344.713401
436.318257	4431.743881
436.694770	4436.603553
437.071222	4495.857276
437.447614	4428.575516
437.823946	4435.554993
438.200218	4447.252991
438.576429	4432.578192
438.952580	4457.501657
439.328670	4460.488540
439.704700	4504.901106
440.080670	4468.635045
440.456580	4527.883726
440.832429	4564.069128
441.208218	4468.609839
441.583947	4519.951471
441.959616	4539.551477
442.335224	4559.645516
442.710773	4579.961366
443.086261	4635.643431
443.461689	4588.309517
443.837057	4601.368626
444.212365	4674.120037
444.587612	4677.437117
444.962800	4645.750944
445.337927	4687.864743
445.712995	4574.320315
446.088002	4768.155201
446.462949	4786.895690
446.837837	4807.229184
447.212664	4793.766783
447.587431	5017.316750
447.962139	5310.888344
448.336786	5658.233927
448.711374	5644.343027
449.085901	5286.002688
449.460369	5221.591866
449.834776	5158.227083
450.209124	5394.284152
450.583412	5400.903187
450.957640	5524.797105
451.331808	5388.799377
451.705917	5240.082818
452.079965	5226.459100
452.453954	5267.100882
452.827883	5229.773658
453.201752	5235.066870
453.575562	5267.347899
453.949311	5397.306324
454.323001	5407.302932
454.696632	5398.816150
455.070202	5556.064862
455.443713	5585.525365
455.817164	5681.400549
456.190556	5750.280355
456.563888	5718.911775
456.937160	5802.168951
457.310373	5646.084746
457.683526	5703.548859
458.056619	5690.895563
458.429653	5672.984343
458.802628	5722.160799
459.175542	5749.418318
459.548398	5891.041973
459.921194	6070.630558
460.293930	6134.552389
460.666607	6384.792745
461.039224	6595.880980
461.411782	6728.289407
461.784280	6646.342930
462.156719	6651.389125
462.529099	6610.959072
462.901419	6467.301310
463.273680	6337.242062
463.645882	6327.482388
464.018024	6331.868192
464.390106	6392.435135
464.762130	6649.702859
465.134094	7033.974894
465.505999	7667.862181
465.877845	8369.563070
466.249631	8731.081857
466.621358	8651.502202
466.993026	8462.292575
467.364634	8243.970284
467.736184	7970.454920
468.107674	7811.877864
468.479105	7725.563228
468.850477	7661.303640
469.221790	7488.944069
469.593043	7268.002899
469.964238	7167.779720
470.335373	7136.539689
470.706449	7293.438041
471.077467	7476.399158
471.448425	8124.542829
471.819324	8711.862457
472.190164	8762.026979
472.560945	8279.477651
472.931667	7810.763769
473.302330	7613.679860
473.672934	7497.173753
474.043479	7569.337870
474.413965	7472.278015
474.784393	7425.165912
475.154761	7573.660660
475.525070	7589.159687
475.895321	7541.059518
476.265513	7633.935216
476.635645	7806.025085
477.005719	7789.553114
477.375734	7872.011268
477.745691	7980.655695
478.115588	8190.629835
478.485427	8422.943848
478.855207	8888.469200
479.224928	9322.948606
479.594591	9710.046207
479.964194	9722.707065
480.333739	9806.977513
480.703226	9809.263677
481.072653	9904.186083
481.442022	10018.322847
481.811333	10171.130303
482.180584	10013.758082
482.549777	9954.688362
482.918912	9886.363083
483.287988	9876.162309
483.657005	9779.261249
484.025964	9705.463798
484.394864	9765.418241
484.763706	9723.962312
485.132489	9630.932859
485.501213	9629.120564
485.869879	9680.830200
486.238487	9618.292166
486.607036	9699.472387
486.975527	9646.688986
487.343959	9697.027427
487.712333	9745.719932
488.080648	9789.267940
488.448905	9889.521366
488.817104	9894.396162
489.185244	10052.396006
489.553326	10266.662688
489.921350	10734.549821
490.289315	11363.383352
490.657222	11655.596355
491.025070	11834.857265
491.392861	11748.295612
491.760593	11586.890469
492.128267	11341.484579
492.495883	11106.201327
492.863440	10864.662002
493.230939	10648.109156
493.598380	10465.284150
493.965763	10439.337331
494.333088	10311.707919
494.700354	10236.942566
495.067563	10211.762003
495.434713	10211.792249
495.801805	10260.638510
496.168839	10218.363393
496.535815	10188.527324
496.902733	10233.081042
497.269593	10190.778200
497.636395	10206.241939
498.003139	10307.853957
498.369825	10230.583150
498.736453	10322.609414
499.103023	10270.952710
499.469535	10276.901272
499.835989	10324.958592
500.202385	10298.689139
500.568723	10316.285286
500.935003	10371.803514
501.301226	10351.167550
501.667390	10509.807621
502.033497	10610.164391
502.399546	10544.107632
502.765537	10453.571029
503.131470	10555.825794
503.497345	10642.521037
503.863163	10416.790771
504.228923	10545.733404
504.594625	10667.368884
504.960269	10577.220451
505.325856	10734.880017
505.691385	10606.239853
506.056856	10667.880561
506.422270	10775.441140
506.787625	10709.021418
507.152924	10759.173337
507.518164	10827.859058
507.883347	10692.962822
508.248472	10767.546693
508.613540	10871.003773
508.978550	10949.146699
509.343503	10932.377301
509.708398	10976.686522
510.073236	11106.418096
510.438016	11117.150713
510.802738	11027.067814
511.167403	11160.650829
511.532010	11218.503111
511.896561	11314.174128
512.261053	11512.735096
512.625488	11434.461100
512.989866	11417.028790
513.354186	11395.515666
513.718449	11404.945145
514.082655	11549.374202
514.446803	11499.880154
514.810894	11613.439706
515.174927	11603.962337
515.538904	11595.228538
515.902822	11757.626788
516.266684	11625.798095
516.630488	11730.076883
516.994235	11710.471835
517.357925	11824.716984
517.721558	11896.417315
518.085133	11952.825306
518.448651	11986.865698
518.812112	11941.812906
519.175516	11950.997888
519.538863	12037.862010
519.902152	12046.167311
520.265385	12147.713793
520.628560	12182.154957
520.991678	12117.986109
521.354739	12180.841736
521.717743	12252.620205
522.080690	12219.464536
522.443580	12354.822037
522.806413	12363.205476
523.169189	12350.693333
523.531908	12417.833940
523.894569	12379.062426
524.257174	12396.653532
524.619722	12497.083399
524.982213	12478.383239
525.344647	12464.751959
525.707025	12467.476702
526.069345	12573.091396
526.431608	12552.321842
526.793815	12636.352836
527.155964	12535.113864
527.518057	12565.630488
527.880093	12527.582380
528.242072	12636.640182
528.603995	12570.550655
528.965860	12587.188983
529.327669	12612.440123
529.689421	12560.085219
530.051117	12571.024523
530.412755	12605.400151
530.774337	12609.566665
531.135862	12573.411509
531.497331	12629.554840
531.858743	12594.029829
532.220098	12673.309535
532.581396	12594.150816
532.942638	12520.391174
533.303824	12588.313160
533.664953	12581.757140
534.026025	12526.032225
534.387040	12644.564875
534.747999	12617.894651
535.108902	12659.302689
535.469748	12533.911548
535.830537	12554.557594
536.191270	12605.412754
536.551947	12532.621013
536.912567	12590.937081
537.273131	12622.245167
537.633638	12497.690858
537.994089	12552.122717
538.354483	12470.783699
538.714821	12589.507914
539.075103	12683.646421
539.435328	12620.914302
539.795497	12598.241713
540.155609	12596.787340
540.515665	12701.116539
540.875665	12554.456771
541.235609	12650.697439
541.595496	12610.620266
541.955328	12787.310188
542.315102	12635.150521
542.674821	12569.726426
543.034483	12586.311822
543.394090	12581.893251
543.753640	12564.234089
544.113134	12799.474492
544.472571	12563.417422
544.831953	12846.495854
545.191278	12660.237823
545.550548	12600.888318
545.909761	12704.521839
546.268918	12752.213675
546.628019	12812.402531
546.987064	12705.174668
547.346053	12551.515258
547.704986	12752.463212
548.063863	12638.323927
548.422684	12686.030886
548.781449	12649.059064
549.140158	12741.763363
549.498811	12688.319570
549.857408	12555.298644
550.215949	12765.411415
550.574434	12727.128893
550.932864	12669.556396
551.291237	12871.595759
551.649555	12760.493770
552.007817	12813.153663
552.366022	12738.809247
552.724173	12788.613326
553.082267	12866.173998
553.440305	12959.858802
553.798288	12786.458233
554.156215	12854.962472
554.514086	12916.260382
554.871902	12847.962830
555.229661	12871.386552
555.587365	12817.189107
555.945014	12831.601765
556.302606	12820.478459
556.660143	12882.567831
557.017625	12908.781831
557.375050	12869.748177
557.732421	12977.875885
558.089735	12968.569915
558.446994	12937.065224
558.804197	13056.618708
559.161345	13045.001369
559.518437	12862.188966
559.875474	12957.776805
560.232455	12992.946415
560.589381	13039.836707
560.946251	12980.328407
561.303065	13145.998366
561.659825	13111.534518
562.016528	13010.406451
562.373177	12945.947737
562.729770	13079.240886
563.086307	12962.485243
563.442789	13069.430801
563.799216	13110.546452
564.155587	13057.634501
564.511904	13077.110999
564.868164	13083.619128
565.224370	13144.942244
565.580520	13086.553080
565.936615	13159.508658
566.292654	13093.658586
566.648638	13172.131708
567.004567	13160.302640
567.360441	13168.819670
567.716260	13133.511428
568.072023	13219.629459
568.427732	13196.543495
568.783385	13100.111263
569.138982	13215.457904
569.494525	13213.028068
569.850013	13158.901199
570.205445	13158.094615
570.560823	13170.634485
570.916145	13113.664405
571.271412	13133.158547
571.626625	13084.294643
571.981782	13070.832242
572.336884	13022.916074
572.691931	13112.391514
573.046923	13002.552333
573.401860	12985.447698
573.756743	12982.549035
574.111570	13007.714475
574.466342	12987.731341
574.821059	13038.901573
575.175722	12916.411617
575.530330	12935.278135
575.884882	12862.682999
576.239380	12864.921272
576.593823	12851.642872
576.948211	12842.921676
577.302544	12720.555228
577.656823	12732.648957
578.011047	12800.230665
578.365216	12740.067014
578.719330	12675.479751
579.073389	12645.268116
579.427394	12660.273111
579.781344	12640.055563
580.135239	12572.186509
580.489080	12594.473450
580.842866	12474.337713
581.196597	12576.708424
581.550273	12558.308213
581.903895	12521.313705
582.257463	12633.307979
582.610975	12483.416831
582.964434	12552.747820
583.317837	12474.123464
583.671186	12423.570773
584.024481	12478.756284
584.377721	12366.300745
584.730906	12440.897219
585.084037	12454.571349
585.437113	12371.236034
585.790135	12402.491188
586.143103	12304.652474
586.496016	12323.571925
586.848874	12334.203718
587.201679	12333.956702
587.554428	12207.496837
587.907124	12252.630287
588.259765	12191.922192
588.612352	12257.968869
588.964884	12124.882408
589.317362	12174.799913
589.669786	12172.362515
590.022155	12118.528033
590.374470	12215.235008
590.726731	12101.367946
591.078937	11985.902837
591.431090	12023.391378
591.783188	11954.201541
592.135232	11877.460056
592.487222	11929.961153
592.839157	11950.783639
593.191038	11880.618339
593.542866	11836.248624
593.894639	11684.230109
594.246358	11754.448341
594.598022	11756.731983
594.949633	11669.469610
595.301190	11650.850109
595.652692	11608.055754
596.004141	11687.128772
596.355535	11472.269754
596.706876	11461.839607
597.058162	11426.977507
597.409395	11515.752227
597.760573	11542.787935
598.111698	11439.184662
598.462768	11443.197420
598.813785	11453.196549
599.164748	11318.154119
599.515657	11395.765203
599.866511	11264.138156
600.217312	11394.976263
600.568060	11170.647437
600.918753	11335.611635
601.269392	11326.572846
601.619978	11223.264481
601.970510	11275.321956
602.320988	11316.581279
602.671412	11383.192566
603.021783	11314.040538
603.372100	11239.174362
603.722363	11258.166909
604.072572	11258.159347
604.422728	11264.964905
604.772830	11203.840915
605.122878	11214.034128
605.472872	11192.548730
605.822813	11246.917574
606.172701	11205.030627
606.522534	11252.561146
606.872314	11293.583536
607.222041	11224.123997
607.571714	11301.354474
607.921333	11170.148363
608.270899	11221.648791
608.620411	11283.271855
608.969870	11226.599204
609.319276	11218.379602
609.668627	11232.222611
610.017926	11319.805097
610.367171	11338.414517
610.716362	11337.638179
611.065500	11310.473922
611.414585	11334.469814
611.763616	11389.463761
612.112594	11346.815600
612.461518	11375.446833
612.810389	11424.872826
613.159207	11375.681247
613.507971	11367.262520
613.856682	11468.887140
614.205340	11426.256623
614.553945	11561.316696
614.902496	11434.231728
615.250994	11498.614824
615.599439	11487.567136
615.947830	11530.827797
616.296169	11483.572021
616.644454	11501.558858
616.992686	11515.661486
617.340864	11606.407296
617.688990	11499.986018
618.037063	11637.806123
618.385082	11606.450146
618.733048	11649.768781
619.080961	11631.703806
619.428821	11618.087650
619.776628	11628.681635
620.124382	11569.848849
620.472083	11589.380799
620.819731	11611.672782
621.167326	11538.921370
621.514868	11522.192301
621.862357	11421.129769
622.209793	11412.461505
622.557176	11331.407313
622.904506	11264.803588
623.251783	11184.946670
623.599007	11120.974428
623.946179	11081.787018
624.293297	11060.591487
624.640363	10931.003586
624.987376	10907.254711
625.334336	10837.956489
625.681243	10759.508574
626.028097	10728.656712
626.374899	10693.320744
626.721647	10671.122023
627.068343	10625.565116
627.414987	10567.780890
627.761577	10493.701134
628.108115	10534.254696
628.454600	10416.989896
628.801032	10431.523543
629.147412	10417.806563
629.493739	10395.693542
629.840014	10312.282610
630.186236	10355.429846
630.532405	10255.612479
630.878521	10291.810484
631.224585	10250.036963
631.570597	10168.624849
631.916556	10177.162043
632.262462	10165.859776
632.608316	10148.828238
632.954117	10118.097364
633.299866	10104.589592
633.645562	10079.590510
633.991206	9980.390685
634.336797	9877.344459
634.682336	9871.809272
635.027823	9821.049894
635.373257	9777.637998
635.718639	9707.714673
636.063968	9677.336680
636.409245	9567.691584
636.754470	9551.668277
637.099642	9502.809414
637.444762	9401.865349
637.789829	9411.942616
638.134845	9339.118107
638.479808	9310.224734
638.824719	9285.596177
639.169577	9190.404069
639.514383	9196.518988
639.859137	9126.560376
640.203839	9162.080346
640.548489	9082.079755
640.893086	9094.246580
641.237632	9023.274695
641.582125	9027.499182
641.926566	9016.587605
642.270955	9000.224019
642.615292	8996.070108
642.959576	8973.936922
643.303809	8963.292526
643.647990	8974.408270
643.992118	8951.881874
644.336195	8931.732382
644.680219	8934.510058
645.024192	8968.336201
645.368112	9039.978558
645.711981	9021.043985
646.055797	9161.614039
646.399562	9115.434549
646.743274	9277.492522
647.086935	9346.150517
647.430544	9325.320469
647.774101	9344.623047
648.117606	9375.885763
648.461059	9433.007077
648.804460	9358.521508
649.147810	9246.922965
649.491108	9210.293941
649.834354	9150.432760
650.177548	9006.946398
650.520690	8917.803674
650.863781	8907.980986
651.206820	8883.531390
651.549807	8788.772821
651.892742	8702.863998
652.235626	8657.861617
652.578458	8622.197975
652.921238	8513.805605
653.263967	8550.429588
653.606644	8487.664702
653.949269	8464.848440
654.291843	8394.811689
654.634365	8462.232081
654.976836	8378.032209
655.319255	8377.114719
655.661622	8368.398564
656.003938	8329.183428
656.346203	8290.419475
656.688416	8324.290988
657.030577	8275.613607
657.372687	8243.844255
657.714746	8275.762321
658.056753	8284.115513
658.398708	8189.750154
658.740612	8182.924431
659.082465	8227.745330
659.424266	8184.945934
659.766016	8199.761885
660.107715	8166.669231
660.449362	8193.357099
660.790958	8186.032303
661.132503	8179.806478
661.473996	8177.419491
661.815438	8193.893982
662.156829	8222.978919
662.498168	8171.087802
662.839456	8167.261566
663.180693	8186.034823
663.521879	8209.004841
663.863013	8193.243673
664.204097	8191.383488
664.545129	8260.830423
664.886110	8253.664423
665.227040	8255.461594
665.567918	8261.253880
665.908746	8276.684852
666.249522	8298.349210
666.590248	8297.895507
666.930922	8306.238616
667.271545	8299.715363
667.612118	8317.689597
667.952639	8278.081251
668.293109	8284.160883
668.633528	8265.354858
668.973896	8246.972291
669.314213	8248.771983
669.654480	8208.510808
669.994695	8205.828914
670.334859	8190.473559
670.674973	8170.034201
671.015035	8189.447684
671.355047	8179.438473
671.695008	8162.752254
672.034918	8145.433370
672.374777	8145.473699
672.714585	8122.412941
673.054342	8156.783528
673.394049	8120.555276
673.733705	8162.664034
674.073310	8114.425233
674.412864	8124.830174
674.752368	8057.613950
675.091820	8114.047146
675.431223	8041.872947
675.770574	7988.673650
676.109875	7961.980741
676.449125	7928.711646
676.788324	7908.310096
677.127473	7825.373033
677.466571	7809.006927
677.805619	7748.220694
678.144616	7749.536435
678.483562	7727.456181
678.822458	7679.895415
679.161303	7665.535689
679.500098	7640.524004
679.838842	7620.533308
680.177535	7636.607027
680.516179	7672.084148
680.854771	7689.937394
681.193314	7798.939743
681.531805	7958.159546
681.870247	8077.667660
682.208638	8233.981237
682.546978	8306.853637
682.885268	8341.657763
683.223508	8266.153881
683.561697	8218.184782
683.899836	8188.021038
684.237925	8099.579035
684.575963	8070.637771
684.913951	7990.075091
685.251889	8010.249789
685.589776	8010.295159
685.927614	7990.576686
686.265401	8009.044953
686.603137	8006.441197
686.940824	8087.011438
687.278460	8136.182853
687.616046	8137.972462
687.953582	8253.152746
688.291068	8238.866116
688.628504	8295.624467
688.965889	8302.281310
689.303224	8261.654652
689.640510	8216.460707
689.977745	8111.118236
690.314930	7992.089032
690.652065	7924.280472
690.989150	7802.481153
691.326185	7652.907598
691.663170	7545.412554
692.000105	7419.512258
692.336990	7305.141080
692.673825	7232.482929
693.010610	7142.150493
693.347345	7044.838580
693.684030	6930.820283
694.020665	6883.501493
694.357251	6772.409585
694.693786	6766.513956
695.030272	6723.686833
695.366707	6630.433049
695.703093	6575.756694
696.039429	6572.444656
696.375716	6519.777201
696.711952	6517.720411
697.048139	6480.884699
697.384276	6456.833354
697.720363	6475.881354
698.056400	6440.295849
698.392388	6415.450522
698.728326	6410.676550
699.064214	6381.112703
699.400053	6381.488269
699.735842	6320.681871
700.071581	6280.461025
700.407270	6233.207770
700.742910	6205.330189
701.078501	6160.219424
701.414042	6114.901971
701.749533	6060.954063
702.084974	6000.399723
702.420366	6039.458583
702.755709	5973.638758
703.091002	5923.829638
703.426246	5921.321664
703.761440	5907.161063
704.096584	5866.998190
704.431679	5857.661973
704.766725	5833.653478
705.101721	5824.077806
705.436668	5843.087997
705.771565	5785.122290
706.106413	5846.198389
706.441212	5840.519529
706.775961	5863.108940
707.110661	5870.433736
707.445311	5924.747128
707.779913	5891.435183
708.114465	5935.268016
708.448967	5981.475232
708.783421	6093.096460
709.117825	6137.078007
709.452180	6170.790723
709.786485	6231.095526
710.120742	6363.597214
710.454949	6367.284818
710.789107	6439.723678
711.123216	6555.098046
711.457275	6596.135559
711.791286	6695.983172
712.125247	6710.347940
712.459159	6683.844074
712.793023	6816.184445
713.126837	6654.302912
713.460602	6706.680501
713.794318	6662.169633
714.127985	6607.132836
714.461602	6465.599921
714.795171	6471.974460
715.128691	6304.416588
715.462162	6215.168001
715.795584	6142.666126
716.128957	6096.791626
716.462281	6034.026740
716.795556	5997.097768
717.128782	5908.486886
717.461960	5814.098842
717.795088	5803.638448
718.128167	5735.426595
718.461198	5655.657897
718.794180	5628.980111
719.127113	5573.013221
719.459997	5532.250451
719.792833	5470.607222
720.125619	5462.362415
720.458357	5406.579527
720.791046	5377.711359
721.123686	5349.422924
721.456278	5303.808044
721.788821	5296.016941
722.121315	5252.254684
722.453761	5257.918420
722.786158	5244.365278
723.118506	5246.288478
723.450805	5225.912135
723.783056	5249.487091
724.115259	5231.906067
724.447412	5217.848809
724.779518	5263.410757
725.111574	5267.204226
725.443582	5302.020955
725.775542	5298.809740
726.107453	5379.372419
726.439315	5352.976938
726.771129	5426.222383
727.102895	5487.391743
727.434612	5530.017220
727.766281	5552.473040
728.097901	5608.311380
728.429473	5626.973732
728.760996	5644.274972
729.092471	5669.163148
729.423897	5653.669162
729.755276	5622.580366
730.086606	5636.221728
730.417887	5728.023661
730.749120	5819.029090
731.080305	5858.965111
731.411442	5931.361122
731.742530	5953.010357
732.073570	5973.520291
732.404562	6035.198808
732.735506	6034.790475
733.066401	6014.343555
733.397249	5951.336694
733.728048	5851.433627
734.058798	5708.358119
734.389501	5586.357155
734.720156	5502.762222
735.050762	5397.709617
735.381320	5320.133821
735.711831	5269.351757
736.042293	5186.613820
736.372707	5186.339077
736.703073	5136.136746
737.033391	5164.427702
737.363661	5151.945805
737.693883	5156.543337
738.024056	5180.813972
738.354182	5205.359350
738.684260	5254.775261
739.014290	5294.368483
739.344272	5330.238813
739.674207	5388.146548
740.004093	5415.764509
740.333931	5423.953863
740.663722	5443.158139
740.993464	5454.089881
741.323159	5434.068939
741.652806	5393.752311
741.982405	5359.492629
742.311956	5306.789886
742.641460	5297.783865
742.970915	5245.209672
743.300323	5185.388819
743.629683	5151.764323
743.958996	5101.216674
744.288260	5049.769178
744.617477	4991.390096
744.946647	4978.391481
745.275768	4926.207977
745.604842	4889.896546
745.933869	4858.568295
746.262847	4852.551678
746.591778	4839.835367
746.920662	4817.883663
747.249498	4807.869411
747.578286	4820.724353
747.907027	4847.465154
748.235720	4894.670518
748.564365	4900.175458
748.892963	4888.308582
749.221514	4904.321807
749.550017	4883.461513
749.878473	4879.741141
750.206881	4836.941745
750.535242	4827.862627
750.863555	4814.117921
751.191821	4793.600425
751.520039	4798.177792
751.848210	4781.862098
752.176334	4784.415442
752.504411	4765.168317
752.832440	4733.547680
753.160421	4748.736676
753.488356	4727.856217
753.816243	4713.360379
754.144082	4682.594217
754.471875	4669.683822
754.799620	4656.019775
755.127318	4646.073578
755.454969	4645.808918
755.782572	4635.822392
756.110129	4635.235097
756.437638	4619.710864
756.765100	4619.927634
757.092515	4618.455617
757.419882	4623.887460
757.747203	4619.879743
758.074477	4634.536898
758.401703	4626.415599
758.728882	4650.996265
759.056014	4664.138553
759.383099	4686.357438
759.710138	4712.626891
760.037129	4732.408379
760.364073	4751.763889
760.690970	4749.802880
761.017820	4747.998147
761.344623	4783.024084
761.671379	4840.523485
761.998088	4920.622378
762.324751	5143.920288
762.651366	5601.210915
762.977935	6293.389064
763.304456	6858.020980
763.630931	7176.853797
763.957359	7120.871783
764.283740	6828.658780
764.610074	6507.779255
764.936362	6108.998780
765.262602	5793.435152
765.588796	5447.095280
765.914943	5192.764028
766.241044	4962.658040
766.567097	4789.552378
766.893104	4633.604284
767.219064	4538.255900
767.544978	4439.756795
767.870845	4357.933827
768.196665	4310.884738
768.522438	4266.192389
768.848165	4218.135069
769.173846	4179.484543
769.499479	4153.487312
769.825066	4113.977269
770.150607	4076.191300
770.476101	4059.215215
770.801548	4035.846946
771.126949	4007.326618
771.452303	3985.689986
771.777611	3949.015592
772.102872	3947.084830
772.428087	3921.944596
772.753256	3895.314700
773.078378	3877.131258
773.403453	3842.674972
773.728482	3820.680418
774.053465	3808.193480
774.378401	3786.801343
774.703291	3764.537087
775.028135	3738.902820
775.352932	3730.771439
775.677683	3710.579097
776.002388	3693.630738
776.327046	3691.851211
776.651658	3672.309178
776.976224	3654.002227
777.300743	3651.958040
777.625216	3640.441524
777.949643	3628.252014
778.274024	3632.506747
778.598359	3612.243830
778.922647	3613.859519
779.246889	3604.687140
779.571086	3603.941049
779.895236	3601.967437
780.219339	3601.891820
780.543397	3602.577417
780.867409	3615.686938
781.191374	3612.944550
781.515294	3609.816514
781.839167	3629.867703
782.162995	3626.323772
782.486776	3614.358594
782.810511	3609.655197
783.134201	3595.171962
783.457844	3595.686160
783.781441	3589.672063
784.104993	3581.608738
784.428498	3574.588931
784.751958	3574.498190
785.075372	3566.933939
785.398739	3555.810633
785.722061	3562.192734
786.045337	3560.763567
786.368568	3586.410437
786.691752	3581.099581
787.014891	3629.056078
787.337983	3670.925381
787.661030	3758.525511
787.984031	3857.185933
788.306987	3934.865073
788.629897	3983.222341
788.952760	3994.388497
789.275579	3974.173470
789.598351	3928.525822
789.921078	3872.017008
790.243759	3813.232113
790.566395	3764.582458
790.888984	3714.856516
791.211529	3679.691947
791.534027	3637.016060
791.856480	3595.396293
792.178888	3578.775609
792.501249	3557.385993
792.823566	3523.438863
793.145836	3520.288142
793.468062	3508.068385
793.790241	3496.299812
794.112375	3502.109742
794.434464	3522.970036
794.756507	3521.273688
795.078505	3539.522665
795.400457	3575.448448
795.722364	3627.082466
796.044226	3675.003674
796.366042	3721.125191
796.687812	3715.758883
797.009538	3744.359869
797.331218	3734.983323
797.652852	3727.666088
797.974442	3708.905434
798.295986	3696.854556
798.617484	3666.138805
798.938938	3640.005464
799.260346	3627.339565
799.581709	3587.214501
799.903026	3578.785692
800.224299	3559.523443
800.545526	3528.303577
800.866708	3512.940661
801.187845	3501.555215
801.508936	3475.431955
801.829983	3468.162612
802.150984	3435.296809
802.471940	3426.900767
802.792851	3423.951692
803.113717	3415.149838
803.434538	3407.106677
803.755314	3398.501427
804.076045	3389.288718
804.396731	3379.604662
804.717372	3383.738408
805.037967	3379.377810
805.358518	3380.892677
805.679024	3394.521436
805.999485	3390.667474
806.319901	3396.273237
806.640272	3397.878845
806.960598	3411.671442
807.280879	3412.339394
807.601115	3419.626382
807.921306	3411.663880
808.241453	3413.743356
808.561554	3418.350970
808.881611	3416.563881
809.201623	3418.408944
809.521590	3412.987183
809.841513	3409.433169
810.161390	3420.259047
810.481223	3395.945562
810.801011	3397.583937
811.120755	3393.619070
811.440453	3379.546689
811.760107	3371.662324
812.079716	3368.206613
812.399281	3355.530632
812.718801	3356.032227
813.038276	3349.153572
813.357707	3340.389526
813.677093	3349.871937
813.996434	3334.080522
814.315731	3343.605782
814.634983	3340.434897
814.954191	3341.087726
815.273354	3358.615818
815.592473	3363.271323
815.911547	3384.544993
816.230577	3404.797828
816.549562	3428.705500
816.868502	3446.105043
817.187399	3465.384936
817.506250	3492.559276
817.825058	3505.515041
818.143821	3545.970301
818.462539	3594.272116
818.781213	3650.702792
819.099843	3733.024835
819.418429	3883.578894
819.736970	4033.444836
820.055466	4221.631109
820.373919	4456.276656
820.692327	4791.732677
821.010691	5297.950223
821.329011	6367.315065
821.647286	8092.347500
821.965517	10260.330999
822.283704	11908.669840
822.601847	13011.646575
822.919945	12623.369344
823.237999	11956.457458
823.556010	11058.486805
823.873976	10099.117420
824.191897	9128.196230
824.509775	8343.137342
824.827609	7546.067904
825.145398	6991.719942
825.463144	6609.262723
825.780845	6465.564633
826.098502	6521.798704
826.416116	6896.026239
826.733685	7410.468428
827.051210	7705.330557
827.368692	7627.767364
827.686129	7184.463418
828.003522	6630.949767
828.320872	6067.308438
828.638177	5606.277275
828.955439	5230.071087
829.272656	4888.515269
829.589830	4610.341880
829.906960	4340.486394
830.224046	4128.485710
830.541088	3960.522025
830.858086	3846.476002
831.175041	3747.434973
831.491952	3694.946479
831.808819	3679.712112
832.125642	3714.624623
832.442421	3814.464675
832.759157	4030.450391
833.075849	4403.997370
833.392497	4872.620511
833.709101	5265.984267
834.025662	5383.629674
834.342179	5260.068473
834.658653	4991.402699
834.975083	4716.528744
835.291469	4473.872804
835.607811	4244.129779
835.924110	4090.193105
836.240366	3921.427877
836.556578	3763.070112
836.872746	3624.577012
837.188871	3509.545443
837.504952	3417.861978
837.820990	3339.580421
838.136984	3285.108233
838.452935	3252.968357
838.768842	3237.592838
839.084706	3272.462499
839.400526	3401.879000
839.716303	3629.383753
840.032037	3842.241433
840.347727	3910.541506
840.663373	3822.946416
840.978977	3674.789425
841.294537	3541.274466
841.610054	3436.524330
841.925527	3358.719162
842.240957	3290.953451
842.556344	3227.485324
842.871687	3169.587672
843.186987	3108.965277
843.502244	3054.099879
843.817458	3012.865761
844.132629	2982.114722
844.447756	2959.948769
844.762840	2936.925819
845.077881	2922.971905
845.392879	2905.784091
845.707833	2897.141033
846.022745	2885.150649
846.337613	2880.999258
846.652438	2871.005171
846.967221	2871.423587
847.281960	2861.454705
847.596656	2855.034796
847.911309	2850.112109
848.225919	2844.110615
848.540485	2839.568536
848.855009	2837.852023
849.169490	2834.476970
849.483928	2832.974706
849.798323	2828.679643
850.112675	2825.070177
850.426984	2824.946669
850.741251	2820.916266
851.055474	2820.732264
851.369654	2820.134887
851.683792	2818.040288
851.997887	2821.140598
852.311938	2820.013900
852.625947	2819.245124
852.939914	2815.940647
853.253837	2821.430464
853.567718	2819.832418
853.881555	2816.764876
854.195350	2818.751091
854.509103	2820.233190
854.822812	2817.049701
855.136479	2816.409475
855.450103	2818.735967
855.763685	2815.968374
856.077224	2817.621872
856.390720	2817.420226
856.704173	2819.212356
857.017584	2821.967347
857.330953	2823.250321
857.644278	2825.153356
857.957561	2829.017401
858.270802	2830.282730
858.584000	2831.865652
858.897155	2828.944304
859.210268	2827.568069
859.523339	2823.126812
859.836367	2824.808037
860.149352	2822.622697
860.462295	2819.595484
860.775195	2813.888898
861.088054	2814.922334
861.400869	2814.191367
861.713642	2812.381593
862.026373	2817.735298
862.339062	2820.727223
862.651708	2820.507933
862.964312	2823.698983
863.276873	2826.106134
863.589392	2832.742813
863.901869	2842.741942
864.214303	2846.283352
864.526696	2855.226359
864.839045	2862.278934
865.151353	2865.815303
865.463619	2871.791591
865.775842	2875.542209
866.088023	2876.973897
866.400162	2877.210831
866.712258	2878.476161
867.024313	2881.064793
867.336325	2882.584701
867.648296	2883.660988
867.960224	2881.687376
868.272110	2887.623335
868.583954	2884.719630
868.895755	2890.325393
869.207515	2888.245917
869.519233	2897.004922
869.830909	2898.814696
870.142542	2903.492887
870.454134	2902.434245
870.765684	2906.126890
871.077191	2914.596028
871.388657	2920.219435
871.700081	2923.130702
872.011463	2931.378029
872.322803	2940.923454
872.634101	2943.096192
872.945357	2948.114660
873.256571	2960.558748
873.567744	2964.470684
873.878874	2968.763226
874.189963	2977.844865
874.501010	2979.944506
874.812015	2979.808394
875.122979	2986.482882
875.433900	2991.047647
875.744780	2993.928666
876.055618	3000.487208
876.366415	2998.947135
876.677169	3005.394771
876.987882	3013.604290
877.298554	3022.529653
877.609183	3035.810573
877.919771	3054.281360
878.230317	3076.545616
878.540822	3115.947275
878.851285	3166.802435
879.161707	3226.550190
879.472087	3338.299968
879.782425	3496.982888
880.092722	3770.677213
880.402977	4194.784445
880.713191	4741.185028
881.023363	5339.065874
881.333494	5783.567094
881.643583	6074.292957
881.953631	6154.893445
882.263637	6105.918635
882.573602	5967.107943
882.883526	5803.270443
883.193408	5597.722437
883.503248	5380.133634
883.813048	5162.524666
884.122806	4945.623981
884.432522	4702.824367
884.742197	4471.750478
885.051831	4261.907408
885.361424	4058.907704
885.670975	3893.940986
885.980485	3748.339860
886.289954	3619.757669
886.599382	3513.643902
886.908768	3429.486879
887.218113	3347.883201
887.527417	3286.171917
887.836680	3226.943400
888.145901	3178.989424
888.455082	3142.977942
888.764221	3108.211624
889.073319	3078.385637
889.382376	3058.342010
889.691392	3042.081768
890.000366	3031.233205
890.309300	3025.869417
890.618193	3024.717513
890.927044	3016.278622
891.235855	3020.498068
891.544625	3017.796009
891.853353	3026.164325
892.162041	3039.452806
892.470687	3066.385171
892.779293	3099.820623
893.087858	3146.345432
893.396381	3224.868965
893.704864	3332.878207
894.013306	3485.660457
894.321707	3674.814631
894.630068	3829.517560
894.938387	3907.630239
895.246665	3921.947116
895.554903	3861.874206
895.863100	3776.527472
896.171256	3701.235318
896.479371	3627.715131
896.787446	3548.884088
897.095480	3477.743324
897.403473	3421.877257
897.711425	3363.672095
898.019336	3315.231648
898.327207	3261.021600
898.635038	3213.518807
898.942827	3160.768173
899.250576	3117.562964
899.558284	3081.617017
899.865952	3051.783468
900.173579	3023.094262
900.481165	3002.052486
900.788711	2980.995586
901.096216	2964.574028
901.403681	2951.086420
901.711105	2942.007302
902.018489	2936.809873
902.325832	2946.032664
902.633135	2953.317131
902.940397	2989.469766
903.247619	3078.599886
903.554800	3251.438367
903.861941	3529.102600
904.169041	3792.598670
904.476101	3967.352789
904.783121	3996.188189
905.090100	3929.612191
905.397039	3823.238803
905.703938	3715.181671
906.010796	3612.382461
906.317614	3531.550080
906.624391	3444.227213
906.931129	3372.186604
907.237826	3303.468115
907.544483	3238.417066
907.851099	3166.285716
908.157675	3091.885847
908.464211	3019.701565
908.770707	2961.014973
909.077163	2912.211563
909.383578	2872.225130
909.689954	2844.763445
909.996289	2825.758295
910.302584	2810.178609
910.608839	2804.754327
910.915054	2795.748306
911.221229	2788.836884
911.527363	2790.951648
911.833458	2792.259827
912.139513	2797.973975
912.445527	2795.765950
912.751502	2807.156437
913.057436	2823.078921
913.363331	2843.455265
913.669186	2873.326622
913.975000	2908.070255
914.280775	2971.165336
914.586510	3049.278015
914.892205	3161.403359
915.197859	3307.133034
915.503475	3489.577433
915.809050	3664.598733
916.114585	3801.743323
916.420081	3875.818038
916.725536	3910.536464
917.030952	3874.620764
917.336328	3833.905885
917.641665	3788.427115
917.946961	3723.010583
918.252218	3663.991274
918.557435	3594.251952
918.862612	3526.274513
919.167750	3465.415183
919.472848	3394.728123
919.777906	3325.215653
920.082925	3256.771907
920.387904	3182.404806
920.692843	3128.643421
920.997743	3075.524783
921.302603	3022.771628
921.607423	2989.308449
921.912204	2950.768828
922.216946	2925.386618
922.521647	2903.132444
922.826310	2883.219887
923.130932	2861.774818
923.435516	2839.893690
923.740059	2829.294664
924.044564	2811.118784
924.349028	2798.715025
924.653454	2785.930659
924.957840	2769.143616
925.262186	2762.396032
925.566493	2750.831625
925.870761	2737.921230
926.174989	2732.643142
926.479178	2726.278685
926.783328	2716.904660
927.087438	2711.656818
927.391509	2706.618185
927.695541	2698.209541
927.999533	2692.812985
928.303486	2688.661595
928.607400	2686.453570
928.911275	2679.227076
929.215110	2679.864782
929.518906	2677.208094
929.822663	2673.533092
930.126381	2673.830521
930.430060	2675.874708
930.733699	2674.067455
931.037299	2673.553257
931.340861	2675.552075
931.644383	2678.332271
931.947866	2674.894204
932.251309	2675.826817
932.554714	2675.226920
932.858080	2676.262877
933.161407	2672.711384
933.464694	2672.330777
933.767943	2670.253822
934.071153	2668.645694
934.374323	2666.369613
934.677455	2667.662669
934.980548	2666.664520
935.283602	2664.658141
935.586617	2663.574293
935.889593	2665.303409
936.192530	2664.179232
936.495428	2665.351300
936.798287	2666.760302
937.101108	2674.546364
937.403890	2680.714216
937.706632	2687.923066
938.009336	2702.839840
938.312002	2713.053218
938.614628	2724.446226
938.917216	2735.277145
939.219765	2742.740573
939.522275	2747.265009
939.824747	2751.920514
940.127179	2748.600914
940.429573	2749.062180
940.731929	2755.230032
941.034246	2750.234248
941.336524	2751.486975
941.638763	2749.495719
941.940964	2750.758528
942.243126	2744.368866
942.545250	2744.383989
942.847335	2734.054665
943.149381	2724.786504
943.451389	2724.557131
943.753359	2717.043291
944.055290	2710.540203
944.357182	2707.719677
944.659036	2701.052751
944.960851	2703.379244
945.262628	2695.268027
945.564367	2693.420444
945.866067	2693.801052
946.167729	2694.312729
946.469352	2692.013962
946.770937	2689.901719
947.072484	2686.509022
947.373992	2689.316945
947.675462	2689.274095
947.976893	2686.698066
948.278286	2684.300997
948.579641	2682.317303
948.880958	2681.954340
949.182236	2682.967612
949.483476	2678.957374
949.784678	2680.273115
950.085841	2680.653722
950.386967	2682.854186
950.688054	2683.184382
950.989103	2686.108251
951.290114	2686.531708
951.591087	2690.552028
951.892021	2694.506813
952.192917	2699.820189
952.493776	2704.654656
952.794596	2706.698844
953.095378	2709.559698
953.396122	2707.858309
953.696828	2710.139431
953.997496	2709.050542
954.298126	2705.463761
954.598718	2701.687937
954.899272	2695.958665
955.199788	2693.992615
955.500266	2687.953313
955.800706	2682.506346
956.101108	2674.122908
956.401472	2670.599141
956.701798	2664.562359
957.002087	2654.898467
957.302337	2653.025679
957.602550	2648.082827
957.902724	2639.772485
958.202861	2639.091929
958.502960	2629.843933
958.803022	2628.603809
959.103045	2624.326390
959.403031	2618.297170
959.702979	2616.126953
960.002889	2614.455811
960.302762	2609.550768
960.602596	2607.612444
960.902393	2609.447424
961.202153	2604.010540
961.501875	2601.991558
961.801559	2603.445931
962.101205	2600.925354
962.400814	2599.488625
962.700385	2597.104159
962.999918	2595.218767
963.299414	2593.776998
963.598873	2593.040989
963.898293	2594.817996
964.197677	2592.458736
964.497022	2590.122161
964.796331	2589.237438
965.095601	2591.344641
965.394835	2589.108889
965.694030	2590.210381
965.993189	2588.871955
966.292309	2590.674167
966.591393	2588.415730
966.890439	2588.602253
967.189447	2585.602767
967.488419	2589.234918
967.787353	2587.800710
968.086249	2587.326841
968.385108	2589.179465
968.683930	2588.445977
968.982714	2591.780701
969.281462	2588.536718
969.580172	2592.398242
969.878844	2593.774477
970.177480	2597.530137
970.476078	2595.969899
970.774639	2593.172059
971.073162	2596.123655
971.371649	2598.790425
971.670098	2597.812441
971.968510	2599.047524
972.266885	2597.630960
972.565223	2603.682865
972.863524	2604.620519
973.161788	2605.399378
973.460014	2604.756631
973.758204	2606.437855
974.056356	2604.670931
974.354471	2608.504728
974.652550	2606.528596
974.950591	2608.348453
975.248595	2609.225613
975.546563	2608.466920
975.844493	2605.658997
976.142386	2603.811414
976.440243	2602.896445
976.738062	2603.912237
977.035845	2604.857454
977.333590	2603.294696
977.631299	2600.600199
977.928971	2598.757657
978.226606	2598.414859
978.524204	2598.019128
978.821765	2598.094746
979.119290	2595.435537
979.416777	2595.097780
979.714228	2597.782194
980.011642	2596.552153
980.309020	2603.088009
980.606360	2598.818151
980.903664	2602.982144
981.200931	2608.822321
981.498162	2616.517642
981.795356	2628.049282
982.092513	2643.018988
982.389633	2662.800476
982.686717	2680.653722
982.983764	2697.965045
983.280775	2709.063145
983.577749	2715.167982
983.874686	2718.573282
984.171587	2713.305276
984.468451	2706.872763
984.765279	2702.068544
985.062070	2691.582944
985.358824	2686.549352
985.655543	2673.838082
985.952224	2669.041424
986.248869	2653.164310
986.545478	2639.994296
986.842050	2628.099693
987.138586	2615.227107
987.435086	2608.290479
987.731549	2599.720518
988.027975	2595.836309
988.324366	2591.543766
988.620719	2588.695514
988.917037	2585.340627
989.213318	2584.251737
989.509563	2580.493557
989.805772	2580.380131
990.101944	2579.697055
990.398080	2579.785275
990.694180	2577.413412
990.990244	2577.307548
991.286271	2577.723443
991.582262	2577.451221
991.878217	2577.519276
992.174136	2578.676221
992.470019	2581.244689
992.765865	2579.444997
993.061676	2581.491706
993.357450	2580.997672
993.653188	2584.939855
993.948890	2585.249886
994.244556	2590.041502
994.540186	2593.696339
994.835780	2597.787235
995.131337	2608.529934
995.426859	2615.310286
995.722345	2619.738940
996.017795	2635.237967
996.313208	2641.504122
996.608586	2645.388331
996.903928	2651.311686
997.199234	2651.089876
997.494504	2654.162459
997.789738	2653.118940
998.084936	2650.353867
998.380099	2645.506798
998.675225	2637.889614
998.970316	2634.524644
999.265371	2625.271606
999.560390	2619.033178
999.855373	2613.208125
1000.150320	2604.950715
1000.445232	2601.061465
1000.740108	2596.758840
1001.034948	2588.652665
1001.329752	2587.629310
1001.624521	2584.274423
1001.919254	2576.314441
1002.213951	2576.158165
1002.508613	2574.824780
1002.803239	2574.476940
1003.097829	2568.165415
1003.392384	2575.018864
1003.686903	2572.664645
1003.981386	2574.151786
1004.275834	2570.592731
1004.570246	2571.835375
1004.864623	2569.743297
1005.158964	2570.091136
1005.453270	2564.737431
1005.747540	2566.627863
1006.041775	2568.162895
1006.335974	2567.633574
1006.630138	2566.153995
1006.924266	2564.147616
1007.218359	2567.726835
1007.512416	2568.296485
1007.806438	2567.406722
1008.100425	2564.765157
1008.394376	2565.425548
1008.688292	2565.722976
1008.982172	2565.128120
1009.276017	2565.773388
1009.569827	2566.484191
1009.863602	2567.114335
1010.157341	2563.081412
1010.451045	2567.905796
1010.744714	2564.918912
1011.038347	2566.025446
1011.331945	2563.535116
1011.625508	2565.017215
1011.919036	2563.446895
1012.212528	2564.903789
1012.505986	2564.135013
1012.799408	2565.168449
1013.092795	2565.508727
1013.386147	2563.852708
1013.679464	2560.984292
1013.972745	2561.037224
1014.265992	2563.484704
1014.559204	2566.222051
1014.852380	2562.637790
1015.145521	2562.726010
1015.438628	2562.494117
1015.731699	2564.117369
1016.024736	2563.502348
1016.317737	2566.007802
1016.610703	2566.330435
1016.903635	2560.568397
1017.196531	2560.530588
1017.489393	2560.523026
1017.782219	2559.766853
1018.075011	2560.817934
1018.367768	2564.981927
1018.660490	2564.588717
1018.953177	2564.588717
1019.245829	2564.588717
