Dividing Wavelength (nm)	Counts (n)	Blue Motor Position (mm): 0.000000	Red Motor Position (mm): 0.000000	
326.493990	2149.971457
326.888308	2149.971457
327.282561	2149.971457
327.676750	2124.039762
328.070874	2128.017232
328.464933	2131.798097
328.858929	2140.816722
329.252859	2151.940028
329.646726	2166.115752
330.040528	2181.947496
330.434265	2198.853005
330.827938	2218.775645
331.221547	2235.154354
331.615091	2256.473394
332.008571	2274.840838
332.401986	2302.380661
332.795338	2318.046047
333.188625	2338.866012
333.581847	2359.166739
333.975006	2376.346991
334.368100	2396.199055
334.761129	2414.621952
335.154095	2429.500917
335.546996	2445.796447
335.939833	2457.502006
336.332606	2472.322998
336.725315	2486.791110
337.117960	2491.300422
337.510540	2499.273007
337.903056	2509.529234
338.295508	2515.593743
338.687896	2524.509023
339.080220	2531.339787
339.472480	2536.164171
339.864676	2539.302289
340.256807	2546.064997
340.648875	2546.259081
341.040879	2548.099103
341.432818	2549.341747
341.824694	2550.856614
342.216506	2545.886036
342.608253	2552.058929
342.999937	2550.244113
343.391557	2549.409802
343.783113	2546.634647
344.174605	2546.672456
344.566033	2541.850592
344.957397	2542.770603
345.348697	2541.553164
345.739934	2537.023688
346.131106	2536.033101
346.522215	2535.844058
346.913260	2534.843388
347.304241	2529.202337
347.695159	2530.253418
348.086012	2528.826771
348.476802	2528.761236
348.867528	2527.785773
349.258191	2524.486338
349.648789	2523.556245
350.039324	2519.583816
350.429796	2523.571368
350.820203	2518.449556
351.210548	2520.713034
351.600828	2519.661954
351.991045	2518.888137
352.381198	2516.100378
352.771288	2517.222035
353.161314	2516.042405
353.551276	2518.260513
353.941175	2516.607014
354.331010	2517.262364
354.720782	2517.494257
355.110490	2515.472755
355.500135	2518.315966
355.889717	2518.646161
356.279235	2517.985770
356.668689	2518.401665
357.058080	2520.907119
357.447408	2516.203722
357.836672	2515.061901
358.225873	2519.152797
358.615010	2516.735564
359.004084	2521.224711
359.393095	2522.517767
359.782043	2520.496265
360.170927	2523.473066
360.559748	2523.263858
360.948505	2524.428365
361.337199	2526.182686
361.725830	2524.844260
362.114398	2526.240659
362.502903	2525.285361
362.891344	2527.231246
363.279722	2527.937008
363.668037	2527.437933
364.056289	2527.745444
364.444478	2527.697553
364.832603	2527.072450
365.220665	2529.343490
365.608665	2526.044054
365.996601	2527.148067
366.384474	2531.307019
366.772284	2528.521782
367.160031	2529.320804
367.547715	2532.653007
367.935336	2529.955990
368.322893	2530.820548
368.710388	2530.860877
369.097820	2535.710467
369.485189	2531.067564
369.872495	2528.408356
370.259738	2532.179139
370.646918	2531.881711
371.034035	2532.237112
371.421090	2534.785415
371.808081	2529.492204
372.195010	2536.164171
372.581875	2533.885569
372.968678	2534.114942
373.355418	2532.582431
373.742096	2532.413552
374.128710	2535.155940
374.515262	2534.903882
374.901751	2533.988913
375.288177	2535.274407
375.674540	2536.673327
376.060841	2535.821372
376.447079	2535.213913
376.833254	2537.356404
377.219367	2533.076464
377.605417	2535.052596
377.991404	2532.831968
378.377329	2534.170394
378.763191	2534.291382
379.148991	2540.476878
379.534727	2535.087884
379.920402	2540.383617
380.306013	2537.283307
380.691563	2539.072917
381.077049	2537.487474
381.462474	2537.767258
381.847835	2540.123997
382.233134	2538.674665
382.618371	2538.334387
383.003545	2539.861857
383.388657	2538.591486
383.773706	2541.631302
384.158693	2543.705737
384.543618	2540.618030
384.928480	2539.466127
385.313280	2541.676672
385.698017	2539.776157
386.082692	2543.524255
386.467305	2542.332022
386.851856	2542.521066
387.236344	2539.677855
387.620770	2543.798998
388.005133	2541.835469
388.389435	2543.960315
388.773674	2543.597352
389.157851	2541.006199
389.541965	2543.078113
389.926018	2543.110881
390.310008	2543.864533
390.693936	2544.308155
391.077802	2543.541899
391.461606	2544.668597
391.845348	2544.751776
392.229027	2546.397713
392.612645	2544.580377
392.996200	2542.944523
393.379694	2542.362269
393.763125	2545.502908
394.146494	2545.878474
394.529801	2545.394523
394.913047	2546.070038
395.296230	2545.654143
395.679351	2544.734132
396.062410	2544.295552
396.445408	2545.187836
396.828343	2547.378217
397.211217	2544.164482
397.594028	2543.501570
397.976778	2546.427960
398.359466	2546.944678
398.742092	2541.890922
399.124656	2547.284956
399.507158	2549.994576
399.889598	2547.625234
400.271977	2548.756973
400.654294	2551.053219
401.036549	2551.859803
401.418742	2548.210008
401.800874	2547.347971
402.182944	2552.003476
402.564952	2548.328475
402.946898	2549.515667
403.328783	2547.095913
403.710606	2551.748898
404.092367	2547.930224
404.474067	2547.915100
404.855705	2550.589433
405.237282	2551.078424
405.618797	2551.862324
406.000250	2550.967519
406.381642	2549.525749
406.762972	2550.412992
407.144240	2552.444577
407.525447	2552.104299
407.906593	2551.559855
408.287677	2551.320400
408.668700	2550.067673
409.049661	2551.675801
409.430560	2549.245965
409.811399	2554.219063
410.192176	2552.926007
410.572891	2550.886861
410.953545	2552.500030
411.334138	2553.777962
411.714669	2552.429454
412.095139	2552.459701
412.475547	2553.604043
412.855894	2553.346944
413.236180	2556.041440
413.616405	2555.807027
413.996568	2554.755946
414.376670	2554.967675
414.756711	2555.733930
415.136691	2554.486244
415.516609	2553.031872
415.896466	2557.006821
416.276262	2555.338199
416.655997	2550.234031
417.035670	2552.351316
417.415283	2554.705535
417.794834	2551.350647
418.174324	2552.227807
418.553753	2554.392983
418.933121	2554.773590
419.312428	2554.846687
419.691674	2553.646892
420.070859	2555.431461
420.449983	2554.866852
420.829045	2553.851059
421.208047	2557.427758
421.586988	2556.301060
421.965867	2556.913560
422.344686	2555.912891
422.723444	2557.654610
423.102141	2556.709393
423.480777	2558.060422
423.859352	2556.212840
424.237866	2557.621842
424.616319	2557.316852
424.994712	2557.195865
425.373044	2559.729044
425.751314	2559.476987
426.129524	2556.175031
426.507673	2556.885834
426.885762	2558.335165
427.263789	2558.642676
427.641756	2558.967830
428.019662	2560.704508
428.397508	2556.905998
428.775292	2559.691236
429.153016	2559.325752
429.530679	2558.748540
429.908282	2561.231308
430.285824	2558.418344
430.663305	2561.886658
431.040726	2558.206616
431.418086	2561.664847
431.795385	2560.578479
432.172624	2562.554611
432.549802	2560.467573
432.926920	2559.925649
433.303977	2561.027142
433.680974	2558.536812
434.057910	2563.358675
434.434786	2560.964127
434.811601	2560.507903
435.188355	2561.896741
435.565050	2563.232646
435.941683	2561.974878
436.318257	2559.580330
436.694770	2557.304249
437.071222	2558.796431
437.447614	2556.885834
437.823946	2558.322563
438.200218	2562.259704
438.576429	2560.306257
438.952580	2560.822975
439.328670	2559.877758
439.704700	2561.727862
440.080670	2562.189127
440.456580	2561.639642
440.832429	2563.197358
441.208218	2564.119889
441.583947	2562.080743
441.959616	2563.935887
442.335224	2563.416648
442.710773	2564.447564
443.086261	2563.724159
443.461689	2562.549570
443.837057	2566.824468
444.212365	2564.480332
444.587612	2560.021431
444.962800	2563.814900
445.337927	2565.884293
445.712995	2561.165773
446.088002	2560.865825
446.462949	2561.773232
446.837837	2563.797256
447.212664	2563.119220
447.587431	2564.225754
447.962139	2567.217678
448.336786	2564.258521
448.711374	2565.894376
449.085901	2565.939746
449.460369	2565.201217
449.834776	2565.496124
450.209124	2563.348593
450.583412	2566.085939
450.957640	2565.486042
451.331808	2564.601320
451.705917	2565.296999
452.079965	2567.931002
452.453954	2567.222720
452.827883	2564.528223
453.201752	2566.431258
453.575562	2564.447564
453.949311	2566.617781
454.323001	2568.578790
454.696632	2562.652914
455.070202	2565.997719
455.443713	2566.209448
455.817164	2561.685012
456.190556	2561.685012
456.563888	2561.097718
456.937160	2561.939590
457.310373	2565.445713
457.683526	2563.890517
458.056619	2564.298850
458.429653	2565.982596
458.802628	2565.107956
459.175542	2566.562328
459.548398	2566.554767
459.921194	2567.633574
460.293930	2564.424879
460.666607	2565.407904
461.039224	2564.155177
461.411782	2565.733059
461.784280	2569.897052
462.156719	2566.363203
462.529099	2569.844120
462.901419	2566.406053
463.273680	2568.936712
463.645882	2567.605847
464.018024	2566.385888
464.390106	2567.638615
464.762130	2566.511917
465.134094	2565.717935
465.505999	2567.590724
465.877845	2566.607699
466.249631	2568.039387
466.621358	2568.495611
466.993026	2570.139027
467.364634	2570.514593
467.736184	2565.697771
468.107674	2568.573749
468.479105	2566.577452
468.850477	2569.191290
469.221790	2569.269428
469.593043	2568.551064
469.964238	2570.204562
470.335373	2569.667679
470.706449	2570.532237
471.077467	2568.223389
471.448425	2570.920406
471.819324	2570.055848
472.190164	2569.092988
472.560945	2567.447051
472.931667	2569.355128
473.302330	2566.373285
473.672934	2567.351269
474.043479	2569.914696
474.413965	2568.631722
474.784393	2563.444375
475.154761	2566.998388
475.525070	2566.920250
475.895321	2568.054510
476.265513	2567.578121
476.635645	2567.691547
477.005719	2567.187432
477.375734	2569.072823
477.745691	2567.981413
478.115588	2570.338153
478.485427	2569.128276
478.855207	2571.356466
479.224928	2569.571897
479.594591	2568.903944
479.964194	2569.307237
480.333739	2570.033163
480.703226	2570.766651
481.072653	2570.998544
481.442022	2568.747669
481.811333	2571.855540
482.180584	2569.758420
482.549777	2568.477967
482.918912	2570.237330
483.287988	2572.397464
483.657005	2569.312278
484.025964	2569.050138
484.394864	2569.279510
484.763706	2571.633729
485.132489	2571.003585
485.501213	2570.330591
485.869879	2571.369069
486.238487	2569.818914
486.607036	2571.472412
486.975527	2569.574418
487.343959	2571.784964
487.712333	2568.178018
488.080648	2571.248081
488.448905	2568.596434
488.817104	2570.738924
489.185244	2571.434604
489.553326	2571.311095
489.921350	2571.976528
490.289315	2571.563153
490.657222	2571.086764
491.025070	2571.724470
491.392861	2570.320509
491.760593	2569.927299
492.128267	2571.011147
492.495883	2572.528534
492.863440	2570.794377
493.230939	2570.678431
493.598380	2572.583987
493.965763	2570.648184
494.333088	2566.935374
494.700354	2570.108780
495.067563	2571.542988
495.434713	2566.915209
495.801805	2571.948801
496.168839	2573.685479
496.535815	2571.268246
496.902733	2572.208421
497.269593	2574.471899
497.636395	2570.890159
498.003139	2571.979048
498.369825	2572.831003
498.736453	2572.009295
499.103023	2570.645663
499.469535	2572.594069
499.835989	2572.687330
500.202385	2572.508369
500.568723	2569.808832
500.935003	2573.141034
501.301226	2574.734039
501.667390	2574.330747
502.033497	2573.635067
502.399546	2571.495097
502.765537	2571.154820
503.131470	2572.034501
503.497345	2573.468709
503.863163	2574.860068
504.228923	2573.932495
504.594625	2574.040880
504.960269	2572.568863
505.325856	2574.431570
505.691385	2576.054821
506.056856	2575.069276
506.422270	2574.973494
506.787625	2573.700602
507.152924	2574.388720
507.518164	2573.267063
507.883347	2573.617423
508.248472	2571.197669
508.613540	2571.888308
508.978550	2571.613565
509.343503	2574.081209
509.708398	2577.335274
510.073236	2572.339491
510.438016	2575.699420
510.802738	2572.773030
511.167403	2573.854357
511.532010	2573.486353
511.896561	2573.962742
512.261053	2572.059707
512.625488	2569.307237
512.989866	2568.949315
513.354186	2569.894531
513.718449	2570.406208
514.082655	2568.956877
514.446803	2572.931826
514.810894	2571.971487
515.174927	2576.619430
515.538904	2573.803946
515.902822	2572.750345
516.266684	2571.099367
516.630488	2575.210428
516.994235	2574.091292
517.357925	2572.107598
517.721558	2576.309399
518.085133	2576.311920
518.448651	2576.251426
518.812112	2575.202866
519.175516	2574.020716
519.538863	2574.386199
519.902152	2572.737742
520.265385	2575.026426
520.628560	2571.568194
520.991678	2572.770509
521.354739	2573.133472
521.717743	2572.077351
522.080690	2573.960222
522.443580	2574.595407
522.806413	2575.568350
523.169189	2576.997517
523.531908	2574.093812
523.894569	2574.706312
524.257174	2572.641960
524.619722	2576.054821
524.982213	2576.357290
525.344647	2573.292269
525.707025	2576.377455
526.069345	2575.956519
526.431608	2574.608010
526.793815	2576.188412
527.155964	2574.353432
527.518057	2575.228072
527.880093	2575.192784
528.242072	2572.901579
528.603995	2575.580953
528.965860	2574.121539
529.327669	2570.743966
529.689421	2574.935685
530.051117	2573.337639
530.412755	2573.841755
530.774337	2574.822259
531.135862	2576.450552
531.497331	2569.826476
531.858743	2571.301013
532.220098	2576.483319
532.581396	2573.609862
532.942638	2571.353945
533.303824	2575.696899
533.664953	2575.948957
534.026025	2574.459296
534.387040	2576.579101
534.747999	2573.284707
535.108902	2578.721592
535.469748	2574.320664
535.830537	2575.830490
536.191270	2575.959039
536.551947	2576.695048
536.912567	2574.207238
537.273131	2577.667990
537.633638	2572.914182
537.994089	2575.533062
538.354483	2576.027095
538.714821	2575.346539
539.075103	2575.286045
539.435328	2572.664645
539.795497	2574.424008
540.155609	2576.339646
540.515665	2575.391909
540.875665	2573.531724
541.235609	2575.631364
541.595496	2576.962229
541.955328	2576.165727
542.315102	2573.942578
542.674821	2574.519790
543.034483	2576.213617
543.394090	2572.767989
543.753640	2576.987435
544.113134	2573.448545
544.472571	2574.234965
544.831953	2575.207907
545.191278	2576.281673
545.550548	2574.623133
545.909761	2574.799574
546.268918	2573.466189
546.628019	2577.952816
546.987064	2575.344018
547.346053	2579.054308
547.704986	2574.965932
548.063863	2576.674883
548.422684	2575.999368
548.781449	2573.756055
549.140158	2576.556416
549.498811	2577.887281
549.857408	2573.461148
550.215949	2572.455437
550.574434	2574.187074
550.932864	2572.160530
551.291237	2570.101218
551.649555	2575.775037
552.007817	2577.211766
552.366022	2574.285376
552.724173	2573.262022
553.082267	2576.402661
553.440305	2576.574060
553.798288	2575.868298
554.156215	2575.270922
554.514086	2575.170099
554.871902	2574.542475
555.229661	2576.586663
555.587365	2574.943247
555.945014	2574.572722
556.302606	2575.621282
556.660143	2578.630851
557.017625	2577.312589
557.375050	2575.563309
557.732421	2575.714543
558.089735	2576.808474
558.446994	2575.848134
558.804197	2577.491550
559.161345	2575.893504
559.518437	2577.153793
559.875474	2574.214800
560.232455	2575.520459
560.589381	2576.067424
560.946251	2580.649833
561.303065	2576.332085
561.659825	2577.118505
562.016528	2573.355283
562.373177	2575.966601
562.729770	2575.767475
563.086307	2577.940213
563.442789	2575.394430
563.799216	2574.290417
564.155587	2576.853844
564.511904	2576.369893
564.868164	2576.959708
565.224370	2574.857547
565.580520	2576.143041
565.936615	2575.545665
566.292654	2574.222362
566.648638	2579.974318
567.004567	2574.756724
567.360441	2574.275294
567.716260	2577.108422
568.072023	2575.747311
568.427732	2571.565674
568.783385	2574.474419
569.138982	2571.351425
569.494525	2570.980900
569.850013	2572.732701
570.205445	2573.476271
570.560823	2576.473237
570.916145	2576.621951
571.271412	2577.983062
571.626625	2577.229410
571.981782	2575.633885
572.336884	2574.343349
572.691931	2574.408884
573.046923	2577.451221
573.401860	2573.584656
573.756743	2575.316292
574.111570	2576.246385
574.466342	2575.782599
574.821059	2577.771334
575.175722	2572.231106
575.530330	2576.783268
575.884882	2576.863926
576.239380	2577.665470
576.593823	2577.050449
576.948211	2577.375603
577.302544	2576.004410
577.656823	2576.581622
578.011047	2576.964749
578.365216	2576.561457
578.719330	2578.270408
579.073389	2576.957188
579.427394	2575.414595
579.781344	2575.807805
580.135239	2579.044225
580.489080	2575.245716
580.842866	2576.747980
581.196597	2578.613207
581.550273	2576.463155
581.903895	2575.066755
582.257463	2576.977352
582.610975	2573.509038
582.964434	2574.212279
583.317837	2577.897363
583.671186	2578.222517
584.024481	2577.516756
584.377721	2576.574060
584.730906	2575.976683
585.084037	2576.813515
585.437113	2580.415419
585.790135	2575.719584
586.143103	2576.909297
586.496016	2578.061200
586.848874	2573.435942
587.201679	2570.824624
587.554428	2576.112794
587.907124	2571.038873
588.259765	2571.792526
588.612352	2576.329564
588.964884	2578.199832
589.317362	2575.896025
589.669786	2577.988104
590.022155	2576.632033
590.374470	2572.757907
590.726731	2574.061045
591.078937	2575.124728
591.431090	2577.113463
591.783188	2577.287383
592.135232	2577.494071
592.487222	2577.761252
592.839157	2575.578432
593.191038	2575.349060
593.542866	2579.765110
593.894639	2574.411405
594.246358	2575.026426
594.598022	2576.987435
594.949633	2576.402661
595.301190	2575.134811
595.652692	2574.524831
596.004141	2576.437949
596.355535	2579.402147
596.706876	2573.168761
597.058162	2577.027764
597.409395	2577.446180
597.760573	2576.468196
598.111698	2578.366190
598.462768	2577.214287
598.813785	2572.515931
599.164748	2577.481468
599.515657	2574.103895
599.866511	2574.698751
600.217312	2578.209914
600.568060	2577.294945
600.918753	2577.519276
601.269392	2577.352918
601.619978	2576.874009
601.970510	2577.330233
602.320988	2576.553895
602.671412	2576.725295
603.021783	2574.227403
603.372100	2575.371745
603.722363	2575.384348
604.072572	2579.036664
604.422728	2576.629513
604.772830	2570.176836
605.122878	2570.998544
605.472872	2575.099522
605.822813	2570.093657
606.172701	2572.475602
606.522534	2574.965932
606.872314	2575.538103
607.222041	2577.108422
607.571714	2576.453072
607.921333	2576.415264
608.270899	2576.125397
608.620411	2574.686148
608.969870	2575.207907
609.319276	2576.405181
609.668627	2578.623289
610.017926	2574.983576
610.367171	2578.300655
610.716362	2575.195304
611.065500	2576.979873
611.414585	2575.611200
611.763616	2576.609348
612.112594	2576.344687
612.461518	2576.397620
612.810389	2576.753021
613.159207	2574.993658
613.507971	2573.587176
613.856682	2573.806467
614.205340	2575.180181
614.553945	2578.605645
614.902496	2575.344018
615.250994	2576.543813
615.599439	2577.143710
615.947830	2577.037846
616.296169	2577.297466
616.644454	2578.426684
616.992686	2576.581622
617.340864	2577.839390
617.688990	2573.289748
618.037063	2576.861406
618.385082	2578.978690
618.733048	2576.281673
619.080961	2575.649008
619.428821	2577.942733
619.776628	2578.807291
620.124382	2577.305027
620.472083	2579.228227
620.819731	2578.403999
621.167326	2575.764955
621.514868	2578.330902
621.862357	2574.608010
622.209793	2575.487691
622.557176	2576.054821
622.904506	2574.681107
623.251783	2572.722618
623.599007	2573.423339
623.946179	2574.358473
624.293297	2572.841086
624.640363	2572.856209
624.987376	2574.938206
625.334336	2574.476940
625.681243	2576.485840
626.028097	2576.432908
626.374899	2577.055490
626.721647	2575.896025
627.068343	2576.304358
627.414987	2576.100192
627.761577	2576.944585
628.108115	2574.335788
628.454600	2576.306879
628.801032	2575.149934
629.147412	2575.066755
629.493739	2575.898545
629.840014	2574.860068
630.186236	2577.226889
630.532405	2574.529872
630.878521	2576.697568
631.224585	2576.069945
631.570597	2574.935685
631.916556	2576.969791
632.262462	2576.349729
632.608316	2575.243195
632.954117	2576.390058
633.299866	2575.091961
633.645562	2574.600448
633.991206	2576.218659
634.336797	2574.083730
634.682336	2574.686148
635.027823	2576.692527
635.373257	2576.125397
635.718639	2574.040880
636.063968	2575.490212
636.409245	2576.130438
636.754470	2573.675397
637.099642	2574.693710
637.444762	2578.255285
637.789829	2576.742939
638.134845	2575.563309
638.479808	2572.841086
638.824719	2575.437280
639.169577	2575.729667
639.514383	2577.446180
639.859137	2574.580284
640.203839	2576.871488
640.548489	2575.490212
640.893086	2573.587176
641.237632	2573.188925
641.582125	2572.072310
641.926566	2571.926116
642.270955	2577.194122
642.615292	2575.328895
642.959576	2576.816035
643.303809	2573.771178
643.647990	2575.371745
643.992118	2575.979204
644.336195	2573.909810
644.680219	2574.315623
645.024192	2573.183884
645.368112	2575.245716
645.711981	2577.231931
646.055797	2574.224882
646.399562	2576.347208
646.743274	2574.103895
647.086935	2578.401478
647.430544	2573.892166
647.774101	2577.171437
648.117606	2574.915520
648.461059	2577.854513
648.804460	2579.243351
649.147810	2576.402661
649.491108	2575.528021
649.834354	2575.628844
650.177548	2576.785788
650.520690	2576.190932
650.863781	2572.420149
651.206820	2578.784606
651.549807	2575.192784
651.892742	2576.904256
652.235626	2574.207238
652.578458	2573.541806
652.921238	2576.805953
653.263967	2576.374934
653.606644	2577.126066
653.949269	2574.958370
654.291843	2575.840572
654.634365	2576.289235
654.976836	2575.107084
655.319255	2574.751683
655.661622	2575.805284
656.003938	2577.244533
656.346203	2574.532393
656.688416	2573.287228
657.030577	2574.539954
657.372687	2575.666652
657.714746	2576.720253
658.056753	2576.354770
658.398708	2572.185736
658.740612	2573.718246
659.082465	2570.817062
659.424266	2571.328739
659.766016	2570.978379
660.107715	2573.864440
660.449362	2576.087589
660.790958	2575.601117
661.132503	2574.976014
661.473996	2575.916189
661.815438	2575.152455
662.156829	2573.519121
662.498168	2574.847465
662.839456	2573.715726
663.180693	2574.723957
663.521879	2573.998030
663.863013	2576.299317
664.204097	2574.988617
664.545129	2572.180694
664.886110	2574.663463
665.227040	2574.628175
665.567918	2577.229410
665.908746	2574.489543
666.249522	2575.951477
666.590248	2574.292938
666.930922	2571.331260
667.271545	2577.010120
667.612118	2578.083886
667.952639	2572.052145
668.293109	2573.448545
668.633528	2575.114646
668.973896	2572.551219
669.314213	2573.756055
669.654480	2572.601631
669.994695	2575.853175
670.334859	2575.742270
670.674973	2575.596076
671.015035	2574.736559
671.355047	2575.593556
671.695008	2575.361663
672.034918	2574.686148
672.374777	2573.072979
672.714585	2572.856209
673.054342	2577.494071
673.394049	2574.716395
673.733705	2574.449214
674.073310	2575.714543
674.412864	2575.649008
674.752368	2574.260170
675.091820	2578.545151
675.431223	2572.526013
675.770574	2573.773699
676.109875	2572.581466
676.449125	2571.200190
676.788324	2573.559450
677.127473	2575.462486
677.466571	2572.480643
677.805619	2575.959039
678.144616	2575.439800
678.483562	2574.499625
678.822458	2577.282342
679.161303	2576.994996
679.500098	2574.134142
679.838842	2576.165727
680.177535	2577.279822
680.516179	2575.041549
680.854771	2573.443503
681.193314	2575.046590
681.531805	2575.293607
681.870247	2575.419636
682.208638	2573.037691
682.546978	2574.918041
682.885268	2576.571539
683.223508	2576.576581
683.561697	2575.969122
683.899836	2575.565829
684.237925	2572.452917
684.575963	2575.240675
684.913951	2571.351425
685.251889	2576.195973
685.589776	2575.563309
685.927614	2575.059193
686.265401	2571.424521
686.603137	2576.909297
686.940824	2573.859399
687.278460	2576.838721
687.616046	2574.948288
687.953582	2575.646488
688.291068	2576.725295
688.628504	2576.800912
688.965889	2574.270253
689.303224	2574.930644
689.640510	2575.326374
689.977745	2570.990982
690.314930	2575.023905
690.652065	2572.218503
690.989150	2575.124728
691.326185	2575.820407
691.663170	2573.776220
692.000105	2572.457958
692.336990	2572.778071
692.673825	2576.143041
693.010610	2574.552557
693.347345	2571.207752
693.684030	2568.636763
694.020665	2571.865622
694.357251	2571.507700
694.693786	2576.140521
695.030272	2575.666652
695.366707	2574.025757
695.703093	2574.711354
696.039429	2575.885942
696.375716	2576.911817
696.711952	2572.541137
697.048139	2573.420818
697.384276	2573.289748
697.720363	2575.901066
698.056400	2573.506518
698.392388	2574.910479
698.728326	2574.219841
699.064214	2574.860068
699.400053	2576.216138
699.735842	2573.647670
700.071581	2575.749831
700.407270	2574.025757
700.742910	2574.529872
701.078501	2572.500808
701.414042	2574.537434
701.749533	2575.230592
702.084974	2576.017012
702.420366	2573.055335
702.755709	2577.725964
703.091002	2573.602300
703.426246	2574.061045
703.761440	2572.886456
704.096584	2575.845613
704.431679	2574.502146
704.766725	2573.577094
705.101721	2573.183884
705.436668	2575.419636
705.771565	2572.563822
706.106413	2570.814542
706.441212	2572.891497
706.775961	2574.945767
707.110661	2572.019378
707.445311	2575.709502
707.779913	2572.664645
708.114465	2575.570870
708.448967	2573.587176
708.783421	2574.655901
709.117825	2574.688668
709.452180	2575.659091
709.786485	2574.179512
710.120742	2574.809656
710.454949	2574.844944
710.789107	2571.595921
711.123216	2570.706157
711.457275	2571.442165
711.791286	2570.784295
712.125247	2569.118193
712.459159	2572.712536
712.793023	2574.295458
713.126837	2575.263360
713.460602	2574.098853
713.794318	2575.548185
714.127985	2575.391909
714.461602	2574.522310
714.795171	2576.175809
715.128691	2575.437280
715.462162	2575.361662
715.795584	2574.098853
716.128957	2574.804615
716.462281	2573.282187
716.795556	2572.712536
717.128782	2573.728329
717.461960	2573.675397
717.795088	2573.224213
718.128167	2572.967114
718.461198	2575.560788
718.794180	2577.552044
719.127113	2576.266550
719.459997	2573.383010
719.792833	2575.308730
720.125619	2572.251271
720.458357	2573.529203
720.791046	2573.398133
721.123686	2572.034501
721.456278	2575.154975
721.788821	2573.473750
722.121315	2576.868967
722.453761	2574.577763
722.786158	2573.007444
723.118506	2573.912331
723.450805	2575.654049
723.783056	2574.136662
724.115259	2574.295458
724.447412	2572.367217
724.779518	2577.274780
725.111574	2572.896538
725.443582	2572.339491
725.775542	2575.485171
726.107453	2573.118349
726.439315	2572.165571
726.771129	2576.876529
727.102895	2573.478792
727.434612	2572.342011
727.766281	2571.900910
728.097901	2570.116342
728.429473	2569.188770
728.760996	2569.226578
729.092471	2569.718091
729.423897	2570.978379
729.755276	2572.815880
730.086606	2574.489543
730.417887	2573.758576
730.749120	2575.467527
731.080305	2572.899059
731.411442	2575.762434
731.742530	2573.292269
732.073570	2573.819069
732.404562	2574.882753
732.735506	2572.871332
733.066401	2574.250088
733.397249	2573.246898
733.728048	2572.246229
734.058798	2573.020047
734.389501	2573.259501
734.720156	2571.316137
735.050762	2571.860581
735.381320	2573.821590
735.711831	2573.884604
736.042293	2575.180181
736.372707	2570.706157
736.703073	2574.401323
737.033391	2575.611200
737.363661	2572.170612
737.693883	2573.803946
738.024056	2576.982393
738.354182	2571.928637
738.684260	2573.879563
739.014290	2573.345201
739.344272	2571.812690
739.674207	2572.316806
740.004093	2575.275963
740.333931	2571.545509
740.663722	2574.045921
740.993464	2572.767989
741.323159	2575.555747
741.652806	2570.617937
741.982405	2573.561971
742.311956	2574.678586
742.641460	2573.783781
742.970915	2572.881415
743.300323	2573.199007
743.629683	2570.565005
743.958996	2574.862588
744.288260	2572.946950
744.617477	2572.483164
744.946647	2568.571228
745.275768	2573.216652
745.604842	2569.818914
745.933869	2570.161712
746.262847	2568.263718
746.591778	2573.690520
746.920662	2572.107598
747.249498	2573.403174
747.578286	2572.147927
747.907027	2572.510890
748.235720	2574.066086
748.564365	2571.863102
748.892963	2573.519121
749.221514	2572.059707
749.550017	2571.623647
749.878473	2573.670355
750.206881	2572.601631
750.535242	2573.193966
750.863555	2573.400654
751.191821	2571.361507
751.520039	2572.021898
751.848210	2570.370920
752.176334	2569.708008
752.504411	2573.556929
752.832440	2572.851168
753.160421	2571.696744
753.488356	2571.641291
753.816243	2572.909141
754.144082	2571.512742
754.471875	2572.619275
754.799620	2570.912844
755.127318	2572.541137
755.454969	2573.350242
755.782572	2574.171950
756.110129	2573.312433
756.437638	2573.120870
756.765100	2571.333781
757.092515	2573.393092
757.419882	2572.226065
757.747203	2572.261353
758.074477	2572.347053
758.401703	2573.246898
758.728882	2573.138514
759.056014	2570.136507
759.383099	2573.125911
759.710138	2574.635736
760.037129	2573.801425
760.364073	2573.370407
760.690970	2572.450396
761.017820	2571.807649
761.344623	2573.546847
761.671379	2572.228585
761.998088	2570.494428
762.324751	2568.094839
762.651366	2570.348235
762.977935	2568.717422
763.304456	2567.560477
763.630931	2570.668348
763.957359	2569.914696
764.283740	2574.875191
764.610074	2571.444686
764.936362	2575.480130
765.262602	2572.291600
765.588796	2575.255798
765.914943	2572.515931
766.241044	2571.913513
766.567097	2574.381158
766.893104	2573.342680
767.219064	2572.445355
767.544978	2572.326888
767.870845	2572.180694
768.196665	2573.572053
768.522438	2570.993503
768.848165	2572.268915
769.173846	2573.440983
769.499479	2570.582649
769.825066	2573.806467
770.150607	2570.920406
770.476101	2571.225396
770.801548	2574.338308
771.126949	2569.816393
771.452303	2573.579615
771.777611	2573.075499
772.102872	2574.779409
772.428087	2569.932340
772.753256	2572.964594
773.078378	2572.016857
773.403453	2573.529203
773.728482	2572.558781
774.053465	2574.098853
774.378401	2568.283883
774.703291	2572.296641
775.028135	2574.040880
775.352932	2571.167423
775.677683	2571.858061
776.002388	2573.083061
776.327046	2570.897721
776.651658	2572.019378
776.976224	2570.902762
777.300743	2572.127762
777.625216	2571.837896
777.949643	2573.284707
778.274024	2572.556260
778.598359	2569.813873
778.922647	2566.816907
779.246889	2566.746331
779.571086	2569.932340
779.895236	2567.918399
780.219339	2572.813359
780.543397	2572.200859
780.867409	2570.905283
781.191374	2570.756568
781.515294	2570.265056
781.839167	2568.251115
782.162995	2569.992834
782.486776	2572.848647
782.810511	2575.409553
783.134201	2572.677248
783.457844	2569.902093
783.781441	2572.591548
784.104993	2570.733883
784.428498	2573.947619
784.751958	2571.124573
785.075372	2573.224213
785.398739	2572.314285
785.722061	2574.585325
786.045337	2573.705643
786.368568	2571.328739
786.691752	2569.907134
787.014891	2571.989131
787.337983	2571.676579
787.661030	2570.222206
787.984031	2571.742114
788.306987	2571.815211
788.629897	2571.195149
788.952760	2569.700447
789.275579	2568.672051
789.598351	2573.677917
789.921078	2571.290931
790.243759	2574.197156
790.566395	2570.607854
790.888984	2571.860581
791.211529	2570.839747
791.534027	2574.822259
791.856480	2572.727660
792.178888	2571.477453
792.501249	2572.878894
792.823566	2573.647670
793.145836	2572.347053
793.468062	2570.602813
793.790241	2573.998030
794.112375	2571.414439
794.434464	2571.416960
794.756507	2572.664645
795.078505	2573.065417
795.400457	2569.055179
795.722364	2570.575087
796.044226	2570.081054
796.366042	2569.740776
796.687812	2567.310940
797.009538	2570.713719
797.331218	2570.015519
797.652852	2571.900910
797.974442	2572.828483
798.295986	2570.449058
798.617484	2574.683627
798.938938	2572.087433
799.260346	2572.195818
799.581709	2570.910324
799.903026	2571.989131
800.224299	2572.316806
800.545526	2572.059707
800.866708	2570.431414
801.187845	2570.181877
801.508936	2568.515776
801.829983	2573.002402
802.150984	2571.379151
802.471940	2571.535427
802.792851	2571.177505
803.113717	2573.937537
803.434538	2569.012329
803.755314	2572.906621
804.076045	2572.316806
804.396731	2571.353945
804.717372	2567.331104
805.037967	2572.528534
805.358518	2568.447720
805.679024	2573.105746
805.999485	2571.225396
806.319901	2570.345714
806.640272	2568.646846
806.960598	2570.335632
807.280879	2570.050807
807.601115	2571.280848
807.921306	2570.438976
808.241453	2570.149109
808.561554	2570.171795
808.881611	2571.739593
809.201623	2570.849830
809.521590	2568.624160
809.841513	2572.883935
810.161390	2570.280179
810.481223	2571.575756
810.801011	2571.043914
811.120755	2571.792526
811.440453	2570.557443
811.760107	2573.640108
812.079716	2567.817576
812.399281	2568.893862
812.718801	2568.107442
813.038276	2563.222564
813.357707	2569.130796
813.677093	2573.607341
813.996434	2572.639439
814.315731	2572.402505
814.634983	2571.540468
814.954191	2568.147771
815.273354	2571.737073
815.592473	2570.040725
815.911547	2569.919737
816.230577	2569.410580
816.549562	2572.268915
816.868502	2571.169943
817.187399	2573.897207
817.506250	2571.288410
817.825058	2571.674058
818.143821	2572.319326
818.462539	2571.225396
818.781213	2572.480643
819.099843	2569.801270
819.418429	2569.057700
819.736970	2566.796742
820.055466	2569.065261
820.373919	2571.477453
820.692327	2571.316137
821.010691	2571.306054
821.329011	2571.805128
821.647286	2574.441652
821.965517	2568.351938
822.283704	2572.248750
822.601847	2570.804459
822.919945	2568.288924
823.237999	2571.424521
823.556010	2574.113977
823.873976	2570.166753
824.191897	2568.195662
824.509775	2573.461147
824.827609	2572.596590
825.145398	2571.719429
825.463144	2571.898390
825.780845	2569.869325
826.098502	2570.512073
826.416116	2571.351425
826.733685	2571.984089
827.051210	2569.546692
827.368692	2567.772205
827.686129	2570.310426
828.003522	2569.634912
828.320872	2566.385888
828.638177	2568.437638
828.955439	2568.135168
829.272656	2565.755744
829.589830	2568.414953
829.906960	2572.246229
830.224046	2570.461661
830.541088	2570.799418
830.858086	2571.842937
831.175041	2569.791187
831.491952	2573.219172
831.808819	2569.425704
832.125642	2570.045766
832.442421	2574.718915
832.759157	2568.972000
833.075849	2570.451579
833.392497	2570.955694
833.709101	2572.029460
834.025662	2570.214644
834.342179	2571.260684
834.658653	2571.699264
834.975083	2572.810839
835.291469	2572.536096
835.607811	2571.253122
835.924110	2568.203224
836.240366	2570.323029
836.556578	2569.584500
836.872746	2570.260015
837.188871	2568.949315
837.504952	2572.364697
837.820990	2568.573749
838.136984	2569.420663
838.452935	2568.977041
838.768842	2569.246743
839.084706	2568.989644
839.400526	2570.582649
839.716303	2567.419325
840.032037	2573.325036
840.347727	2569.639953
840.663373	2568.636763
840.978977	2570.544840
841.294537	2570.900241
841.610054	2569.055179
841.925527	2569.642473
842.240957	2569.632391
842.556344	2570.743966
842.871687	2569.188770
843.186987	2570.993503
843.502244	2568.709860
843.817458	2571.825293
844.132629	2568.682134
844.447756	2569.367731
844.762840	2565.390260
845.077881	2568.051989
845.392879	2569.319840
845.707833	2566.912689
846.022745	2566.070816
846.337613	2569.312278
846.652438	2571.137176
846.967221	2569.496280
847.281960	2568.654407
847.596656	2571.046435
847.911309	2570.401167
848.225919	2570.978379
848.540485	2571.850499
848.855009	2572.097515
849.169490	2569.982751
849.483928	2570.181877
849.798323	2571.497618
850.112675	2570.171795
850.426984	2570.426373
850.741251	2568.997206
851.055474	2569.014850
851.369654	2570.144068
851.683792	2570.209603
851.997887	2570.474264
852.311938	2567.245405
852.625947	2569.733214
852.939914	2568.467885
853.253837	2572.160530
853.567718	2571.089285
853.881555	2569.821434
854.195350	2569.695406
854.509103	2567.827658
854.822812	2567.749520
855.136479	2570.282700
855.450103	2571.500139
855.763685	2570.849830
856.077224	2569.690364
856.390720	2569.521486
856.704173	2572.173133
857.017584	2569.760941
857.330953	2570.960735
857.644278	2567.938563
857.957561	2571.666497
858.270802	2567.812535
858.584000	2570.638101
858.897155	2569.584500
859.210268	2569.944943
859.523339	2571.968966
859.836367	2568.790518
860.149352	2570.741445
860.462295	2570.993503
860.775195	2567.043759
861.088054	2567.812535
861.400869	2568.079716
861.713642	2562.801628
862.026373	2566.968141
862.339062	2573.183884
862.651708	2572.531055
862.964312	2567.265569
863.276873	2569.236661
863.589392	2569.271949
863.901869	2568.074675
864.214303	2568.218348
864.526696	2569.788667
864.839045	2570.988462
865.151353	2569.161043
865.463619	2569.231619
865.775842	2567.641135
866.088023	2568.104922
866.400162	2570.050807
866.712258	2569.246743
867.024313	2570.519634
867.336325	2570.532237
867.648296	2570.320509
867.960224	2568.639284
868.272110	2569.249263
868.583954	2570.234809
868.895755	2568.752710
869.207515	2566.529561
869.519233	2570.398647
869.830909	2568.422514
870.142542	2570.232288
870.454134	2569.952504
870.765684	2570.809501
871.077191	2568.583831
871.388657	2569.438307
871.700081	2567.167267
872.011463	2569.934860
872.322803	2568.344376
872.634101	2567.479818
872.945357	2570.018039
873.256571	2569.251784
873.567744	2569.115673
873.878874	2568.477967
874.189963	2569.871846
874.501010	2568.276321
874.812015	2568.215827
875.122979	2570.174315
875.433900	2568.477967
875.744780	2566.751372
876.055618	2569.024932
876.366415	2570.139027
876.677169	2567.779767
876.987882	2567.094170
877.298554	2564.185424
877.609183	2567.215158
877.919771	2566.153995
878.230317	2564.334138
878.540822	2571.515262
878.851285	2568.175498
879.161707	2570.691033
879.472087	2569.158523
879.782425	2570.779254
880.092722	2568.266238
880.402977	2566.630384
880.713191	2569.559294
881.023363	2570.640622
881.333494	2567.799932
881.643583	2569.420663
881.953631	2570.771692
882.263637	2567.747000
882.573602	2570.295303
882.883526	2570.489387
883.193408	2568.757751
883.503248	2569.476115
883.813048	2570.086095
884.122806	2569.340004
884.432522	2573.115828
884.742197	2568.581311
885.051831	2569.150961
885.361424	2570.403688
885.670975	2569.092988
885.980485	2566.960580
886.289954	2569.644994
886.599382	2567.593244
886.908768	2569.854202
887.218113	2569.740776
887.527417	2570.504511
887.836680	2568.367062
888.145901	2566.637946
888.455082	2569.211455
888.764221	2570.595252
889.073319	2568.777916
889.382376	2568.041907
889.691392	2568.220868
890.000366	2571.227916
890.309300	2569.085426
890.618193	2569.844120
890.927044	2569.977710
891.235855	2568.745148
891.544625	2566.983265
891.853353	2567.003429
892.162041	2567.459654
892.470687	2571.842937
892.779293	2571.041394
893.087858	2566.564849
893.396381	2566.070816
893.704864	2565.947308
894.013306	2565.266752
894.321707	2568.707339
894.630068	2567.247925
894.938387	2569.075344
895.246665	2569.796229
895.554903	2569.849161
895.863100	2569.791188
896.171256	2567.031156
896.479371	2567.000909
896.787446	2567.822617
897.095480	2566.617781
897.403473	2568.961918
897.711425	2568.165415
898.019336	2569.776064
898.327207	2566.524520
898.635038	2568.271280
898.942827	2567.066444
899.250576	2566.169118
899.558284	2567.736917
899.865952	2568.162895
900.173579	2569.279510
900.481165	2568.546023
900.788711	2567.905796
901.096216	2566.244736
901.403681	2568.336815
901.711105	2568.858574
902.018489	2566.995868
902.325832	2571.134655
902.633135	2567.580642
902.940397	2568.031825
903.247619	2566.204407
903.554800	2566.927812
903.861941	2570.091136
904.169041	2567.988975
904.476101	2565.483522
904.783121	2567.013512
905.090100	2568.339335
905.397039	2569.188770
905.703938	2567.542833
906.010796	2568.344376
906.317614	2567.968810
906.624391	2566.983265
906.931129	2569.213975
907.237826	2568.747669
907.544483	2569.087947
907.851099	2567.933522
908.157675	2568.813204
908.464211	2569.017370
908.770707	2567.363872
909.077163	2565.750703
909.383578	2564.039231
909.689954	2565.798594
909.996289	2563.250290
910.302584	2568.228430
910.608839	2565.491083
910.915054	2567.671382
911.221229	2565.939746
911.527363	2567.300857
911.833458	2568.172977
912.139513	2568.992165
912.445527	2570.081054
912.751502	2567.131979
913.057436	2566.345559
913.363331	2569.914696
913.669186	2566.448902
913.975000	2568.732545
914.280775	2566.655590
914.586510	2568.029304
914.892205	2567.101732
915.197859	2568.170457
915.503475	2565.352452
915.809050	2567.527709
916.114585	2569.634912
916.420081	2568.576269
916.725536	2567.605847
917.030952	2567.661300
917.336328	2565.770867
917.641665	2567.908317
917.946961	2567.585683
918.252218	2562.146278
918.557435	2567.633574
918.862612	2567.749520
919.167750	2568.137689
919.472848	2568.843451
919.777906	2566.693398
920.082925	2568.614078
920.387904	2568.319171
920.692843	2568.026784
920.997743	2564.518141
921.302603	2567.971331
921.607423	2568.460323
921.912204	2570.386044
922.216946	2565.780950
922.521647	2569.629871
922.826310	2568.556105
923.130932	2568.188101
923.435516	2567.467216
923.740059	2567.825137
924.044564	2566.065775
924.349028	2565.755744
924.653454	2566.098542
924.957840	2565.155847
925.262186	2566.010322
925.566493	2566.327915
925.870761	2564.684499
926.174989	2567.867987
926.479178	2565.370096
926.783328	2568.949315
927.087438	2568.024263
927.391509	2567.552915
927.695541	2569.392936
927.999533	2567.162226
928.303486	2568.523337
928.607400	2567.469736
928.911275	2565.768347
929.215110	2566.118707
929.518906	2569.213975
929.822663	2566.302709
930.126381	2566.930333
930.430060	2568.518296
930.733699	2567.308419
931.037299	2568.399829
931.340861	2566.474108
931.644383	2567.200034
931.947866	2570.123904
932.251309	2563.862791
932.554714	2566.680796
932.858080	2568.435117
933.161407	2567.444530
933.464694	2569.108111
933.767943	2566.300188
934.071153	2565.922102
934.374323	2566.814386
934.677455	2567.812535
934.980548	2567.749520
935.283602	2564.331618
935.586617	2566.378326
935.889593	2567.147102
936.192530	2566.970662
936.495428	2566.648028
936.798287	2565.498645
937.101108	2569.334963
937.403890	2568.031825
937.706632	2567.830179
938.009336	2567.285734
938.312002	2567.830179
938.614628	2565.927143
938.917216	2568.488049
939.219765	2566.370765
939.522275	2568.820765
939.824747	2567.865467
940.127179	2563.071329
940.429573	2563.469581
940.731929	2563.769529
941.034246	2564.495455
941.336524	2564.500497
941.638763	2566.847154
941.940964	2568.127607
942.243126	2565.168449
942.545250	2565.032338
942.847335	2567.880590
943.149381	2566.408573
943.451389	2569.229099
943.753359	2567.968810
944.055290	2566.055692
944.357182	2568.314129
944.659036	2565.813717
944.960851	2567.696588
945.262628	2568.782957
945.564367	2566.448902
945.866067	2565.334807
946.167729	2566.229612
946.469352	2565.571742
946.770937	2564.099725
947.072484	2567.557956
947.373992	2567.472257
947.675462	2566.953018
947.976893	2566.101063
948.278286	2565.370096
948.579641	2568.001578
948.880958	2567.542833
949.182236	2566.456464
949.483476	2568.372103
949.784678	2566.128789
950.085841	2568.006619
950.386967	2568.908986
950.688054	2565.322205
950.989103	2567.981413
951.290114	2567.341187
951.591087	2567.210117
951.892021	2566.900086
952.192917	2567.807493
952.493776	2565.985116
952.794596	2566.942936
953.095378	2567.943605
953.396122	2565.780950
953.696828	2566.912689
953.997496	2568.372103
954.298126	2565.488563
954.598718	2570.625498
954.899272	2568.165415
955.199788	2567.802452
955.500266	2568.896383
955.800706	2565.778429
956.101108	2562.063099
956.401472	2562.068140
956.701798	2564.124931
957.002087	2565.521330
957.302337	2567.131979
957.602550	2566.401012
957.902724	2566.663152
958.202861	2568.787998
958.502960	2566.242215
958.803022	2569.438307
959.103045	2566.874880
959.403031	2564.588717
959.702979	2566.315312
960.002889	2567.280693
960.302762	2567.731876
960.602596	2566.461505
960.902393	2565.715415
961.202153	2566.413614
961.501875	2567.409242
961.801559	2566.280024
962.101205	2565.609550
962.400814	2569.423183
962.700385	2565.939746
962.999918	2567.089129
963.299414	2569.329922
963.598873	2568.402350
963.898293	2563.595609
964.197677	2568.243553
964.497022	2565.314643
964.796331	2567.502504
965.095601	2567.134499
965.394835	2569.085426
965.694030	2566.161557
965.993189	2568.770354
966.292309	2568.399829
966.591393	2568.273800
966.890439	2567.431927
967.189447	2568.039387
967.488419	2565.899417
967.787353	2568.031825
968.086249	2565.231464
968.385108	2565.337328
968.683930	2566.781619
968.982714	2568.162895
969.281462	2566.806824
969.580172	2566.887483
969.878844	2568.425035
970.177480	2566.302709
970.476078	2565.039900
970.774639	2566.867318
971.073162	2564.820610
971.371649	2563.951011
971.670098	2566.128789
971.968510	2562.373130
972.266885	2561.914385
972.565223	2566.433779
972.863524	2569.047617
973.161788	2568.563667
973.460014	2567.729356
973.758204	2565.748182
974.056356	2565.670044
974.354471	2566.219530
974.652550	2567.978893
974.950591	2564.714746
975.248595	2566.320353
975.546563	2567.517627
975.844493	2563.847667
976.142386	2567.711712
976.440243	2565.735579
976.738062	2564.591237
977.035845	2564.503017
977.333590	2566.935374
977.631299	2565.680127
977.928971	2565.967472
978.226606	2567.971331
978.524204	2566.383368
978.821765	2565.861608
979.119290	2565.571742
979.416777	2567.182390
979.714228	2566.718604
980.011642	2565.871690
980.309020	2566.776577
980.606360	2561.959755
980.903664	2566.832030
981.200931	2567.079047
981.498162	2567.043759
981.795356	2566.582493
982.092513	2566.595096
982.389633	2566.471588
982.686717	2565.780950
982.983764	2565.349931
983.280775	2566.892524
983.577749	2566.040569
983.874686	2567.016032
984.171587	2564.883624
984.468451	2568.051989
984.765279	2566.262380
985.062070	2566.494273
985.358824	2565.367575
985.655543	2566.950497
985.952224	2566.695919
986.248869	2564.087122
986.545478	2563.288099
986.842050	2562.103428
987.138586	2564.167780
987.435086	2561.342214
987.731549	2563.169632
988.027975	2566.378326
988.324366	2565.183573
988.620719	2561.949673
988.917037	2564.387071
989.213318	2567.898234
989.509563	2562.090825
989.805772	2566.106104
990.101944	2567.452092
990.398080	2566.595096
990.694180	2564.321536
990.990244	2566.567370
991.286271	2565.783470
991.582262	2566.247256
991.878217	2564.462688
992.174136	2566.005281
992.470019	2565.544015
992.765865	2568.412432
993.061676	2563.252811
993.357450	2565.901937
993.653188	2565.352452
993.948890	2566.920250
994.244556	2563.126782
994.540186	2566.045610
994.835780	2567.187432
995.131337	2566.829510
995.426859	2566.375806
995.722345	2564.780281
996.017795	2565.665003
996.313208	2564.767678
996.608586	2564.467729
996.903928	2567.003429
997.199234	2565.851526
997.494504	2568.349418
997.789738	2566.537123
998.084936	2565.357493
998.380099	2566.080898
998.675225	2564.863460
998.970316	2566.574931
999.265371	2566.806824
999.560390	2566.370765
999.855373	2566.456464
1000.150320	2563.961093
1000.445232	2568.661969
1000.740108	2565.349931
1001.034948	2564.508058
1001.329752	2565.619633
1001.624521	2568.389747
1001.919254	2560.379353
1002.213951	2565.057544
1002.508613	2563.320867
1002.803239	2562.781463
1003.097829	2557.740309
1003.392384	2568.268759
1003.686903	2566.819427
1003.981386	2567.736917
1004.275834	2564.230795
1004.570246	2568.377144
1004.864623	2566.259859
1005.158964	2562.685681
1005.453270	2565.647359
1005.747540	2565.528892
1006.041775	2562.726010
1006.335974	2564.190466
1006.630138	2566.504355
1006.924266	2566.348079
1007.218359	2565.027297
1007.512416	2565.239026
1007.806438	2565.339849
1008.100425	2567.913358
1008.394376	2562.126113
1008.688292	2564.356824
1008.982172	2565.007133
1009.276017	2564.114848
1009.569827	2564.346741
1009.863602	2564.548387
1010.157341	2562.776422
1010.451045	2565.841443
1010.744714	2565.165929
1011.038347	2563.693912
1011.331945	2563.668706
1011.625508	2566.217009
1011.919036	2564.886145
1012.212528	2564.651731
1012.505986	2565.760785
1012.799408	2565.740620
1013.092795	2566.695919
1013.386147	2569.226578
1013.679464	2565.231464
1013.972745	2563.522513
1014.265992	2564.455126
1014.559204	2566.217009
1014.852380	2565.652400
1015.145521	2563.945970
1015.438628	2566.474108
1015.731699	2566.438820
1016.024736	2564.777760
1016.317737	2564.132492
1016.610703	2565.244067
1016.903635	2561.574107
1017.196531	2557.102603
1017.489393	2562.962945
1017.782219	2560.477656
1018.075011	2563.726679
1018.367768	2564.467729
1018.660490	2568.241033
1018.953177	2568.241033
1019.245829	2568.241033
