Dividing Wavelength (nm)	Counts (n)	Blue Motor Position (mm): 0.000000	Red Motor Position (mm): 42.500000	
326.493990	2138.943933
326.888308	2138.943933
327.282561	2138.943933
327.676750	2115.210181
328.070874	2116.377208
328.464933	2120.208485
328.858929	2128.170987
329.252859	2141.041053
329.646726	2155.340286
330.040528	2169.700013
330.434265	2190.502334
330.827938	2207.244006
331.221547	2225.510627
331.615091	2247.669018
332.008571	2265.645773
332.401986	2286.954730
332.795338	2304.381999
333.188625	2326.784887
333.581847	2346.248782
333.975006	2364.759899
334.368100	2383.258413
334.761129	2401.900600
335.154095	2417.964237
335.546996	2439.285797
335.939833	2462.961576
336.332606	2476.295428
336.725315	2487.890082
337.117960	2495.754282
337.510540	2502.096053
337.903056	2511.323885
338.295508	2518.520132
338.687896	2526.691843
339.080220	2534.966897
339.472480	2542.727753
339.864676	2542.052238
340.256807	2549.019113
340.648875	2548.111705
341.040879	2552.374001
341.432818	2552.104299
341.824694	2554.806358
342.216506	2551.827036
342.608253	2553.808209
342.999937	2551.910215
343.391557	2552.983981
343.783113	2547.325285
344.174605	2549.220759
344.566033	2547.721016
344.957397	2543.705737
345.348697	2540.834800
345.739934	2544.829914
346.131106	2538.326826
346.522215	2541.086858
346.913260	2537.318595
347.304241	2537.293389
347.695159	2533.845240
348.086012	2532.579910
348.476802	2530.442461
348.867528	2528.826771
349.258191	2528.516740
349.648789	2527.490866
350.039324	2524.992974
350.429796	2523.480628
350.820203	2523.629342
351.210548	2522.835360
351.600828	2521.048271
351.991045	2524.088087
352.381198	2518.867972
352.771288	2523.906605
353.161314	2521.645648
353.551276	2523.450381
353.941175	2522.726975
354.331010	2522.782428
354.720782	2522.043899
355.110490	2524.241842
355.500135	2522.583302
355.889717	2522.336286
356.279235	2520.574403
356.668689	2526.374250
357.058080	2523.253776
357.447408	2517.514422
357.836672	2522.306039
358.225873	2523.568848
358.615010	2522.323683
359.004084	2525.250073
359.393095	2525.008097
359.782043	2526.374250
360.170927	2526.487676
360.559748	2528.819210
360.948505	2527.195958
361.337199	2529.167049
361.725830	2530.258459
362.114398	2530.139992
362.502903	2531.168387
362.891344	2531.619571
363.279722	2527.896678
363.668037	2533.595703
364.056289	2533.938501
364.444478	2534.011598
364.832603	2533.726773
365.220665	2534.117462
365.608665	2534.636701
365.996601	2536.557381
366.384474	2533.210055
366.772284	2535.072761
367.160031	2537.726928
367.547715	2536.824562
367.935336	2534.014119
368.322893	2537.779861
368.710388	2535.113090
369.097820	2538.654501
369.485189	2534.697195
369.872495	2537.290869
370.259738	2535.344983
370.646918	2537.520241
371.034035	2538.457896
371.421090	2540.933102
371.808081	2537.066537
372.195010	2539.604758
372.581875	2539.571991
372.968678	2543.967877
373.355418	2542.047197
373.742096	2543.990562
374.128710	2544.663556
374.515262	2543.839327
374.901751	2545.812939
375.288177	2546.223793
375.674540	2549.689587
376.060841	2549.114895
376.447079	2553.777962
376.833254	2554.864331
377.219367	2552.414330
377.605417	2553.765359
377.991404	2560.293654
378.377329	2558.849363
378.763191	2563.635939
379.148991	2569.909655
379.534727	2573.496436
379.920402	2576.092630
380.306013	2580.294432
380.691563	2587.868765
381.077049	2586.545462
381.462474	2592.680547
381.847835	2598.939139
382.233134	2603.642536
382.618371	2608.746704
383.003545	2614.899432
383.388657	2620.963940
383.773706	2627.976185
384.158693	2633.153450
384.543618	2641.050418
384.928480	2645.907569
385.313280	2655.475679
385.698017	2662.387101
386.082692	2669.263235
386.467305	2677.911335
386.851856	2685.969619
387.236344	2694.874817
387.620770	2702.313040
388.005133	2711.926520
388.389435	2721.794579
388.773674	2730.682133
389.157851	2737.674213
389.541965	2747.764083
389.926018	2748.815163
390.310008	2763.540374
390.693936	2773.418515
391.077802	2778.563012
391.461606	2790.157666
391.845348	2798.067237
392.229027	2809.694658
392.612645	2825.728048
392.996200	2831.094356
393.379694	2845.756552
393.763125	2861.263141
394.146494	2871.544574
394.529801	2880.757283
394.913047	2896.699932
395.296230	2899.560787
395.679351	2904.513721
396.062410	2923.987698
396.445408	2917.446801
396.828343	2930.054727
397.211217	2939.433793
397.594028	2931.993050
397.976778	2944.873198
398.359466	2962.429017
398.742092	2958.310394
399.124656	2974.558033
399.507158	2985.376349
399.889598	2992.338182
400.271977	3008.976511
400.654294	3014.874661
401.036549	3025.902185
401.418742	3031.223123
401.800874	3053.862944
402.182944	3060.580282
402.564952	3087.505085
402.946898	3080.810432
403.328783	3090.678491
403.710606	3104.007302
404.092367	3126.788276
404.474067	3155.101917
404.855705	3144.838127
405.237282	3144.013899
405.618797	3174.878363
406.000250	3201.462888
406.381642	3231.578741
406.762972	3231.644276
407.144240	3226.386352
407.525447	3245.134404
407.906593	3245.540217
408.287677	3265.407404
408.668700	3286.834828
409.049661	3285.100671
409.430560	3298.885707
409.811399	3301.587765
410.192176	3321.863286
410.572891	3331.275120
410.953545	3371.143085
411.334138	3335.098835
411.714669	3391.433729
412.095139	3334.987930
412.475547	3386.246382
412.855894	3375.286914
413.236180	3408.392171
413.616405	3385.109602
413.996568	3413.269487
414.376670	3415.807708
414.756711	3409.503745
415.136691	3436.249587
415.516609	3458.836477
415.896466	3463.242445
416.276262	3491.425016
416.655997	3522.115561
417.035670	3530.461191
417.415283	3596.830502
417.794834	3614.996300
418.174324	3601.291923
418.553753	3599.709001
418.933121	3643.282214
419.312428	3633.817447
419.691674	3629.174545
420.070859	3664.598733
420.449983	3648.141886
420.829045	3699.213816
421.208047	3680.586752
421.586988	3729.143146
421.965867	3758.197836
422.344686	3766.858539
422.723444	3804.755413
423.102141	3708.746638
423.480777	3811.114828
423.859352	3776.572842
424.237866	3878.704098
424.616319	3862.466542
424.994712	3920.275974
425.373044	3909.440013
425.751314	3973.830672
426.129524	3909.553439
426.507673	4011.364582
426.885762	3987.098988
427.263789	4009.602699
427.641756	4012.113194
428.019662	4043.983368
428.397508	4047.323133
428.775292	4084.753700
429.153016	4092.265019
429.530679	4101.868417
429.908282	4109.921661
430.285824	4087.959874
430.663305	4162.221111
431.040726	4120.775265
431.418086	4109.329325
431.795385	4180.956560
432.172624	4220.713619
432.549802	4185.670038
432.926920	4203.891289
433.303977	4196.700083
433.680974	4240.114500
434.057910	4258.040843
434.434786	4268.783542
434.811601	4259.480093
435.188355	4366.365157
435.565050	4341.424048
435.941683	4331.926514
436.318257	4422.095113
436.694770	4430.113068
437.071222	4485.999299
437.447614	4419.914814
437.823946	4424.222480
438.200218	4439.514820
438.576429	4422.821039
438.952580	4449.534113
439.328670	4455.205411
439.704700	4497.294005
440.080670	4460.319662
440.456580	4522.648488
440.832429	4555.174012
441.208218	4460.319662
441.583947	4509.652393
441.959616	4529.401113
442.335224	4550.742838
442.710773	4574.358123
443.086261	4626.143376
443.461689	4581.088064
443.837057	4589.040484
444.212365	4667.569058
444.587612	4672.892517
444.962800	4637.019666
445.337927	4676.809493
445.712995	4562.397986
446.088002	4757.379734
446.462949	4777.718270
446.837837	4797.335920
447.212664	4787.508190
447.587431	5005.923743
447.962139	5306.333662
448.336786	5645.232791
448.711374	5633.144104
449.085901	5277.299136
449.460369	5215.507193
449.834776	5149.684847
450.209124	5382.447523
450.583412	5390.863730
450.957640	5517.147154
451.331808	5382.276124
451.705917	5229.695521
452.079965	5218.100867
452.453954	5260.779275
452.827883	5221.486002
453.201752	5228.470520
453.575562	5260.050828
453.949311	5393.628802
454.323001	5401.281274
454.696632	5394.800871
455.070202	5545.566659
455.443713	5575.770732
455.817164	5668.427140
456.190556	5738.620166
456.563888	5710.223346
456.937160	5791.932888
457.310373	5630.810050
457.683526	5697.363363
458.056619	5686.812228
458.429653	5665.359598
458.802628	5711.833995
459.175542	5739.804837
459.548398	5885.284975
459.921194	6071.437143
460.293930	6125.299351
460.666607	6376.515171
461.039224	6585.997798
461.411782	6720.538633
461.784280	6633.424974
462.156719	6647.368805
462.529099	6602.686538
462.901419	6458.625485
463.273680	6328.319219
463.645882	6315.849925
464.018024	6317.768084
464.390106	6380.843001
464.762130	6644.538197
465.134094	7024.855446
465.505999	7652.577403
465.877845	8360.960341
466.249631	8719.570382
466.621358	8646.614803
466.993026	8453.548693
467.364634	8238.606496
467.736184	7959.094680
468.107674	7805.886453
468.479105	7717.026034
468.850477	7650.470200
469.221790	7481.586505
469.593043	7263.738083
469.964238	7154.473594
470.335373	7131.473330
470.706449	7288.192720
471.077467	7466.213507
471.448425	8117.417158
471.819324	8701.631436
472.190164	8748.773786
472.560945	8271.207638
472.931667	7802.259343
473.302330	7608.951257
473.672934	7485.465673
474.043479	7562.280255
474.413965	7460.675799
474.784393	7413.054539
475.154761	7566.290493
475.525070	7580.128460
475.895321	7535.786471
476.265513	7629.947663
476.635645	7786.634286
477.005719	7780.521887
477.375734	7864.061368
477.745691	7975.657391
478.115588	8178.891508
478.485427	8409.612517
478.855207	8885.038695
479.224928	9311.706833
479.594591	9698.580103
479.964194	9705.224343
480.333739	9790.510584
480.703226	9797.487541
481.072653	9892.593950
481.442022	10008.916054
481.811333	10157.816615
482.180584	10003.791721
482.549777	9945.389954
482.918912	9880.596003
483.287988	9870.722904
483.657005	9771.049210
484.025964	9685.427732
484.394864	9757.145708
484.763706	9714.096774
485.132489	9624.044122
485.501213	9623.640830
485.869879	9682.453452
486.238487	9616.048853
486.607036	9687.769348
486.975527	9637.861925
487.343959	9687.310603
487.712333	9735.178880
488.080648	9780.781157
488.448905	9875.932936
488.817104	9887.885512
489.185244	10052.101098
489.553326	10258.206153
489.921350	10719.960722
490.289315	11345.363747
490.657222	11636.523149
491.025070	11824.235554
491.392861	11740.053326
491.760593	11581.751013
492.128267	11335.160452
492.495883	11090.165416
492.863440	10862.075890
493.230939	10630.066866
493.598380	10451.794022
493.965763	10432.214181
494.333088	10297.711155
494.700354	10231.677081
495.067563	10196.053767
495.434713	10207.207320
495.801805	10254.621893
496.168839	10217.468589
496.535815	10179.705305
496.902733	10223.243230
497.269593	10183.564308
497.636395	10188.885246
498.003139	10295.344333
498.369825	10219.941275
498.736453	10315.445934
499.103023	10256.711451
499.469535	10262.375187
499.835989	10311.039966
500.202385	10289.012644
500.568723	10303.395056
500.935003	10367.768070
501.301226	10336.888482
501.667390	10503.576755
502.033497	10606.106262
502.399546	10539.169821
502.765537	10441.424369
503.131470	10544.120234
503.497345	10629.978646
503.863163	10410.519575
504.228923	10543.043948
504.594625	10655.302883
504.960269	10563.054808
505.325856	10715.544671
505.691385	10599.802299
506.056856	10657.636937
506.422270	10756.930023
506.787625	10699.574296
507.152924	10756.362894
507.518164	10815.682151
507.883347	10681.373210
508.248472	10759.266598
508.613540	10862.617814
508.978550	10937.519278
509.343503	10923.560323
509.708398	10971.887344
510.073236	11100.063722
510.438016	11109.256266
510.802738	11016.594817
511.167403	11145.285392
511.532010	11213.177132
511.896561	11308.969137
512.261053	11495.002837
512.625488	11422.929461
512.989866	11413.016032
513.354186	11382.564942
513.718449	11394.966181
514.082655	11533.807119
514.446803	11482.374747
514.810894	11600.856986
515.174927	11591.170409
515.538904	11583.495252
515.902822	11738.490568
516.266684	11605.951072
516.630488	11710.406300
516.994235	11704.858510
517.357925	11819.935450
517.721558	11869.590815
518.085133	11940.691249
518.448651	11972.952113
518.812112	11920.783733
519.175516	11939.158738
519.538863	12023.593024
519.902152	12036.276567
520.265385	12136.333389
520.628560	12160.140238
520.991678	12102.814757
521.354739	12161.612255
521.717743	12232.747977
522.080690	12206.029861
522.443580	12334.231445
522.806413	12353.478570
523.169189	12338.430726
523.531908	12406.481262
523.894569	12363.308820
524.257174	12373.502033
524.619722	12486.812048
524.982213	12458.034621
525.344647	12449.701594
525.707025	12458.304323
526.069345	12555.228068
526.431608	12547.631049
526.793815	12630.101805
527.155964	12522.735310
527.518057	12548.266234
527.880093	12505.882733
528.242072	12624.027215
528.603995	12541.773228
528.965860	12554.963407
529.327669	12593.868512
529.689421	12539.683670
530.051117	12550.267572
530.412755	12582.049527
530.774337	12588.996237
531.135862	12562.520097
531.497331	12614.867438
531.858743	12572.032754
532.220098	12658.649859
532.581396	12572.662898
532.942638	12501.363339
533.303824	12559.276114
533.664953	12555.497769
534.026025	12501.738905
534.387040	12616.425155
534.747999	12587.942635
535.108902	12634.777475
535.469748	12506.396931
535.830537	12526.964838
536.191270	12575.662385
536.551947	12506.729647
536.912567	12567.672156
537.273131	12600.295983
537.633638	12482.332983
537.994089	12528.273018
538.354483	12450.488014
538.714821	12577.749422
539.075103	12649.033858
539.435328	12593.518152
539.795497	12575.460738
540.155609	12572.582240
540.515665	12674.131243
540.875665	12537.205942
541.235609	12629.554840
541.595496	12584.494486
541.955328	12761.754058
542.315102	12606.103392
542.674821	12545.672560
543.034483	12557.965414
543.394090	12556.667317
543.753640	12533.639326
544.113134	12779.473714
544.472571	12538.831715
544.831953	12813.569558
545.191278	12632.493833
545.550548	12571.964698
545.909761	12682.391173
546.268918	12731.444121
546.628019	12789.157771
546.987064	12678.769104
547.346053	12534.453473
547.704986	12722.128068
548.063863	12616.110082
548.422684	12670.723423
548.781449	12621.105866
549.140158	12715.672871
549.498811	12664.099347
549.857408	12533.256198
550.215949	12735.023340
550.574434	12702.749873
550.932864	12648.219712
551.291237	12843.082993
551.649555	12733.581570
552.007817	12791.786732
552.366022	12710.639279
552.724173	12753.413469
553.082267	12843.635000
553.440305	12938.522118
553.798288	12756.677616
554.156215	12829.557577
554.514086	12880.989950
554.871902	12813.924959
555.229661	12842.820853
555.587365	12791.118779
555.945014	12802.763845
556.302606	12792.913430
556.660143	12852.076412
557.017625	12885.320301
557.375050	12842.278929
557.732421	12939.787448
558.089735	12936.435080
558.446994	12911.251996
558.804197	13034.316644
559.161345	13021.928008
559.518437	12843.130884
559.875474	12935.197477
560.232455	12967.412971
560.589381	13012.322090
560.946251	12951.137605
561.303065	13121.364768
561.659825	13073.740987
562.016528	12985.984581
562.373177	12923.408739
562.729770	13048.436916
563.086307	12935.540275
563.442789	13038.513404
563.799216	13083.457812
564.155587	13025.413966
564.511904	13045.049260
564.868164	13060.815469
565.224370	13115.043161
565.580520	13062.385788
565.936615	13124.142444
566.292654	13059.915623
566.648638	13140.571564
567.004567	13133.728198
567.360441	13136.662149
567.716260	13104.333230
568.072023	13175.403417
568.427732	13169.167509
568.783385	13066.645563
569.138982	13175.877285
569.494525	13183.184438
569.850013	13129.475984
570.205445	13125.415335
570.560823	13134.244916
570.916145	13090.240684
571.271412	13101.500101
571.626625	13057.460581
571.981782	13049.288871
572.336884	12999.676355
572.691931	13084.564345
573.046923	12984.169766
573.401860	12953.083491
573.756743	12945.713324
574.111570	12972.222231
574.466342	12950.998974
574.821059	13012.173376
575.175722	12890.573183
575.530330	12897.159451
575.884882	12832.136128
576.239380	12833.961025
576.593823	12811.169969
576.948211	12815.717090
577.302544	12687.543233
577.656823	12702.787682
578.011047	12756.014705
578.365216	12698.525386
578.719330	12644.005307
579.073389	12612.941717
579.427394	12617.546811
579.781344	12605.654729
580.135239	12543.940924
580.489080	12556.992471
580.842866	12449.938528
581.196597	12535.113864
581.550273	12531.882484
581.903895	12489.292296
582.257463	12601.475613
582.610975	12441.751694
582.964434	12524.880321
583.317837	12440.418309
583.671186	12395.584808
584.024481	12443.952158
584.377721	12349.428003
584.730906	12403.486816
585.084037	12420.341914
585.437113	12331.990652
585.790135	12362.406453
586.143103	12273.442691
586.496016	12284.568518
586.848874	12297.985548
587.201679	12295.089406
587.554428	12165.370435
587.907124	12217.460678
588.259765	12152.618836
588.612352	12220.840771
588.964884	12088.313878
589.317362	12136.386321
589.669786	12135.768779
590.022155	12082.531674
590.374470	12179.876355
590.726731	12070.803430
591.078937	11957.589197
591.431090	11976.279275
591.783188	11911.639079
592.135232	11830.229486
592.487222	11891.550081
592.839157	11904.909139
593.191038	11838.156700
593.542866	11796.935185
593.894639	11645.181331
594.246358	11703.804909
594.598022	11710.428985
594.949633	11620.303237
595.301190	11603.853952
595.652692	11565.311810
596.004141	11647.038996
596.355535	11438.652820
596.706876	11411.828840
597.058162	11382.607792
597.409395	11471.914353
597.760573	11501.463076
598.111698	11400.513970
598.462768	11390.295552
598.813785	11398.893239
599.164748	11274.182655
599.515657	11345.903151
599.866511	11214.041690
600.217312	11349.948677
600.568060	11118.859664
600.918753	11278.686926
601.269392	11268.987746
601.619978	11175.867552
601.970510	11225.757331
602.320988	11262.698907
602.671412	11330.850265
603.021783	11250.579973
603.372100	11184.356855
603.722363	11200.614576
604.072572	11205.605319
604.422728	11208.607326
604.772830	11153.328553
605.122878	11159.244347
605.472872	11130.608073
605.822813	11188.109994
606.172701	11145.877728
606.522534	11182.345435
606.872314	11240.366595
607.222041	11164.159472
607.571714	11244.028993
607.921333	11106.420617
608.270899	11158.659573
608.620411	11215.158305
608.969870	11164.729123
609.319276	11141.844805
609.668627	11157.759727
610.017926	11237.142777
610.367171	11267.419947
610.716362	11259.679255
611.065500	11237.767880
611.414585	11245.289282
611.763616	11309.931997
612.112594	11268.564289
612.461518	11289.825355
612.810389	11330.610811
613.159207	11284.796804
613.507971	11271.362129
613.856682	11371.837367
614.205340	11328.536376
614.553945	11458.456993
614.902496	11332.491161
615.250994	11396.909545
615.599439	11377.569159
615.947830	11417.240519
616.296169	11377.879190
616.644454	11382.080991
616.992686	11395.268650
617.340864	11481.116979
617.688990	11374.196627
618.037063	11500.903508
618.385082	11475.523819
618.733048	11508.641679
619.080961	11489.041673
619.428821	11474.772687
619.776628	11476.716052
620.124382	11422.652197
620.472083	11430.302148
620.819731	11456.248967
621.167326	11376.334076
621.514868	11359.957888
621.862357	11259.606159
622.209793	11249.110476
622.557176	11159.067907
622.904506	11108.973961
623.251783	11027.037567
623.599007	10967.017589
623.946179	10922.743656
624.293297	10892.768955
624.640363	10750.590773
624.987376	10735.495037
625.334336	10661.223718
625.681243	10581.283621
626.028097	10556.581967
626.374899	10515.960349
626.721647	10480.831068
627.068343	10441.187435
627.414987	10370.681857
627.761577	10303.470673
628.108115	10352.566471
628.454600	10221.105781
628.801032	10237.524819
629.147412	10221.766172
629.493739	10189.046563
629.840014	10111.380027
630.186236	10145.922013
630.532405	10036.269355
630.878521	10069.155322
631.224585	10008.991671
631.570597	9937.651783
631.916556	9939.131361
632.262462	9919.750645
632.608316	9893.022448
632.954117	9865.280978
633.299866	9841.078398
633.645562	9816.958998
633.991206	9722.341581
634.336797	9622.854410
634.682336	9611.436197
635.027823	9551.829594
635.373257	9508.768058
635.718639	9443.928737
636.063968	9409.616123
636.409245	9293.989698
636.754470	9275.559239
637.099642	9222.511178
637.444762	9119.850600
637.789829	9132.433320
638.134845	9050.418788
638.479808	9020.378552
638.824719	8996.612032
639.169577	8906.062827
639.514383	8897.427331
639.859137	8830.848812
640.203839	8851.509981
640.548489	8774.080378
640.893086	8773.069627
641.237632	8703.010191
641.582125	8704.940953
641.926566	8679.851131
642.270955	8662.088625
642.615292	8644.807550
642.959576	8626.800548
643.303809	8613.224721
643.647990	8619.952141
643.992118	8587.852593
644.336195	8571.993123
644.680219	8558.192965
645.024192	8583.192047
645.368112	8647.728898
645.711981	8615.460473
646.055797	8736.349862
646.399562	8689.373870
646.743274	8827.607350
647.086935	8879.057366
647.430544	8853.047533
647.774101	8857.975261
648.117606	8882.704641
648.461059	8928.264069
648.804460	8856.145322
649.147810	8738.623423
649.491108	8705.455151
649.834354	8646.337540
650.177548	8503.597269
650.520690	8416.894464
650.863781	8404.067248
651.206820	8370.309161
651.549807	8288.171121
651.892742	8197.606792
652.235626	8146.217270
652.578458	8106.419881
652.921238	8004.220569
653.263967	8032.579580
653.606644	7958.945966
653.949269	7931.963190
654.291843	7859.531892
654.634365	7913.973833
654.976836	7830.814959
655.319255	7823.124678
655.661622	7799.600134
656.003938	7760.143023
656.346203	7719.171045
656.688416	7733.079588
657.030577	7686.085952
657.372687	7647.087586
657.714746	7670.450814
658.056753	7671.471647
658.398708	7573.882471
658.740612	7561.398053
659.082465	7590.795542
659.424266	7551.235087
659.766016	7547.280302
660.107715	7511.765373
660.449362	7524.332969
660.790958	7506.767069
661.132503	7496.972107
661.473996	7481.523491
661.815438	7489.531364
662.156829	7501.690627
662.498168	7451.942000
662.839456	7439.921369
663.180693	7444.493695
663.521879	7456.229502
663.863013	7431.638753
664.204097	7413.609066
664.545129	7472.963612
664.886110	7452.236908
665.227040	7442.706606
665.567918	7443.268695
665.908746	7444.118129
666.249522	7446.558048
666.590248	7435.260822
666.930922	7430.103722
667.271545	7413.578819
667.612118	7421.117865
667.952639	7383.896506
668.293109	7372.145576
668.633528	7345.936617
668.973896	7325.315777
669.314213	7317.723800
669.654480	7271.103209
669.994695	7261.157012
670.334859	7229.619554
670.674973	7203.894546
671.015035	7212.819909
671.355047	7190.222937
671.695008	7172.767941
672.034918	7141.931203
672.374777	7134.049359
672.714585	7102.879905
673.054342	7118.061340
673.394049	7076.577685
673.733705	7095.035870
674.073310	7045.836729
674.412864	7046.822274
674.752368	6982.355999
675.091820	7018.029724
675.431223	6950.324507
675.770574	6899.338277
676.109875	6868.428443
676.449125	6832.585839
676.788324	6809.003321
677.127473	6734.464820
677.466571	6717.024948
677.805619	6657.564539
678.144616	6649.755792
678.483562	6619.072809
678.822458	6571.290232
679.161303	6552.519496
679.500098	6527.875815
679.838842	6497.830538
680.177535	6492.716287
680.516179	6511.497106
680.854771	6511.076170
681.193314	6582.199289
681.531805	6686.319280
681.870247	6758.420383
682.208638	6854.834971
682.546978	6905.831283
682.885268	6912.904022
683.223508	6854.673654
683.561697	6802.361601
683.899836	6770.045284
684.237925	6691.962852
684.575963	6659.666700
684.913951	6586.174239
685.251889	6586.108704
685.589776	6572.517753
685.927614	6549.978754
686.265401	6545.877775
686.603137	6528.342122
686.940824	6565.863430
687.278460	6591.167502
687.616046	6582.698363
687.953582	6648.132540
688.291068	6620.741431
688.628504	6644.772611
688.965889	6641.170707
689.303224	6595.593635
689.640510	6558.183232
689.977745	6471.041847
690.314930	6377.813268
690.652065	6314.488814
690.989150	6227.896914
691.326185	6118.955059
691.663170	6033.527666
692.000105	5943.520385
692.336990	5853.303895
692.673825	5797.382376
693.010610	5723.617692
693.347345	5647.282020
693.684030	5561.524431
694.020665	5520.960787
694.357251	5434.136994
694.693786	5420.162916
695.030272	5381.005753
695.366707	5309.184434
695.703093	5266.435450
696.039429	5251.175877
696.375716	5205.813054
696.711952	5193.812588
697.048139	5166.146735
697.384276	5136.708917
697.720363	5143.547243
698.056400	5115.183190
698.392388	5085.934416
698.728326	5074.475873
699.064214	5049.136513
699.400053	5033.329975
699.735842	4990.941433
700.071581	4953.919199
700.407270	4919.548612
700.742910	4888.391761
701.078501	4856.347667
701.414042	4821.634281
701.749533	4778.842447
702.084974	4731.760591
702.420366	4749.757510
702.755709	4695.665929
703.091002	4660.922297
703.426246	4654.981297
703.761440	4640.087208
704.096584	4603.717803
704.431679	4591.503088
704.766725	4572.084563
705.101721	4560.474786
705.436668	4558.097882
705.771565	4518.592880
706.106413	4546.588927
706.441212	4537.040982
706.775961	4538.636507
707.110661	4536.642731
707.445311	4563.242379
707.779913	4538.815468
708.114465	4553.127304
708.448967	4575.250408
708.783421	4624.638592
709.117825	4643.245491
709.452180	4657.617820
709.786485	4687.693344
710.120742	4753.745062
710.454949	4745.248198
710.789107	4781.925112
711.123216	4842.184545
711.457275	4857.991083
711.791286	4907.911109
712.125247	4908.800872
712.459159	4885.427563
712.793023	4953.853664
713.126837	4852.776009
713.460602	4875.539339
713.794318	4842.340821
714.127985	4804.587620
714.461602	4713.020101
714.795171	4707.799986
715.128691	4605.877938
715.462162	4550.301737
715.795584	4500.676619
716.128957	4467.261331
716.462281	4425.021502
716.795556	4392.730392
717.128782	4341.542515
717.461960	4282.795429
717.795088	4274.227988
718.128167	4225.366604
718.461198	4175.963297
718.794180	4158.757839
719.127113	4120.298876
719.459997	4094.664609
719.792833	4057.385276
720.125619	4047.418915
720.458357	4009.615302
720.791046	3986.945233
721.123686	3965.590906
721.456278	3941.733645
721.788821	3926.879885
722.121315	3906.886669
722.453761	3904.174528
722.786158	3890.122312
723.118506	3883.213411
723.450805	3866.756564
723.783056	3875.747462
724.115259	3861.160883
724.447412	3850.007330
724.779518	3865.566852
725.111574	3864.407386
725.443582	3876.301989
725.775542	3865.471070
726.107453	3901.946338
726.439315	3881.572515
726.771129	3915.968308
727.102895	3938.875311
727.434612	3960.033033
727.766281	3964.812047
728.097901	3984.205366
728.429473	3990.164010
728.760996	3987.177126
729.092471	3991.479751
729.423897	3980.515242
729.755276	3960.695945
730.086606	3960.968167
730.417887	3997.070391
730.749120	4027.813867
731.080305	4043.234757
731.411442	4066.424065
731.742530	4070.870362
732.073570	4071.782811
732.404562	4093.099330
732.735506	4090.024227
733.066401	4073.862287
733.397249	4036.620763
733.728048	3987.146879
734.058798	3915.272628
734.389501	3852.069162
734.720156	3805.930002
735.050762	3753.965788
735.381320	3714.352401
735.711831	3684.962474
736.042293	3649.122391
736.372707	3641.588386
736.703073	3618.731795
737.033391	3623.309162
737.363661	3617.877319
737.693883	3618.383955
738.024056	3628.133547
738.354182	3630.699494
738.684260	3650.639778
739.014290	3668.805576
739.344272	3680.909386
739.674207	3703.002243
740.004093	3711.647822
740.333931	3710.775702
740.663722	3716.784757
740.993464	3713.381979
741.323159	3700.121223
741.652806	3681.665559
741.982405	3658.619924
742.311956	3630.820482
742.641460	3617.514356
742.970915	3588.041250
743.300323	3564.894792
743.629683	3542.817059
743.958996	3515.993079
744.288260	3489.403513
744.617477	3464.182621
744.946647	3447.413222
745.275768	3422.227618
745.604842	3406.834454
745.933869	3389.407186
746.262847	3380.234806
746.591778	3375.793550
746.920662	3362.888196
747.249498	3356.130529
747.578286	3361.348123
747.907027	3366.099411
748.235720	3380.254971
748.564365	3380.081051
748.892963	3375.130638
749.221514	3375.087788
749.550017	3363.876262
749.878473	3359.397197
750.206881	3348.004189
750.535242	3334.604802
750.863555	3325.238338
751.191821	3311.901966
751.520039	3308.897438
751.848210	3303.878969
752.176334	3300.297230
752.504411	3291.462607
752.832440	3278.443828
753.160421	3280.876184
753.488356	3272.409567
753.816243	3264.537805
754.144082	3254.465579
754.471875	3245.225144
754.799620	3242.084506
755.127318	3232.831468
755.454969	3230.348699
755.782572	3224.095148
756.110129	3224.208574
756.437638	3214.890001
756.765100	3207.930688
757.092515	3207.781974
757.419882	3209.659804
757.747203	3206.216696
758.074477	3211.159547
758.401703	3205.889021
758.728882	3210.022767
759.056014	3213.690207
759.383099	3220.682287
759.710138	3225.630179
760.037129	3228.029769
760.364073	3233.136457
760.690970	3230.565469
761.017820	3226.587999
761.344623	3232.881879
761.671379	3249.268150
761.998088	3265.694750
762.324751	3330.667661
762.651366	3477.524034
762.977935	3699.211295
763.304456	3878.303327
763.630931	3968.701297
763.957359	3929.808796
764.283740	3823.873989
764.610074	3714.566650
764.936362	3589.684666
765.262602	3483.245744
765.588796	3379.871843
765.914943	3300.750933
766.241044	3232.781056
766.567097	3180.290042
766.893104	3137.735142
767.219064	3104.793722
767.544978	3075.907910
767.870845	3047.538817
768.196665	3034.613298
768.522438	3016.966739
768.848165	3006.609689
769.173846	2993.384222
769.499479	2982.616317
769.825066	2969.196766
770.150607	2955.384004
770.476101	2950.693210
770.801548	2944.822787
771.126949	2931.501538
771.452303	2924.212029
771.777611	2909.562436
772.102872	2910.200142
772.428087	2900.495921
772.753256	2891.220198
773.078378	2886.166441
773.403453	2875.595142
773.728482	2864.723893
774.053465	2861.167359
774.378401	2857.323479
774.703291	2849.113960
775.028135	2843.437621
775.352932	2840.002075
775.677683	2830.819613
776.002388	2823.817450
776.327046	2824.485403
776.651658	2817.304280
776.976224	2812.336222
777.300743	2811.653146
777.625216	2807.300110
777.949643	2804.837506
778.274024	2803.529327
778.598359	2793.469704
778.922647	2790.916360
779.246889	2793.613377
779.571086	2789.852676
779.895236	2790.694549
780.219339	2789.550207
780.543397	2792.539611
780.867409	2792.219498
781.191374	2793.046247
781.515294	2792.343006
781.839167	2792.736216
782.162995	2794.185548
782.486776	2789.058695
782.810511	2783.105092
783.134201	2781.345729
783.457844	2779.530914
783.781441	2778.673918
784.104993	2771.089502
784.428498	2767.464912
784.751958	2767.293513
785.075372	2765.004829
785.398739	2763.502565
785.722061	2762.554828
786.045337	2759.807399
786.368568	2763.565580
786.691752	2763.734458
787.014891	2772.614451
787.337983	2784.042747
787.661030	2807.479071
787.984031	2831.603512
788.306987	2847.034484
788.629897	2857.013448
788.952760	2852.443642
789.275579	2845.529700
789.598351	2827.822647
789.921078	2816.122129
790.243759	2798.757875
790.566395	2786.785134
790.888984	2775.860954
791.211529	2765.766043
791.534027	2757.831267
791.856480	2748.878178
792.178888	2743.365676
792.501249	2738.415263
792.823566	2731.639952
793.145836	2729.951166
793.468062	2728.123747
793.790241	2725.887996
794.112375	2724.221894
794.434464	2727.415465
794.756507	2728.501834
795.078505	2733.870663
795.400457	2742.092785
795.722364	2753.054774
796.044226	2763.474839
796.366042	2772.924482
796.687812	2768.301744
797.009538	2776.803650
797.331218	2771.409615
797.652852	2767.752258
797.974442	2763.890734
798.295986	2761.062647
798.617484	2750.214084
798.938938	2744.320975
799.260346	2740.262846
799.581709	2735.181363
799.903026	2727.780949
800.224299	2728.458984
800.545526	2721.368601
800.866708	2718.492623
801.187845	2713.948023
801.508936	2709.829400
801.829983	2707.807897
802.150984	2703.485108
802.471940	2702.136599
802.792851	2699.560570
803.113717	2699.001002
803.434538	2695.857842
803.755314	2695.890610
804.076045	2693.972451
804.396731	2692.825588
804.717372	2694.375743
805.037967	2694.705939
805.358518	2695.769622
805.679024	2699.346321
805.999485	2698.428831
806.319901	2697.087884
806.640272	2698.232226
806.960598	2701.594675
807.280879	2700.896476
807.601115	2699.895807
807.921306	2696.571166
808.241453	2698.673327
808.561554	2699.754654
808.881611	2697.811289
809.201623	2698.476722
809.521590	2695.998995
809.841513	2694.285002
810.161390	2695.512523
810.481223	2690.511699
810.801011	2690.368026
811.120755	2686.892150
811.440453	2687.229907
811.760107	2682.834021
812.079716	2678.191119
812.399281	2674.100222
812.718801	2674.115346
813.038276	2671.451096
813.357707	2672.207269
813.677093	2671.851868
813.996434	2671.025118
814.315731	2668.088646
814.634983	2671.352793
814.954191	2669.016219
815.273354	2669.306085
815.592473	2672.204748
815.911547	2673.223062
816.230577	2675.637774
816.549562	2680.588187
816.868502	2680.817560
817.187399	2681.939217
817.506250	2683.151614
817.825058	2685.261337
818.143821	2689.611853
818.462539	2689.601770
818.781213	2697.680219
819.099843	2710.825028
819.418429	2730.064592
819.736970	2750.229207
820.055466	2775.699637
820.373919	2800.524799
820.692327	2842.242868
821.010691	2911.057138
821.329011	3100.370109
821.647286	3489.940396
821.965517	4008.017256
822.283704	4387.505236
822.601847	4555.156368
822.919945	4369.659551
823.237999	4142.885766
823.556010	3923.227569
823.873976	3722.083010
824.191897	3547.449879
824.509775	3408.135072
824.827609	3269.820934
825.145398	3162.840088
825.463144	3096.369954
825.780845	3068.562949
826.098502	3082.337902
826.416116	3150.048160
826.733685	3234.399267
827.051210	3269.102570
827.368692	3247.844024
827.686129	3165.237156
828.003522	3079.986204
828.320872	2999.554594
828.638177	2935.569749
828.955439	2888.893705
829.272656	2839.588700
829.589830	2802.321970
829.906960	2769.836775
830.224046	2743.262332
830.541088	2723.095197
830.858086	2706.277907
831.175041	2694.481607
831.491952	2685.616738
831.808819	2682.987777
832.125642	2687.101358
832.442421	2695.797348
832.759157	2719.798282
833.075849	2772.190994
833.392497	2836.596775
833.709101	2891.225239
834.025662	2901.098339
834.342179	2877.956922
834.658653	2839.397136
834.975083	2803.483956
835.291469	2773.332815
835.607811	2746.594535
835.924110	2728.849674
836.240366	2709.751262
836.556578	2690.211750
836.872746	2676.141890
837.188871	2664.804335
837.504952	2653.320586
837.820990	2645.486633
838.136984	2639.102012
838.452935	2633.773512
838.768842	2633.408028
839.084706	2637.748462
839.400526	2656.977943
839.716303	2684.540452
840.032037	2711.918958
840.347727	2713.466593
840.663373	2699.948739
840.978977	2682.745801
841.294537	2664.948007
841.610054	2656.607418
841.925527	2646.381438
842.240957	2640.546302
842.556344	2635.313585
842.871687	2628.482821
843.186987	2620.404372
843.502244	2613.568567
843.817458	2610.337188
844.132629	2606.689913
844.447756	2605.742176
844.762840	2599.234047
845.077881	2598.808069
845.392879	2596.998295
845.707833	2598.679520
846.022745	2593.540063
846.337613	2598.256063
846.652438	2594.409662
846.967221	2593.562748
847.281960	2590.838005
847.596656	2594.966710
847.911309	2594.303798
848.225919	2593.635845
848.540485	2591.553849
848.855009	2592.567121
849.169490	2589.824733
849.483928	2589.781883
849.798323	2591.810947
850.112675	2590.843046
850.426984	2589.688622
850.741251	2591.689960
851.055474	2587.853642
851.369654	2590.419589
851.683792	2589.824733
851.997887	2589.229877
852.311938	2587.364650
852.625947	2588.355237
852.939914	2591.395052
853.253837	2592.224322
853.567718	2590.442274
853.881555	2590.570824
854.195350	2590.964034
854.509103	2589.204671
854.822812	2587.241142
855.136479	2588.637541
855.450103	2588.435895
855.763685	2588.766091
856.077224	2588.350195
856.390720	2589.224836
856.704173	2588.884558
857.017584	2587.866245
857.330953	2588.922366
857.644278	2589.802048
857.957561	2594.671802
858.270802	2588.728282
858.584000	2588.728282
858.897155	2590.215422
859.210268	2588.355237
859.523339	2590.066708
859.836367	2587.722572
860.149352	2589.560072
860.462295	2590.049064
860.775195	2585.393559
861.088054	2587.296594
861.400869	2586.306007
861.713642	2585.055801
862.026373	2584.763414
862.339062	2589.068560
862.651708	2588.403127
862.964312	2588.355237
863.276873	2588.750967
863.589392	2590.656523
863.901869	2591.374888
864.214303	2589.358426
864.526696	2591.435382
864.839045	2592.650300
865.151353	2594.654158
865.463619	2592.332707
865.775842	2591.309353
866.088023	2593.840012
866.400162	2591.316914
866.712258	2592.128540
867.024313	2595.962338
867.336325	2592.637697
867.648296	2594.172728
867.960224	2592.221802
868.272110	2592.788931
868.583954	2593.512337
868.895755	2593.827409
869.207515	2592.211719
869.519233	2594.898654
869.830909	2593.535022
870.142542	2594.908737
870.454134	2594.132399
870.765684	2595.564087
871.077191	2596.292533
871.388657	2593.671133
871.700081	2596.612647
872.011463	2595.531319
872.322803	2597.404108
872.634101	2596.461412
872.945357	2600.476691
873.256571	2598.152719
873.567744	2600.345621
873.878874	2599.465940
874.189963	2599.239088
874.501010	2600.824531
874.812015	2599.017277
875.122979	2601.220261
875.433900	2600.438882
875.744780	2602.730087
876.055618	2601.958790
876.366415	2602.631784
876.677169	2599.365117
876.987882	2597.242791
877.298554	2600.761516
877.609183	2600.159098
877.919771	2597.900661
878.230317	2602.301589
878.540822	2608.792074
878.851285	2607.798967
879.161707	2613.477827
879.472087	2624.424692
879.782425	2638.096302
880.092722	2664.015394
880.402977	2709.990717
880.713191	2794.712349
881.023363	2898.605488
881.333494	2980.763693
881.643583	3016.465145
881.953631	3004.457116
882.263637	2975.362097
882.573602	2942.473609
882.883526	2911.999834
883.193408	2884.548231
883.503248	2854.702079
883.813048	2828.598985
884.122806	2803.778864
884.432522	2775.379524
884.742197	2746.539082
885.051831	2722.709548
885.361424	2701.042669
885.670975	2679.637930
885.980485	2665.353820
886.289954	2653.260092
886.599382	2643.419760
886.908768	2636.034470
887.218113	2628.162708
887.527417	2627.184724
887.836680	2618.622324
888.145901	2612.933382
888.455082	2608.436673
888.764221	2606.147989
889.073319	2604.237392
889.382376	2604.161774
889.691392	2603.924840
890.000366	2605.356528
890.309300	2600.196907
890.618193	2603.564398
890.927044	2601.326125
891.235855	2600.176742
891.544625	2600.191866
891.853353	2602.190683
892.162041	2601.215220
892.470687	2605.727053
892.779293	2609.187805
893.087858	2608.557661
893.396381	2615.947992
893.704864	2625.090125
894.013306	2637.206538
894.321707	2660.249652
894.630068	2675.138700
894.938387	2678.344874
895.246665	2675.783968
895.554903	2671.284738
895.863100	2661.835095
896.171256	2655.659682
896.479371	2648.662560
896.787446	2643.807929
897.095480	2638.754172
897.403473	2633.153450
897.711425	2628.510547
898.019336	2628.049282
898.327207	2617.538476
898.635038	2620.127109
898.942827	2611.181581
899.250576	2606.800818
899.558284	2606.125304
899.865952	2603.163626
900.173579	2600.385950
900.481165	2598.818151
900.788711	2596.345465
901.096216	2595.266658
901.403681	2594.369333
901.711105	2593.847574
902.018489	2595.521237
902.325832	2594.674323
902.633135	2593.870259
902.940397	2598.830754
903.247619	2606.233689
903.554800	2617.987139
903.861941	2650.656336
904.169041	2673.573422
904.476101	2690.073118
904.783121	2691.272913
905.090100	2680.061387
905.397039	2673.515448
905.703938	2659.445588
906.010796	2652.912253
906.317614	2645.070738
906.624391	2638.179481
906.931129	2633.400467
907.237826	2627.335959
907.544483	2620.101903
907.851099	2614.455811
908.157675	2605.981631
908.464211	2602.104984
908.770707	2593.797162
909.077163	2590.938828
909.383578	2587.243662
909.689954	2583.235945
909.996289	2581.020358
910.302584	2583.369535
910.608839	2582.101685
910.915054	2582.517580
911.221229	2581.224524
911.527363	2582.542786
911.833458	2585.965730
912.139513	2585.302818
912.445527	2582.525142
912.751502	2584.506316
913.057436	2583.215780
913.363331	2584.385328
913.669186	2587.934300
913.975000	2588.350195
914.280775	2599.985178
914.586510	2604.733945
914.892205	2612.920779
915.197859	2624.928808
915.503475	2642.875315
915.809050	2658.160094
916.114585	2671.388082
916.420081	2674.619461
916.725536	2678.559123
917.030952	2674.148113
917.336328	2669.175015
917.641665	2664.164108
917.946961	2656.241935
918.252218	2654.820329
918.557435	2647.205667
918.862612	2641.378093
919.167750	2639.585962
919.472848	2629.987606
919.777906	2625.805968
920.082925	2620.603498
920.387904	2612.431787
920.692843	2610.649739
920.997743	2605.074223
921.302603	2598.147678
921.607423	2599.516351
921.912204	2594.152563
922.216946	2593.900506
922.521647	2588.914805
922.826310	2589.045875
923.130932	2587.488158
923.435516	2583.180492
923.740059	2583.911459
924.044564	2584.034968
924.349028	2581.910121
924.653454	2578.459452
924.957840	2576.057342
925.262186	2576.503484
925.566493	2576.143041
925.870761	2572.888977
926.174989	2579.394586
926.479178	2578.313258
926.783328	2577.332754
927.087438	2577.670511
927.391509	2573.748493
927.695541	2572.054666
927.999533	2577.302507
928.303486	2573.360324
928.607400	2573.698082
928.911275	2575.800243
929.215110	2573.035170
929.518906	2573.161199
929.822663	2575.490212
930.126381	2575.704461
930.430060	2572.019377
930.733699	2574.083730
931.037299	2574.572722
931.340861	2572.957032
931.644383	2574.600448
931.947866	2575.638926
932.251309	2572.891497
932.554714	2571.192628
932.858080	2575.215469
933.161407	2572.730180
933.464694	2576.163206
933.767943	2574.023236
934.071153	2571.646332
934.374323	2572.989800
934.677455	2573.453586
934.980548	2571.946281
935.283602	2571.795046
935.586617	2571.346383
935.889593	2570.522155
936.192530	2571.122052
936.495428	2574.182032
936.798287	2572.825962
937.101108	2573.173802
937.403890	2573.801425
937.706632	2574.388720
938.009336	2576.816035
938.312002	2575.543144
938.614628	2576.717733
938.917216	2578.151941
939.219765	2580.077662
939.522275	2576.105233
939.824747	2579.462641
940.127179	2574.229923
940.429573	2575.749831
940.731929	2575.500294
941.034246	2573.637588
941.336524	2577.768813
941.638763	2575.583473
941.940964	2579.644123
942.243126	2576.503484
942.545250	2578.477096
942.847335	2577.141190
943.149381	2573.975345
943.451389	2577.415933
943.753359	2575.717064
944.055290	2575.684296
944.357182	2575.177660
944.659036	2571.046435
944.960851	2574.802094
945.262628	2572.793195
945.564367	2573.967783
945.866067	2573.808987
946.167729	2574.323185
946.469352	2572.687330
946.770937	2574.814697
947.072484	2569.322360
947.373992	2572.006775
947.675462	2572.901579
947.976893	2572.609192
948.278286	2572.100036
948.579641	2574.802094
948.880958	2573.115828
949.182236	2574.794533
949.483476	2570.663307
949.784678	2575.961560
950.085841	2569.266907
950.386967	2570.592731
950.688054	2568.614078
950.989103	2570.675910
951.290114	2572.805797
951.591087	2573.640108
951.892021	2572.147927
952.192917	2574.045921
952.493776	2573.146075
952.794596	2573.718246
953.095378	2571.623647
953.396122	2574.993658
953.696828	2573.236816
953.997496	2573.519121
954.298126	2573.577094
954.598718	2572.838565
954.899272	2573.168761
955.199788	2571.522824
955.500266	2573.687999
955.800706	2572.079871
956.101108	2568.362020
956.401472	2569.518965
956.701798	2567.109294
957.002087	2566.864798
957.302337	2569.559294
957.602550	2568.344376
957.902724	2567.928481
958.202861	2570.373441
958.502960	2568.447720
958.803022	2568.165415
959.103045	2568.251115
959.403031	2566.327915
959.702979	2566.161557
960.002889	2566.373285
960.302762	2564.674416
960.602596	2567.152143
960.902393	2565.670044
961.202153	2565.856567
961.501875	2565.486042
961.801559	2564.750034
962.101205	2568.263718
962.400814	2564.445044
962.700385	2566.103583
962.999918	2562.635270
963.299414	2564.329097
963.598873	2565.770867
963.898293	2565.367575
964.197677	2564.984447
964.497022	2565.236505
964.796331	2565.728017
965.095601	2563.106618
965.394835	2566.466547
965.694030	2563.270455
965.993189	2565.536454
966.292309	2561.987481
966.591393	2564.397153
966.890439	2563.235167
967.189447	2564.760116
967.488419	2564.240877
967.787353	2563.615774
968.086249	2565.657441
968.385108	2566.176680
968.683930	2565.707853
968.982714	2565.486042
969.281462	2564.901268
969.580172	2563.812379
969.878844	2564.253480
970.177480	2563.814900
970.476078	2567.147102
970.774639	2566.204407
971.073162	2565.135682
971.371649	2562.007646
971.670098	2562.315156
971.968510	2564.692060
972.266885	2560.011349
972.565223	2564.989488
972.863524	2563.767009
973.161788	2565.596948
973.460014	2565.264231
973.758204	2564.077040
974.056356	2566.779098
974.354471	2564.477811
974.652550	2563.819941
974.950591	2564.838254
975.248595	2565.629715
975.546563	2565.206258
975.844493	2564.061916
976.142386	2565.065106
976.440243	2563.489745
976.738062	2567.931002
977.035845	2564.210630
977.333590	2562.771381
977.631299	2562.126113
977.928971	2566.484191
978.226606	2564.543346
978.524204	2563.351113
978.821765	2563.860270
979.119290	2564.261042
979.416777	2565.037379
979.714228	2564.550908
980.011642	2563.923284
980.309020	2565.440672
980.606360	2564.200548
980.903664	2565.715415
981.200931	2565.816238
981.498162	2563.845147
981.795356	2567.053841
982.092513	2568.548543
982.389633	2570.307906
982.686717	2572.596590
982.983764	2568.898903
983.280775	2574.595407
983.577749	2573.693041
983.874686	2572.321847
984.171587	2574.726477
984.468451	2573.584656
984.765279	2573.839234
985.062070	2571.452248
985.358824	2568.878739
985.655543	2570.887638
985.952224	2567.068964
986.248869	2569.526527
986.545478	2562.484035
986.842050	2564.838254
987.138586	2563.116700
987.435086	2561.528736
987.731549	2558.947666
988.027975	2564.220712
988.324366	2560.782646
988.620719	2561.707697
988.917037	2561.133006
989.213318	2562.768860
989.509563	2560.591082
989.805772	2563.948490
990.101944	2561.780794
990.398080	2559.575289
990.694180	2562.610064
990.990244	2563.373799
991.286271	2561.253993
991.582262	2561.851370
991.878217	2563.706515
992.174136	2561.584189
992.470019	2561.896741
992.765865	2561.937070
993.061676	2561.354817
993.357450	2561.785835
993.653188	2558.453632
993.948890	2562.300033
994.244556	2565.516289
994.540186	2561.284240
994.835780	2562.352965
995.131337	2564.976886
995.426859	2564.518141
995.722345	2561.853891
996.017795	2565.475960
996.313208	2566.615261
996.608586	2566.869839
996.903928	2569.443348
997.199234	2564.452606
997.494504	2566.799263
997.789738	2568.372103
998.084936	2567.426886
998.380099	2564.021587
998.675225	2564.916392
998.970316	2564.838254
999.265371	2564.918912
999.560390	2563.141906
999.855373	2561.959755
1000.150320	2563.890517
1000.445232	2563.772050
1000.740108	2561.253993
1001.034948	2565.707853
1001.329752	2561.185938
1001.624521	2560.250804
1001.919254	2556.558159
1002.213951	2555.950700
1002.508613	2556.540515
1002.803239	2557.311811
1003.097829	2552.789896
1003.392384	2561.435475
1003.686903	2558.355330
1003.981386	2561.294323
1004.275834	2560.389436
1004.570246	2560.583520
1004.864623	2561.702656
1005.158964	2558.725855
1005.453270	2557.379867
1005.747540	2557.074877
1006.041775	2559.182079
1006.335974	2559.197203
1006.630138	2559.565207
1006.924266	2558.889692
1007.218359	2562.342883
1007.512416	2558.529250
1007.806438	2559.192162
1008.100425	2558.748540
1008.394376	2558.163766
1008.688292	2562.496638
1008.982172	2561.077553
1009.276017	2558.861966
1009.569827	2559.721483
1009.863602	2562.806669
1010.157341	2556.908519
1010.451045	2558.032696
1010.744714	2559.603016
1011.038347	2559.681153
1011.331945	2558.803993
1011.625508	2557.437840
1011.919036	2559.441699
1012.212528	2558.128478
1012.505986	2558.257027
1012.799408	2558.156204
1013.092795	2560.109652
1013.386147	2559.615618
1013.679464	2556.590926
1013.972745	2558.786349
1014.265992	2556.323745
1014.559204	2557.826009
1014.852380	2558.398180
1015.145521	2557.042109
1015.438628	2556.666543
1015.731699	2558.443550
1016.024736	2559.275341
1016.317737	2557.210988
1016.610703	2558.655279
1016.903635	2555.194527
1017.196531	2552.298384
1017.489393	2555.214691
1017.782219	2553.919115
1018.075011	2554.496327
1018.367768	2556.976574
1018.660490	2554.912222
1018.953177	2554.912222
1019.245829	2554.912222
