Dividing Wavelength (nm)	Counts (n)	Blue Motor Position (mm): 0.000000	Red Motor Position (mm): 11.500000	
326.493990	2146.278812
326.888308	2146.278812
327.282561	2146.278812
327.676750	2122.328290
328.070874	2124.473301
328.464933	2128.223919
328.858929	2136.456123
329.252859	2148.247382
329.646726	2165.281441
330.040528	2176.860972
330.434265	2195.914013
330.827938	2216.549976
331.221547	2235.381206
331.615091	2253.302508
332.008571	2273.308327
332.401986	2297.190793
332.795338	2315.096972
333.188625	2334.941474
333.581847	2355.133816
333.975006	2373.778523
334.368100	2391.195710
334.761129	2411.503998
335.154095	2429.042172
335.546996	2446.403906
335.939833	2457.849846
336.332606	2472.035653
336.725315	2481.858341
337.117960	2490.534167
337.510540	2497.748058
337.903056	2509.330109
338.295508	2514.623320
338.687896	2520.697911
339.080220	2530.278624
339.472480	2535.589479
339.864676	2536.922864
340.256807	2540.867567
340.648875	2541.664070
341.040879	2545.681869
341.432818	2548.767055
341.824694	2546.957281
342.216506	2547.834442
342.608253	2546.773279
342.999937	2546.276725
343.391557	2545.515511
343.783113	2543.224307
344.174605	2541.691796
344.566033	2539.347659
344.957397	2542.568957
345.348697	2540.277752
345.739934	2538.031918
346.131106	2535.662576
346.522215	2532.683254
346.913260	2532.592513
347.304241	2529.678726
347.695159	2528.927594
348.086012	2523.899043
348.476802	2525.338293
348.867528	2523.226049
349.258191	2521.529701
349.648789	2521.794362
350.039324	2519.220853
350.429796	2517.960564
350.820203	2516.508712
351.210548	2514.893022
351.600828	2515.727333
351.991045	2515.636592
352.381198	2515.303876
352.771288	2516.465862
353.161314	2514.646006
353.551276	2515.818074
353.941175	2515.538290
354.331010	2516.664988
354.720782	2514.315810
355.110490	2518.164731
355.500135	2515.641633
355.889717	2518.963754
356.279235	2515.939062
356.668689	2517.252282
357.058080	2518.454597
357.447408	2512.616941
357.836672	2513.337826
358.225873	2515.742457
358.615010	2513.940244
359.004084	2518.444515
359.393095	2519.162879
359.782043	2523.468025
360.170927	2521.312932
360.559748	2520.289577
360.948505	2522.399300
361.337199	2523.578930
361.725830	2522.278312
362.114398	2526.515402
362.502903	2524.161183
362.891344	2525.590351
363.279722	2524.438447
363.668037	2525.360978
364.056289	2525.819723
364.444478	2525.340813
364.832603	2524.995494
365.220665	2530.238294
365.608665	2524.428365
365.996601	2528.945238
366.384474	2525.645803
366.772284	2527.402645
367.160031	2528.141174
367.547715	2527.947090
367.935336	2530.283665
368.322893	2528.899868
368.710388	2528.612522
369.097820	2532.582431
369.485189	2530.528161
369.872495	2529.673685
370.259738	2532.290044
370.646918	2529.335928
371.034035	2530.641587
371.421090	2532.761392
371.808081	2530.714683
372.195010	2533.078985
372.581875	2534.780374
372.968678	2534.692154
373.355418	2535.259284
373.742096	2537.190046
374.128710	2536.885056
374.515262	2539.140972
374.901751	2539.193904
375.288177	2539.561908
375.674540	2542.226158
376.060841	2541.449821
376.447079	2544.040974
376.833254	2544.494677
377.219367	2543.156251
377.605417	2549.210677
377.991404	2548.207487
378.377329	2549.868548
378.763191	2553.737633
379.148991	2560.727193
379.534727	2563.320867
379.920402	2569.675241
380.306013	2573.017526
380.691563	2577.136149
381.077049	2577.352918
381.462474	2582.653692
381.847835	2589.537387
382.233134	2596.037955
382.618371	2597.278079
383.003545	2606.604213
383.388657	2610.997579
383.773706	2617.856069
384.158693	2627.812348
384.543618	2632.593882
384.928480	2637.297279
385.313280	2645.380769
385.698017	2653.504588
386.082692	2661.409117
386.467305	2664.932884
386.851856	2676.351097
387.236344	2690.342820
387.620770	2693.007070
388.005133	2699.888245
388.389435	2714.784854
388.773674	2719.878940
389.157851	2727.730537
389.541965	2738.536251
389.926018	2740.862743
390.310008	2753.130391
390.693936	2762.504417
391.077802	2769.841816
391.461606	2778.454627
391.845348	2787.644651
392.229027	2794.931639
392.612645	2809.147693
392.996200	2817.127839
393.379694	2827.500013
393.763125	2844.899556
394.146494	2849.512212
394.529801	2859.246680
394.913047	2873.480378
395.296230	2874.339894
395.679351	2877.064638
396.062410	2893.516443
396.445408	2885.682490
396.828343	2891.885630
397.211217	2897.960221
397.594028	2889.281874
397.976778	2896.553739
398.359466	2906.807446
398.742092	2898.686147
399.124656	2909.968249
399.507158	2915.165679
399.889598	2914.066707
400.271977	2919.916966
400.654294	2919.725402
401.036549	2925.983995
401.418742	2920.902512
401.800874	2934.029676
402.182944	2934.138061
402.564952	2945.349587
402.946898	2931.766198
403.328783	2930.107659
403.710606	2932.277875
404.092367	2937.871036
404.474067	2944.807663
404.855705	2932.610592
405.237282	2920.395876
405.618797	2931.186466
406.000250	2935.282403
406.381642	2939.718618
406.762972	2933.013884
407.144240	2915.407654
407.525447	2918.525608
407.906593	2905.242167
408.287677	2903.150088
408.668700	2898.030797
409.049661	2884.162583
409.430560	2877.934237
409.811399	2870.611961
410.192176	2864.320601
410.572891	2852.922552
410.953545	2856.612677
411.334138	2831.812720
411.714669	2840.203721
412.095139	2807.902528
412.475547	2813.523414
412.855894	2796.680919
413.236180	2793.136988
413.616405	2774.577980
413.996568	2771.243257
414.376670	2760.152718
414.756711	2748.603435
415.136691	2743.786612
415.516609	2737.465006
415.896466	2726.261041
416.276262	2722.676781
416.655997	2711.835779
417.035670	2703.008719
417.415283	2705.357897
417.794834	2695.520085
418.174324	2685.669670
418.553753	2677.518125
418.933121	2674.662311
419.312428	2663.831392
419.691674	2655.712614
420.070859	2650.442087
420.449983	2642.555202
420.829045	2638.882722
421.208047	2632.261166
421.586988	2628.845784
421.965867	2626.025259
422.344686	2616.570575
422.723444	2613.934051
423.102141	2606.551281
423.480777	2605.391816
423.859352	2597.774633
424.237866	2597.570466
424.616319	2595.959817
424.994712	2594.444950
425.373044	2588.771132
425.751314	2585.292736
426.129524	2584.158476
426.507673	2584.833991
426.885762	2578.305696
427.263789	2578.552713
427.641756	2576.201015
428.019662	2577.181519
428.397508	2573.022567
428.775292	2575.870819
429.153016	2572.891497
429.530679	2572.246229
429.908282	2569.271949
430.285824	2569.125755
430.663305	2568.586352
431.040726	2567.530230
431.418086	2567.147102
431.795385	2566.650549
432.172624	2568.455282
432.549802	2567.431928
432.926920	2563.088973
433.303977	2567.351269
433.680974	2566.514438
434.057910	2565.523851
434.434786	2567.900755
434.811601	2569.279510
435.188355	2565.871690
435.565050	2567.968810
435.941683	2568.682134
436.318257	2564.808007
436.694770	2563.698953
437.071222	2562.128634
437.447614	2563.008315
437.823946	2564.077040
438.200218	2565.266752
438.576429	2567.550395
438.952580	2564.525702
439.328670	2566.832030
439.704700	2564.951680
440.080670	2565.821279
440.456580	2566.847154
440.832429	2567.936043
441.208218	2569.009809
441.583947	2565.977555
441.959616	2565.861608
442.335224	2567.389078
442.710773	2565.468398
443.086261	2566.564849
443.461689	2565.806155
443.837057	2567.724314
444.212365	2567.477298
444.587612	2569.319840
444.962800	2567.258008
445.337927	2570.338153
445.712995	2566.325394
446.088002	2567.525189
446.462949	2569.428224
446.837837	2568.745148
447.212664	2568.659448
447.587431	2570.320509
447.962139	2571.096846
448.336786	2571.391754
448.711374	2567.736917
449.085901	2569.077864
449.460369	2567.048800
449.834776	2571.606003
450.209124	2570.688513
450.583412	2572.059707
450.957640	2572.969635
451.331808	2571.631209
451.705917	2569.208934
452.079965	2574.630695
452.453954	2569.128276
452.827883	2573.171281
453.201752	2569.256825
453.575562	2571.515262
453.949311	2571.119532
454.323001	2573.085582
454.696632	2575.054152
455.070202	2573.503997
455.443713	2570.670869
455.817164	2570.055848
456.190556	2570.365879
456.563888	2568.477967
456.937160	2567.956207
457.310373	2573.970304
457.683526	2572.795715
458.056619	2572.135324
458.429653	2571.938719
458.802628	2574.406364
459.175542	2572.372258
459.548398	2574.068607
459.921194	2576.536251
460.293930	2573.546847
460.666607	2572.503328
461.039224	2575.898545
461.411782	2579.462641
461.784280	2575.477609
462.156719	2576.987435
462.529099	2576.798391
462.901419	2573.967783
463.273680	2575.727146
463.645882	2575.661611
464.018024	2576.526169
464.390106	2576.813515
464.762130	2578.101530
465.134094	2578.129256
465.505999	2580.178485
465.877845	2579.823084
466.249631	2579.800398
466.621358	2582.547827
466.993026	2584.960019
467.364634	2583.843404
467.736184	2582.227714
468.107674	2580.009606
468.479105	2578.146900
468.850477	2577.685634
469.221790	2578.814853
469.593043	2578.945923
469.964238	2581.020358
470.335373	2579.140007
470.706449	2580.130594
471.077467	2579.818042
471.448425	2580.601942
471.819324	2582.631006
472.190164	2584.904567
472.560945	2579.444997
472.931667	2578.933320
473.302330	2580.052456
473.672934	2576.868967
474.043479	2580.181006
474.413965	2579.192939
474.784393	2575.480130
475.154761	2577.592373
475.525070	2576.881570
475.895321	2575.185222
476.265513	2574.824780
476.635645	2578.993814
477.005719	2578.706468
477.375734	2582.648650
477.745691	2578.330902
478.115588	2579.646643
478.485427	2584.677715
478.855207	2581.847107
479.224928	2583.971953
479.594591	2584.529001
479.964194	2583.535893
480.333739	2585.506985
480.703226	2581.264854
481.072653	2581.627817
481.442022	2583.104875
481.811333	2583.858527
482.180584	2583.104875
482.549777	2584.370204
482.918912	2583.664443
483.287988	2582.580595
483.657005	2583.109916
484.025964	2583.024216
484.394864	2580.788465
484.763706	2582.648650
485.132489	2581.698393
485.501213	2582.875502
485.869879	2581.426171
486.238487	2578.895511
486.607036	2581.219483
486.975527	2583.165369
487.343959	2581.206880
487.712333	2583.467838
488.080648	2581.635378
488.448905	2579.384503
488.817104	2581.521952
489.185244	2585.086048
489.553326	2581.854669
489.921350	2586.774835
490.289315	2585.990935
490.657222	2588.304825
491.025070	2584.370204
491.392861	2586.348857
491.760593	2585.159145
492.128267	2585.073445
492.495883	2584.506316
492.863440	2584.536562
493.230939	2583.435070
493.598380	2584.347519
493.965763	2578.572878
494.333088	2579.412230
494.700354	2577.337795
495.067563	2578.585480
495.434713	2578.104050
495.801805	2584.312231
496.168839	2585.443970
496.535815	2583.477920
496.902733	2582.260482
497.269593	2582.741912
497.636395	2582.562951
498.003139	2582.623445
498.369825	2585.569999
498.736453	2583.881213
499.103023	2582.714185
499.469535	2581.332909
499.835989	2580.546489
500.202385	2580.957343
500.568723	2581.108578
500.935003	2582.772159
501.301226	2581.035481
501.667390	2584.818867
502.033497	2582.492375
502.399546	2580.874164
502.765537	2580.528845
503.131470	2583.644278
503.497345	2578.613207
503.863163	2586.290884
504.228923	2581.708475
504.594625	2580.042374
504.960269	2578.681262
505.325856	2582.492375
505.691385	2582.580595
506.056856	2582.326017
506.422270	2584.181161
506.787625	2581.436253
507.152924	2580.244020
507.518164	2582.575554
507.883347	2580.281829
508.248472	2581.189236
508.613540	2581.506829
508.978550	2578.794688
509.343503	2580.513722
509.708398	2583.787951
510.073236	2583.130081
510.438016	2580.491037
510.802738	2583.374577
511.167403	2581.819381
511.532010	2580.493557
511.896561	2583.183013
512.261053	2582.724268
512.625488	2578.280491
512.989866	2578.139338
513.354186	2578.547672
513.718449	2577.811663
514.082655	2580.813670
514.446803	2581.887436
514.810894	2581.388362
515.174927	2583.762745
515.538904	2581.153948
515.902822	2582.507498
516.266684	2580.196129
516.630488	2582.996490
516.994235	2580.793506
517.357925	2578.363670
517.721558	2583.316603
518.085133	2581.443815
518.448651	2586.064032
518.812112	2582.179823
519.175516	2581.932807
519.538863	2583.926583
519.902152	2582.880543
520.265385	2585.620411
520.628560	2585.592684
520.991678	2584.082859
521.354739	2582.928434
521.717743	2581.292580
522.080690	2584.632344
522.443580	2583.130081
522.806413	2580.518763
523.169189	2582.678897
523.531908	2580.740574
523.894569	2582.542786
524.257174	2582.867941
524.619722	2581.189236
524.982213	2585.063363
525.344647	2583.508167
525.707025	2582.893146
526.069345	2582.295770
526.431608	2584.198805
526.793815	2583.679566
527.155964	2585.295256
527.518057	2583.183013
527.880093	2585.380956
528.242072	2583.578743
528.603995	2582.474731
528.965860	2584.269381
529.327669	2582.048753
529.689421	2583.152766
530.051117	2581.766448
530.412755	2580.949782
530.774337	2582.333578
531.135862	2582.429360
531.497331	2579.462641
531.858743	2580.770821
532.220098	2579.923907
532.581396	2578.610686
532.942638	2577.370562
533.303824	2583.117478
533.664953	2581.917683
534.026025	2581.216963
534.387040	2582.023547
534.747999	2582.305852
535.108902	2582.683938
535.469748	2583.341809
535.830537	2582.842735
536.191270	2582.918352
536.551947	2581.325347
536.912567	2582.933476
537.273131	2583.553537
537.633638	2578.542631
537.994089	2581.325347
538.354483	2583.293918
538.714821	2584.133270
539.075103	2579.313927
539.435328	2583.243507
539.795497	2582.573033
540.155609	2580.859041
540.515665	2585.703590
540.875665	2584.617221
541.235609	2582.716706
541.595496	2581.932807
541.955328	2581.751325
542.315102	2581.463979
542.674821	2583.006572
543.034483	2582.552868
543.394090	2584.027406
543.753640	2583.593867
544.113134	2581.733681
544.472571	2581.952971
544.831953	2583.777869
545.191278	2584.700400
545.550548	2581.297621
545.909761	2583.137642
546.268918	2584.758373
546.628019	2583.268712
546.987064	2581.705955
547.346053	2581.615214
547.704986	2582.434401
548.063863	2582.852817
548.422684	2583.455235
548.781449	2582.751994
549.140158	2584.657550
549.498811	2583.818198
549.857408	2581.915162
550.215949	2579.944071
550.574434	2577.597414
550.932864	2580.622107
551.291237	2581.612693
551.649555	2582.832652
552.007817	2582.373907
552.366022	2579.399627
552.724173	2581.385841
553.082267	2583.603949
553.440305	2582.235276
553.798288	2584.408013
554.156215	2584.103023
554.514086	2583.072107
554.871902	2583.913980
555.229661	2586.048909
555.587365	2582.056315
555.945014	2582.842735
556.302606	2580.238979
556.660143	2582.068918
557.017625	2582.235276
557.375050	2584.050091
557.732421	2580.995152
558.089735	2580.738053
558.446994	2582.986408
558.804197	2583.518249
559.161345	2580.647312
559.518437	2582.333578
559.875474	2581.824422
560.232455	2585.597725
560.589381	2582.063877
560.946251	2587.084866
561.303065	2582.817529
561.659825	2581.642940
562.016528	2582.366346
562.373177	2582.875502
562.729770	2582.391552
563.086307	2581.484144
563.442789	2582.232755
563.799216	2584.224011
564.155587	2584.123188
564.511904	2580.982549
564.868164	2584.022365
565.224370	2581.085893
565.580520	2581.151428
565.936615	2584.040009
566.292654	2582.825091
566.648638	2582.005903
567.004567	2585.990935
567.360441	2580.584298
567.716260	2582.255440
568.072023	2583.903898
568.427732	2578.608166
568.783385	2581.481623
569.138982	2581.693352
569.494525	2579.495409
569.850013	2578.111612
570.205445	2583.493044
570.560823	2582.625965
570.916145	2581.463979
571.271412	2581.088413
571.626625	2584.728126
571.981782	2581.325347
572.336884	2581.176633
572.691931	2584.014803
573.046923	2583.775348
573.401860	2580.811150
573.756743	2583.941706
574.111570	2581.670667
574.466342	2583.402303
574.821059	2582.613362
575.175722	2583.659402
575.530330	2582.585636
575.884882	2582.910790
576.239380	2579.593711
576.593823	2583.916501
576.948211	2583.185533
577.302544	2582.124370
577.656823	2580.664956
578.011047	2584.216449
578.365216	2583.742581
578.719330	2584.196285
579.073389	2582.023547
579.427394	2580.465831
579.781344	2580.589339
580.135239	2581.340471
580.489080	2583.583784
580.842866	2583.092272
581.196597	2586.038826
581.550273	2583.614031
581.903895	2583.608990
582.257463	2581.806778
582.610975	2583.306521
582.964434	2584.239134
583.317837	2582.885585
583.671186	2582.815008
584.024481	2582.378949
584.377721	2580.798547
584.730906	2581.421129
585.084037	2583.374577
585.437113	2579.412230
585.790135	2582.031109
586.143103	2581.731160
586.496016	2584.632344
586.848874	2579.371900
587.201679	2577.703278
587.554428	2578.184709
587.907124	2582.792323
588.259765	2577.110943
588.612352	2582.973805
588.964884	2583.369535
589.317362	2580.702765
589.669786	2580.906932
590.022155	2582.494895
590.374470	2580.753177
590.726731	2580.178485
591.078937	2583.087231
591.431090	2583.407344
591.783188	2581.348033
592.135232	2584.211408
592.487222	2583.548496
592.839157	2580.054977
593.191038	2582.401634
593.542866	2581.867272
593.894639	2582.653692
594.246358	2582.252920
594.598022	2577.317630
594.949633	2584.009762
595.301190	2580.662436
595.652692	2580.740574
596.004141	2584.355081
596.355535	2581.131263
596.706876	2582.101685
597.058162	2580.826273
597.409395	2581.373238
597.760573	2584.344999
598.111698	2581.322827
598.462768	2582.590677
598.813785	2584.224011
599.164748	2580.276787
599.515657	2583.208218
599.866511	2578.731674
600.217312	2583.228383
600.568060	2577.549523
600.918753	2582.562951
601.269392	2580.811150
601.619978	2580.186047
601.970510	2581.799216
602.320988	2577.912486
602.671412	2581.887436
603.021783	2578.245202
603.372100	2583.530852
603.722363	2580.775862
604.072572	2584.226532
604.422728	2580.667477
604.772830	2577.178998
605.122878	2576.125397
605.472872	2578.368711
605.822813	2574.373596
606.172701	2577.725964
606.522534	2578.948443
606.872314	2581.668146
607.222041	2581.607652
607.571714	2583.084710
607.921333	2578.209914
608.270899	2579.742425
608.620411	2580.677559
608.969870	2579.989442
609.319276	2581.917683
609.668627	2581.421129
610.017926	2582.648650
610.367171	2580.750656
610.716362	2581.151428
611.065500	2581.653023
611.414585	2578.487178
611.763616	2583.407344
612.112594	2579.013978
612.461518	2581.456417
612.810389	2582.502457
613.159207	2582.305852
613.507971	2581.053125
613.856682	2583.029257
614.205340	2579.850810
614.553945	2581.206880
614.902496	2580.596901
615.250994	2581.083372
615.599439	2582.220152
615.947830	2581.131263
616.296169	2581.864751
616.644454	2582.411716
616.992686	2581.940368
617.340864	2581.360636
617.688990	2581.012796
618.037063	2579.984401
618.385082	2580.044894
618.733048	2582.706624
619.080961	2580.818712
619.428821	2582.651171
619.776628	2580.367528
620.124382	2582.048753
620.472083	2582.348702
620.819731	2580.082703
621.167326	2581.655543
621.514868	2582.595718
621.862357	2578.782085
622.209793	2582.323496
622.557176	2581.834504
622.904506	2579.813001
623.251783	2578.328382
623.599007	2576.478278
623.946179	2578.136818
624.293297	2574.885273
624.640363	2576.435428
624.987376	2581.988259
625.334336	2579.359297
625.681243	2581.448856
626.028097	2580.153279
626.374899	2579.462641
626.721647	2579.097157
627.068343	2581.388362
627.414987	2581.665625
627.761577	2580.919535
628.108115	2579.427353
628.454600	2581.219483
628.801032	2580.415419
629.147412	2580.158320
629.493739	2580.662436
629.840014	2578.809812
630.186236	2580.052456
630.532405	2579.465162
630.878521	2577.872157
631.224585	2582.862899
631.570597	2580.095306
631.916556	2580.566654
632.262462	2578.340984
632.608316	2581.882395
632.954117	2578.099009
633.299866	2578.875347
633.645562	2576.957188
633.991206	2578.305696
634.336797	2578.961046
634.682336	2581.378280
635.027823	2578.378793
635.373257	2578.779565
635.718639	2578.298135
636.063968	2579.505491
636.409245	2578.832497
636.754470	2578.908114
637.099642	2578.421643
637.444762	2580.236458
637.789829	2578.499781
638.134845	2577.846951
638.479808	2579.477765
638.824719	2578.653536
639.169577	2579.392065
639.514383	2579.117322
639.859137	2580.536407
640.203839	2581.244689
640.548489	2580.070100
640.893086	2574.179512
641.237632	2575.878381
641.582125	2577.320151
641.926566	2573.050293
642.270955	2579.381983
642.615292	2578.426684
642.959576	2581.882395
643.303809	2579.306365
643.647990	2579.883578
643.992118	2580.922055
644.336195	2578.393917
644.680219	2578.212435
645.024192	2575.926272
645.368112	2580.455748
645.711981	2579.255954
646.055797	2578.250244
646.399562	2580.029771
646.743274	2579.525656
647.086935	2578.945923
647.430544	2579.964236
647.774101	2580.276787
648.117606	2578.721592
648.461059	2576.997517
648.804460	2579.944071
649.147810	2579.359297
649.491108	2579.069431
649.834354	2577.753690
650.177548	2579.263516
650.520690	2579.245872
650.863781	2578.630851
651.206820	2581.196798
651.549807	2577.221848
651.892742	2578.998855
652.235626	2577.715881
652.578458	2577.461303
652.921238	2577.204204
653.263967	2578.298135
653.606644	2581.131263
653.949269	2579.334092
654.291843	2580.165882
654.634365	2579.669328
654.976836	2579.129925
655.319255	2580.112950
655.661622	2579.419791
656.003938	2576.243864
656.346203	2577.531879
656.688416	2577.186560
657.030577	2576.795871
657.372687	2576.959708
657.714746	2577.390727
658.056753	2580.284349
658.398708	2574.950808
658.740612	2573.511559
659.082465	2576.576581
659.424266	2573.640108
659.766016	2573.682958
660.107715	2578.991293
660.449362	2576.049780
660.790958	2577.040367
661.132503	2577.395768
661.473996	2580.397775
661.815438	2575.391909
662.156829	2580.606983
662.498168	2579.409709
662.839456	2578.643454
663.180693	2577.413412
663.521879	2578.698906
663.863013	2576.498443
664.204097	2578.696386
664.545129	2578.446849
664.886110	2578.381314
665.227040	2578.824935
665.567918	2576.700089
665.908746	2577.524317
666.249522	2581.340471
666.590248	2578.441807
666.930922	2575.071796
667.271545	2578.373752
667.612118	2577.431056
667.952639	2578.953485
668.293109	2576.513566
668.633528	2577.433577
668.973896	2578.184709
669.314213	2578.524987
669.654480	2581.403485
669.994695	2573.937537
670.334859	2576.276632
670.674973	2576.168247
671.015035	2578.146900
671.355047	2580.080182
671.695008	2578.406519
672.034918	2576.337126
672.374777	2576.788309
672.714585	2579.717219
673.054342	2578.719071
673.394049	2579.230748
673.733705	2577.995665
674.073310	2578.114132
674.412864	2579.752507
674.752368	2580.377611
675.091820	2578.280491
675.431223	2575.717064
675.770574	2576.377455
676.109875	2572.326888
676.449125	2574.393761
676.788324	2576.437949
677.127473	2574.544996
677.466571	2572.180694
677.805619	2577.713361
678.144616	2577.705799
678.483562	2577.178998
678.822458	2575.386868
679.161303	2576.009451
679.500098	2577.763772
679.838842	2577.138669
680.177535	2575.974163
680.516179	2578.209914
680.854771	2576.072465
681.193314	2578.285532
681.531805	2576.896694
681.870247	2581.370718
682.208638	2579.203022
682.546978	2578.237641
682.885268	2577.342836
683.223508	2577.226889
683.561697	2577.526838
683.899836	2580.488516
684.237925	2579.235789
684.575963	2574.849985
684.913951	2577.814184
685.251889	2578.615727
685.589776	2576.569019
685.927614	2578.058680
686.265401	2575.593556
686.603137	2577.720923
686.940824	2577.582291
687.278460	2577.756211
687.616046	2578.570357
687.953582	2576.566498
688.291068	2577.115984
688.628504	2577.121025
688.965889	2579.475244
689.303224	2576.584142
689.640510	2579.124884
689.977745	2579.013978
690.314930	2578.419122
690.652065	2576.211097
690.989150	2578.686303
691.326185	2577.673032
691.663170	2574.766806
692.000105	2578.595563
692.336990	2577.166396
692.673825	2580.612024
693.010610	2578.938361
693.347345	2572.957032
693.684030	2574.998699
694.020665	2569.690364
694.357251	2574.292938
694.693786	2574.547516
695.030272	2578.104050
695.366707	2574.464337
695.703093	2577.985583
696.039429	2579.324009
696.375716	2575.938875
696.711952	2575.966601
697.048139	2575.704461
697.384276	2577.554564
697.720363	2573.383010
698.056400	2576.947105
698.392388	2576.054821
698.728326	2578.283011
699.064214	2574.756724
699.400053	2577.592373
699.735842	2576.148083
700.071581	2575.180181
700.407270	2571.840417
700.742910	2574.325705
701.078501	2577.115984
701.414042	2576.682445
701.749533	2577.763772
702.084974	2576.410222
702.420366	2576.115315
702.755709	2575.349060
703.091002	2574.905438
703.426246	2574.875191
703.761440	2575.613720
704.096584	2575.200346
704.431679	2575.636405
704.766725	2575.754873
705.101721	2578.340984
705.436668	2573.536765
705.771565	2574.086251
706.106413	2575.591035
706.441212	2573.743452
706.775961	2574.416446
707.110661	2576.753021
707.445311	2574.280335
707.779913	2573.347722
708.114465	2576.506004
708.448967	2575.601117
708.783421	2575.149934
709.117825	2574.340829
709.452180	2577.768813
709.786485	2571.938719
710.120742	2578.429205
710.454949	2575.739749
710.789107	2572.727660
711.123216	2571.691702
711.457275	2571.792526
711.791286	2573.448545
712.125247	2571.472412
712.459159	2576.705130
712.793023	2575.039029
713.126837	2578.802250
713.460602	2575.548185
713.794318	2577.632702
714.127985	2576.858885
714.461602	2576.349729
714.795171	2575.134811
715.128691	2574.940726
715.462162	2574.955850
715.795584	2577.294945
716.128957	2575.039029
716.462281	2576.067424
716.795556	2575.737228
717.128782	2580.047415
717.461960	2577.678073
717.795088	2573.350242
718.128167	2575.764955
718.461198	2573.476271
718.794180	2578.313258
719.127113	2573.584656
719.459997	2575.442321
719.792833	2571.016188
720.125619	2576.168247
720.458357	2572.052145
720.791046	2574.892835
721.123686	2573.748493
721.456278	2573.047773
721.788821	2576.090109
722.121315	2576.470716
722.453761	2574.918041
722.786158	2574.439131
723.118506	2574.318144
723.450805	2573.955181
723.783056	2574.918041
724.115259	2573.680438
724.447412	2573.360324
724.779518	2576.480799
725.111574	2571.873184
725.443582	2575.366704
725.775542	2575.356621
726.107453	2575.306210
726.439315	2574.020716
726.771129	2573.937537
727.102895	2576.138000
727.434612	2576.899214
727.766281	2572.800756
728.097901	2572.430232
728.429473	2571.427042
728.760996	2571.237999
729.092471	2568.399829
729.423897	2574.461817
729.755276	2576.483319
730.086606	2574.035839
730.417887	2574.769327
730.749120	2576.074986
731.080305	2575.868298
731.411442	2575.759914
731.742530	2575.409553
732.073570	2575.308730
732.404562	2574.968453
732.735506	2575.338977
733.066401	2577.345357
733.397249	2575.812846
733.728048	2574.991138
734.058798	2576.354770
734.389501	2574.512228
734.720156	2573.357804
735.050762	2574.797053
735.381320	2572.881415
735.711831	2570.869994
736.042293	2575.086920
736.372707	2576.062383
736.703073	2572.152968
737.033391	2573.153637
737.363661	2572.662125
737.693883	2574.945767
738.024056	2577.153793
738.354182	2571.590879
738.684260	2575.270922
739.014290	2575.273442
739.344272	2573.776220
739.674207	2572.410067
740.004093	2573.181363
740.333931	2572.374779
740.663722	2574.701271
740.993464	2575.459965
741.323159	2572.624316
741.652806	2573.080540
741.982405	2575.691858
742.311956	2573.070458
742.641460	2573.037691
742.970915	2576.753021
743.300323	2574.605489
743.629683	2575.772517
743.958996	2575.215469
744.288260	2571.616085
744.617477	2573.738411
744.946647	2568.830848
745.275768	2570.960735
745.604842	2569.115673
745.933869	2568.082236
746.262847	2568.987123
746.591778	2574.126580
746.920662	2572.689851
747.249498	2574.169430
747.578286	2570.257494
747.907027	2574.408884
748.235720	2572.485684
748.564365	2575.281004
748.892963	2572.246229
749.221514	2572.339491
749.550017	2572.326888
749.878473	2574.282856
750.206881	2573.980386
750.535242	2574.519790
750.863555	2572.740263
751.191821	2575.616241
751.520039	2573.700602
751.848210	2573.708164
752.176334	2572.553740
752.504411	2574.507187
752.832440	2574.441652
753.160421	2569.997875
753.488356	2574.096333
753.816243	2575.807805
754.144082	2574.169430
754.471875	2573.614903
754.799620	2571.444686
755.127318	2572.848647
755.454969	2572.208421
755.782572	2572.412588
756.110129	2575.243195
756.437638	2572.223544
756.765100	2573.630026
757.092515	2572.964594
757.419882	2571.732032
757.747203	2572.873853
758.074477	2573.251940
758.401703	2572.165571
758.728882	2572.276476
759.056014	2572.122721
759.383099	2572.084913
759.710138	2572.647001
760.037129	2575.442321
760.364073	2574.965932
760.690970	2572.508369
761.017820	2574.305541
761.344623	2576.858885
761.671379	2576.621951
761.998088	2568.959397
762.324751	2569.340004
762.651366	2572.581466
762.977935	2571.996692
763.304456	2570.081054
763.630931	2577.456262
763.957359	2576.566498
764.283740	2576.589183
764.610074	2574.534913
764.936362	2576.064903
765.262602	2574.275294
765.588796	2572.631878
765.914943	2576.284194
766.241044	2574.366035
766.567097	2572.909141
766.893104	2573.330077
767.219064	2573.103226
767.544978	2571.429562
767.870845	2572.780592
768.196665	2572.135324
768.522438	2570.839747
768.848165	2572.616754
769.173846	2570.270097
769.499479	2572.150448
769.825066	2569.927299
770.150607	2573.299831
770.476101	2569.561815
770.801548	2573.403174
771.126949	2572.578946
771.452303	2574.008113
771.777611	2570.224727
772.102872	2575.059193
772.428087	2570.655745
772.753256	2570.885118
773.078378	2571.051476
773.403453	2571.916034
773.728482	2572.314285
774.053465	2573.877043
774.378401	2573.249419
774.703291	2571.424521
775.028135	2568.488049
775.352932	2570.973338
775.677683	2573.181363
776.002388	2572.342011
776.327046	2572.173133
776.651658	2571.331260
776.976224	2571.429563
777.300743	2572.415108
777.625216	2571.479974
777.949643	2572.760427
778.274024	2572.798236
778.598359	2566.587534
778.922647	2567.840261
779.246889	2567.777247
779.571086	2566.804304
779.895236	2569.224058
780.219339	2570.358317
780.543397	2568.886300
780.867409	2569.881928
781.191374	2570.910324
781.515294	2572.054666
781.839167	2571.278328
782.162995	2572.273956
782.486776	2571.459809
782.810511	2571.364027
783.134201	2574.640778
783.457844	2569.455951
783.781441	2570.267577
784.104993	2572.097515
784.428498	2569.455951
784.751958	2569.045097
785.075372	2569.612227
785.398739	2573.009964
785.722061	2569.488718
786.045337	2571.023750
786.368568	2572.833524
786.691752	2570.544840
787.014891	2573.511559
787.337983	2568.835889
787.661030	2572.878894
787.984031	2571.792526
788.306987	2573.088102
788.629897	2570.335632
788.952760	2573.327557
789.275579	2571.434604
789.598351	2571.275807
789.921078	2572.228585
790.243759	2571.510221
790.566395	2570.638101
790.888984	2570.007957
791.211529	2571.086764
791.534027	2569.476115
791.856480	2572.750345
792.178888	2568.286403
792.501249	2570.897721
792.823566	2572.168092
793.145836	2571.890828
793.468062	2572.077351
793.790241	2570.330591
794.112375	2570.406208
794.434464	2571.200190
794.756507	2570.731363
795.078505	2571.502659
795.400457	2567.255487
795.722364	2565.460836
796.044226	2565.717935
796.366042	2568.034345
796.687812	2569.866805
797.009538	2570.963256
797.331218	2572.011816
797.652852	2570.728842
797.974442	2572.916703
798.295986	2569.244222
798.617484	2573.849316
798.938938	2569.435786
799.260346	2571.253122
799.581709	2569.667679
799.903026	2570.542319
800.224299	2572.687330
800.545526	2570.161712
800.866708	2569.599624
801.187845	2569.655076
801.508936	2570.000395
801.829983	2567.890673
802.150984	2572.185736
802.471940	2573.682958
802.792851	2569.166084
803.113717	2572.120201
803.434538	2567.749520
803.755314	2572.621795
804.076045	2569.120714
804.396731	2569.702967
804.717372	2568.543502
805.037967	2571.923596
805.358518	2572.097515
805.679024	2567.373954
805.999485	2571.782443
806.319901	2569.710529
806.640272	2570.915365
806.960598	2566.322874
807.280879	2571.288410
807.601115	2572.097515
807.921306	2572.652042
808.241453	2573.425859
808.561554	2569.844120
808.881611	2572.601631
809.201623	2570.665828
809.521590	2570.421332
809.841513	2567.978893
810.161390	2569.859243
810.481223	2570.781774
810.801011	2571.989131
811.120755	2571.769840
811.440453	2572.402505
811.760107	2572.193297
812.079716	2565.417987
812.399281	2566.683316
812.718801	2566.915209
813.038276	2563.346072
813.357707	2569.609706
813.677093	2571.752196
813.996434	2569.874367
814.315731	2568.533420
814.634983	2569.821434
814.954191	2568.092319
815.273354	2570.383523
815.592473	2571.074161
815.911547	2572.894018
816.230577	2571.323698
816.549562	2570.315467
816.868502	2569.314798
817.187399	2571.542988
817.506250	2568.475446
817.825058	2572.483164
818.143821	2569.879408
818.462539	2569.886969
818.781213	2572.024419
819.099843	2574.769327
819.418429	2571.802608
819.736970	2570.433935
820.055466	2569.944943
820.373919	2572.775551
820.692327	2572.069789
821.010691	2572.440314
821.329011	2576.657239
821.647286	2582.588157
821.965517	2586.800041
822.283704	2590.568303
822.601847	2591.387491
822.919945	2590.464959
823.237999	2588.403127
823.556010	2588.241811
823.873976	2584.352560
824.191897	2582.368866
824.509775	2580.173444
824.827609	2582.167220
825.145398	2578.948443
825.463144	2575.344018
825.780845	2574.764286
826.098502	2579.437435
826.416116	2577.713361
826.733685	2578.421643
827.051210	2576.236303
827.368692	2578.081365
827.686129	2577.836869
828.003522	2577.627661
828.320872	2573.216652
828.638177	2571.263204
828.955439	2569.337484
829.272656	2566.625343
829.589830	2568.949315
829.906960	2571.452248
830.224046	2572.140365
830.541088	2569.521486
830.858086	2568.238512
831.175041	2567.096691
831.491952	2570.633060
831.808819	2569.433266
832.125642	2570.078533
832.442421	2569.546692
832.759157	2571.595921
833.075849	2569.894531
833.392497	2573.388051
833.709101	2574.121539
834.025662	2574.083730
834.342179	2573.438462
834.658653	2573.478792
834.975083	2573.892166
835.291469	2573.594738
835.607811	2569.032494
835.924110	2571.903431
836.240366	2572.367217
836.556578	2570.272618
836.872746	2569.715570
837.188871	2572.112639
837.504952	2569.040056
837.820990	2568.596434
838.136984	2570.501990
838.452935	2567.512586
838.768842	2568.704819
839.084706	2569.357648
839.400526	2568.445199
839.716303	2568.407391
840.032037	2570.189439
840.347727	2570.539799
840.663373	2571.099367
840.978977	2568.835889
841.294537	2571.769840
841.610054	2569.443348
841.925527	2570.081054
842.240957	2572.505849
842.556344	2570.025601
842.871687	2568.243553
843.186987	2567.789849
843.502244	2568.805642
843.817458	2568.049469
844.132629	2566.403532
844.447756	2570.507031
844.762840	2565.337328
845.077881	2565.052503
845.392879	2567.363872
845.707833	2565.269273
846.022745	2562.347924
846.337613	2568.619119
846.652438	2569.153482
846.967221	2567.802452
847.281960	2570.461661
847.596656	2569.168605
847.911309	2565.425548
848.225919	2568.004098
848.540485	2568.324212
848.855009	2568.745148
849.169490	2567.908317
849.483928	2568.979562
849.798323	2566.484191
850.112675	2565.375137
850.426984	2570.010478
850.741251	2569.085426
851.055474	2568.286403
851.369654	2567.431927
851.683792	2568.251115
851.997887	2569.329922
852.311938	2566.292627
852.625947	2568.914027
852.939914	2569.070302
853.253837	2570.786815
853.567718	2569.614747
853.881555	2569.516445
854.195350	2567.401681
854.509103	2567.605847
854.822812	2568.581311
855.136479	2567.900755
855.450103	2569.266907
855.763685	2569.483677
856.077224	2567.101732
856.390720	2564.465208
856.704173	2566.685837
857.017584	2565.985116
857.330953	2564.165260
857.644278	2567.605847
857.957561	2568.470405
858.270802	2567.804973
858.584000	2567.825137
858.897155	2569.208934
859.210268	2567.247925
859.523339	2568.939232
859.836367	2567.562998
860.149352	2567.724314
860.462295	2569.289593
860.775195	2564.815569
861.088054	2564.528223
861.400869	2566.050651
861.713642	2562.990671
862.026373	2564.797925
862.339062	2569.987792
862.651708	2568.543502
862.964312	2568.359500
863.276873	2568.233471
863.589392	2567.540312
863.901869	2565.969993
864.214303	2566.821948
864.526696	2567.406722
864.839045	2569.874367
865.151353	2569.213975
865.463619	2566.670713
865.775842	2566.096022
866.088023	2566.045610
866.400162	2568.730025
866.712258	2565.556618
867.024313	2566.060734
867.336325	2568.813204
867.648296	2570.020560
867.960224	2567.046279
868.272110	2568.067113
868.583954	2567.046279
868.895755	2568.092319
869.207515	2566.663152
869.519233	2568.273800
869.830909	2568.142730
870.142542	2566.527040
870.454134	2567.520148
870.765684	2567.222720
871.077191	2564.384550
871.388657	2570.743966
871.700081	2564.896227
872.011463	2569.140879
872.322803	2566.708522
872.634101	2568.556105
872.945357	2566.665672
873.256571	2566.075857
873.567744	2565.125600
873.878874	2569.062741
874.189963	2568.016701
874.501010	2569.226578
874.812015	2567.119376
875.122979	2568.170457
875.433900	2567.847823
875.744780	2568.717422
876.055618	2566.282544
876.366415	2570.875036
876.677169	2566.189283
876.987882	2565.014694
877.298554	2562.945301
877.609183	2563.278017
877.919771	2564.066957
878.230317	2564.059396
878.540822	2567.810014
878.851285	2569.236661
879.161707	2566.852195
879.472087	2567.384037
879.782425	2569.874367
880.092722	2570.895200
880.402977	2572.009295
880.713191	2574.378638
881.023363	2576.538772
881.333494	2579.702096
881.643583	2577.196642
881.953631	2582.257961
882.263637	2579.813001
882.573602	2578.323340
882.883526	2579.565985
883.193408	2576.077506
883.503248	2576.566498
883.813048	2575.785119
884.122806	2574.910479
884.432522	2572.296641
884.742197	2574.734039
885.051831	2570.504511
885.361424	2573.599779
885.670975	2572.891497
885.980485	2569.869325
886.289954	2569.579459
886.599382	2565.934705
886.908768	2567.373954
887.218113	2568.787998
887.527417	2569.569377
887.836680	2568.112483
888.145901	2568.548543
888.455082	2568.669531
888.764221	2570.572566
889.073319	2567.489901
889.382376	2568.072154
889.691392	2569.808832
890.000366	2571.482495
890.309300	2566.872359
890.618193	2564.737431
890.927044	2568.077195
891.235855	2568.568708
891.544625	2568.178018
891.853353	2568.230950
892.162041	2565.929664
892.470687	2567.255487
892.779293	2569.481157
893.087858	2565.188614
893.396381	2566.521999
893.704864	2567.716753
894.013306	2564.465208
894.321707	2571.991651
894.630068	2570.038204
894.938387	2571.444686
895.246665	2570.834706
895.554903	2571.749676
895.863100	2569.949984
896.171256	2568.833368
896.479371	2572.336970
896.787446	2569.637432
897.095480	2567.081567
897.403473	2568.896383
897.711425	2568.535940
898.019336	2569.614747
898.327207	2568.435117
898.635038	2567.421845
898.942827	2567.074006
899.250576	2567.898234
899.558284	2570.378482
899.865952	2567.580642
900.173579	2565.934705
900.481165	2566.980744
900.788711	2566.786660
901.096216	2565.448233
901.403681	2565.647359
901.711105	2563.399004
902.018489	2564.356824
902.325832	2571.303534
902.633135	2569.811352
902.940397	2566.708522
903.247619	2567.668862
903.554800	2568.170457
903.861941	2569.639953
904.169041	2570.955694
904.476101	2570.028122
904.783121	2570.849830
905.090100	2571.293451
905.397039	2572.152968
905.703938	2566.890003
906.010796	2569.725653
906.317614	2568.354459
906.624391	2570.007957
906.931129	2569.564336
907.237826	2568.140210
907.544483	2569.695406
907.851099	2566.766495
908.157675	2569.382854
908.464211	2564.777760
908.770707	2565.586865
909.077163	2563.290620
909.383578	2561.929508
909.689954	2562.068140
909.996289	2561.909343
910.302584	2563.202399
910.608839	2567.472257
910.915054	2568.719942
911.221229	2564.659293
911.527363	2566.693398
911.833458	2566.678275
912.139513	2568.863615
912.445527	2566.574931
912.751502	2564.379509
913.057436	2562.536967
913.363331	2566.741289
913.669186	2567.167267
913.975000	2568.394788
914.280775	2565.352452
914.586510	2566.910168
914.892205	2568.097360
915.197859	2569.720611
915.503475	2568.367062
915.809050	2571.500139
916.114585	2570.670869
916.420081	2569.103070
916.725536	2572.193297
917.030952	2571.268246
917.336328	2571.800087
917.641665	2569.229099
917.946961	2573.297310
918.252218	2567.946125
918.557435	2570.086095
918.862612	2567.343707
919.167750	2567.986454
919.472848	2568.765313
919.777906	2565.584345
920.082925	2568.251115
920.387904	2568.205745
920.692843	2567.994016
920.997743	2565.763306
921.302603	2565.594427
921.607423	2566.033007
921.912204	2566.045610
922.216946	2564.198027
922.521647	2567.394119
922.826310	2565.682647
923.130932	2569.556774
923.435516	2567.648697
923.740059	2566.816907
924.044564	2563.613253
924.349028	2567.137020
924.653454	2562.617626
924.957840	2565.440672
925.262186	2562.705846
925.566493	2565.029818
925.870761	2560.649055
926.174989	2564.828172
926.479178	2566.330435
926.783328	2566.025446
927.087438	2566.395970
927.391509	2564.974365
927.695541	2565.017215
927.999533	2566.905127
928.303486	2565.513768
928.607400	2566.718604
928.911275	2564.485373
929.215110	2564.293809
929.518906	2565.957390
929.822663	2566.219530
930.126381	2566.564849
930.430060	2564.979406
930.733699	2562.337842
931.037299	2563.993861
931.340861	2567.232802
931.644383	2564.059396
931.947866	2567.389078
932.251309	2564.503017
932.554714	2564.074519
932.858080	2566.925292
933.161407	2565.367575
933.464694	2565.158367
933.767943	2564.203068
934.071153	2566.290106
934.374323	2564.082081
934.677455	2565.680127
934.980548	2563.714077
935.283602	2566.035528
935.586617	2564.329097
935.889593	2566.224571
936.192530	2565.614592
936.495428	2567.152143
936.798287	2566.504355
937.101108	2567.696588
937.403890	2566.380847
937.706632	2565.342369
938.009336	2565.528892
938.312002	2567.880590
938.614628	2566.010322
938.917216	2564.961762
939.219765	2566.814386
939.522275	2566.678275
939.824747	2565.556618
940.127179	2562.312636
940.429573	2563.744323
940.731929	2560.250804
941.034246	2560.303736
941.336524	2563.366237
941.638763	2564.127451
941.940964	2566.937894
942.243126	2566.244736
942.545250	2564.969324
942.847335	2563.434293
943.149381	2565.412945
943.451389	2563.767009
943.753359	2561.561504
944.055290	2566.920250
944.357182	2564.124931
944.659036	2567.631053
944.960851	2566.287586
945.262628	2564.603840
945.564367	2565.465877
945.866067	2565.163408
946.167729	2566.272462
946.469352	2564.621484
946.770937	2562.126113
947.072484	2564.258521
947.373992	2564.170301
947.675462	2566.847154
947.976893	2565.377657
948.278286	2567.086608
948.579641	2567.973852
948.880958	2567.010991
949.182236	2566.960580
949.483476	2564.913871
949.784678	2567.283213
950.085841	2564.684499
950.386967	2565.768347
950.688054	2563.537636
950.989103	2568.664490
951.290114	2563.073850
951.591087	2567.013512
951.892021	2565.836402
952.192917	2564.865980
952.493776	2564.782801
952.794596	2566.098542
953.095378	2564.936556
953.396122	2566.453944
953.696828	2564.891186
953.997496	2566.640466
954.298126	2564.941598
954.598718	2564.823130
954.899272	2565.264231
955.199788	2563.827502
955.500266	2564.223233
955.800706	2564.787842
956.101108	2560.462532
956.401472	2560.059240
956.701798	2561.785835
957.002087	2561.730382
957.302337	2563.451937
957.602550	2562.960424
957.902724	2560.107131
958.202861	2565.173491
958.502960	2564.329097
958.803022	2563.444375
959.103045	2563.928326
959.403031	2564.233315
959.702979	2564.404715
960.002889	2563.928326
960.302762	2564.805486
960.602596	2562.957903
960.902393	2564.994530
961.202153	2565.647359
961.501875	2561.642162
961.801559	2564.939077
962.101205	2565.080229
962.400814	2563.162070
962.700385	2564.654252
962.999918	2563.703994
963.299414	2565.501166
963.598873	2563.005794
963.898293	2563.320867
964.197677	2566.254818
964.497022	2561.924467
964.796331	2564.528223
965.095601	2563.504869
965.394835	2564.172822
965.694030	2563.315825
965.993189	2566.648028
966.292309	2564.477811
966.591393	2561.687533
966.890439	2563.772050
967.189447	2564.344221
967.488419	2563.419169
967.787353	2561.995043
968.086249	2561.874055
968.385108	2566.642987
968.683930	2565.349931
968.982714	2564.261042
969.281462	2564.971844
969.580172	2565.644838
969.878844	2562.615105
970.177480	2562.564693
970.476078	2562.252142
970.774639	2564.008984
971.073162	2564.790363
971.371649	2559.834909
971.670098	2560.742316
971.968510	2556.485062
972.266885	2561.553942
972.565223	2564.331618
972.863524	2565.561659
973.161788	2565.549057
973.460014	2564.140054
973.758204	2563.525033
974.056356	2565.445713
974.354471	2564.724828
974.652550	2563.734241
974.950591	2565.793553
975.248595	2563.731721
975.546563	2561.826164
975.844493	2563.489745
976.142386	2564.467729
976.440243	2564.220712
976.738062	2563.590568
977.035845	2565.231464
977.333590	2565.450754
977.631299	2565.758264
977.928971	2562.063099
978.226606	2562.569735
978.524204	2563.898079
978.821765	2563.215002
979.119290	2563.779612
979.416777	2564.054354
979.714228	2564.704663
980.011642	2563.441854
980.309020	2566.703481
980.606360	2563.197358
980.903664	2566.088460
981.200931	2560.954045
981.498162	2561.354817
981.795356	2564.535785
982.092513	2562.910012
982.389633	2563.477142
982.686717	2561.984961
982.983764	2565.412945
983.280775	2566.688357
983.577749	2562.536967
983.874686	2564.893707
984.171587	2565.881773
984.468451	2568.036866
984.765279	2564.674416
985.062070	2563.462019
985.358824	2564.245918
985.655543	2560.815413
985.952224	2561.460681
986.248869	2565.425548
986.545478	2561.042265
986.842050	2559.250135
987.138586	2558.309960
987.435086	2560.134857
987.731549	2557.823488
988.027975	2564.029149
988.324366	2562.403377
988.620719	2561.742985
988.917037	2561.127965
989.213318	2563.542677
989.509563	2561.105279
989.805772	2562.756257
990.101944	2563.086453
990.398080	2564.157698
990.694180	2564.460167
990.990244	2563.472101
991.286271	2563.373799
991.582262	2564.475291
991.878217	2564.520661
992.174136	2562.763819
992.470019	2562.973027
992.765865	2561.208623
993.061676	2563.220043
993.357450	2563.867832
993.653188	2561.528736
993.948890	2562.695763
994.244556	2561.138047
994.540186	2564.442523
994.835780	2563.663665
995.131337	2562.037893
995.426859	2565.309602
995.722345	2559.852553
996.017795	2563.545198
996.313208	2562.514282
996.608586	2558.937583
996.903928	2565.662483
997.199234	2563.764488
997.494504	2562.970506
997.789738	2562.869683
998.084936	2563.940928
998.380099	2563.527554
998.675225	2560.573438
998.970316	2561.198541
999.265371	2562.741134
999.560390	2562.239539
999.855373	2561.453119
1000.150320	2563.192317
1000.445232	2563.638459
1000.740108	2563.177194
1001.034948	2563.209961
1001.329752	2566.527040
1001.624521	2565.365054
1001.919254	2558.052861
1002.213951	2560.497820
1002.508613	2559.202244
1002.803239	2560.646534
1003.097829	2559.708880
1003.392384	2562.862122
1003.686903	2562.912533
1003.981386	2562.635270
1004.275834	2562.907492
1004.570246	2565.372616
1004.864623	2563.126782
1005.158964	2562.789025
1005.453270	2561.627039
1005.747540	2563.956052
1006.041775	2564.119889
1006.335974	2564.326577
1006.630138	2561.932029
1006.924266	2562.819272
1007.218359	2563.633418
1007.512416	2562.214333
1007.806438	2563.774570
1008.100425	2563.134344
1008.394376	2562.206772
1008.688292	2562.937739
1008.982172	2563.590568
1009.276017	2564.472770
1009.569827	2562.904971
1009.863602	2564.298850
1010.157341	2562.153839
1010.451045	2560.979251
1010.744714	2561.364899
1011.038347	2562.625187
1011.331945	2565.223902
1011.625508	2563.701474
1011.919036	2561.057388
1012.212528	2562.637790
1012.505986	2561.591751
1012.799408	2563.020918
1013.092795	2562.058057
1013.386147	2562.983109
1013.679464	2563.716597
1013.972745	2562.428582
1014.265992	2564.916392
1014.559204	2564.939077
1014.852380	2562.365568
1015.145521	2563.431772
1015.438628	2562.995712
1015.731699	2561.906823
1016.024736	2560.066802
1016.317737	2561.327090
1016.610703	2559.812223
1016.903635	2558.098231
1017.196531	2558.970351
1017.489393	2559.340876
1017.782219	2556.197716
1018.075011	2557.873900
1018.367768	2561.264076
1018.660490	2563.381360
1018.953177	2563.381360
1019.245829	2563.381360
