Dividing Wavelength (nm)	Counts (n)	Blue Motor Position (mm): 0.000000	Red Motor Position (mm): 49.500000	
326.493990	2134.853037
326.888308	2134.853037
327.282561	2134.853037
327.676750	2110.199274
328.070874	2110.857144
328.464933	2117.919801
328.858929	2126.162087
329.252859	2136.854375
329.646726	2152.018165
330.040528	2166.060299
330.434265	2185.355316
330.827938	2203.833665
331.221547	2225.208158
331.615091	2244.064593
332.008571	2263.049579
332.401986	2285.147477
332.795338	2306.373255
333.188625	2324.786069
333.581847	2342.420026
333.975006	2362.630011
334.368100	2380.301776
334.761129	2397.655948
335.154095	2413.346540
335.546996	2439.865529
335.939833	2471.438276
336.332606	2482.533856
336.725315	2494.975423
337.117960	2502.017915
337.510540	2509.962774
337.903056	2521.121368
338.295508	2527.039682
338.687896	2537.331198
339.080220	2543.080634
339.472480	2550.786037
339.864676	2551.277550
340.256807	2556.192675
340.648875	2558.327604
341.040879	2560.356668
341.432818	2561.006977
341.824694	2560.480176
342.216506	2560.961607
342.608253	2561.861453
342.999937	2560.913716
343.391557	2560.386915
343.783113	2559.355999
344.174605	2555.207129
344.566033	2556.832902
344.957397	2556.366595
345.348697	2551.378373
345.739934	2550.612118
346.131106	2550.163455
346.522215	2547.680687
346.913260	2541.233051
347.304241	2541.790098
347.695159	2541.553164
348.086012	2542.024512
348.476802	2538.717515
348.867528	2534.924047
349.258191	2534.883718
349.648789	2535.050076
350.039324	2534.278779
350.429796	2535.957483
350.820203	2533.376413
351.210548	2530.006401
351.600828	2529.887934
351.991045	2529.701412
352.381198	2527.321987
352.771288	2527.846267
353.161314	2528.819210
353.551276	2528.839374
353.941175	2528.610002
354.331010	2528.930115
354.720782	2530.515558
355.110490	2529.219981
355.500135	2525.988602
355.889717	2531.062523
356.279235	2530.036648
356.668689	2533.144520
357.058080	2530.182842
357.447408	2533.240302
357.836672	2528.872142
358.225873	2528.952800
358.615010	2529.751823
359.004084	2534.193080
359.393095	2533.527647
359.782043	2534.437576
360.170927	2536.643080
360.559748	2536.239788
360.948505	2536.161650
361.337199	2539.531662
361.725830	2537.066537
362.114398	2536.607792
362.502903	2536.267514
362.891344	2539.783719
363.279722	2538.228523
363.668037	2537.757175
364.056289	2538.430169
364.444478	2540.577701
364.832603	2541.235572
365.220665	2541.822866
365.608665	2539.871939
365.996601	2542.629451
366.384474	2543.602393
366.772284	2543.705737
367.160031	2542.359749
367.547715	2546.591798
367.935336	2542.977290
368.322893	2542.700027
368.710388	2545.545758
369.097820	2543.670449
369.485189	2543.453679
369.872495	2543.196580
370.259738	2542.440407
370.646918	2545.376879
371.034035	2548.184802
371.421090	2548.252858
371.808081	2548.643547
372.195010	2548.285625
372.581875	2550.372663
372.968678	2548.772097
373.355418	2549.135060
373.742096	2552.058929
374.128710	2553.687222
374.515262	2555.428940
374.901751	2551.837118
375.288177	2557.248797
375.674540	2556.109496
376.060841	2560.462532
376.447079	2560.883469
376.833254	2559.900444
377.219367	2558.801472
377.605417	2564.618964
377.991404	2566.665672
378.377329	2566.834551
378.763191	2571.074161
379.148991	2578.235120
379.534727	2580.604462
379.920402	2584.034968
380.306013	2587.866245
380.691563	2592.378077
381.077049	2596.090887
381.462474	2603.808894
381.847835	2606.636981
382.233134	2609.424739
382.618371	2614.433125
383.003545	2620.318672
383.388657	2625.926956
383.773706	2632.982051
384.158693	2639.679224
384.543618	2646.071407
384.928480	2654.827891
385.313280	2660.111020
385.698017	2668.612926
386.082692	2679.595080
386.467305	2681.525842
386.851856	2693.753161
387.236344	2703.401929
387.620770	2709.191694
388.005133	2717.547407
388.389435	2730.530898
388.773674	2732.907802
389.157851	2743.786612
389.541965	2755.981164
389.926018	2757.226329
390.310008	2770.943308
390.693936	2778.941099
391.077802	2789.877882
391.461606	2798.304171
391.845348	2807.511838
392.229027	2815.446614
392.612645	2832.067299
392.996200	2840.538958
393.379694	2852.690659
393.763125	2868.703884
394.146494	2877.291490
394.529801	2885.773231
394.913047	2905.494225
395.296230	2908.231572
395.679351	2913.043353
396.062410	2932.298040
396.445408	2927.322421
396.828343	2936.313319
397.211217	2943.965791
397.594028	2939.708536
397.976778	2954.365691
398.359466	2966.683750
398.742092	2967.107207
399.124656	2979.944506
399.507158	2993.805158
399.889598	2996.761795
400.271977	3015.676204
400.654294	3021.344982
401.036549	3032.211189
401.418742	3038.074051
401.800874	3061.089438
402.182944	3069.606468
402.564952	3098.209975
402.946898	3086.564909
403.328783	3094.890375
403.710606	3112.763786
404.092367	3136.522744
404.474067	3159.719613
404.855705	3149.970022
405.237282	3151.356339
405.618797	3184.328006
406.000250	3205.205945
406.381642	3235.715008
406.762972	3237.386150
407.144240	3228.934656
407.525447	3251.640013
407.906593	3249.860485
408.287677	3272.840585
408.668700	3293.784059
409.049661	3291.213070
409.430560	3305.126655
409.811399	3307.485915
410.192176	3330.453412
410.572891	3338.670493
410.953545	3379.055176
411.334138	3344.959332
411.714669	3397.760378
412.095139	3342.037983
412.475547	3395.781725
412.855894	3388.240158
413.236180	3420.727874
413.616405	3396.474883
413.996568	3419.538162
414.376670	3422.046136
414.756711	3417.882143
415.136691	3446.193263
415.516609	3462.415696
415.896466	3472.130000
416.276262	3497.766787
416.655997	3529.742826
417.035670	3532.069319
417.415283	3599.484669
417.794834	3620.740694
418.174324	3606.063375
418.553753	3604.334259
418.933121	3651.469048
419.312428	3639.057727
419.691674	3636.781646
420.070859	3674.212213
420.449983	3654.282012
420.829045	3701.429403
421.208047	3687.046991
421.586988	3733.551635
421.965867	3764.337962
422.344686	3771.693005
422.723444	3810.217503
423.102141	3715.529510
423.480777	3815.631702
423.859352	3785.296559
424.237866	3883.770458
424.616319	3869.370402
424.994712	3926.743774
425.373044	3916.709357
425.751314	3981.470540
426.129524	3916.270777
426.507673	4015.384903
426.885762	3990.552179
427.263789	4015.014378
427.641756	4018.374307
428.019662	4051.421591
428.397508	4049.732804
428.775292	4086.802929
429.153016	4094.500771
429.530679	4108.671455
429.908282	4116.008854
430.285824	4091.773507
430.663305	4165.797810
431.040726	4123.179895
431.418086	4117.513638
431.795385	4192.984753
432.172624	4225.013724
432.549802	4191.706820
432.926920	4210.064182
433.303977	4202.943552
433.680974	4242.982917
434.057910	4264.811113
434.434786	4273.872587
434.811601	4268.697842
435.188355	4374.131054
435.565050	4341.797094
435.941683	4339.284078
436.318257	4430.218932
436.694770	4432.358902
437.071222	4494.894415
437.447614	4428.464611
437.823946	4428.883026
438.200218	4445.261735
438.576429	4428.522584
438.952580	4453.380513
439.328670	4459.921411
439.704700	4503.509747
440.080670	4465.766628
440.456580	4525.844579
440.832429	4559.302718
441.208218	4466.578254
441.583947	4513.738248
441.959616	4530.769787
442.335224	4555.322727
442.710773	4579.182508
443.086261	4634.010097
443.461689	4589.337912
443.837057	4593.575002
444.212365	4669.061240
444.587612	4674.853525
444.962800	4642.673320
445.337927	4683.156306
445.712995	4571.116662
446.088002	4761.800826
446.462949	4784.349907
446.837837	4804.096107
447.212664	4792.415754
447.587431	5012.726780
447.962139	5311.803314
448.336786	5645.583151
448.711374	5634.825329
449.085901	5281.190907
449.460369	5220.387030
449.834776	5155.630888
450.209124	5390.349532
450.583412	5400.053753
450.957640	5518.369634
451.331808	5382.916351
451.705917	5228.843566
452.079965	5220.906269
452.453954	5266.463176
452.827883	5230.865068
453.201752	5234.524946
453.575562	5264.476962
453.949311	5397.477723
454.323001	5403.355709
454.696632	5397.147528
455.070202	5549.687802
455.443713	5577.154529
455.817164	5669.727757
456.190556	5742.431278
456.563888	5718.405139
456.937160	5795.991017
457.310373	5638.341534
457.683526	5698.853024
458.056619	5687.089491
458.429653	5672.555845
458.802628	5717.832968
459.175542	5743.439509
459.548398	5879.843050
459.921194	6066.138890
460.293930	6128.999558
460.666607	6379.819647
461.039224	6592.367296
461.411782	6719.663993
461.784280	6639.915459
462.156719	6645.790924
462.529099	6607.069821
462.901419	6466.653522
463.273680	6332.861299
463.645882	6322.322767
464.018024	6328.120094
464.390106	6384.071860
464.762130	6644.263454
465.134094	7035.704009
465.505999	7659.216602
465.877845	8360.342800
466.249631	8714.418323
466.621358	8652.021441
466.993026	8452.694218
467.364634	8241.469872
467.736184	7962.502500
468.107674	7804.958881
468.479105	7718.477886
468.850477	7655.909605
469.221790	7486.126064
469.593043	7259.833709
469.964238	7160.830489
470.335373	7132.942826
470.706449	7288.122144
471.077467	7468.416491
471.448425	8127.590206
471.819324	8705.792908
472.190164	8752.247141
472.560945	8277.093185
472.931667	7800.895711
473.302330	7612.764890
473.672934	7487.686302
474.043479	7566.701347
474.413965	7464.557488
474.784393	7417.044613
475.154761	7569.088333
475.525070	7582.119716
475.895321	7531.438476
476.265513	7635.545864
476.635645	7796.726676
477.005719	7782.155221
477.375734	7871.605455
477.745691	7978.477917
478.115588	8184.966099
478.485427	8413.650481
478.855207	8889.280826
479.224928	9310.219693
479.594591	9698.748981
479.964194	9714.623575
480.333739	9800.865114
480.703226	9793.184916
481.072653	9896.102593
481.442022	10005.949335
481.811333	10163.029168
482.180584	9996.237552
482.549777	9943.295354
482.918912	9882.274708
483.287988	9867.541936
483.657005	9771.376885
484.025964	9695.973826
484.394864	9759.754505
484.763706	9713.940498
485.132489	9622.443556
485.501213	9616.578174
485.869879	9672.439199
486.238487	9611.290003
486.607036	9687.358494
486.975527	9634.837233
487.343959	9687.446714
487.712333	9732.439012
488.080648	9780.357700
488.448905	9881.407629
488.817104	9886.625223
489.185244	10049.325943
489.553326	10262.670095
489.921350	10721.374765
490.289315	11353.981600
490.657222	11644.205868
491.025070	11816.870428
491.392861	11740.393604
491.760593	11580.316805
492.128267	11340.131030
492.495883	11093.908473
492.863440	10858.335354
493.230939	10635.428133
493.598380	10458.390372
493.965763	10430.149828
494.333088	10304.836826
494.700354	10228.165917
495.067563	10198.869252
495.434713	10207.363596
495.801805	10249.192570
496.168839	10211.953566
496.535815	10179.196149
496.902733	10227.288756
497.269593	10181.893166
497.636395	10197.210712
498.003139	10309.820007
498.369825	10231.228418
498.736453	10317.167488
499.103023	10264.220249
499.469535	10271.882803
499.835989	10314.772940
500.202385	10294.043716
500.568723	10293.831987
500.935003	10368.516681
501.301226	10335.877731
501.667390	10503.365026
502.033497	10604.788000
502.399546	10534.925170
502.765537	10440.683319
503.131470	10541.876921
503.497345	10633.908226
503.863163	10409.801211
504.228923	10544.321881
504.594625	10659.880250
504.960269	10569.968751
505.325856	10717.089785
505.691385	10596.825498
506.056856	10661.135498
506.422270	10766.026786
506.787625	10698.026661
507.152924	10753.131514
507.518164	10816.150978
507.883347	10685.365803
508.248472	10754.006154
508.613540	10868.082425
508.978550	10937.090780
509.343503	10919.343397
509.708398	10968.005656
510.073236	11096.454256
510.438016	11115.691299
510.802738	11023.188646
511.167403	11154.109932
511.532010	11207.120185
511.896561	11307.146760
512.261053	11500.611121
512.625488	11413.333625
512.989866	11409.744323
513.354186	11381.778522
513.718449	11401.875082
514.082655	11537.071266
514.446803	11492.194915
514.810894	11599.901687
515.174927	11607.246648
515.538904	11582.156826
515.902822	11745.795200
516.266684	11617.901127
516.630488	11721.189328
516.994235	11706.401103
517.357925	11819.567446
517.721558	11885.858619
518.085133	11944.693925
518.448651	11980.397897
518.812112	11932.811926
519.175516	11939.831732
519.538863	12021.082529
519.902152	12039.868389
520.265385	12144.338741
520.628560	12166.184581
520.991678	12112.768515
521.354739	12164.548727
521.717743	12238.147052
522.080690	12207.771580
522.443580	12336.812515
522.806413	12358.353366
523.169189	12343.837363
523.531908	12408.157445
523.894569	12366.885519
524.257174	12381.625852
524.619722	12495.681958
524.982213	12468.091723
525.344647	12453.666462
525.707025	12466.052577
526.069345	12567.150396
526.431608	12552.042058
526.793815	12621.723407
527.155964	12518.503262
527.518057	12556.866442
527.880093	12517.555525
528.242072	12629.610293
528.603995	12553.181359
528.965860	12576.630286
529.327669	12604.679266
529.689421	12551.605998
530.051117	12565.743914
530.412755	12593.555960
530.774337	12602.708175
531.135862	12560.301989
531.497331	12621.756175
531.858743	12584.970875
532.220098	12665.147907
532.581396	12595.690889
532.942638	12508.776355
533.303824	12575.140625
533.664953	12559.971793
534.026025	12520.875125
534.387040	12625.930250
534.747999	12601.296652
535.108902	12641.998928
535.469748	12530.997762
535.830537	12542.060574
536.191270	12596.043770
536.551947	12522.039631
536.912567	12582.304105
537.273131	12616.538581
537.633638	12488.644507
537.994089	12547.575596
538.354483	12457.273407
538.714821	12587.292327
539.075103	12674.189216
539.435328	12606.095830
539.795497	12585.258221
540.155609	12579.796131
540.515665	12687.255887
540.875665	12550.116338
541.235609	12649.386739
541.595496	12605.921911
541.955328	12772.111109
542.315102	12624.364972
542.674821	12552.147923
543.034483	12565.756517
543.394090	12579.218919
543.753640	12551.583313
544.113134	12787.461422
544.472571	12554.948283
544.831953	12833.678721
545.191278	12640.312662
545.550548	12577.444433
545.909761	12699.367259
546.268918	12736.258423
546.628019	12809.826501
546.987064	12695.883822
547.346053	12545.841439
547.704986	12749.110844
548.063863	12631.268832
548.422684	12673.221314
548.781449	12634.114563
549.140158	12730.050242
549.498811	12677.402952
549.857408	12555.782594
550.215949	12752.216195
550.574434	12726.725601
550.932864	12659.975683
551.291237	12856.290816
551.649555	12749.914908
552.007817	12814.940752
552.366022	12727.242319
552.724173	12778.762911
553.082267	12863.121580
553.440305	12945.897326
553.798288	12773.794854
554.156215	12845.094414
554.514086	12898.049214
554.871902	12839.798682
555.229661	12860.817772
555.587365	12812.959578
555.945014	12821.043069
556.302606	12807.192498
556.660143	12862.763658
557.017625	12895.735325
557.375050	12862.567053
557.732421	12963.243936
558.089735	12957.524747
558.446994	12933.291921
558.804197	13047.224518
559.161345	13041.732181
559.518437	12858.566897
559.875474	12950.648613
560.232455	12975.057880
560.589381	13037.353939
560.946251	12965.613279
561.303065	13143.729847
561.659825	13093.961056
562.016528	13003.908404
562.373177	12940.321810
562.729770	13062.905027
563.086307	12948.218777
563.442789	13063.792270
563.799216	13105.575874
564.155587	13043.494064
564.511904	13058.617526
564.868164	13073.952716
565.224370	13136.654588
565.580520	13085.615425
565.936615	13148.962565
566.292654	13094.374430
566.648638	13153.791990
567.004567	13159.070078
567.360441	13152.249397
567.716260	13129.400367
568.072023	13216.211557
568.427732	13193.624667
568.783385	13084.957555
569.138982	13197.735728
569.494525	13198.572560
569.850013	13144.624652
570.205445	13145.879899
570.560823	13149.882575
570.916145	13105.351543
571.271412	13119.796969
571.626625	13074.184609
571.981782	13075.162593
572.336884	13016.660003
572.691931	13099.705450
573.046923	12994.874656
573.401860	12983.337976
573.756743	12968.648053
574.111570	13001.125687
574.466342	12976.328251
574.821059	13038.894012
575.175722	12904.559864
575.530330	12929.609358
575.884882	12848.287985
576.239380	12861.770551
576.593823	12835.871623
576.948211	12824.851660
577.302544	12706.427395
577.656823	12725.198131
578.011047	12795.494501
578.365216	12726.355076
578.719330	12665.720078
579.073389	12641.162097
579.427394	12651.763643
579.781344	12634.545582
580.135239	12571.180799
580.489080	12580.514495
580.842866	12468.404275
581.196597	12564.133266
581.550273	12544.545862
581.903895	12517.139630
582.257463	12626.469654
582.610975	12474.554482
582.964434	12540.875902
583.317837	12466.675159
583.671186	12412.223136
584.024481	12474.698155
584.377721	12365.211856
584.730906	12435.049480
585.084037	12448.988271
585.437113	12362.628264
585.790135	12389.369065
586.143103	12298.409005
586.496016	12316.226964
586.848874	12327.393119
587.201679	12316.025318
587.554428	12198.326978
587.907124	12249.923188
588.259765	12183.710152
588.612352	12251.798497
588.964884	12109.038061
589.317362	12166.567709
589.669786	12158.267449
590.022155	12116.108279
590.374470	12216.737272
590.726731	12100.788213
591.078937	11987.677323
591.431090	12009.019048
591.783188	11943.090838
592.135232	11868.141483
592.487222	11931.024837
592.839157	11943.047988
593.191038	11878.427958
593.542866	11821.790594
593.894639	11685.898731
594.246358	11746.667320
594.598022	11744.774367
594.949633	11657.635502
595.301190	11633.775721
595.652692	11588.314595
596.004141	11688.474760
596.355535	11473.252779
596.706876	11452.750407
597.058162	11423.332753
597.409395	11509.733089
597.760573	11536.471369
598.111698	11428.472210
598.462768	11434.894640
598.813785	11434.579568
599.164748	11311.686319
599.515657	11384.594007
599.866511	11260.213618
600.217312	11399.967005
600.568060	11157.406847
600.918753	11326.033443
601.269392	11314.297637
601.619978	11221.215252
601.970510	11260.097671
602.320988	11310.627677
602.671412	11371.257634
603.021783	11295.955398
603.372100	11223.093081
603.722363	11248.772719
604.072572	11251.061403
604.422728	11261.945254
604.772830	11203.805627
605.122878	11208.599764
605.472872	11175.106338
605.822813	11238.887016
606.172701	11200.165914
606.522534	11241.112686
606.872314	11282.533326
607.222041	11217.273069
607.571714	11301.427571
607.921333	11159.985397
608.270899	11216.978162
608.620411	11271.599064
608.969870	11224.421425
609.319276	11204.466018
609.668627	11226.389996
610.017926	11306.133488
610.367171	11337.028199
610.716362	11333.471665
611.065500	11300.749536
611.414585	11317.526496
611.763616	11377.533871
612.112594	11340.201606
612.461518	11368.522808
612.810389	11417.674058
613.159207	11363.769000
613.507971	11355.662825
613.856682	11458.835079
614.205340	11414.883779
614.553945	11550.947042
614.902496	11425.520614
615.250994	11491.232054
615.599439	11471.349744
615.947830	11514.365909
616.296169	11474.618932
616.644454	11496.749597
616.992686	11502.637665
617.340864	11603.425454
617.688990	11497.193219
618.037063	11624.159720
618.385082	11608.030548
618.733048	11644.011783
619.080961	11625.392282
619.428821	11609.149684
619.776628	11623.932868
620.124382	11571.358674
620.472083	11576.170456
620.819731	11603.249013
621.167326	11530.202694
621.514868	11509.402893
621.862357	11412.983264
622.209793	11399.651933
622.557176	11320.412556
622.904506	11263.046746
623.251783	11179.441730
623.599007	11115.083840
623.946179	11075.110010
624.293297	11053.916999
624.640363	10914.040104
624.987376	10899.987887
625.334336	10832.925418
625.681243	10748.324774
626.028097	10718.065248
626.374899	10684.675165
626.721647	10661.533749
627.068343	10617.239650
627.414987	10554.804960
627.761577	10486.141924
628.108115	10533.480879
628.454600	10409.070243
628.801032	10424.052553
629.147412	10406.723586
629.493739	10390.294466
629.840014	10306.276075
630.186236	10347.192601
630.532405	10248.244833
630.878521	10287.394434
631.224585	10240.350386
631.570597	10161.224435
631.916556	10169.766670
632.262462	10153.904680
632.608316	10131.829467
632.954117	10112.405901
633.299866	10100.760836
633.645562	10070.045086
633.991206	9969.869797
634.336797	9878.461075
634.682336	9865.601091
635.027823	9814.451024
635.373257	9769.267162
635.718639	9700.551194
636.063968	9677.210652
636.409245	9559.572806
636.754470	9540.189569
637.099642	9497.299433
637.444762	9398.344103
637.789829	9405.169825
638.134845	9325.307866
638.479808	9302.907499
638.824719	9281.364128
639.169577	9193.733751
639.514383	9190.696456
639.859137	9117.975291
640.203839	9160.260489
640.548489	9082.936751
640.893086	9095.012835
641.237632	9012.831945
641.582125	9021.167493
641.926566	9009.852623
642.270955	8992.480807
642.615292	8987.938727
642.959576	8964.147002
643.303809	8951.397924
643.647990	8974.136048
643.992118	8943.352242
644.336195	8931.823123
644.680219	8928.072505
645.024192	8957.321279
645.368112	9031.285089
645.711981	9010.434876
646.055797	9152.434098
646.399562	9111.633519
646.743274	9268.887272
647.086935	9338.787912
647.430544	9314.464344
647.774101	9336.156429
648.117606	9361.936890
648.461059	9426.176313
648.804460	9356.290798
649.147810	9235.222447
649.491108	9203.180873
649.834354	9142.324064
650.177548	9000.377774
650.520690	8905.231037
650.863781	8900.981344
651.206820	8876.751038
651.549807	8793.849263
651.892742	8698.158081
652.235626	8658.295157
652.578458	8618.709496
652.921238	8509.245882
653.263967	8545.330461
653.606644	8481.544741
653.949269	8458.912481
654.291843	8389.279023
654.634365	8454.819064
654.976836	8372.514666
655.319255	8368.149027
655.661622	8358.172583
656.003938	8320.636152
656.346203	8285.020400
656.688416	8316.956109
657.030577	8273.309799
657.372687	8233.953511
657.714746	8265.911906
658.056753	8281.952858
658.398708	8182.727826
658.740612	8176.118874
659.082465	8225.068477
659.424266	8175.120725
659.766016	8188.918363
660.107715	8167.274169
660.449362	8187.529525
660.790958	8179.561982
661.132503	8170.676948
661.473996	8173.361362
661.815438	8190.869290
662.156829	8218.131850
662.498168	8163.596647
662.839456	8164.010022
663.180693	8187.461470
663.521879	8197.420269
663.863013	8185.074483
664.204097	8176.993514
664.545129	8254.995287
664.886110	8243.975325
665.227040	8247.284843
665.567918	8261.405114
665.908746	8269.400384
666.249522	8289.133981
666.590248	8289.572562
666.930922	8305.679048
667.271545	8295.158160
667.612118	8313.444946
667.952639	8277.234338
668.293109	8278.567723
668.633528	8252.918332
668.973896	8238.558605
669.314213	8242.750325
669.654480	8203.648615
669.994695	8203.585600
670.334859	8177.190119
670.674973	8157.711100
671.015035	8183.156324
671.355047	8164.766195
671.695008	8155.772777
672.034918	8133.266545
672.374777	8134.068089
672.714585	8121.508054
673.054342	8148.397569
673.394049	8110.669573
673.733705	8158.374012
674.073310	8108.930375
674.412864	8121.876058
674.752368	8048.988535
675.091820	8109.318544
675.431223	8029.688478
675.770574	7986.498392
676.109875	7950.693597
676.449125	7912.826970
676.788324	7902.497646
677.127473	7816.901374
677.466571	7803.436452
677.805619	7749.987618
678.144616	7745.574088
678.483562	7720.600212
678.822458	7674.579519
679.161303	7659.652662
679.500098	7636.962429
679.838842	7615.300591
680.177535	7630.119062
680.516179	7660.907909
680.854771	7684.500509
681.193314	7795.821789
681.531805	7950.030685
681.870247	8068.966628
682.208638	8223.455308
682.546978	8303.108060
682.885268	8334.312802
683.223508	8268.707226
683.561697	8211.530459
683.899836	8183.534411
684.237925	8093.476718
684.575963	8077.259326
684.913951	7980.663257
685.251889	8000.583376
685.589776	7997.478025
685.927614	7984.522260
686.265401	7999.199579
686.603137	8002.433480
686.940824	8073.917041
687.278460	8129.762943
687.616046	8139.787278
687.953582	8249.727282
688.291068	8235.576763
688.628504	8287.999722
688.965889	8304.411198
689.303224	8259.630628
689.640510	8211.885860
689.977745	8107.128163
690.314930	7987.244483
690.652065	7909.391424
690.989150	7791.304915
691.326185	7639.886298
691.663170	7531.317488
692.000105	7414.997904
692.336990	7300.488095
692.673825	7225.183338
693.010610	7134.442569
693.347345	7043.220370
693.684030	6928.014881
694.020665	6877.802468
694.357251	6769.654595
694.693786	6756.429128
695.030272	6717.909671
695.366707	6618.268745
695.703093	6574.934986
696.039429	6560.998716
696.375716	6517.695205
696.711952	6507.436457
697.048139	6477.723896
697.384276	6445.667199
697.720363	6464.571526
698.056400	6440.850376
698.392388	6405.219501
698.728326	6406.623462
699.064214	6374.632300
699.400053	6371.857145
699.735842	6314.335059
700.071581	6266.441577
700.407270	6224.988168
700.742910	6196.593869
701.078501	6155.649618
701.414042	6109.359223
701.749533	6058.788888
702.084974	6000.833263
702.420366	6039.037647
702.755709	5964.320185
703.091002	5914.863946
703.426246	5915.037865
703.761440	5904.363222
704.096584	5855.978228
704.431679	5852.209965
704.766725	5831.011913
705.101721	5820.637218
705.436668	5835.783365
705.771565	5782.014418
706.106413	5840.948027
706.441212	5838.581206
706.775961	5851.277352
707.110661	5862.236820
707.445311	5924.023722
707.779913	5886.550305
708.114465	5934.582419
708.448967	5971.985260
708.783421	6085.897693
709.117825	6130.753880
709.452180	6165.691596
709.786485	6223.725359
710.120742	6356.786615
710.454949	6360.627974
710.789107	6433.633964
711.123216	6555.539147
711.457275	6587.714311
711.791286	6689.671648
712.125247	6712.747529
712.459159	6682.787952
712.793023	6810.959289
713.126837	6645.543908
713.460602	6704.205294
713.794318	6658.300547
714.127985	6607.115192
714.461602	6455.958714
714.795171	6466.388862
715.128691	6297.520290
715.462162	6207.449994
715.795584	6134.141535
716.128957	6095.475885
716.462281	6031.382655
716.795556	5986.723073
717.128782	5905.013531
717.461960	5805.531401
717.795088	5797.478158
718.128167	5730.274536
718.461198	5647.322349
718.794180	5623.545747
719.127113	5566.006017
719.459997	5528.588053
719.792833	5464.774607
720.125619	5464.114216
720.458357	5401.550976
720.791046	5371.558631
721.123686	5342.173745
721.456278	5299.276047
721.788821	5289.143327
722.121315	5246.747223
722.453761	5253.741824
722.786158	5238.545266
723.118506	5244.513992
723.450805	5223.663780
723.783056	5244.826544
724.115259	5223.724274
724.447412	5215.313109
724.779518	5258.490591
725.111574	5263.967805
725.443582	5296.773114
725.775542	5284.800373
726.107453	5374.548035
726.439315	5346.655331
726.771129	5412.021452
727.102895	5479.598120
727.434612	5524.655953
727.766281	5550.698553
728.097901	5605.188385
728.429473	5620.896621
728.760996	5634.316172
729.092471	5656.852651
729.423897	5644.219519
729.755276	5618.136589
730.086606	5634.558148
730.417887	5720.822372
730.749120	5814.741589
731.080305	5850.506055
731.411442	5922.433238
731.742530	5945.050375
732.073570	5961.983611
732.404562	6033.504981
732.735506	6029.678745
733.066401	6008.929356
733.397249	5943.704387
733.728048	5848.005643
734.058798	5701.764290
734.389501	5580.252318
734.720156	5492.667311
735.050762	5386.689654
735.381320	5318.150127
735.711831	5259.879429
736.042293	5184.640208
736.372707	5176.581924
736.703073	5131.745901
737.033391	5159.457124
737.363661	5147.459178
737.693883	5154.350435
738.024056	5176.967572
738.354182	5203.751222
738.684260	5251.627060
739.014290	5293.887053
739.344272	5324.348225
739.674207	5381.255290
740.004093	5412.860804
740.333931	5419.782309
740.663722	5437.824598
740.993464	5446.780208
741.323159	5429.012661
741.652806	5390.909100
741.982405	5358.572619
742.311956	5303.402231
742.641460	5293.738339
742.970915	5238.199947
743.300323	5176.927243
743.629683	5145.488087
743.958996	5089.662349
744.288260	5039.623856
744.617477	4985.610413
744.946647	4971.727075
745.275768	4919.583901
745.604842	4886.317326
745.933869	4853.922872
746.262847	4848.687633
746.591778	4832.351774
746.920662	4807.098114
747.249498	4804.670799
747.578286	4816.550278
747.907027	4839.661447
748.235720	4885.299013
748.564365	4893.049787
748.892963	4880.504876
749.221514	4895.850148
749.550017	4873.827868
749.878473	4872.428947
750.206881	4831.935879
750.535242	4819.708561
750.863555	4807.052744
751.191821	4787.533396
751.520039	4790.469868
751.848210	4772.735089
752.176334	4778.774391
752.504411	4758.904683
752.832440	4730.409561
753.160421	4743.577055
753.488356	4722.197522
753.816243	4705.024831
754.144082	4672.612732
754.471875	4661.481865
754.799620	4645.985358
755.127318	4642.214575
755.454969	4636.742402
755.782572	4629.528511
756.110129	4632.351557
756.437638	4613.895893
756.765100	4614.531078
757.092515	4615.342704
757.419882	4619.725988
757.747203	4612.073516
758.074477	4626.929796
758.401703	4616.860092
758.728882	4643.648783
759.056014	4655.684538
759.383099	4678.001726
759.710138	4707.502558
760.037129	4733.139346
760.364073	4746.206017
760.690970	4740.461622
761.017820	4741.737034
761.344623	4775.651397
761.671379	4829.904294
761.998088	4920.854271
762.324751	5140.293178
762.651366	5593.908804
762.977935	6280.700480
763.304456	6847.467325
763.630931	7168.908938
763.957359	7115.381967
764.283740	6823.534447
764.610074	6500.046125
764.936362	6101.084169
765.262602	5785.845695
765.588796	5437.496923
765.914943	5183.926885
766.241044	4954.652687
766.567097	4781.466367
766.893104	4632.046567
767.219064	4532.745919
767.544978	4433.757822
767.870845	4352.582642
768.196665	4305.677226
768.522438	4258.539917
768.848165	4220.436356
769.173846	4175.320550
769.499479	4146.394409
769.825066	4115.066158
770.150607	4070.383891
770.476101	4054.920152
770.801548	4034.805948
771.126949	4001.428468
771.452303	3982.080520
771.777611	3943.868574
772.102872	3939.538222
772.428087	3916.449738
772.753256	3889.880337
773.078378	3871.550701
773.403453	3838.836133
773.728482	3813.648008
774.053465	3797.687715
774.378401	3786.544244
774.703291	3759.652209
775.028135	3734.776636
775.352932	3727.237590
775.677683	3710.150599
776.002388	3684.118081
776.327046	3688.534131
776.651658	3670.383457
776.976224	3653.248575
777.300743	3649.825632
777.625216	3633.993888
777.949643	3624.317393
778.274024	3629.260244
778.598359	3608.528499
778.922647	3608.583952
779.246889	3598.305039
779.571086	3600.472735
779.895236	3603.570524
780.219339	3601.065071
780.543397	3597.987447
780.867409	3613.136114
781.191374	3612.369858
781.515294	3602.958024
781.839167	3622.371508
782.162995	3619.646764
782.486776	3612.372379
782.810511	3606.685957
783.134201	3591.570058
783.457844	3592.298504
783.781441	3580.184612
784.104993	3574.876277
784.428498	3570.308991
784.751958	3568.746234
785.075372	3560.365315
785.398739	3552.634706
785.722061	3558.623597
786.045337	3556.302145
786.368568	3578.420208
786.691752	3575.720670
787.014891	3621.451497
787.337983	3662.799041
787.661030	3754.742125
787.984031	3849.881301
788.306987	3928.195626
788.629897	3979.128924
788.952760	3989.186026
789.275579	3971.589879
789.598351	3924.878547
789.921078	3872.379971
790.243759	3806.028304
790.566395	3762.631531
790.888984	3712.396433
791.211529	3673.592151
791.534027	3628.430975
791.856480	3591.020572
792.178888	3574.039445
792.501249	3553.937844
792.823566	3523.287629
793.145836	3516.834952
793.468062	3505.235257
793.790241	3493.360819
794.112375	3498.351561
794.434464	3517.933923
794.756507	3516.492153
795.078505	3536.162736
795.400457	3576.451637
795.722364	3620.415540
796.044226	3668.026718
796.366042	3717.780385
796.687812	3713.255950
797.009538	3736.319229
797.331218	3731.058785
797.652852	3720.530335
797.974442	3698.813044
798.295986	3690.139739
798.617484	3660.628824
798.938938	3636.683343
799.260346	3622.603401
799.581709	3584.986311
799.903026	3572.907706
800.224299	3554.106723
800.545526	3526.423227
800.866708	3507.773478
801.187845	3493.234790
801.508936	3473.904486
801.829983	3467.015749
802.150984	3433.945780
802.471940	3425.005293
802.792851	3421.083276
803.113717	3412.616658
803.434538	3403.908065
803.755314	3390.808626
804.076045	3387.811660
804.396731	3377.608365
804.717372	3379.650032
805.037967	3375.581821
805.358518	3378.919065
805.679024	3390.097824
805.999485	3388.277967
806.319901	3390.312073
806.640272	3394.022362
806.960598	3407.759506
807.280879	3406.068199
807.601115	3417.453645
807.921306	3409.148344
808.241453	3407.532654
808.561554	3415.482554
808.881611	3411.000968
809.201623	3414.015578
809.521590	3404.754978
809.841513	3403.638363
810.161390	3411.374013
810.481223	3391.521950
810.801011	3394.685274
811.120755	3386.039695
811.440453	3376.272459
811.760107	3370.250801
812.079716	3361.380891
812.399281	3348.667101
812.718801	3352.969726
813.038276	3344.480423
813.357707	3338.665452
813.677093	3347.217769
813.996434	3332.376612
814.315731	3334.897189
814.634983	3337.899196
814.954191	3336.772498
815.273354	3355.712113
815.592473	3362.671426
815.911547	3382.601628
816.230577	3397.858680
816.549562	3422.983791
816.868502	3442.777881
817.187399	3461.447795
817.506250	3489.098523
817.825058	3499.165708
818.143821	3543.061555
818.462539	3589.704831
818.781213	3644.658449
819.099843	3726.120974
819.418429	3878.789798
819.736970	4032.867624
820.055466	4212.849419
820.373919	4451.616110
820.692327	4787.704795
821.010691	5294.890243
821.329011	6357.769640
821.647286	8085.025224
821.965517	10252.754145
822.283704	11892.444886
822.601847	13005.692972
822.919945	12613.072787
823.237999	11939.753594
823.556010	11040.283199
823.873976	10087.298435
824.191897	9116.004200
824.509775	8342.701282
824.827609	7544.578243
825.145398	6987.939077
825.463144	6597.912565
825.780845	6462.174457
826.098502	6513.846284
826.416116	6889.079529
826.733685	7392.847074
827.051210	7697.393260
827.368692	7616.724717
827.686129	7174.882705
828.003522	6627.088243
828.320872	6057.306789
828.638177	5595.159010
828.955439	5223.386517
829.272656	4884.195001
829.589830	4603.932052
829.906960	4336.829037
830.224046	4128.163076
830.541088	3953.540027
830.858086	3837.664065
831.175041	3739.434662
831.491952	3694.066798
831.808819	3676.274045
832.125642	3709.122204
832.442421	3810.351093
832.759157	4025.515101
833.075849	4400.249272
833.392497	4867.909553
833.709101	5260.680973
834.025662	5375.226070
834.342179	5257.232823
834.658653	4986.422039
834.975083	4711.928691
835.291469	4470.502792
835.607811	4239.814551
835.924110	4079.626847
836.240366	3919.703803
836.556578	3760.423506
836.872746	3620.274388
837.188871	3505.053775
837.504952	3409.017274
837.820990	3337.722756
838.136984	3279.855351
838.452935	3249.346288
838.768842	3235.924216
839.084706	3262.024790
839.400526	3398.937487
839.716303	3624.720685
840.032037	3835.340093
840.347727	3907.433634
840.663373	3820.365346
840.978977	3669.609640
841.294537	3538.421173
841.610054	3431.871345
841.925527	3355.707072
842.240957	3287.626289
842.556344	3226.240159
842.871687	3165.607681
843.186987	3102.777260
843.502244	3051.609549
843.817458	3013.074969
844.132629	2976.332519
844.447756	2957.990281
844.762840	2935.932712
845.077881	2916.599887
845.392879	2905.118659
845.707833	2894.340672
846.022745	2879.849875
846.337613	2877.198228
846.652438	2867.909903
846.967221	2865.114583
847.281960	2860.012935
847.596656	2853.754342
847.911309	2849.479444
848.225919	2842.313444
848.540485	2834.295489
848.855009	2837.423525
849.169490	2830.489417
849.483928	2826.572441
849.798323	2827.530260
850.112675	2824.069508
850.426984	2822.053047
850.741251	2820.003817
851.055474	2817.483241
851.369654	2815.897798
851.683792	2818.945175
851.997887	2817.722695
852.311938	2818.650268
852.625947	2816.217911
852.939914	2814.793785
853.253837	2817.110195
853.567718	2815.721357
853.881555	2819.159424
854.195350	2819.114054
854.509103	2819.482058
854.822812	2813.052066
855.136479	2812.953764
855.450103	2814.244299
855.763685	2813.384782
856.077224	2812.825214
856.390720	2814.229176
856.704173	2819.761842
857.017584	2819.751760
857.330953	2819.605566
857.644278	2825.864159
857.957561	2826.249807
858.270802	2826.247287
858.584000	2825.183603
858.897155	2825.176041
859.210268	2824.326607
859.523339	2819.910556
859.836367	2820.218067
860.149352	2819.368632
860.462295	2819.262768
860.775195	2812.308496
861.088054	2813.566264
861.400869	2809.384627
861.713642	2807.642908
862.026373	2811.779175
862.339062	2814.077941
862.651708	2817.868889
862.964312	2824.409786
863.276873	2823.404076
863.589392	2833.521672
863.901869	2837.231961
864.214303	2844.261850
864.526696	2850.986749
864.839045	2859.841536
865.151353	2864.839840
865.463619	2869.918802
865.775842	2869.696992
866.088023	2875.665718
866.400162	2874.531458
866.712258	2874.811242
867.024313	2879.509598
867.336325	2878.496326
867.648296	2881.871378
867.960224	2879.839793
868.272110	2884.354146
868.583954	2883.330792
868.895755	2887.222563
869.207515	2883.045967
869.519233	2894.436454
869.830909	2893.292112
870.142542	2899.510375
870.454134	2899.535581
870.765684	2905.017836
871.077191	2912.060328
871.388657	2917.353539
871.700081	2922.760177
872.011463	2929.727052
872.322803	2936.691406
872.634101	2940.641150
872.945357	2944.716923
873.256571	2957.387863
873.567744	2965.667958
873.878874	2964.473204
874.189963	2977.212200
874.501010	2977.439052
874.812015	2980.312510
875.122979	2987.286946
875.433900	2986.845845
875.744780	2992.088645
876.055618	2997.528050
876.366415	2998.458143
876.677169	3003.544667
876.987882	3012.049094
877.298554	3016.634023
877.609183	3034.865356
877.919771	3050.601318
878.230317	3074.284659
878.540822	3112.854527
878.851285	3161.562155
879.161707	3227.084552
879.472087	3333.004236
879.782425	3492.453411
880.092722	3767.962551
880.402977	4188.082231
880.713191	4740.328032
881.023363	5333.991953
881.333494	5782.999964
881.643583	6072.306742
881.953631	6150.230378
882.263637	6103.148521
882.573602	5966.271112
882.883526	5799.774403
883.193408	5592.099029
883.503248	5372.208940
883.813048	5158.232124
884.122806	4939.748516
884.432522	4697.211043
884.742197	4469.902895
885.051831	4258.171913
885.361424	4059.926017
885.670975	3892.431160
885.980485	3743.633943
886.289954	3615.578553
886.599382	3509.000999
886.908768	3426.232814
887.218113	3345.942357
887.527417	3281.692851
887.836680	3223.964078
888.145901	3175.480781
888.455082	3137.841006
888.764221	3103.540995
889.073319	3075.023188
889.382376	3056.990980
889.691392	3035.737476
890.000366	3030.865201
890.309300	3023.101824
890.618193	3019.283150
890.927044	3013.521111
891.235855	3013.861389
891.544625	3016.843231
891.853353	3023.666433
892.162041	3039.112528
892.470687	3064.091446
892.779293	3095.855756
893.087858	3144.041625
893.396381	3220.440312
893.704864	3327.731189
894.013306	3485.398317
894.321707	3669.014784
894.630068	3822.180161
894.938387	3904.610588
895.246665	3912.557967
895.554903	3859.779607
895.863100	3772.575207
896.171256	3698.094680
896.479371	3622.190026
896.787446	3545.254457
897.095480	3473.211327
897.403473	3418.618152
897.711425	3360.344934
898.019336	3310.248467
898.327207	3257.875920
898.635038	3212.024105
898.942827	3159.044099
899.250576	3117.089096
899.558284	3075.038311
899.865952	3049.830021
900.173579	3019.134436
900.481165	2998.768174
900.788711	2979.256388
901.096216	2961.312401
901.403681	2947.761779
901.711105	2939.587548
902.018489	2932.106476
902.325832	2939.932868
902.633135	2950.710854
902.940397	2988.030516
903.247619	3076.026377
903.554800	3251.337543
903.861941	3526.042619
904.169041	3792.999442
904.476101	3965.432109
904.783121	3992.314062
905.090100	3926.509360
905.397039	3818.694203
905.703938	3714.332236
906.010796	3612.266515
906.317614	3526.677805
906.624391	3440.615226
906.931129	3366.996736
907.237826	3299.669606
907.544483	3236.871952
907.851099	3162.199861
908.157675	3089.521546
908.464211	3015.829959
908.770707	2959.507668
909.077163	2910.777354
909.383578	2874.357538
909.689954	2845.370904
909.996289	2824.107317
910.302584	2813.077272
910.608839	2799.781229
910.915054	2794.180507
911.221229	2787.173303
911.527363	2787.632048
911.833458	2786.926287
912.139513	2792.874848
912.445527	2796.345682
912.751502	2804.850109
913.057436	2818.647747
913.363331	2838.494770
913.669186	2868.867722
913.975000	2905.368196
914.280775	2963.200313
914.586510	3048.925134
914.892205	3155.699293
915.197859	3303.400060
915.503475	3488.017196
915.809050	3665.543949
916.114585	3797.503713
916.420081	3872.745455
916.725536	3907.128644
917.030952	3867.986605
917.336328	3832.907736
917.641665	3784.467289
917.946961	3721.765418
918.252218	3662.347858
918.557435	3588.484872
918.862612	3522.395345
919.167750	3463.794452
919.472848	3390.173441
919.777906	3323.680622
920.082925	3251.554313
920.387904	3179.213755
920.692843	3125.790128
920.997743	3070.201324
921.302603	3020.863551
921.607423	2984.375680
921.912204	2949.072479
922.216946	2926.357040
922.521647	2900.011970
922.826310	2878.539175
923.130932	2862.989736
923.435516	2837.370592
923.740059	2825.090342
924.044564	2806.891776
924.349028	2798.742751
924.653454	2781.796912
924.957840	2765.952566
925.262186	2759.948552
925.566493	2748.353898
925.870761	2735.125910
926.174989	2732.383522
926.479178	2726.066957
926.783328	2714.300904
927.087438	2710.968701
927.391509	2704.407639
927.695541	2696.571166
927.999533	2689.458097
928.303486	2685.195802
928.607400	2683.139011
928.911275	2678.758248
929.215110	2675.965449
929.518906	2672.030829
929.822663	2671.090653
930.126381	2671.831703
930.430060	2671.698112
930.733699	2671.972855
931.037299	2673.240706
931.340861	2671.004954
931.644383	2675.698268
931.947866	2671.693071
932.251309	2673.555778
932.554714	2671.161230
932.858080	2672.482012
933.161407	2670.586538
933.464694	2667.864315
933.767943	2668.565035
934.071153	2666.606547
934.374323	2664.199396
934.677455	2661.502379
934.980548	2662.213182
935.283602	2662.281237
935.586617	2660.037924
935.889593	2660.937770
936.192530	2662.029179
936.495428	2663.876762
936.798287	2666.679644
937.101108	2671.826662
937.403890	2676.983762
937.706632	2687.381142
938.009336	2699.248018
938.312002	2710.809905
938.614628	2719.883982
938.917216	2734.538616
939.219765	2739.322671
939.522275	2745.621592
939.824747	2749.813312
940.127179	2748.028743
940.429573	2748.003538
940.731929	2746.589494
941.034246	2746.833990
941.336524	2746.430698
941.638763	2748.419433
941.940964	2748.873137
942.243126	2743.252250
942.545250	2740.209914
942.847335	2731.246742
943.149381	2724.544528
943.451389	2717.343240
943.753359	2713.126315
944.055290	2707.351673
944.357182	2705.126004
944.659036	2699.248018
944.960851	2697.919674
945.262628	2691.661082
945.564367	2691.605629
945.866067	2691.209898
946.167729	2691.746781
946.469352	2691.013293
946.770937	2690.307532
947.072484	2685.132787
947.373992	2685.168076
947.675462	2684.555575
947.976893	2684.747139
948.278286	2683.285205
948.579641	2680.777231
948.880958	2680.288239
949.182236	2680.525173
949.483476	2677.167764
949.784678	2675.123577
950.085841	2676.333453
950.386967	2678.181036
950.688054	2679.552230
950.989103	2683.060873
951.290114	2683.522139
951.591087	2690.902388
951.892021	2692.218129
952.192917	2697.687781
952.493776	2703.006198
952.794596	2705.592310
953.095378	2707.676827
953.396122	2709.383258
953.696828	2706.015767
953.997496	2706.103987
954.298126	2703.510314
954.598718	2699.258101
954.899272	2694.660568
955.199788	2690.315094
955.500266	2687.204702
955.800706	2677.293793
956.101108	2672.245078
956.401472	2666.293996
956.701798	2661.439364
957.002087	2649.388486
957.302337	2650.116933
957.602550	2644.218783
957.902724	2638.991106
958.202861	2631.736886
958.502960	2631.701598
958.803022	2627.076339
959.103045	2617.336830
959.403031	2617.609052
959.702979	2612.686366
960.002889	2610.148145
960.302762	2608.378700
960.602596	2606.689913
960.902393	2602.641867
961.202153	2602.407453
961.501875	2601.356372
961.801559	2601.878132
962.101205	2598.200610
962.400814	2596.930239
962.700385	2595.611977
962.999918	2596.713470
963.299414	2592.065526
963.598873	2590.598550
963.898293	2592.378077
964.197677	2589.670978
964.497022	2589.698704
964.796331	2589.429002
965.095601	2587.735175
965.394835	2590.883375
965.694030	2586.432036
965.993189	2586.926069
966.292309	2587.651996
966.591393	2587.135277
966.890439	2588.088055
967.189447	2583.170410
967.488419	2586.232911
967.787353	2585.443970
968.086249	2585.829618
968.385108	2586.764752
968.683930	2585.771645
968.982714	2588.829105
969.281462	2587.523446
969.580172	2590.936307
969.878844	2591.309353
970.177480	2593.277923
970.476078	2591.727768
970.774639	2594.197934
971.073162	2594.538212
971.371649	2592.862028
971.670098	2593.724065
971.968510	2591.626945
972.266885	2593.716504
972.565223	2598.031731
972.863524	2600.978286
973.161788	2602.367124
973.460014	2601.817638
973.758204	2605.202773
974.056356	2602.883842
974.354471	2605.255705
974.652550	2602.634305
974.950591	2604.953236
975.248595	2604.305447
975.546563	2604.965838
975.844493	2604.328132
976.142386	2604.207145
976.440243	2602.102463
976.738062	2600.869901
977.035845	2602.677155
977.333590	2600.640528
977.631299	2598.442585
977.928971	2595.392687
978.226606	2596.557194
978.524204	2594.351689
978.821765	2592.264651
979.119290	2593.978644
979.416777	2591.954620
979.714228	2594.888572
980.011642	2593.376226
980.309020	2599.435693
980.606360	2596.327821
980.903664	2601.532813
981.200931	2606.899121
981.498162	2613.518156
981.795356	2626.806637
982.092513	2641.431025
982.389633	2658.195382
982.686717	2679.360666
982.983764	2692.949097
983.280775	2706.197249
983.577749	2713.731253
983.874686	2711.510625
984.171587	2708.770758
984.468451	2704.110211
984.765279	2698.852288
985.062070	2691.540094
985.358824	2684.573219
985.655543	2673.301199
985.952224	2665.336176
986.248869	2651.654485
986.545478	2635.789974
986.842050	2626.547018
987.138586	2612.872888
987.435086	2604.900303
987.731549	2594.407142
988.027975	2595.871597
988.324366	2589.139136
988.620719	2587.392376
988.917037	2581.814339
989.213318	2581.937848
989.509563	2581.285018
989.805772	2576.417784
990.101944	2575.903587
990.398080	2575.565829
990.694180	2574.832341
990.990244	2578.255285
991.286271	2575.097002
991.582262	2574.371076
991.878217	2574.469378
992.174136	2578.482137
992.470019	2578.903073
992.765865	2578.923238
993.061676	2578.323340
993.357450	2581.002714
993.653188	2582.618403
993.948890	2585.101172
994.244556	2586.850452
994.540186	2590.979157
994.835780	2594.921339
995.131337	2603.440889
995.426859	2609.248299
995.722345	2617.107457
996.017795	2628.324025
996.313208	2638.350880
996.608586	2647.034267
996.903928	2648.498722
997.199234	2649.663229
997.494504	2650.802530
997.789738	2648.057622
998.084936	2644.662404
998.380099	2641.559574
998.675225	2635.013636
998.970316	2631.900723
999.265371	2624.477624
999.560390	2614.561675
999.855373	2611.930192
1000.150320	2598.160281
1000.445232	2598.384612
1000.740108	2593.598037
1001.034948	2587.778024
1001.329752	2582.573033
1001.624521	2580.223855
1001.919254	2573.408215
1002.213951	2574.134142
1002.508613	2573.125911
1002.803239	2569.254305
1003.097829	2568.656928
1003.392384	2569.219017
1003.686903	2571.285890
1003.981386	2570.244891
1004.275834	2566.711042
1004.570246	2570.701116
1004.864623	2566.877401
1005.158964	2566.781619
1005.453270	2564.039231
1005.747540	2566.232133
1006.041775	2564.228274
1006.335974	2563.272976
1006.630138	2564.346741
1006.924266	2567.071485
1007.218359	2565.410425
1007.512416	2564.800445
1007.806438	2564.916392
1008.100425	2564.530743
1008.394376	2564.886145
1008.688292	2564.036710
1008.982172	2562.398335
1009.276017	2560.452450
1009.569827	2563.893037
1009.863602	2565.463357
1010.157341	2562.463870
1010.451045	2561.087635
1010.744714	2562.945301
1011.038347	2563.179714
1011.331945	2562.055537
1011.625508	2561.793397
1011.919036	2559.658468
1012.212528	2560.507903
1012.505986	2561.427913
1012.799408	2561.390105
1013.092795	2561.682492
1013.386147	2563.698953
1013.679464	2561.833726
1013.972745	2561.889179
1014.265992	2561.221226
1014.559204	2563.207441
1014.852380	2562.408418
1015.145521	2562.355486
1015.438628	2559.928170
1015.731699	2561.886658
1016.024736	2560.722152
1016.317737	2560.931360
1016.610703	2559.706359
1016.903635	2558.030176
1017.196531	2558.257027
1017.489393	2556.439692
1017.782219	2557.543704
1018.075011	2559.522357
1018.367768	2561.034703
1018.660490	2561.465722
1018.953177	2561.465722
1019.245829	2561.465722
