Dividing Wavelength (nm)	Counts (n)	Blue Motor Position (mm): 0.000000	Red Motor Position (mm): 34.500000	
326.493990	2141.953502
326.888308	2141.953502
327.282561	2141.953502
327.676750	2117.710593
328.070874	2119.117075
328.464933	2122.933228
328.858929	2131.909003
329.252859	2143.357463
329.646726	2157.959165
330.040528	2172.815446
330.434265	2192.145750
330.827938	2210.974460
331.221547	2231.038252
331.615091	2249.942579
332.008571	2271.480909
332.401986	2290.181069
332.795338	2310.035653
333.188625	2328.854281
333.581847	2351.393279
333.975006	2364.568335
334.368100	2385.652961
334.761129	2405.487381
335.154095	2417.565985
335.546996	2438.597679
335.939833	2457.312963
336.332606	2469.908286
336.725315	2485.142653
337.117960	2491.224805
337.510540	2501.060096
337.903056	2509.589728
338.295508	2516.846469
338.687896	2521.996008
339.080220	2530.553367
339.472480	2537.048893
339.864676	2538.520910
340.256807	2543.151210
340.648875	2540.784388
341.040879	2547.325285
341.432818	2547.302600
341.824694	2547.325285
342.216506	2549.974412
342.608253	2549.782848
342.999937	2547.330327
343.391557	2546.803526
343.783113	2545.621375
344.174605	2545.931406
344.566033	2542.352187
344.957397	2543.393185
345.348697	2539.486291
345.739934	2537.903369
346.131106	2536.640560
346.522215	2532.955476
346.913260	2534.921526
347.304241	2531.052441
347.695159	2528.040351
348.086012	2528.327697
348.476802	2525.260155
348.867528	2526.807789
349.258191	2525.471883
349.648789	2524.577079
350.039324	2521.809485
350.429796	2522.560617
350.820203	2520.811337
351.210548	2515.298835
351.600828	2517.295132
351.991045	2517.824453
352.381198	2515.366891
352.771288	2515.649195
353.161314	2519.004083
353.551276	2518.358815
353.941175	2516.123064
354.331010	2519.485513
354.720782	2519.344361
355.110490	2515.951664
355.500135	2518.245389
355.889717	2520.846625
356.279235	2520.284536
356.668689	2520.314783
357.058080	2518.832684
357.447408	2516.894360
357.836672	2516.365039
358.225873	2518.315966
358.615010	2517.418640
359.004084	2521.486851
359.393095	2523.788138
359.782043	2521.128929
360.170927	2523.679753
360.559748	2523.019362
360.948505	2525.600433
361.337199	2525.237470
361.725830	2526.288550
362.114398	2523.014321
362.502903	2525.834847
362.891344	2528.010104
363.279722	2526.033972
363.668037	2528.189065
364.056289	2528.103366
364.444478	2530.986906
364.832603	2528.151257
365.220665	2530.833151
365.608665	2529.577903
365.996601	2527.848788
366.384474	2531.443130
366.772284	2531.443130
367.160031	2531.909437
367.547715	2530.931453
367.935336	2533.449509
368.322893	2532.574869
368.710388	2531.087729
369.097820	2532.627801
369.485189	2529.701412
369.872495	2532.685775
370.259738	2534.059489
370.646918	2533.013450
371.034035	2535.531506
371.421090	2536.776671
371.808081	2531.939684
372.195010	2537.192566
372.581875	2534.881197
372.968678	2536.070909
373.355418	2537.477391
373.742096	2541.505273
374.128710	2540.900335
374.515262	2543.055428
374.901751	2538.881353
375.288177	2544.109029
375.674540	2543.269677
376.060841	2544.408978
376.447079	2548.998948
376.833254	2552.043805
377.219367	2550.758311
377.605417	2551.796789
377.991404	2554.060267
378.377329	2556.343910
378.763191	2556.359033
379.148991	2564.278686
379.534727	2566.605178
379.920402	2572.037022
380.306013	2575.192784
380.691563	2579.792837
381.077049	2583.243507
381.462474	2588.529156
381.847835	2591.594178
382.233134	2596.274889
382.618371	2603.791250
383.003545	2611.572271
383.388657	2616.043774
383.773706	2624.573406
384.158693	2629.796042
384.543618	2634.106228
384.928480	2641.378093
385.313280	2648.856644
385.698017	2659.266627
386.082692	2665.031187
386.467305	2673.691889
386.851856	2679.705985
387.236344	2689.536235
387.620770	2696.775332
388.005133	2706.461909
388.389435	2718.568240
388.773674	2724.864642
389.157851	2729.789849
389.541965	2740.351066
389.926018	2745.505646
390.310008	2759.850249
390.693936	2769.408277
391.077802	2779.417488
391.461606	2787.914353
391.845348	2794.238480
392.229027	2804.199800
392.612645	2821.231338
392.996200	2829.080415
393.379694	2841.322857
393.763125	2858.142667
394.146494	2865.139788
394.529801	2876.522714
394.913047	2892.818244
395.296230	2896.301681
395.679351	2900.004408
396.062410	2918.888571
396.445408	2911.727612
396.828343	2926.324273
397.211217	2936.204934
397.594028	2931.337700
397.976778	2944.144752
398.359466	2959.144705
398.742092	2954.726133
399.124656	2970.525110
399.507158	2984.292501
399.889598	2988.995897
400.271977	3005.291427
400.654294	3007.456603
401.036549	3021.208870
401.418742	3027.119623
401.800874	3051.445711
402.182944	3053.452090
402.564952	3085.604570
402.946898	3077.304310
403.328783	3085.234045
403.710606	3101.375819
404.092367	3122.994808
404.474067	3150.093530
404.855705	3143.003147
405.237282	3141.062303
405.618797	3174.167560
406.000250	3194.453163
406.381642	3227.129923
406.762972	3228.538925
407.144240	3218.501988
407.525447	3240.488980
407.906593	3242.633991
408.287677	3260.971188
408.668700	3279.792336
409.049661	3281.458438
409.430560	3298.270686
409.811399	3300.282106
410.192176	3320.073676
410.572891	3325.366888
410.953545	3369.918085
411.334138	3337.236284
411.714669	3387.935169
412.095139	3332.744616
412.475547	3384.537431
412.855894	3374.830689
413.236180	3403.230029
413.616405	3385.401989
413.996568	3410.509456
414.376670	3409.932243
414.756711	3404.260945
415.136691	3432.176335
415.516609	3456.187351
415.896466	3460.812609
416.276262	3489.310252
416.655997	3516.429139
417.035670	3524.802496
417.415283	3591.295315
417.794834	3615.888584
418.174324	3597.974844
418.553753	3593.127774
418.933121	3643.866988
419.312428	3629.093886
419.691674	3626.235552
420.070859	3666.383301
420.449983	3646.377482
420.829045	3694.570913
421.208047	3679.520548
421.586988	3722.377918
421.965867	3755.122733
422.344686	3764.816871
422.723444	3802.494455
423.102141	3704.713715
423.480777	3807.770023
423.859352	3777.913789
424.237866	3876.294427
424.616319	3861.496120
424.994712	3917.233637
425.373044	3909.971855
425.751314	3972.199858
426.129524	3908.025970
426.507673	4004.203623
426.885762	3982.241837
427.263789	4008.291999
427.641756	4008.513810
428.019662	4036.892986
428.397508	4043.038152
428.775292	4083.266560
429.153016	4082.157506
429.530679	4101.366823
429.908282	4104.966207
430.285824	4088.327878
430.663305	4159.718178
431.040726	4115.161940
431.418086	4111.103811
431.795385	4181.589224
432.172624	4218.820666
432.549802	4179.600489
432.926920	4203.634190
433.303977	4196.874003
433.680974	4235.237184
434.057910	4258.212242
434.434786	4264.133078
434.811601	4258.623096
435.188355	4366.894478
435.565050	4338.616126
435.941683	4333.159077
436.318257	4418.929268
436.694770	4428.540228
437.071222	4483.942509
437.447614	4414.150254
437.823946	4420.973456
438.200218	4436.722021
438.576429	4415.168567
438.952580	4445.042445
439.328670	4451.537972
439.704700	4493.150176
440.080670	4456.962253
440.456580	4521.287376
440.832429	4551.463723
441.208218	4456.138025
441.583947	4509.239019
441.959616	4523.707130
442.335224	4549.936254
442.710773	4568.026434
443.086261	4625.999703
443.461689	4580.336932
443.837057	4588.165844
444.212365	4664.693080
444.587612	4667.417823
444.962800	4638.209378
445.337927	4678.904092
445.712995	4562.551741
446.088002	4757.841000
446.462949	4776.135347
446.837837	4795.836177
447.212664	4784.712871
447.587431	5002.372250
447.962139	5308.370288
448.336786	5639.732892
448.711374	5629.234689
449.085901	5273.765288
449.460369	5211.179363
449.834776	5149.049662
450.209124	5380.000043
450.583412	5389.898349
450.957640	5515.327297
451.331808	5380.925095
451.705917	5227.946240
452.079965	5217.795877
452.453954	5259.508904
452.827883	5225.075303
453.201752	5231.825408
453.575562	5262.233648
453.949311	5391.009923
454.323001	5397.467641
454.696632	5392.015633
455.070202	5543.051123
455.443713	5574.202933
455.817164	5665.909083
456.190556	5739.308283
456.563888	5715.604778
456.937160	5789.513135
457.310373	5631.702334
457.683526	5693.590059
458.056619	5684.571435
458.429653	5664.953785
458.802628	5713.356423
459.175542	5737.364919
459.548398	5877.902206
459.921194	6066.499333
460.293930	6127.051152
460.666607	6373.934100
461.039224	6587.600885
461.411782	6714.675771
461.784280	6636.505119
462.156719	6643.348485
462.529099	6599.485405
462.901419	6457.282017
463.273680	6330.776782
463.645882	6315.635676
464.018024	6313.150387
464.390106	6389.859105
464.762130	6641.400079
465.134094	7024.323605
465.505999	7662.505955
465.877845	8357.093776
466.249631	8722.874858
466.621358	8648.497674
466.993026	8450.985267
467.364634	8243.030109
467.736184	7956.886655
468.107674	7797.651728
468.479105	7716.645427
468.850477	7650.195458
469.221790	7479.189437
469.593043	7251.319201
469.964238	7156.903430
470.335373	7131.385109
470.706449	7287.381095
471.077467	7461.084133
471.448425	8122.443188
471.819324	8703.201755
472.190164	8748.191533
472.560945	8266.322760
472.931667	7799.214486
473.302330	7609.382276
473.672934	7484.003739
474.043479	7559.283289
474.413965	7463.120759
474.784393	7412.590753
475.154761	7563.767395
475.525070	7577.527225
475.895321	7526.014194
476.265513	7623.852908
476.635645	7789.618649
477.005719	7773.108871
477.375734	7859.756223
477.745691	7970.651525
478.115588	8173.928492
478.485427	8407.853154
478.855207	8882.490392
479.224928	9311.719436
479.594591	9693.133136
479.964194	9701.602274
480.333739	9790.757601
480.703226	9787.475810
481.072653	9882.191529
481.442022	9998.400207
481.811333	10148.364452
482.180584	10000.245269
482.549777	9938.203789
482.918912	9868.290547
483.287988	9858.508188
483.657005	9769.854456
484.025964	9687.008134
484.394864	9743.305220
484.763706	9707.825579
485.132489	9607.700702
485.501213	9609.132389
485.869879	9664.552314
486.238487	9605.936298
486.607036	9676.058748
486.975527	9625.982446
487.343959	9680.666363
487.712333	9723.627076
488.080648	9763.363971
488.448905	9865.248211
488.817104	9871.756340
489.185244	10040.844202
489.553326	10251.405636
489.921350	10712.651049
490.289315	11334.978970
490.657222	11626.171140
491.025070	11801.812502
491.392861	11722.326108
491.760593	11565.405072
492.128267	11313.566669
492.495883	11076.455998
492.863440	10843.559732
493.230939	10621.746442
493.598380	10438.376991
493.965763	10410.340614
494.333088	10281.413105
494.700354	10221.070493
495.067563	10185.404330
495.434713	10193.344147
495.801805	10233.522143
496.168839	10196.520074
496.535815	10159.825515
496.902733	10206.960303
497.269593	10163.293829
497.636395	10166.379015
498.003139	10272.626373
498.369825	10200.497544
498.736453	10295.782914
499.103023	10238.049099
499.469535	10238.018852
499.835989	10285.955184
500.202385	10268.497668
500.568723	10280.069637
500.935003	10346.290234
501.301226	10305.038472
501.667390	10472.382095
502.033497	10573.757178
502.399546	10502.689512
502.765537	10414.996120
503.131470	10513.149906
503.497345	10609.803948
503.863163	10380.038238
504.228923	10513.855667
504.594625	10628.259613
504.960269	10527.073573
505.325856	10676.740389
505.691385	10556.176154
506.056856	10619.341812
506.422270	10714.196162
506.787625	10656.936216
507.152924	10707.456140
507.518164	10767.324883
507.883347	10647.368106
508.248472	10705.999246
508.613540	10815.379682
508.978550	10893.250385
509.343503	10866.945644
509.708398	10919.081258
510.073236	11040.409228
510.438016	11052.308871
510.802738	10974.952366
511.167403	11089.038718
511.532010	11149.560291
511.896561	11238.594629
512.261053	11436.114599
512.625488	11347.405415
512.989866	11333.572488
513.354186	11310.136164
513.718449	11315.363841
514.082655	11452.992382
514.446803	11408.090825
514.810894	11520.692558
515.174927	11508.515650
515.538904	11491.048052
515.902822	11632.674228
516.266684	11511.026145
516.630488	11609.905857
516.994235	11590.318454
517.357925	11700.500433
517.721558	11757.347004
518.085133	11820.641211
518.448651	11839.482524
518.812112	11794.359156
519.175516	11801.252934
519.538863	11888.313661
519.902152	11891.628219
520.265385	11987.125317
520.628560	12000.144097
520.991678	11940.550097
521.354739	11986.669093
521.717743	12054.215513
522.080690	12026.292562
522.443580	12137.994449
522.806413	12153.286789
523.169189	12138.664922
523.531908	12184.030266
523.894569	12139.791620
524.257174	12143.635500
524.619722	12225.319836
524.982213	12204.028523
525.344647	12196.151720
525.707025	12181.517251
526.069345	12276.916046
526.431608	12258.248653
526.793815	12317.343579
527.155964	12199.436032
527.518057	12225.496277
527.880093	12163.694251
528.242072	12259.148499
528.603995	12178.865604
528.965860	12172.785972
529.327669	12191.468488
529.689421	12127.841565
530.051117	12130.016823
530.412755	12142.123154
530.774337	12139.680715
531.135862	12084.452354
531.497331	12117.814710
531.858743	12082.813979
532.220098	12139.824388
532.581396	12056.904969
532.942638	11961.067593
533.303824	12004.663491
533.664953	11973.723410
534.026025	11907.217987
534.387040	11982.873104
534.747999	11933.326123
535.108902	11948.535284
535.469748	11834.824498
535.830537	11830.317706
536.191270	11846.469563
536.551947	11755.653177
536.912567	11789.476798
537.273131	11798.117336
537.633638	11666.790237
537.994089	11686.271776
538.354483	11592.483629
538.714821	11681.943946
539.075103	11717.564739
539.435328	11631.761780
539.795497	11587.765109
540.155609	11562.566902
540.515665	11612.043306
540.875665	11471.909312
541.235609	11523.888649
541.595496	11457.421036
541.955328	11560.747045
542.315102	11416.799418
542.674821	11326.013278
543.034483	11311.698922
543.394090	11277.988726
543.753640	11217.522606
544.113134	11385.241795
544.472571	11160.227372
544.831953	11342.780156
545.191278	11164.731643
545.550548	11073.965668
545.909761	11135.124947
546.268918	11133.358022
546.628019	11134.567899
546.987064	11016.037769
547.346053	10858.627741
547.704986	10971.476490
548.063863	10838.901706
548.422684	10840.177118
548.781449	10768.247414
549.140158	10793.072576
549.498811	10717.921575
549.857408	10581.137427
550.215949	10681.736173
550.574434	10615.671852
550.932864	10527.471824
551.291237	10623.548654
551.649555	10497.754222
552.007817	10492.987811
552.366022	10396.275795
552.724173	10368.277227
553.082267	10383.819104
553.440305	10409.123176
553.798288	10230.467204
554.156215	10225.070649
554.514086	10216.495646
554.871902	10124.421492
555.229661	10088.571326
555.587365	9999.174024
555.945014	9963.593560
556.302606	9899.802800
556.660143	9889.448270
557.017625	9858.954330
557.375050	9778.515159
557.732421	9792.761459
558.089735	9728.864834
558.446994	9664.048199
558.804197	9683.620479
559.161345	9621.331982
559.518437	9445.120970
559.875474	9449.710940
560.232455	9413.712061
560.589381	9387.309017
560.946251	9295.633114
561.303065	9345.233027
561.659825	9259.193133
562.016528	9150.155496
562.373177	9055.394407
562.729770	9075.881656
563.086307	8937.728835
563.442789	8952.612842
563.799216	8914.741173
564.155587	8820.907656
564.511904	8783.106564
564.868164	8731.817865
565.224370	8710.082930
565.580520	8618.439794
565.936615	8589.523736
566.292654	8499.917226
566.648638	8475.817990
567.004567	8412.758197
567.360441	8358.843057
567.716260	8279.228114
568.072023	8265.279241
568.427732	8196.401956
568.783385	8082.708813
569.138982	8083.853155
569.494525	8025.355606
569.850013	7932.003519
570.205445	7876.402113
570.560823	7821.632497
570.916145	7742.352791
571.271412	7684.450098
571.626625	7606.687779
571.981782	7545.470528
572.336884	7454.709594
572.691931	7441.837007
573.046923	7343.267326
573.401860	7273.868282
573.756743	7212.189764
574.111570	7167.351222
574.466342	7102.650532
574.821059	7072.065852
575.175722	6958.418080
575.530330	6910.685915
575.884882	6831.252453
576.239380	6777.049967
576.593823	6711.751902
576.948211	6660.851371
577.302544	6559.660290
577.656823	6511.789493
578.011047	6485.688919
578.365216	6409.731333
578.719330	6337.358008
579.073389	6267.873264
579.427394	6227.659980
579.781344	6174.798441
580.135239	6095.425473
580.489080	6049.152722
580.842866	5966.505526
581.196597	5949.473987
581.550273	5892.425770
581.903895	5842.072205
582.257463	5823.359442
582.610975	5732.472479
582.964434	5704.824271
583.317837	5640.282378
583.671186	5578.200568
584.024481	5548.251073
584.377721	5471.612932
584.730906	5445.116627
585.084037	5410.589765
585.437113	5336.852807
585.790135	5300.962312
586.143103	5235.742385
586.496016	5196.232341
586.848874	5157.047453
587.201679	5118.454899
587.554428	5046.494949
587.907124	5015.464126
588.259765	4963.943534
588.612352	4942.148105
588.964884	4872.532291
589.317362	4845.791491
589.669786	4805.250531
590.022155	4761.359725
590.374470	4741.847939
590.726731	4680.749155
591.078937	4620.613231
591.431090	4590.094085
591.783188	4540.083318
592.135232	4489.588601
592.487222	4465.683449
592.839157	4433.641876
593.191038	4387.981625
593.542866	4341.716435
593.894639	4284.940440
594.246358	4267.757667
594.598022	4231.967995
594.949633	4186.169113
595.301190	4153.371366
595.652692	4115.504739
596.004141	4095.519084
596.355535	4036.159498
596.706876	4004.254035
597.058162	3967.647696
597.409395	3955.768217
597.760573	3932.190741
598.111698	3889.431674
598.462768	3864.200699
598.813785	3835.206502
599.164748	3798.020431
599.515657	3777.570991
599.866511	3738.494487
600.217312	3730.166500
600.568060	3680.932071
600.918753	3676.324457
601.269392	3653.384686
601.619978	3619.424953
601.970510	3602.582458
602.320988	3587.766507
602.671412	3572.222109
603.021783	3537.738096
603.372100	3513.520393
603.722363	3496.050275
604.072572	3476.425063
604.422728	3457.971919
604.772830	3431.621808
605.122878	3411.605907
605.472872	3393.351888
605.822813	3380.388561
606.172701	3358.794779
606.522534	3344.480423
606.872314	3333.432734
607.222041	3310.961791
607.571714	3301.313022
607.921333	3272.676748
608.270899	3264.197527
608.620411	3253.669077
608.969870	3234.721900
609.319276	3221.503995
609.668627	3206.370451
610.017926	3196.880479
610.367171	3189.701876
610.716362	3174.414577
611.065500	3158.524860
611.414585	3147.691420
611.763616	3140.096922
612.112594	3127.748616
612.461518	3117.320989
612.810389	3108.355297
613.159207	3094.156887
613.507971	3081.506112
613.856682	3077.710123
614.205340	3067.191755
614.553945	3060.058522
614.902496	3047.586708
615.250994	3038.384082
615.599439	3031.558359
615.947830	3022.244828
616.296169	3013.339629
616.644454	3005.596417
616.992686	2997.328925
617.340864	2993.621156
617.688990	2982.712099
618.037063	2980.841831
618.385082	2973.620378
618.733048	2970.078968
619.080961	2959.744602
619.428821	2953.216308
619.776628	2944.477468
620.124382	2936.298196
620.472083	2925.898295
620.819731	2924.038109
621.167326	2909.847261
621.514868	2901.920047
621.862357	2888.848335
622.209793	2880.860627
622.557176	2869.346631
622.904506	2857.474714
623.251783	2846.086747
623.599007	2839.107270
623.946179	2831.661486
624.293297	2819.950885
624.640363	2817.800833
624.987376	2811.610296
625.334336	2803.801549
625.681243	2798.115127
626.028097	2792.186731
626.374899	2786.507871
626.721647	2782.056532
627.068343	2775.813063
627.414987	2771.795263
627.761577	2768.032042
628.108115	2763.837802
628.454600	2759.147008
628.801032	2756.704569
629.147412	2753.969743
629.493739	2749.130236
629.840014	2746.339957
630.186236	2744.885584
630.532405	2733.936198
630.878521	2734.699933
631.224585	2733.079202
631.570597	2730.614077
631.916556	2728.385887
632.262462	2725.346072
632.608316	2725.487224
632.954117	2723.203581
633.299866	2717.363405
633.645562	2716.854248
633.991206	2714.295862
634.336797	2706.708926
634.682336	2704.503421
635.027823	2702.192052
635.373257	2697.889427
635.718639	2693.506144
636.063968	2691.547656
636.409245	2688.633869
636.754470	2686.382994
637.099642	2684.157324
637.444762	2680.598270
637.789829	2679.635409
638.134845	2678.808660
638.479808	2676.938392
638.824719	2674.422856
639.169577	2670.132834
639.514383	2669.459840
639.859137	2666.674603
640.203839	2667.889521
640.548489	2664.234684
640.893086	2660.249652
641.237632	2658.732265
641.582125	2657.328303
641.926566	2656.317552
642.270955	2659.264107
642.615292	2657.439209
642.959576	2655.173210
643.303809	2655.964671
643.647990	2655.279074
643.992118	2650.936120
644.336195	2651.909063
644.680219	2653.365957
645.024192	2655.069867
645.368112	2651.009217
645.711981	2652.166162
646.055797	2652.377890
646.399562	2651.389824
646.743274	2653.002993
647.086935	2654.336379
647.430544	2651.435195
647.774101	2650.855462
648.117606	2652.546769
648.461059	2653.534835
648.804460	2650.686583
649.147810	2650.129536
649.491108	2646.177271
649.834354	2646.532672
650.177548	2645.083341
650.520690	2642.724081
650.863781	2643.765079
651.206820	2643.553351
651.549807	2642.550161
651.892742	2638.623102
652.235626	2636.934316
652.578458	2637.808956
652.921238	2634.953142
653.263967	2636.311733
653.606644	2635.701753
653.949269	2633.370220
654.291843	2633.932308
654.634365	2636.354583
654.976836	2632.087246
655.319255	2632.677061
655.661622	2631.678913
656.003938	2631.550363
656.346203	2631.691516
656.688416	2631.031124
657.030577	2627.734210
657.372687	2629.637245
657.714746	2630.549694
658.056753	2629.919550
658.398708	2623.839918
658.740612	2624.573406
659.082465	2623.197171
659.424266	2624.127264
659.766016	2621.581482
660.107715	2629.322173
660.449362	2623.930659
660.790958	2627.850156
661.132503	2626.415948
661.473996	2627.867800
661.815438	2624.807820
662.156829	2627.169601
662.498168	2624.512912
662.839456	2625.407717
663.180693	2621.977212
663.521879	2625.642131
663.863013	2624.034003
664.204097	2625.138016
664.545129	2628.760085
664.886110	2625.289250
665.227040	2621.215998
665.567918	2626.564662
665.908746	2624.369240
666.249522	2625.430402
666.590248	2621.810854
666.930922	2623.970988
667.271545	2621.533591
667.612118	2624.449898
667.952639	2622.070473
668.293109	2621.674743
668.633528	2620.535442
668.973896	2622.564507
669.314213	2623.696246
669.654480	2622.864455
669.994695	2621.523508
670.334859	2621.536111
670.674973	2619.837242
671.015035	2618.158538
671.355047	2620.384207
671.695008	2619.202057
672.034918	2620.031327
672.374777	2619.398662
672.714585	2619.131481
673.054342	2619.688528
673.394049	2619.925462
673.733705	2620.936214
674.073310	2619.181892
674.412864	2619.756584
674.752368	2615.910183
675.091820	2621.246245
675.431223	2615.703496
675.770574	2617.553600
676.109875	2613.669391
676.449125	2613.782817
676.788324	2614.261726
677.127473	2614.337343
677.466571	2611.521859
677.805619	2615.993362
678.144616	2615.625358
678.483562	2613.679473
678.822458	2615.080914
679.161303	2616.883126
679.500098	2610.780809
679.838842	2611.884822
680.177535	2610.712754
680.516179	2613.621500
680.854771	2616.981429
681.193314	2617.230966
681.531805	2617.661984
681.870247	2618.095524
682.208638	2619.469238
682.546978	2619.063425
682.885268	2619.393621
683.223508	2620.497633
683.561697	2619.459156
683.899836	2617.659464
684.237925	2616.232817
684.575963	2619.164248
684.913951	2616.028651
685.251889	2616.563013
685.589776	2616.169803
685.927614	2616.404217
686.265401	2617.629217
686.603137	2616.583177
686.940824	2616.379011
687.278460	2619.575102
687.616046	2618.360184
687.953582	2621.634414
688.291068	2618.647530
688.628504	2616.938579
688.965889	2618.483692
689.303224	2617.079731
689.640510	2618.294649
689.977745	2615.088475
690.314930	2614.445728
690.652065	2615.789196
690.989150	2615.232148
691.326185	2613.041767
691.663170	2613.092178
692.000105	2613.316510
692.336990	2609.313834
692.673825	2610.558999
693.010610	2609.165120
693.347345	2604.665890
693.684030	2603.385437
694.020665	2603.544233
694.357251	2603.302258
694.693786	2604.804522
695.030272	2605.906014
695.366707	2605.628750
695.703093	2606.629419
696.039429	2602.893924
696.375716	2605.913575
696.711952	2600.726228
697.048139	2602.732607
697.384276	2604.625561
697.720363	2605.316199
698.056400	2601.941146
698.392388	2601.495004
698.728326	2603.521548
699.064214	2602.334356
699.400053	2602.223451
699.735842	2601.676486
700.071581	2601.404263
700.407270	2598.888727
700.742910	2600.927874
701.078501	2600.448965
701.414042	2600.650611
701.749533	2598.772781
702.084974	2600.033069
702.420366	2597.799838
702.755709	2597.583069
703.091002	2598.397215
703.426246	2597.325970
703.761440	2595.853953
704.096584	2598.871083
704.431679	2598.664396
704.766725	2597.194900
705.101721	2596.428644
705.436668	2596.915116
705.771565	2596.678182
706.106413	2596.441247
706.441212	2599.092894
706.775961	2598.127513
707.110661	2597.273038
707.445311	2596.731114
707.779913	2596.665579
708.114465	2602.523399
708.448967	2599.559201
708.783421	2601.212699
709.117825	2600.975765
709.452180	2600.411156
709.786485	2600.431321
710.120742	2600.927874
710.454949	2602.543564
710.789107	2598.840837
711.123216	2598.114910
711.457275	2599.763368
711.791286	2603.501383
712.125247	2601.865529
712.459159	2603.975252
712.793023	2607.163782
713.126837	2604.867536
713.460602	2606.616816
713.794318	2603.156064
714.127985	2606.657146
714.461602	2600.605240
714.795171	2603.173708
715.128691	2600.469129
715.462162	2602.382247
715.795584	2600.368306
716.128957	2599.370158
716.462281	2599.102977
716.795556	2598.109869
717.128782	2597.031062
717.461960	2593.605598
717.795088	2597.741865
718.128167	2597.336052
718.461198	2596.360589
718.794180	2597.174735
719.127113	2596.065681
719.459997	2594.248345
719.792833	2596.458891
720.125619	2596.005187
720.458357	2593.620722
720.791046	2593.441761
721.123686	2593.295567
721.456278	2593.855135
721.788821	2593.756833
722.121315	2592.330186
722.453761	2592.496544
722.786158	2594.623911
723.118506	2591.125351
723.450805	2590.084352
723.783056	2593.711462
724.115259	2593.275403
724.447412	2593.290526
724.779518	2593.262800
725.111574	2591.949579
725.443582	2593.358582
725.775542	2594.069384
726.107453	2595.536360
726.439315	2594.621391
726.771129	2596.723552
727.102895	2593.769436
727.434612	2595.281782
727.766281	2595.909406
728.097901	2591.740371
728.429473	2593.993767
728.760996	2594.276072
729.092471	2591.826071
729.423897	2596.161463
729.755276	2597.406628
730.086606	2597.726742
730.417887	2599.254211
730.749120	2596.660537
731.080305	2597.091556
731.411442	2598.087184
731.742530	2598.119952
732.073570	2600.988368
732.404562	2598.543408
732.735506	2598.127513
733.066401	2598.533326
733.397249	2596.887389
733.728048	2597.013418
734.058798	2596.403439
734.389501	2595.556525
734.720156	2595.165835
735.050762	2593.857656
735.381320	2591.488314
735.711831	2593.666092
736.042293	2594.162646
736.372707	2591.591657
736.703073	2592.841863
737.033391	2591.284147
737.363661	2591.982347
737.693883	2591.407655
738.024056	2595.649786
738.354182	2593.330855
738.684260	2594.356730
739.014290	2592.854466
739.344272	2595.226329
739.674207	2595.506113
740.004093	2595.249014
740.333931	2592.317583
740.663722	2593.509816
740.993464	2594.137440
741.323159	2594.502924
741.652806	2594.646597
741.982405	2596.186669
742.311956	2593.300608
742.641460	2594.490321
742.970915	2593.600557
743.300323	2591.594178
743.629683	2590.429671
743.958996	2595.128027
744.288260	2589.429002
744.617477	2590.923704
744.946647	2586.472366
745.275768	2590.119640
745.604842	2585.862386
745.933869	2585.572520
746.262847	2583.896336
746.591778	2589.615525
746.920662	2589.454208
747.249498	2588.118302
747.578286	2590.210381
747.907027	2589.786924
748.235720	2590.631317
748.564365	2589.809609
748.892963	2590.606112
749.221514	2589.955803
749.550017	2591.412696
749.878473	2590.764908
750.206881	2589.277768
750.535242	2588.332551
750.863555	2585.428847
751.191821	2588.178796
751.520039	2588.267016
751.848210	2589.832295
752.176334	2587.795668
752.504411	2589.479414
752.832440	2587.906574
753.160421	2588.236769
753.488356	2587.435226
753.816243	2589.597881
754.144082	2587.992273
754.471875	2588.488827
754.799620	2586.343816
755.127318	2585.814495
755.454969	2587.636872
755.782572	2588.685432
756.110129	2587.979671
756.437638	2587.699887
756.765100	2588.536718
757.092515	2590.006214
757.419882	2587.047057
757.747203	2589.116451
758.074477	2588.221646
758.401703	2588.572006
758.728882	2586.822726
759.056014	2588.574527
759.383099	2587.341965
759.710138	2590.958992
760.037129	2590.694332
760.364073	2591.382449
760.690970	2588.529156
761.017820	2588.972778
761.344623	2590.026379
761.671379	2588.476224
761.998088	2586.270719
762.324751	2589.423961
762.651366	2594.812955
762.977935	2602.911568
763.304456	2605.260746
763.630931	2612.101592
763.957359	2612.066304
764.283740	2610.299379
764.610074	2604.766713
764.936362	2603.307299
765.262602	2600.191866
765.588796	2596.675661
765.914943	2595.811103
766.241044	2591.677357
766.567097	2586.984043
766.893104	2589.451687
767.219064	2587.500761
767.544978	2589.315576
767.870845	2585.476738
768.196665	2589.673498
768.522438	2583.737540
768.848165	2582.358784
769.173846	2583.535893
769.499479	2582.721747
769.825066	2581.408527
770.150607	2583.198136
770.476101	2583.946747
770.801548	2584.244176
771.126949	2580.249061
771.452303	2581.713516
771.777611	2580.370049
772.102872	2581.365677
772.428087	2579.165213
772.753256	2581.428691
773.078378	2579.770152
773.403453	2579.346695
773.728482	2579.868454
774.053465	2581.184195
774.378401	2582.983887
774.703291	2579.439956
775.028135	2578.814853
775.352932	2579.175295
775.677683	2578.300655
776.002388	2577.675552
776.327046	2577.524318
776.651658	2578.280491
776.976224	2579.979359
777.300743	2580.944740
777.625216	2578.409040
777.949643	2575.593556
778.274024	2580.178485
778.598359	2573.745973
778.922647	2572.150447
779.246889	2574.035839
779.571086	2573.622464
779.895236	2574.623133
780.219339	2575.654049
780.543397	2581.393403
780.867409	2579.056828
781.191374	2580.433063
781.515294	2578.648495
781.839167	2580.894329
782.162995	2578.474575
782.486776	2578.351067
782.810511	2579.160172
783.134201	2577.814184
783.457844	2578.093968
783.781441	2576.382496
784.104993	2577.017682
784.428498	2577.373083
784.751958	2579.379462
785.075372	2578.711509
785.398739	2579.573547
785.722061	2580.521283
786.045337	2577.219328
786.368568	2577.236972
786.691752	2579.379462
787.014891	2577.746128
787.337983	2579.533217
787.661030	2581.300142
787.984031	2580.049936
788.306987	2583.969433
788.629897	2580.080182
788.952760	2584.788620
789.275579	2582.555389
789.598351	2582.199988
789.921078	2582.169741
790.243759	2578.882908
790.566395	2577.385686
790.888984	2579.477765
791.211529	2579.316448
791.534027	2580.743094
791.856480	2579.697055
792.178888	2577.405850
792.501249	2578.330902
792.823566	2578.376272
793.145836	2578.041036
793.468062	2580.725450
793.790241	2575.885942
794.112375	2577.297466
794.434464	2578.119174
794.756507	2576.831159
795.078505	2578.071283
795.400457	2573.362845
795.722364	2573.756055
796.044226	2577.042887
796.366042	2575.487691
796.687812	2575.472568
797.009538	2580.559092
797.331218	2577.952816
797.652852	2577.894842
797.974442	2579.467682
798.295986	2577.688155
798.617484	2580.395255
798.938938	2578.789647
799.260346	2580.879205
799.581709	2578.144379
799.903026	2578.580439
800.224299	2577.068093
800.545526	2578.454410
800.866708	2577.022723
801.187845	2576.707651
801.508936	2576.649677
801.829983	2577.655387
802.150984	2577.594894
802.471940	2576.526169
802.792851	2575.434759
803.113717	2580.324678
803.434538	2575.225551
803.755314	2574.434090
804.076045	2578.325861
804.396731	2576.725295
804.717372	2575.628844
805.037967	2577.368042
805.358518	2575.820408
805.679024	2576.785788
805.999485	2577.665470
806.319901	2575.167578
806.640272	2574.560119
806.960598	2575.926272
807.280879	2574.643298
807.601115	2578.537589
807.921306	2577.002558
808.241453	2574.721436
808.561554	2577.637743
808.881611	2576.808474
809.201623	2576.614389
809.521590	2578.184709
809.841513	2575.689338
810.161390	2576.813515
810.481223	2574.149265
810.801011	2575.850654
811.120755	2577.534400
811.440453	2578.461972
811.760107	2575.621282
812.079716	2574.542475
812.399281	2573.108267
812.718801	2574.212279
813.038276	2570.857392
813.357707	2576.758062
813.677093	2574.676066
813.996434	2575.676735
814.315731	2576.483319
814.634983	2575.712023
814.954191	2577.892322
815.273354	2573.622464
815.592473	2574.449214
815.911547	2577.942733
816.230577	2575.270922
816.549562	2576.944585
816.868502	2577.380645
817.187399	2576.838721
817.506250	2578.189750
817.825058	2577.738567
818.143821	2578.222517
818.462539	2576.546334
818.781213	2579.344174
819.099843	2580.528845
819.418429	2580.803588
819.736970	2584.380287
820.055466	2587.089907
820.373919	2590.200299
820.692327	2590.568303
821.010691	2604.890221
821.329011	2615.343054
821.647286	2644.496046
821.965517	2675.433607
822.283704	2697.221474
822.601847	2713.091027
822.919945	2707.891077
823.237999	2697.612164
823.556010	2680.870492
823.873976	2665.366423
824.191897	2656.501554
824.509775	2642.093937
824.827609	2635.127062
825.145398	2624.391925
825.463144	2621.137860
825.780845	2619.048302
826.098502	2617.626696
826.416116	2626.468880
826.733685	2631.870477
827.051210	2632.296454
827.368692	2633.125724
827.686129	2627.421658
828.003522	2621.188272
828.320872	2608.779471
828.638177	2601.842844
828.955439	2599.866711
829.272656	2595.039807
829.589830	2590.971595
829.906960	2588.866914
830.224046	2587.117633
830.541088	2585.504464
830.858086	2581.763928
831.175041	2580.506160
831.491952	2580.077662
831.808819	2580.755697
832.125642	2580.866602
832.442421	2582.512539
832.759157	2585.443970
833.075849	2591.067377
833.392497	2597.008377
833.709101	2602.326794
834.025662	2605.666559
834.342179	2602.972062
834.658653	2599.775971
834.975083	2594.598706
835.291469	2598.072061
835.607811	2588.572006
835.924110	2587.525967
836.240366	2584.602097
836.556578	2582.015986
836.872746	2581.716037
837.188871	2575.669173
837.504952	2576.783268
837.820990	2575.283525
838.136984	2573.476271
838.452935	2578.512384
838.768842	2576.735377
839.084706	2575.008782
839.400526	2576.997517
839.716303	2580.828794
840.032037	2581.884916
840.347727	2587.525967
840.663373	2582.245358
840.978977	2581.685790
841.294537	2578.645974
841.610054	2575.258319
841.925527	2574.242526
842.240957	2576.826118
842.556344	2576.203535
842.871687	2572.057186
843.186987	2574.552557
843.502244	2569.755899
843.817458	2571.358986
844.132629	2572.278997
844.447756	2572.092474
844.762840	2567.873028
845.077881	2566.002760
845.392879	2568.477967
845.707833	2568.886300
846.022745	2565.468398
846.337613	2567.931002
846.652438	2569.455951
846.967221	2568.553584
847.281960	2568.142730
847.596656	2573.156158
847.911309	2567.613409
848.225919	2568.092319
848.540485	2569.395457
848.855009	2567.588203
849.169490	2568.926630
849.483928	2569.095508
849.798323	2565.521330
850.112675	2569.864284
850.426984	2565.569221
850.741251	2569.650035
851.055474	2568.422514
851.369654	2568.606516
851.683792	2567.961249
851.997887	2568.578790
852.311938	2566.622822
852.625947	2570.761610
852.939914	2568.538461
853.253837	2569.473595
853.567718	2567.076526
853.881555	2568.377144
854.195350	2569.471074
854.509103	2568.281362
854.822812	2568.954356
855.136479	2566.562328
855.450103	2567.741958
855.763685	2569.360169
856.077224	2566.489232
856.390720	2567.164746
856.704173	2566.703481
857.017584	2569.823955
857.330953	2569.564336
857.644278	2568.412432
857.957561	2570.423852
858.270802	2567.568039
858.584000	2571.618606
858.897155	2567.005950
859.210268	2568.425035
859.523339	2570.612896
859.836367	2568.417473
860.149352	2569.589541
860.462295	2569.249263
860.775195	2565.100394
861.088054	2566.131310
861.400869	2566.617781
861.713642	2564.392112
862.026373	2563.104097
862.339062	2568.266238
862.651708	2567.351269
862.964312	2566.574931
863.276873	2568.495611
863.589392	2568.891342
863.901869	2569.629871
864.214303	2569.939902
864.526696	2568.563667
864.839045	2569.405539
865.151353	2570.257494
865.463619	2568.735066
865.775842	2567.378995
866.088023	2567.822617
866.400162	2571.041394
866.712258	2567.338666
867.024313	2566.602658
867.336325	2568.540981
867.648296	2570.514593
867.960224	2571.437124
868.272110	2569.319840
868.583954	2570.849830
868.895755	2569.196331
869.207515	2571.225396
869.519233	2572.117680
869.830909	2570.355797
870.142542	2569.282031
870.454134	2569.327401
870.765684	2571.386713
871.077191	2570.723801
871.388657	2570.025601
871.700081	2569.055179
872.011463	2571.341342
872.322803	2569.138358
872.634101	2569.682803
872.945357	2570.438976
873.256571	2572.362176
873.567744	2571.064079
873.878874	2570.191959
874.189963	2573.912331
874.501010	2569.768502
874.812015	2570.403688
875.122979	2570.083574
875.433900	2575.160016
875.744780	2570.567525
876.055618	2573.962742
876.366415	2572.508369
876.677169	2575.313772
876.987882	2569.912175
877.298554	2566.867318
877.609183	2569.584500
877.919771	2570.696075
878.230317	2569.045097
878.540822	2576.712692
878.851285	2575.664132
879.161707	2574.194635
879.472087	2580.604463
879.782425	2582.845255
880.092722	2585.892633
880.402977	2596.794128
880.713191	2609.094543
881.023363	2621.236162
881.333494	2631.754530
881.643583	2638.207207
881.953631	2644.823721
882.263637	2640.563946
882.573602	2637.720736
882.883526	2633.143368
883.193408	2629.158336
883.503248	2623.418982
883.813048	2617.178034
884.122806	2611.413474
884.432522	2608.603031
884.742197	2603.662700
885.051831	2598.780343
885.361424	2594.823037
885.670975	2591.256421
885.980485	2588.408169
886.289954	2585.154104
886.599382	2582.570512
886.908768	2581.597570
887.218113	2578.840059
887.527417	2579.704617
887.836680	2575.641447
888.145901	2575.323854
888.455082	2574.502146
888.764221	2574.728998
889.073319	2573.345201
889.382376	2569.972669
889.691392	2573.967783
890.000366	2571.853019
890.309300	2572.092474
890.618193	2573.004923
890.927044	2573.337639
891.235855	2574.043401
891.544625	2572.979717
891.853353	2572.399985
892.162041	2573.284707
892.470687	2572.762948
892.779293	2572.024419
893.087858	2573.539285
893.396381	2574.809656
893.704864	2573.851837
894.013306	2579.031622
894.321707	2584.319793
894.630068	2590.510330
894.938387	2591.059816
895.246665	2592.589806
895.554903	2590.734661
895.863100	2587.944383
896.171256	2591.251379
896.479371	2586.560586
896.787446	2583.893815
897.095480	2580.317117
897.403473	2579.613876
897.711425	2581.123701
898.019336	2579.326530
898.327207	2576.301838
898.635038	2577.612538
898.942827	2575.593556
899.250576	2574.134142
899.558284	2573.803946
899.865952	2573.572053
900.173579	2572.470561
900.481165	2573.425859
900.788711	2572.452917
901.096216	2574.081209
901.403681	2571.651373
901.711105	2572.127762
902.018489	2573.244378
902.325832	2572.266394
902.633135	2572.596590
902.940397	2572.861250
903.247619	2574.865109
903.554800	2579.213104
903.861941	2587.195771
904.169041	2593.547625
904.476101	2594.649117
904.783121	2595.606936
905.090100	2592.050402
905.397039	2591.695001
905.703938	2589.860021
906.010796	2587.790627
906.317614	2585.786769
906.624391	2584.453383
906.931129	2581.600090
907.237826	2582.124370
907.544483	2579.850810
907.851099	2577.247054
908.157675	2573.670355
908.464211	2575.694379
908.770707	2569.864284
909.077163	2567.898234
909.383578	2565.423028
909.689954	2565.836402
909.996289	2567.663821
910.302584	2569.115673
910.608839	2569.438307
910.915054	2566.521999
911.221229	2567.147102
911.527363	2565.758264
911.833458	2569.113152
912.139513	2568.079716
912.445527	2568.180539
912.751502	2569.844120
913.057436	2568.034345
913.363331	2569.927299
913.669186	2570.822103
913.975000	2570.708677
914.280775	2572.994841
914.586510	2574.892835
914.892205	2577.178998
915.197859	2580.231417
915.503475	2585.862386
915.809050	2591.944538
916.114585	2592.829261
916.420081	2598.019128
916.725536	2596.564756
917.030952	2597.820003
917.336328	2595.959817
917.641665	2595.117944
917.946961	2591.342120
918.252218	2589.726430
918.557435	2589.020669
918.862612	2586.605956
919.167750	2585.055801
919.472848	2584.342478
919.777906	2582.099165
920.082925	2581.602611
920.387904	2578.822415
920.692843	2577.821746
920.997743	2575.553226
921.302603	2572.664645
921.607423	2573.632547
921.912204	2573.945098
922.216946	2572.783112
922.521647	2569.289593
922.826310	2570.867474
923.130932	2571.122052
923.435516	2570.320509
923.740059	2568.029304
924.044564	2566.700960
924.349028	2570.675910
924.653454	2562.892368
924.957840	2565.571742
925.262186	2563.948490
925.566493	2565.995199
925.870761	2562.335321
926.174989	2564.626525
926.479178	2564.611402
926.783328	2566.537123
927.087438	2566.219530
927.391509	2565.783470
927.695541	2563.341031
927.999533	2567.915878
928.303486	2562.660475
928.607400	2564.944118
928.911275	2564.997050
929.215110	2563.640980
929.518906	2564.321536
929.822663	2564.049313
930.126381	2564.291289
930.430060	2563.628377
930.733699	2564.001422
931.037299	2562.022769
931.340861	2565.473439
931.644383	2560.845660
931.947866	2563.908161
932.251309	2564.956721
932.554714	2566.476629
932.858080	2565.037379
933.161407	2565.591906
933.464694	2566.665672
933.767943	2563.668706
934.071153	2565.460836
934.374323	2565.407904
934.677455	2564.160219
934.980548	2562.622667
935.283602	2564.707184
935.586617	2562.917574
935.889593	2563.882955
936.192530	2563.525033
936.495428	2564.440003
936.798287	2565.332287
937.101108	2565.193655
937.403890	2561.523695
937.706632	2564.122410
938.009336	2565.488563
938.312002	2565.458316
938.614628	2566.068295
938.917216	2564.760116
939.219765	2566.123748
939.522275	2564.208110
939.824747	2566.753892
940.127179	2563.000753
940.429573	2564.044272
940.731929	2563.638459
941.034246	2559.542522
941.336524	2563.514951
941.638763	2565.554098
941.940964	2569.713050
942.243126	2565.445713
942.545250	2566.995868
942.847335	2566.106104
943.149381	2565.196176
943.451389	2562.859601
943.753359	2566.587534
944.055290	2565.037379
944.357182	2563.139385
944.659036	2565.309602
944.960851	2567.094170
945.262628	2562.872204
945.564367	2567.290775
945.866067	2564.187945
946.167729	2565.276834
946.469352	2562.894889
946.770937	2564.709704
947.072484	2567.678944
947.373992	2564.908830
947.675462	2565.176011
947.976893	2563.341031
948.278286	2564.056875
948.579641	2562.768860
948.880958	2564.071998
949.182236	2566.516958
949.483476	2563.419169
949.784678	2566.685837
950.085841	2564.230795
950.386967	2564.160219
950.688054	2563.358675
950.989103	2565.087791
951.290114	2566.242215
951.591087	2565.569221
951.892021	2564.843295
952.192917	2563.598130
952.493776	2562.668037
952.794596	2565.433110
953.095378	2567.358831
953.396122	2563.267934
953.696828	2566.474108
953.997496	2567.013512
954.298126	2565.168449
954.598718	2565.470919
954.899272	2563.910682
955.199788	2564.976886
955.500266	2564.036710
955.800706	2563.356155
956.101108	2560.432285
956.401472	2561.306926
956.701798	2559.749209
957.002087	2561.299364
957.302337	2564.298850
957.602550	2565.342369
957.902724	2561.400187
958.202861	2561.760629
958.502960	2561.992522
958.803022	2562.294992
959.103045	2559.149312
959.403031	2562.937739
959.702979	2561.863973
960.002889	2563.280537
960.302762	2561.155691
960.602596	2560.903633
960.902393	2560.795248
961.202153	2561.349775
961.501875	2561.871535
961.801559	2564.021587
962.101205	2561.145609
962.400814	2560.759960
962.700385	2558.806513
962.999918	2562.002605
963.299414	2560.540670
963.598873	2561.511092
963.898293	2559.567727
964.197677	2560.364230
964.497022	2564.419838
964.796331	2560.424724
965.095601	2560.495300
965.394835	2564.034190
965.694030	2563.875393
965.993189	2560.394477
966.292309	2560.545711
966.591393	2558.998077
966.890439	2561.069991
967.189447	2559.285423
967.488419	2562.363047
967.787353	2561.216185
968.086249	2560.437327
968.385108	2561.213664
968.683930	2561.064950
968.982714	2561.579148
969.281462	2559.451781
969.580172	2563.966134
969.878844	2560.354147
970.177480	2562.058057
970.476078	2558.975392
970.774639	2561.495969
971.073162	2559.943293
971.371649	2558.854404
971.670098	2559.761812
971.968510	2558.050340
972.266885	2557.546225
972.565223	2560.724672
972.863524	2561.490928
973.161788	2560.989333
973.460014	2558.708211
973.758204	2560.729713
974.056356	2561.806000
974.354471	2559.368602
974.652550	2559.986143
974.950591	2560.497820
975.248595	2563.799776
975.546563	2562.617626
975.844493	2561.473284
976.142386	2560.928839
976.440243	2562.317677
976.738062	2561.138047
977.035845	2561.339693
977.333590	2560.666699
977.631299	2561.039744
977.928971	2561.017059
978.226606	2562.040413
978.524204	2559.078736
978.821765	2558.962789
979.119290	2559.227450
979.416777	2561.740465
979.714228	2560.477656
980.011642	2560.694425
980.309020	2561.586710
980.606360	2560.180228
980.903664	2564.122410
981.200931	2562.274827
981.498162	2561.145609
981.795356	2561.969837
982.092513	2564.399673
982.389633	2562.521844
982.686717	2564.855898
982.983764	2562.844477
983.280775	2562.738613
983.577749	2562.385733
983.874686	2566.383368
984.171587	2567.583162
984.468451	2564.994530
984.765279	2564.578634
985.062070	2563.910682
985.358824	2565.183573
985.655543	2564.606361
985.952224	2564.576114
986.248869	2559.078736
986.545478	2559.252655
986.842050	2556.280895
987.138586	2558.103272
987.435086	2556.782490
987.731549	2556.230484
988.027975	2557.692418
988.324366	2559.514795
988.620719	2559.693756
988.917037	2560.180228
989.213318	2560.656617
989.509563	2557.394990
989.805772	2559.116544
990.101944	2560.044117
990.398080	2563.482183
990.694180	2560.855742
990.990244	2559.804662
991.286271	2557.563869
991.582262	2559.981102
991.878217	2558.972871
992.174136	2559.023283
992.470019	2558.955227
992.765865	2558.667882
993.061676	2558.254507
993.357450	2560.399518
993.653188	2560.651576
993.948890	2560.638973
994.244556	2559.212326
994.540186	2563.767009
994.835780	2562.136195
995.131337	2562.342883
995.426859	2560.202913
995.722345	2558.897254
996.017795	2558.602347
996.313208	2561.566545
996.608586	2563.146947
996.903928	2559.925649
997.199234	2561.077553
997.494504	2561.604354
997.789738	2562.756257
998.084936	2560.218036
998.380099	2561.697615
998.675225	2561.080074
998.970316	2561.609395
999.265371	2559.119065
999.560390	2562.113510
999.855373	2560.419682
1000.150320	2562.053016
1000.445232	2560.472615
1000.740108	2558.514126
1001.034948	2560.644014
1001.329752	2560.689384
1001.624521	2558.304918
1001.919254	2555.270144
1002.213951	2557.757953
1002.508613	2557.024465
1002.803239	2555.978426
1003.097829	2554.549259
1003.392384	2559.739127
1003.686903	2560.396997
1003.981386	2559.993705
1004.275834	2560.893551
1004.570246	2562.597461
1004.864623	2558.075546
1005.158964	2559.618139
1005.453270	2557.740309
1005.747540	2560.177707
1006.041775	2558.773746
1006.335974	2558.405742
1006.630138	2556.409445
1006.924266	2561.150650
1007.218359	2556.888354
1007.512416	2556.164949
1007.806438	2557.982285
1008.100425	2560.414641
1008.394376	2558.052861
1008.688292	2558.070505
1008.982172	2557.644527
1009.276017	2558.307439
1009.569827	2555.973385
1009.863602	2560.510423
1010.157341	2559.839950
1010.451045	2560.689384
1010.744714	2557.896585
1011.038347	2560.253324
1011.331945	2559.174518
1011.625508	2558.869528
1011.919036	2557.904147
1012.212528	2558.930022
1012.505986	2556.779969
1012.799408	2557.911708
1013.092795	2556.810216
1013.386147	2559.179559
1013.679464	2557.004301
1013.972745	2557.223591
1014.265992	2558.861966
1014.559204	2560.344065
1014.852380	2555.872562
1015.145521	2556.795093
1015.438628	2556.840463
1015.731699	2559.542522
1016.024736	2555.799465
1016.317737	2559.507234
1016.610703	2556.711914
1016.903635	2557.142933
1017.196531	2554.077911
1017.489393	2554.730740
1017.782219	2552.474824
1018.075011	2553.868703
1018.367768	2555.754095
1018.660490	2556.462377
1018.953177	2556.462377
1019.245829	2556.462377
