Dividing Wavelength (nm)	Counts (n)	Blue Motor Position (mm): 0.000000	Red Motor Position (mm): 33.500000	
326.493990	2143.856537
326.888308	2143.856537
327.282561	2143.856537
327.676750	2118.965840
328.070874	2120.301746
328.464933	2126.618312
328.858929	2136.098202
329.252859	2146.929121
329.646726	2158.007056
330.040528	2173.286793
330.434265	2190.066274
330.827938	2209.515046
331.221547	2231.751575
331.615091	2251.459966
332.008571	2270.510487
332.401986	2291.663168
332.795338	2308.447690
333.188625	2331.016936
333.581847	2350.548886
333.975006	2370.894983
334.368100	2388.702859
334.761129	2407.297155
335.154095	2422.576892
335.546996	2439.220262
335.939833	2456.211471
336.332606	2474.074799
336.725315	2484.164669
337.117960	2492.520381
337.510540	2501.987668
337.903056	2506.653256
338.295508	2514.595594
338.687896	2521.907788
339.080220	2531.995137
339.472480	2537.275745
339.864676	2539.695499
340.256807	2543.516694
340.648875	2543.199101
341.040879	2547.181612
341.432818	2547.988197
341.824694	2550.241593
342.216506	2545.989380
342.608253	2548.330996
342.999937	2548.252858
343.391557	2545.323947
343.783113	2544.114070
344.174605	2544.255223
344.566033	2540.630633
344.957397	2539.912269
345.348697	2538.561239
345.739934	2538.999820
346.131106	2536.577545
346.522215	2533.502442
346.913260	2531.944725
347.304241	2529.340969
347.695159	2526.409538
348.086012	2527.886596
348.476802	2523.407531
348.867528	2525.756709
349.258191	2524.635052
349.648789	2523.657068
350.039324	2521.943076
350.429796	2521.055833
350.820203	2520.655061
351.210548	2518.807478
351.600828	2517.358146
351.991045	2519.936697
352.381198	2520.231604
352.771288	2517.370749
353.161314	2518.318486
353.551276	2517.222035
353.941175	2517.438805
354.331010	2517.801768
354.720782	2518.774711
355.110490	2517.494258
355.500135	2519.581295
355.889717	2519.112468
356.279235	2519.311593
356.668689	2519.835873
357.058080	2519.674557
357.447408	2516.813702
357.836672	2518.409227
358.225873	2517.287570
358.615010	2514.933351
359.004084	2520.329907
359.393095	2522.122037
359.782043	2522.643796
360.170927	2523.034486
360.559748	2524.960206
360.948505	2523.715041
361.337199	2522.842922
361.725830	2525.396266
362.114398	2526.490197
362.502903	2529.562780
362.891344	2523.599095
363.279722	2526.570855
363.668037	2529.192255
364.056289	2524.710669
364.444478	2528.824251
364.832603	2529.189734
365.220665	2528.640249
365.608665	2528.216792
365.996601	2531.286854
366.384474	2529.635877
366.772284	2528.635208
367.160031	2530.699560
367.547715	2531.591844
367.935336	2535.629808
368.322893	2532.511855
368.710388	2530.208047
369.097820	2535.357586
369.485189	2533.968748
369.872495	2533.628470
370.259738	2535.183666
370.646918	2530.555887
371.034035	2534.843388
371.421090	2536.847247
371.808081	2535.549150
372.195010	2536.554860
372.581875	2535.707946
372.968678	2540.101312
373.355418	2537.558050
373.742096	2540.502084
374.128710	2541.268339
374.515262	2541.472506
374.901751	2542.059800
375.288177	2543.030222
375.674540	2544.580377
376.060841	2547.244627
376.447079	2550.755791
376.833254	2549.046839
377.219367	2549.470296
377.605417	2549.966850
377.991404	2554.342572
378.377329	2554.541697
378.763191	2555.630586
379.148991	2563.744323
379.534727	2568.891342
379.920402	2572.636919
380.306013	2574.560119
380.691563	2580.115471
381.077049	2585.713672
381.462474	2588.824064
381.847835	2594.455033
382.233134	2598.790425
382.618371	2604.761672
383.003545	2611.622682
383.388657	2615.890019
383.773706	2622.929990
384.158693	2629.120527
384.543618	2633.839047
384.928480	2643.331540
385.313280	2652.070380
385.698017	2656.967861
386.082692	2664.489262
386.467305	2670.997392
386.851856	2679.050635
387.236344	2691.691329
387.620770	2698.912782
388.005133	2707.036601
388.389435	2717.517160
388.773674	2725.381360
389.157851	2732.585169
389.541965	2741.697054
389.926018	2745.772827
390.310008	2757.710279
390.693936	2768.057248
391.077802	2776.448248
391.461606	2790.447532
391.845348	2795.027421
392.229027	2806.062507
392.612645	2820.787717
392.996200	2827.676454
393.379694	2843.372086
393.763125	2860.428830
394.146494	2866.793287
394.529801	2877.112529
394.913047	2891.310939
395.296230	2896.251269
395.679351	2901.214285
396.062410	2919.979981
396.445408	2919.304466
396.828343	2930.004315
397.211217	2934.871549
397.594028	2931.708225
397.976778	2941.062086
398.359466	2955.946093
398.742092	2955.477265
399.124656	2970.504945
399.507158	2983.082624
399.889598	2989.686535
400.271977	3004.744462
400.654294	3010.272087
401.036549	3023.429499
401.418742	3025.209026
401.800874	3050.634085
402.182944	3056.867472
402.564952	3086.338057
402.946898	3075.607962
403.328783	3085.085331
403.710606	3102.731890
404.092367	3127.189048
404.474067	3151.820125
404.855705	3138.914772
405.237282	3142.912407
405.618797	3173.058507
406.000250	3194.299408
406.381642	3224.077504
406.762972	3228.549007
407.144240	3219.936196
407.525447	3241.771954
407.906593	3240.967890
408.287677	3261.692073
408.668700	3283.167389
409.049661	3276.878549
409.430560	3296.508803
409.811399	3301.943166
410.192176	3319.637616
410.572891	3326.939728
410.953545	3366.149822
411.334138	3332.500120
411.714669	3389.563461
412.095139	3333.382322
412.475547	3382.473078
412.855894	3375.985113
413.236180	3404.001326
413.616405	3380.491905
413.996568	3408.193045
414.376670	3410.781678
414.756711	3408.079619
415.136691	3430.578289
415.516609	3453.974284
415.896466	3464.104483
416.276262	3490.295798
416.655997	3513.351515
417.035670	3522.407947
417.415283	3592.217846
417.794834	3616.647277
418.174324	3595.640789
418.553753	3596.812858
418.933121	3643.814056
419.312428	3631.493476
419.691674	3627.072384
420.070859	3665.198630
420.449983	3649.190446
420.829045	3694.717107
421.208047	3678.829910
421.586988	3724.890933
421.965867	3754.787496
422.344686	3761.945934
422.723444	3799.517654
423.102141	3706.475598
423.480777	3808.564004
423.859352	3775.259622
424.237866	3875.651680
424.616319	3858.564689
424.994712	3916.192639
425.373044	3908.767019
425.751314	3975.680775
426.129524	3906.528747
426.507673	4007.046834
426.885762	3981.531034
427.263789	4006.729242
427.641756	4010.268132
428.019662	4039.463974
428.397508	4042.642422
428.775292	4084.415943
429.153016	4090.127570
429.530679	4101.608798
429.908282	4105.709777
430.285824	4084.131118
430.663305	4158.596522
431.040726	4117.667394
431.418086	4106.697843
431.795385	4185.213814
432.172624	4214.243298
432.549802	4182.962939
432.926920	4201.632852
433.303977	4196.697563
433.680974	4238.521495
434.057910	4257.516563
434.434786	4266.938480
434.811601	4259.147376
435.188355	4363.751319
435.565050	4331.926514
435.941683	4333.451463
436.318257	4422.947068
436.694770	4425.502933
437.071222	4485.197756
437.447614	4421.787602
437.823946	4428.507460
438.200218	4436.885858
438.576429	4421.517901
438.952580	4448.104946
439.328670	4450.703661
439.704700	4493.702183
440.080670	4454.837407
440.456580	4522.406512
440.832429	4553.913724
441.208218	4459.913849
441.583947	4510.756406
441.959616	4523.724774
442.335224	4546.881314
442.710773	4572.944080
443.086261	4626.249241
443.461689	4580.919185
443.837057	4592.160958
444.212365	4662.797606
444.587612	4668.776414
444.962800	4638.237104
445.337927	4678.999874
445.712995	4564.946289
446.088002	4752.562912
446.462949	4775.880769
446.837837	4796.675529
447.212664	4783.563487
447.587431	5006.359802
447.962139	5302.487262
448.336786	5641.426720
448.711374	5628.687724
449.085901	5277.478097
449.460369	5211.025607
449.834776	5147.623015
450.209124	5378.187748
450.583412	5388.259974
450.957640	5512.461402
451.331808	5376.998036
451.705917	5226.224686
452.079965	5221.314602
452.453954	5257.247947
452.827883	5220.553388
453.201752	5225.241661
453.575562	5259.844141
453.949311	5393.094440
454.323001	5403.237242
454.696632	5394.997476
455.070202	5547.076484
455.443713	5575.982461
455.817164	5664.948744
456.190556	5738.191668
456.563888	5712.650662
456.937160	5792.666376
457.310373	5634.169979
457.683526	5690.482188
458.056619	5679.537843
458.429653	5663.995966
458.802628	5712.244849
459.175542	5742.222070
459.548398	5874.738882
459.921194	6060.427263
460.293930	6124.311285
460.666607	6376.749584
461.039224	6589.408139
461.411782	6717.513940
461.784280	6635.156610
462.156719	6641.102651
462.529099	6598.378872
462.901419	6461.519107
463.273680	6330.323078
463.645882	6316.757333
464.018024	6316.996788
464.390106	6381.551283
464.762130	6641.964688
465.134094	7023.753954
465.505999	7654.908936
465.877845	8364.305147
466.249631	8719.119198
466.621358	8647.900298
466.993026	8444.567878
467.364634	8231.556443
467.736184	7956.092673
468.107674	7800.303375
468.479105	7714.628965
468.850477	7650.623956
469.221790	7475.529559
469.593043	7257.234995
469.964238	7151.070815
470.335373	7131.264122
470.706449	7281.233407
471.077467	7457.333514
471.448425	8123.161552
471.819324	8701.971714
472.190164	8749.424095
472.560945	8263.424097
472.931667	7793.031511
473.302330	7600.943384
473.672934	7482.708162
474.043479	7557.521406
474.413965	7462.818290
474.784393	7408.963643
475.154761	7555.119296
475.525070	7571.689569
475.895321	7528.086108
476.265513	7624.815768
476.635645	7786.286447
477.005719	7775.032071
477.375734	7861.712191
477.745691	7972.478943
478.115588	8173.046290
478.485427	8407.258298
478.855207	8875.785657
479.224928	9300.618815
479.594591	9690.236993
479.964194	9705.849447
480.333739	9784.569584
480.703226	9785.829873
481.072653	9882.380572
481.442022	9997.565896
481.811333	10147.774637
482.180584	9993.555658
482.549777	9926.422613
482.918912	9867.239466
483.287988	9860.529691
483.657005	9763.401779
484.025964	9679.176702
484.394864	9738.594261
484.763706	9703.938849
485.132489	9611.554664
485.501213	9601.731976
485.869879	9664.625411
486.238487	9600.035627
486.607036	9668.940639
486.975527	9620.429615
487.343959	9677.898769
487.712333	9718.759842
488.080648	9761.672664
488.448905	9862.523467
488.817104	9864.174445
489.185244	10032.203664
489.553326	10236.519109
489.921350	10705.974040
490.289315	11331.911428
490.657222	11618.979934
491.025070	11796.541975
491.392861	11715.460057
491.760593	11561.679659
492.128267	11304.462346
492.495883	11076.720659
492.863440	10836.804586
493.230939	10612.374937
493.598380	10427.409961
493.965763	10403.749306
494.333088	10273.291806
494.700354	10203.930570
495.067563	10181.573053
495.434713	10175.581641
495.801805	10224.521163
496.168839	10183.534062
496.535815	10146.257249
496.902733	10186.021871
497.269593	10141.321960
497.636395	10151.026181
498.003139	10257.570967
498.369825	10185.593373
498.736453	10278.559812
499.103023	10224.463190
499.469535	10226.305731
499.835989	10275.361199
500.202385	10240.930119
500.568723	10262.372667
500.935003	10319.859464
501.301226	10289.587336
501.667390	10451.325195
502.033497	10554.063910
502.399546	10480.513476
502.765537	10388.149455
503.131470	10485.879784
503.497345	10580.093908
503.863163	10341.264204
504.228923	10474.272527
504.594625	10593.929355
504.960269	10498.727165
505.325856	10639.559359
505.691385	10520.827583
506.056856	10583.020298
506.422270	10673.372898
506.787625	10614.807294
507.152924	10662.768831
507.518164	10721.173119
507.883347	10590.120763
508.248472	10651.063272
508.613540	10752.047666
508.978550	10823.851341
509.343503	10799.522732
509.708398	10849.364620
510.073236	10968.429113
510.438016	10974.654937
510.802738	10877.771522
511.167403	11006.630976
511.532010	11050.972966
511.896561	11141.673406
512.261053	11337.880154
512.625488	11237.939279
512.989866	11225.069214
513.354186	11193.027640
513.718449	11196.291787
514.082655	11327.906232
514.446803	11276.075608
514.810894	11372.533046
515.174927	11353.285921
515.538904	11333.673312
515.902822	11474.699590
516.266684	11340.509116
516.630488	11427.466499
516.994235	11402.623693
517.357925	11504.913746
517.721558	11544.617874
518.085133	11594.202663
518.448651	11614.473143
518.812112	11556.371324
519.175516	11552.242619
519.538863	11627.053342
519.902152	11623.269956
520.265385	11710.328162
520.628560	11711.255735
520.991678	11643.845425
521.354739	11680.736589
521.717743	11725.560009
522.080690	11682.579131
522.443580	11791.178188
522.806413	11782.923298
523.169189	11754.672672
523.531908	11791.019391
523.894569	11733.807336
524.257174	11724.219062
524.619722	11799.821246
524.982213	11750.962383
525.344647	11723.730070
525.707025	11710.968389
526.069345	11774.053388
526.431608	11733.451935
526.793815	11775.235539
527.155964	11660.720688
527.518057	11660.120791
527.880093	11585.118504
528.242072	11662.361583
528.603995	11566.776265
528.965860	11542.878676
529.327669	11545.033769
529.689421	11466.606018
530.051117	11445.589448
530.412755	11452.926847
530.774337	11418.405025
531.135862	11342.686895
531.497331	11366.604649
531.858743	11301.399845
532.220098	11334.011069
532.581396	11231.564740
532.942638	11134.764504
533.303824	11149.101546
533.664953	11103.310225
534.026025	11018.931392
534.387040	11062.920500
534.747999	11003.122333
535.108902	10991.411733
535.469748	10857.564057
535.830537	10831.700417
536.191270	10825.063738
536.551947	10724.291073
536.912567	10731.018493
537.273131	10713.908817
537.633638	10570.243494
537.994089	10569.893133
538.354483	10465.077463
538.714821	10504.547177
539.075103	10518.768272
539.435328	10428.592112
539.795497	10356.254075
540.155609	10308.342948
540.515665	10326.372635
540.875665	10178.669348
541.235609	10193.117295
541.595496	10117.895718
541.955328	10183.667652
542.315102	10034.883037
542.674821	9925.532849
543.034483	9883.318227
543.394090	9836.591772
543.753640	9761.188713
544.113134	9868.829950
544.472571	9656.350357
544.831953	9788.710892
545.191278	9608.572821
545.550548	9507.545578
545.909761	9527.301860
546.268918	9494.504113
546.628019	9483.600097
546.987064	9354.438174
547.346053	9201.746665
547.704986	9264.640100
548.063863	9137.688723
548.422684	9106.667983
548.781449	9022.435343
549.140158	9023.282257
549.498811	8929.395808
549.857408	8793.004870
550.215949	8850.474024
550.574434	8771.605172
550.932864	8671.200511
551.291237	8722.791679
551.649555	8606.517466
552.007817	8574.236437
552.366022	8470.580232
552.724173	8422.510309
553.082267	8413.955471
553.440305	8398.219509
553.798288	8246.516067
554.156215	8219.981953
554.514086	8181.913680
554.871902	8087.818023
555.229661	8038.434880
555.587365	7952.326931
555.945014	7895.727376
556.302606	7819.820202
556.660143	7791.004967
557.017625	7744.928821
557.375050	7661.953949
557.732421	7649.156980
558.089735	7582.517967
558.446994	7505.791606
558.804197	7492.283834
559.161345	7429.576921
559.518437	7288.863194
559.875474	7261.850171
560.232455	7215.995836
560.589381	7169.770975
560.946251	7082.430464
561.303065	7094.743483
561.659825	7016.285485
562.016528	6919.860815
562.373177	6834.493915
562.729770	6821.560835
563.086307	6716.203240
563.442789	6699.454007
563.799216	6653.650083
564.155587	6571.386014
564.511904	6522.839702
564.868164	6470.288194
565.224370	6434.087668
565.580520	6353.124217
565.936615	6317.049720
566.292654	6241.475262
566.648638	6203.394386
567.004567	6155.311861
567.360441	6090.714515
567.716260	6028.728487
568.072023	5998.259754
568.427732	5935.252892
568.783385	5846.720148
569.138982	5829.512170
569.494525	5778.162977
569.850013	5704.426019
570.205445	5655.025232
570.560823	5605.465649
570.916145	5544.800403
571.271412	5494.325851
571.626625	5428.369914
571.981782	5381.305702
572.336884	5320.572401
572.691931	5291.552999
573.046923	5221.740580
573.401860	5166.290408
573.756743	5117.786946
574.111570	5075.620215
574.466342	5026.456362
574.821059	4988.556968
575.175722	4918.477367
575.530330	4874.654617
575.884882	4821.319209
576.239380	4774.025624
576.593823	4727.173141
576.948211	4686.175957
577.302544	4623.758911
577.656823	4587.059311
578.011047	4560.079055
578.365216	4508.850850
578.719330	4462.628510
579.073389	4417.399278
579.427394	4375.484604
579.781344	4343.765664
580.135239	4299.010300
580.489080	4262.366153
580.842866	4215.692630
581.196597	4195.613714
581.550273	4164.071215
581.903895	4121.433136
582.257463	4110.987865
582.610975	4053.143145
582.964434	4032.303015
583.317837	3993.604597
583.671186	3961.396666
584.024481	3938.414045
584.377721	3892.665574
584.730906	3867.487531
585.084037	3845.714788
585.437113	3807.144920
585.790135	3782.133235
586.143103	3744.458172
586.496016	3720.603432
586.848874	3692.695604
587.201679	3670.098632
587.554428	3631.901809
587.907124	3613.395733
588.259765	3587.743822
588.612352	3571.750761
588.964884	3537.753220
589.317362	3521.641692
589.669786	3498.807786
590.022155	3473.531440
590.374470	3460.119451
590.726731	3431.268927
591.078937	3400.359092
591.431090	3382.899056
591.783188	3356.226311
592.135232	3330.176148
592.487222	3317.747184
592.839157	3298.404276
593.191038	3277.407871
593.542866	3254.657143
593.894639	3227.623956
594.246358	3218.131463
594.598022	3201.538505
594.949633	3179.160823
595.301190	3166.154646
595.652692	3146.751245
596.004141	3138.105666
596.355535	3112.226903
596.706876	3094.608070
597.058162	3079.708940
597.409395	3072.192580
597.760573	3058.097514
598.111698	3041.565050
598.462768	3029.090714
598.813785	3018.360618
599.164748	3001.361848
599.515657	2996.734068
599.866511	2977.370997
600.217312	2971.830768
600.568060	2953.319652
600.918753	2950.156328
601.269392	2939.995882
601.619978	2927.692946
601.970510	2922.152718
602.320988	2912.975297
602.671412	2910.472364
603.021783	2896.079870
603.372100	2885.672408
603.722363	2879.723847
604.072572	2871.655480
604.422728	2863.589634
604.772830	2850.959023
605.122878	2846.827797
605.472872	2838.817404
605.822813	2829.702997
606.172701	2828.369612
606.522534	2826.290136
606.872314	2821.619507
607.222041	2810.007209
607.571714	2810.372693
607.921333	2799.443472
608.270899	2796.176804
608.620411	2793.628501
608.969870	2786.633900
609.319276	2781.338167
609.668627	2777.675769
610.017926	2774.177208
610.367171	2772.735438
610.716362	2767.371651
611.065500	2761.261772
611.414585	2760.664396
611.763616	2759.331010
612.112594	2754.438571
612.461518	2751.890267
612.810389	2748.542941
613.159207	2743.547158
613.507971	2743.867271
613.856682	2740.242681
614.205340	2733.923595
614.553945	2735.090622
614.902496	2730.125086
615.250994	2730.755230
615.599439	2726.724827
615.947830	2726.097204
616.296169	2722.603684
616.644454	2722.001266
616.992686	2717.512119
617.340864	2718.943806
617.688990	2713.229658
618.037063	2716.398024
618.385082	2713.728733
618.733048	2712.085317
619.080961	2708.634647
619.428821	2705.814121
619.776628	2706.320757
620.124382	2705.836806
620.472083	2701.700540
620.819731	2699.041331
621.167326	2696.707277
621.514868	2695.729293
621.862357	2691.290557
622.209793	2691.955989
622.557176	2686.415761
622.904506	2682.970132
623.251783	2677.918896
623.599007	2677.850841
623.946179	2674.790860
624.293297	2673.288597
624.640363	2674.029646
624.987376	2674.871519
625.334336	2670.037052
625.681243	2667.526558
626.028097	2667.398008
626.374899	2668.161743
626.721647	2664.380878
627.068343	2664.244767
627.414987	2660.340393
627.761577	2659.349806
628.108115	2659.072543
628.454600	2657.565238
628.801032	2659.788387
629.147412	2658.833088
629.493739	2656.080618
629.840014	2656.206647
630.186236	2656.040289
630.532405	2654.094403
630.878521	2650.721871
631.224585	2654.354023
631.570597	2649.799340
631.916556	2647.364463
632.262462	2647.941675
632.608316	2646.086530
632.954117	2646.908238
633.299866	2644.755666
633.645562	2648.922179
633.991206	2647.064514
634.336797	2645.098464
634.682336	2646.678866
635.027823	2643.961684
635.373257	2642.174595
635.718639	2640.228710
636.063968	2640.241312
636.409245	2638.524800
636.754470	2637.277114
637.099642	2637.705612
637.444762	2637.196456
637.789829	2634.391053
638.134845	2635.873153
638.479808	2633.377782
638.824719	2632.689664
639.169577	2634.078502
639.514383	2631.507513
639.859137	2630.161525
640.203839	2635.008595
640.548489	2632.336783
640.893086	2629.768315
641.237632	2626.302522
641.582125	2627.338479
641.926566	2625.261524
642.270955	2628.840743
642.615292	2628.167749
642.959576	2629.692698
643.303809	2628.112296
643.647990	2625.427882
643.992118	2627.635907
644.336195	2627.532564
644.680219	2626.582306
645.024192	2628.344189
645.368112	2626.776391
645.711981	2623.892851
646.055797	2626.554580
646.399562	2629.947276
646.743274	2627.968623
647.086935	2628.634056
647.430544	2627.633387
647.774101	2629.009622
648.117606	2630.642956
648.461059	2627.530043
648.804460	2628.603809
649.147810	2628.732358
649.491108	2627.812348
649.834354	2626.161370
650.177548	2626.065588
650.520690	2625.886627
650.863781	2625.979888
651.206820	2625.148098
651.549807	2624.056688
651.892742	2621.636934
652.235626	2619.176851
652.578458	2618.776079
652.921238	2618.098044
653.263967	2621.039558
653.606644	2621.349588
653.949269	2619.514608
654.291843	2621.316821
654.634365	2618.302211
654.976836	2619.554938
655.319255	2619.502006
655.661622	2619.421347
656.003938	2619.854886
656.346203	2615.801799
656.688416	2616.515122
657.030577	2617.553600
657.372687	2618.599639
657.714746	2615.738784
658.056753	2618.299690
658.398708	2612.905656
658.740612	2611.312651
659.082465	2611.731067
659.424266	2611.839452
659.766016	2612.182250
660.107715	2617.238527
660.449362	2617.563682
660.790958	2616.537807
661.132503	2614.672580
661.473996	2613.913887
661.815438	2617.034361
662.156829	2619.179372
662.498168	2610.430449
662.839456	2614.155862
663.180693	2614.710389
663.521879	2616.220214
663.863013	2617.402365
664.204097	2616.915894
664.545129	2616.633589
664.886110	2616.061418
665.227040	2615.925307
665.567918	2614.503702
665.908746	2615.549741
666.249522	2615.577467
666.590248	2614.105450
666.930922	2616.668877
667.271545	2613.860954
667.612118	2617.505709
667.952639	2616.583177
668.293109	2615.809360
668.633528	2615.264916
668.973896	2613.384565
669.314213	2615.665687
669.654480	2614.075203
669.994695	2611.040429
670.334859	2615.406068
670.674973	2613.598814
671.015035	2614.753239
671.355047	2613.813063
671.695008	2614.133177
672.034918	2613.077055
672.374777	2615.411109
672.714585	2614.092847
673.054342	2611.869699
673.394049	2612.439349
673.733705	2614.559154
674.073310	2612.774586
674.412864	2611.882302
674.752368	2610.795933
675.091820	2613.951695
675.431223	2613.283742
675.770574	2613.981942
676.109875	2607.892228
676.449125	2610.498505
676.788324	2608.895418
677.127473	2609.301231
677.466571	2606.064810
677.805619	2609.878443
678.144616	2610.770727
678.483562	2611.405912
678.822458	2609.623865
679.161303	2610.022116
679.500098	2607.796446
679.838842	2610.546396
680.177535	2607.955243
680.516179	2610.135542
680.854771	2612.061262
681.193314	2609.495315
681.531805	2609.923813
681.870247	2611.148814
682.208638	2611.345419
682.546978	2613.155193
682.885268	2614.115533
683.223508	2616.590739
683.561697	2614.231479
683.899836	2613.482868
684.237925	2613.117384
684.575963	2613.755090
684.913951	2612.106633
685.251889	2614.609566
685.589776	2613.689555
685.927614	2611.012702
686.265401	2610.367435
686.603137	2613.341716
686.940824	2612.149483
687.278460	2612.451952
687.616046	2615.088475
687.953582	2615.234669
688.291068	2614.138218
688.628504	2614.758280
688.965889	2613.762652
689.303224	2615.123763
689.640510	2615.254833
689.977745	2612.794750
690.314930	2612.308279
690.652065	2610.785851
690.989150	2610.468258
691.326185	2609.268463
691.663170	2608.721498
692.000105	2607.282249
692.336990	2606.584049
692.673825	2606.568925
693.010610	2605.379213
693.347345	2599.344952
693.684030	2600.451485
694.020665	2600.736310
694.357251	2597.482246
694.693786	2601.016094
695.030272	2602.946856
695.366707	2604.073554
695.703093	2601.989037
696.039429	2598.918974
696.375716	2600.615323
696.711952	2598.949221
697.048139	2602.977103
697.384276	2600.312853
697.720363	2599.256732
698.056400	2601.550457
698.392388	2602.982144
698.728326	2599.057606
699.064214	2599.665065
699.400053	2600.857298
699.735842	2598.429982
700.071581	2596.683223
700.407270	2599.740682
700.742910	2598.331680
701.078501	2598.828234
701.414042	2596.728593
701.749533	2598.253542
702.084974	2596.985692
702.420366	2596.574838
702.755709	2600.209510
703.091002	2595.680033
703.426246	2597.908223
703.761440	2594.954107
704.096584	2596.345465
704.431679	2598.528285
704.766725	2595.604416
705.101721	2597.439396
705.436668	2597.872935
705.771565	2596.756319
706.106413	2596.620208
706.441212	2594.702049
706.775961	2598.480394
707.110661	2599.710436
707.445311	2597.739344
707.779913	2596.831937
708.114465	2595.773294
708.448967	2595.007039
708.783421	2598.712287
709.117825	2598.949221
709.452180	2599.286979
709.786485	2598.238419
710.120742	2602.006681
710.454949	2600.932915
710.789107	2597.628439
711.123216	2598.873604
711.457275	2598.936618
711.791286	2597.832606
712.125247	2599.859150
712.459159	2604.023143
712.793023	2602.551126
713.126837	2601.651280
713.460602	2601.066506
713.794318	2601.311002
714.127985	2603.826538
714.461602	2601.961311
714.795171	2601.409304
715.128691	2599.894438
715.462162	2598.286310
715.795584	2595.216247
716.128957	2597.686412
716.462281	2596.214395
716.795556	2598.956783
717.128782	2595.029724
717.461960	2595.919488
717.795088	2594.412183
718.128167	2596.199272
718.461198	2593.751792
718.794180	2595.115424
719.127113	2592.667944
719.459997	2596.474015
719.792833	2594.374374
720.125619	2592.312542
720.458357	2591.337079
720.791046	2592.148705
721.123686	2590.346492
721.456278	2592.093252
721.788821	2592.642738
722.121315	2592.814137
722.453761	2592.196596
722.786158	2591.304312
723.118506	2590.696852
723.450805	2592.494024
723.783056	2591.344641
724.115259	2594.117275
724.447412	2592.660382
724.779518	2589.113930
725.111574	2590.772470
725.443582	2592.398242
725.775542	2592.211719
726.107453	2592.950248
726.439315	2590.621235
726.771129	2593.774477
727.102895	2592.211719
727.434612	2593.892944
727.766281	2592.151225
728.097901	2588.776173
728.429473	2591.107707
728.760996	2592.302460
729.092471	2589.570155
729.423897	2595.738006
729.755276	2596.151381
730.086606	2596.211875
730.417887	2596.894951
730.749120	2597.671289
731.080305	2595.690115
731.411442	2597.124324
731.742530	2598.119952
732.073570	2595.884200
732.404562	2597.063830
732.735506	2596.899992
733.066401	2594.013932
733.397249	2597.484766
733.728048	2596.559714
734.058798	2595.927050
734.389501	2595.254056
734.720156	2593.623242
735.050762	2592.378077
735.381320	2591.226174
735.711831	2589.582757
736.042293	2593.058633
736.372707	2592.703232
736.703073	2591.755495
737.033391	2593.040989
737.363661	2592.279775
737.693883	2592.930084
738.024056	2595.047368
738.354182	2591.831112
738.684260	2588.796337
739.014290	2591.758015
739.344272	2591.145515
739.674207	2590.013776
740.004093	2594.172728
740.333931	2592.962851
740.663722	2597.174735
740.993464	2591.775659
741.323159	2594.084508
741.652806	2591.795824
741.982405	2591.589137
742.311956	2590.916143
742.641460	2590.291040
742.970915	2591.851277
743.300323	2592.554518
743.629683	2590.517892
743.958996	2588.934969
744.288260	2591.296750
744.617477	2589.791965
744.946647	2587.180648
745.275768	2586.021182
745.604842	2584.937334
745.933869	2586.026223
746.262847	2583.225862
746.591778	2587.180648
746.920662	2586.255596
747.249498	2588.158632
747.578286	2588.619897
747.907027	2590.772470
748.235720	2586.729464
748.564365	2589.456729
748.892963	2589.923035
749.221514	2589.620566
749.550017	2590.515371
749.878473	2589.678539
750.206881	2588.390525
750.535242	2589.721389
750.863555	2589.197109
751.191821	2586.729464
751.520039	2588.574527
751.848210	2588.985381
752.176334	2588.551842
752.504411	2586.079156
752.832440	2586.444639
753.160421	2588.496389
753.488356	2586.759711
753.816243	2588.269537
754.144082	2588.140987
754.471875	2588.272057
754.799620	2587.283991
755.127318	2584.135791
755.454969	2586.265678
755.782572	2586.510174
756.110129	2588.957654
756.437638	2587.778024
756.765100	2583.455235
757.092515	2586.568148
757.419882	2586.076635
757.747203	2586.946234
758.074477	2588.503951
758.401703	2587.778024
758.728882	2587.052098
759.056014	2587.851121
759.383099	2589.340782
759.710138	2587.896492
760.037129	2588.516553
760.364073	2588.083014
760.690970	2586.716862
761.017820	2588.970257
761.344623	2588.196440
761.671379	2591.606781
761.998088	2584.939855
762.324751	2589.149218
762.651366	2592.146184
762.977935	2601.429469
763.304456	2603.708071
763.630931	2609.361725
763.957359	2607.224275
764.283740	2604.350818
764.610074	2603.450972
764.936362	2601.535333
765.262602	2599.153388
765.588796	2592.678026
765.914943	2594.061823
766.241044	2590.454877
766.567097	2588.803899
766.893104	2586.250555
767.219064	2585.854824
767.544978	2583.861048
767.870845	2584.024885
768.196665	2583.949268
768.522438	2585.186871
768.848165	2583.067066
769.173846	2583.709813
769.499479	2585.970771
769.825066	2582.124370
770.150607	2581.252251
770.476101	2580.934658
770.801548	2584.433219
771.126949	2583.674525
771.452303	2579.601273
771.777611	2582.918352
772.102872	2582.106726
772.428087	2580.370049
772.753256	2578.711509
773.078378	2580.261664
773.403453	2579.702096
773.728482	2579.298804
774.053465	2580.765779
774.378401	2579.833166
774.703291	2581.320306
775.028135	2580.574216
775.352932	2579.639082
775.677683	2579.608835
776.002388	2582.119329
776.327046	2578.719071
776.651658	2579.797878
776.976224	2579.215625
777.300743	2579.843248
777.625216	2579.775193
777.949643	2577.773855
778.274024	2578.240161
778.598359	2574.726477
778.922647	2573.627506
779.246889	2577.667990
779.571086	2572.004254
779.895236	2576.062383
780.219339	2576.095150
780.543397	2580.065059
780.867409	2578.875347
781.191374	2579.069431
781.515294	2576.735377
781.839167	2579.739905
782.162995	2578.459452
782.486776	2580.175964
782.810511	2577.347877
783.134201	2577.478947
783.457844	2579.550861
783.781441	2576.682445
784.104993	2577.042887
784.428498	2574.325705
784.751958	2579.233269
785.075372	2577.980542
785.398739	2576.437949
785.722061	2576.823597
786.045337	2576.899214
786.368568	2576.808474
786.691752	2575.374265
787.014891	2579.180337
787.337983	2578.524987
787.661030	2581.272415
787.984031	2580.324678
788.306987	2582.774679
788.629897	2582.172261
788.952760	2583.311562
789.275579	2582.557910
789.598351	2580.659915
789.921078	2579.722261
790.243759	2581.617734
790.566395	2578.338464
790.888984	2578.585480
791.211529	2577.398289
791.534027	2578.073803
791.856480	2574.824780
792.178888	2578.872826
792.501249	2575.273442
792.823566	2578.953485
793.145836	2575.195304
793.468062	2577.660429
793.790241	2575.633885
794.112375	2579.041705
794.434464	2576.233782
794.756507	2578.277970
795.078505	2576.019533
795.400457	2575.349060
795.722364	2575.306210
796.044226	2574.686148
796.366042	2573.095664
796.687812	2573.009964
797.009538	2577.995665
797.331218	2581.224524
797.652852	2576.314441
797.974442	2581.481623
798.295986	2578.792168
798.617484	2579.858372
798.938938	2575.686817
799.260346	2580.750656
799.581709	2574.086251
799.903026	2580.455748
800.224299	2576.586663
800.545526	2577.357959
800.866708	2581.053125
801.187845	2578.519945
801.508936	2577.612538
801.829983	2577.529359
802.150984	2576.521128
802.471940	2575.749831
802.792851	2575.129769
803.113717	2573.718246
803.434538	2576.362332
803.755314	2575.175140
804.076045	2574.792012
804.396731	2577.327712
804.717372	2577.579770
805.037967	2578.169585
805.358518	2576.677404
805.679024	2577.063052
805.999485	2574.746642
806.319901	2575.946436
806.640272	2575.001220
806.960598	2574.779409
807.280879	2578.303176
807.601115	2575.686817
807.921306	2578.119174
808.241453	2574.509707
808.561554	2577.030284
808.881611	2576.659760
809.201623	2574.383679
809.521590	2578.895511
809.841513	2574.517269
810.161390	2576.044739
810.481223	2576.032136
810.801011	2574.290417
811.120755	2577.849472
811.440453	2579.021540
811.760107	2579.276118
812.079716	2570.161712
812.399281	2571.986610
812.718801	2571.631209
813.038276	2572.904100
813.357707	2574.224882
813.677093	2575.061714
813.996434	2575.956519
814.315731	2576.082548
814.634983	2573.347722
814.954191	2573.788822
815.273354	2577.040367
815.592473	2575.689338
815.911547	2575.502815
816.230577	2577.173957
816.549562	2575.959039
816.868502	2574.456775
817.187399	2578.426684
817.506250	2578.177147
817.825058	2578.222517
818.143821	2578.968608
818.462539	2576.997517
818.781213	2578.585480
819.099843	2580.324678
819.418429	2581.990780
819.736970	2584.087900
820.055466	2587.362129
820.373919	2590.175093
820.692327	2592.133581
821.010691	2600.506938
821.329011	2613.805502
821.647286	2640.637043
821.965517	2667.405570
822.283704	2689.238807
822.601847	2704.974769
822.919945	2697.087884
823.237999	2690.269723
823.556010	2675.252126
823.873976	2662.634118
824.191897	2651.261275
824.509775	2640.682413
824.827609	2632.016670
825.145398	2622.637603
825.463144	2618.743312
825.780845	2616.888167
826.098502	2616.898250
826.416116	2621.200874
826.733685	2627.472070
827.051210	2631.346197
827.368692	2631.010960
827.686129	2625.886627
828.003522	2617.873713
828.320872	2605.472474
828.638177	2603.803853
828.955439	2598.329159
829.272656	2593.126689
829.589830	2589.421441
829.906960	2587.256265
830.224046	2583.931624
830.541088	2585.522108
830.858086	2580.120512
831.175041	2581.998342
831.491952	2580.075141
831.808819	2578.477096
832.125642	2581.554720
832.442421	2583.046902
832.759157	2584.660071
833.075849	2588.962696
833.392497	2594.639035
833.709101	2600.930395
834.025662	2602.611620
834.342179	2600.605240
834.658653	2596.569797
834.975083	2593.701380
835.291469	2594.228181
835.607811	2586.270719
835.924110	2585.693507
836.240366	2582.527663
836.556578	2580.097827
836.872746	2580.186047
837.188871	2576.064903
837.504952	2573.612382
837.820990	2575.286045
838.136984	2571.590879
838.452935	2574.902917
838.768842	2574.663463
839.084706	2574.749162
839.400526	2575.341498
839.716303	2577.494071
840.032037	2581.930286
840.347727	2582.741912
840.663373	2580.291911
840.978977	2579.288721
841.294537	2577.862075
841.610054	2578.167065
841.925527	2575.260839
842.240957	2574.623133
842.556344	2574.819738
842.871687	2573.693041
843.186987	2575.797722
843.502244	2573.309913
843.817458	2573.113308
844.132629	2572.828483
844.447756	2570.436455
844.762840	2569.284552
845.077881	2567.053841
845.392879	2566.466547
845.707833	2566.670713
846.022745	2564.306412
846.337613	2569.828996
846.652438	2569.962587
846.967221	2570.587690
847.281960	2570.862433
847.596656	2571.129614
847.911309	2568.346897
848.225919	2569.037535
848.540485	2570.123904
848.855009	2566.769016
849.169490	2570.713719
849.483928	2567.641135
849.798323	2568.835889
850.112675	2568.730025
850.426984	2566.907648
850.741251	2570.544840
851.055474	2567.676423
851.369654	2569.597103
851.683792	2567.643656
851.997887	2569.544171
852.311938	2566.484191
852.625947	2568.193142
852.939914	2568.397308
853.253837	2571.699264
853.567718	2569.929819
853.881555	2567.545353
854.195350	2569.047617
854.509103	2566.453944
854.822812	2568.878739
855.136479	2570.262535
855.450103	2568.646846
855.763685	2566.950497
856.077224	2566.060734
856.390720	2572.447876
856.704173	2569.657597
857.017584	2570.098698
857.330953	2566.736248
857.644278	2567.373954
857.957561	2571.653894
858.270802	2569.322360
858.584000	2569.508883
858.897155	2569.418142
859.210268	2566.242215
859.523339	2567.933522
859.836367	2569.045097
860.149352	2568.218347
860.462295	2569.897052
860.775195	2565.912020
861.088054	2563.956052
861.400869	2563.338511
861.713642	2563.015877
862.026373	2568.311609
862.339062	2568.992165
862.651708	2567.971331
862.964312	2568.283882
863.276873	2568.719942
863.589392	2569.299675
863.901869	2568.931671
864.214303	2568.326732
864.526696	2567.671382
864.839045	2567.225240
865.151353	2567.283213
865.463619	2569.589541
865.775842	2569.826476
866.088023	2570.897721
866.400162	2571.323698
866.712258	2568.619119
867.024313	2570.393605
867.336325	2568.213306
867.648296	2569.231619
867.960224	2570.738924
868.272110	2567.847823
868.583954	2567.547874
868.895755	2570.338153
869.207515	2572.825962
869.519233	2571.401836
869.830909	2568.949315
870.142542	2570.449058
870.454134	2569.186249
870.765684	2570.749007
871.077191	2570.116342
871.388657	2570.912844
871.700081	2571.358986
872.011463	2568.815724
872.322803	2569.544171
872.634101	2570.222206
872.945357	2570.247412
873.256571	2572.536096
873.567744	2567.542833
873.878874	2572.152968
874.189963	2570.837227
874.501010	2572.402505
874.812015	2569.392936
875.122979	2570.315467
875.433900	2569.854202
875.744780	2571.807649
876.055618	2573.390571
876.366415	2572.362176
876.677169	2570.975859
876.987882	2570.234809
877.298554	2570.048286
877.609183	2569.425704
877.919771	2569.052658
878.230317	2568.969479
878.540822	2573.680438
878.851285	2575.102043
879.161707	2574.671024
879.472087	2577.700758
879.782425	2581.368197
880.092722	2585.625452
880.402977	2594.644076
880.713191	2606.488267
881.023363	2617.306583
881.333494	2628.321504
881.643583	2636.495735
881.953631	2637.781229
882.263637	2635.598410
882.573602	2631.194962
882.883526	2629.062554
883.193408	2624.437295
883.503248	2620.447222
883.813048	2616.227776
884.122806	2612.144442
884.432522	2606.924327
884.742197	2603.062803
885.051831	2599.586927
885.361424	2594.414703
885.670975	2591.717686
885.980485	2586.323652
886.289954	2586.890781
886.599382	2580.521283
886.908768	2580.022209
887.218113	2578.681262
887.527417	2580.158320
887.836680	2575.482650
888.145901	2577.010120
888.455082	2574.781930
888.764221	2575.069276
889.073319	2576.258988
889.382376	2574.071127
889.691392	2573.158678
890.000366	2575.359142
890.309300	2575.505335
890.618193	2573.478792
890.927044	2572.175653
891.235855	2572.296641
891.544625	2574.121539
891.853353	2573.952660
892.162041	2570.239850
892.470687	2574.308061
892.779293	2572.999882
893.087858	2573.446024
893.396381	2573.761096
893.704864	2577.763772
894.013306	2575.890984
894.321707	2587.362129
894.630068	2586.467324
894.938387	2593.489652
895.246665	2592.904878
895.554903	2588.597212
895.863100	2588.491348
896.171256	2588.138467
896.479371	2583.672005
896.787446	2583.180492
897.095480	2582.454566
897.403473	2581.587487
897.711425	2582.071438
898.019336	2577.151272
898.327207	2576.279153
898.635038	2576.153124
898.942827	2578.469534
899.250576	2573.534244
899.558284	2574.098853
899.865952	2572.405026
900.173579	2571.394274
900.481165	2570.983420
900.788711	2571.477453
901.096216	2572.384861
901.403681	2571.888307
901.711105	2572.556260
902.018489	2569.458471
902.325832	2573.869481
902.633135	2570.370920
902.940397	2573.521641
903.247619	2576.483319
903.554800	2577.962898
903.861941	2585.590164
904.169041	2589.981009
904.476101	2590.769949
904.783121	2596.365630
905.090100	2591.279106
905.397039	2591.233735
905.703938	2590.611153
906.010796	2588.282140
906.317614	2584.350040
906.624391	2582.436922
906.931129	2581.204360
907.237826	2581.660584
907.544483	2578.898032
907.851099	2575.759914
908.157675	2575.487691
908.464211	2575.444842
908.770707	2568.299006
909.077163	2568.306568
909.383578	2566.443861
909.689954	2564.364385
909.996289	2568.011660
910.302584	2566.607699
910.608839	2569.047617
910.915054	2568.354459
911.221229	2568.374623
911.527363	2570.501990
911.833458	2568.097360
912.139513	2568.266238
912.445527	2568.001578
912.751502	2569.831517
913.057436	2569.065261
913.363331	2570.073492
913.669186	2570.363358
913.975000	2571.227916
914.280775	2572.127762
914.586510	2572.904100
914.892205	2575.275963
915.197859	2582.739391
915.503475	2584.060173
915.809050	2590.086873
916.114585	2594.326483
916.420081	2595.057451
916.725536	2595.687595
917.030952	2598.752616
917.336328	2594.757502
917.641665	2595.291864
917.946961	2592.214240
918.252218	2587.062181
918.557435	2589.751636
918.862612	2584.566809
919.167750	2583.203177
919.472848	2582.739391
919.777906	2580.382652
920.082925	2579.548341
920.387904	2578.426684
920.692843	2577.592373
920.997743	2574.842424
921.302603	2573.887125
921.607423	2572.934347
921.912204	2572.158009
922.216946	2569.869325
922.521647	2569.758420
922.826310	2569.332442
923.130932	2566.731207
923.435516	2566.436300
923.740059	2568.876218
924.044564	2567.023594
924.349028	2568.757751
924.653454	2564.324056
924.957840	2563.363716
925.262186	2563.174673
925.566493	2565.634756
925.870761	2562.113510
926.174989	2566.189283
926.479178	2566.567370
926.783328	2567.252967
927.087438	2564.719787
927.391509	2568.404870
927.695541	2563.162070
927.999533	2566.327915
928.303486	2563.900599
928.607400	2564.750034
928.911275	2564.213151
929.215110	2566.632905
929.518906	2565.269272
929.822663	2564.412276
930.126381	2564.213151
930.430060	2562.567214
930.733699	2563.557801
931.037299	2566.786660
931.340861	2564.661813
931.644383	2563.189797
931.947866	2566.186762
932.251309	2565.075188
932.554714	2567.419325
932.858080	2565.745662
933.161407	2564.127451
933.464694	2564.956721
933.767943	2565.496124
934.071153	2564.261042
934.374323	2564.966803
934.677455	2565.785991
934.980548	2561.679971
935.283602	2563.330949
935.586617	2565.859087
935.889593	2566.103583
936.192530	2567.258008
936.495428	2563.111659
936.798287	2562.882286
937.101108	2564.576114
937.403890	2563.812379
937.706632	2568.631722
938.009336	2564.558470
938.312002	2566.849674
938.614628	2565.876732
938.917216	2565.654921
939.219765	2563.678788
939.522275	2564.664334
939.824747	2565.831361
940.127179	2564.719787
940.429573	2563.595609
940.731929	2563.923284
941.034246	2563.204920
941.336524	2561.730382
941.638763	2567.368913
941.940964	2569.508883
942.243126	2564.855898
942.545250	2566.106104
942.847335	2566.879921
943.149381	2565.589386
943.451389	2565.836402
943.753359	2567.973852
944.055290	2567.353790
944.357182	2565.239026
944.659036	2566.055692
944.960851	2566.877401
945.262628	2568.193142
945.564367	2565.672565
945.866067	2566.426217
946.167729	2567.784808
946.469352	2564.964283
946.770937	2566.484191
947.072484	2564.666855
947.373992	2564.008984
947.675462	2565.375137
947.976893	2565.871690
948.278286	2564.129972
948.579641	2561.745506
948.880958	2566.088460
949.182236	2566.927812
949.483476	2566.307750
949.784678	2562.889848
950.085841	2565.531413
950.386967	2565.296999
950.688054	2563.346072
950.989103	2567.265569
951.290114	2561.992522
951.591087	2561.710218
951.892021	2564.525702
952.192917	2564.964283
952.493776	2565.647359
952.794596	2566.264900
953.095378	2564.437482
953.396122	2564.008984
953.696828	2563.530074
953.997496	2567.502504
954.298126	2563.462019
954.598718	2563.325908
954.899272	2563.280537
955.199788	2562.751216
955.500266	2563.507389
955.800706	2560.593602
956.101108	2560.119734
956.401472	2559.945814
956.701798	2560.533108
957.002087	2559.870197
957.302337	2562.899930
957.602550	2563.335990
957.902724	2564.830692
958.202861	2564.563511
958.502960	2562.113510
958.803022	2560.460012
959.103045	2560.517985
959.403031	2565.135682
959.702979	2559.320711
960.002889	2560.699467
960.302762	2559.406411
960.602596	2562.852039
960.902393	2561.589230
961.202153	2562.768860
961.501875	2561.846329
961.801559	2562.010167
962.101205	2561.168294
962.400814	2562.937739
962.700385	2564.364385
962.999918	2558.821637
963.299414	2562.831875
963.598873	2564.084601
963.898293	2559.595454
964.197677	2562.327759
964.497022	2562.317677
964.796331	2563.028480
965.095601	2561.286761
965.394835	2562.252142
965.694030	2561.493448
965.993189	2560.681823
966.292309	2558.874569
966.591393	2560.719631
966.890439	2560.495300
967.189447	2560.197872
967.488419	2558.554456
967.787353	2560.981771
968.086249	2561.029662
968.385108	2562.224416
968.683930	2559.295505
968.982714	2562.214333
969.281462	2561.722821
969.580172	2562.536967
969.878844	2561.304405
970.177480	2559.018242
970.476078	2562.380691
970.774639	2561.143088
971.073162	2560.570917
971.371649	2558.118396
971.670098	2558.630073
971.968510	2556.868190
972.266885	2556.079249
972.565223	2560.754919
972.863524	2562.433623
973.161788	2563.172152
973.460014	2561.490928
973.758204	2560.359189
974.056356	2560.712069
974.354471	2561.190979
974.652550	2564.258521
974.950591	2561.541339
975.248595	2563.106617
975.546563	2559.958417
975.844493	2562.612584
976.142386	2561.117882
976.440243	2557.949517
976.738062	2564.744992
977.035845	2561.012018
977.333590	2560.482697
977.631299	2561.420352
977.928971	2561.659806
978.226606	2559.250135
978.524204	2561.100238
978.821765	2561.599313
979.119290	2561.175856
979.416777	2559.751730
979.714228	2559.010680
980.011642	2558.698128
980.309020	2562.189128
980.606360	2558.204095
980.903664	2560.601164
981.200931	2561.811041
981.498162	2561.891699
981.795356	2561.289282
982.092513	2564.122410
982.389633	2563.525033
982.686717	2562.985630
982.983764	2566.761454
983.280775	2567.449572
983.577749	2566.763975
983.874686	2566.262380
984.171587	2566.085939
984.468451	2566.680796
984.765279	2565.738100
985.062070	2564.150136
985.358824	2561.390105
985.655543	2563.673747
985.952224	2563.918243
986.248869	2564.760116
986.545478	2561.584189
986.842050	2559.713921
987.138586	2559.056050
987.435086	2559.068653
987.731549	2556.646379
988.027975	2557.924311
988.324366	2560.949004
988.620719	2559.537481
988.917037	2559.968499
989.213318	2559.290464
989.509563	2559.517316
989.805772	2561.473284
990.101944	2559.063612
990.398080	2559.197203
990.694180	2560.480176
990.990244	2558.993036
991.286271	2557.820968
991.582262	2559.383725
991.878217	2559.517316
992.174136	2559.890361
992.470019	2561.959755
992.765865	2558.962789
993.061676	2558.443550
993.357450	2559.948335
993.653188	2560.833057
993.948890	2560.351627
994.244556	2559.270299
994.540186	2558.473797
994.835780	2559.978582
995.131337	2559.129147
995.426859	2559.295505
995.722345	2558.118396
996.017795	2562.347924
996.313208	2562.844478
996.608586	2564.036710
996.903928	2560.530588
997.199234	2561.722821
997.494504	2564.152657
997.789738	2562.443706
998.084936	2562.642831
998.380099	2562.932698
998.675225	2560.757440
998.970316	2563.366237
999.265371	2560.210475
999.560390	2562.181566
999.855373	2562.630228
1000.150320	2559.151832
1000.445232	2560.606205
1000.740108	2560.777604
1001.034948	2560.346586
1001.329752	2558.163766
1001.624521	2559.177038
1001.919254	2556.137222
1002.213951	2555.486913
1002.508613	2557.939435
1002.803239	2556.318704
1003.097829	2554.513971
1003.392384	2559.965979
1003.686903	2556.689229
1003.981386	2558.662840
1004.275834	2560.888510
1004.570246	2561.422872
1004.864623	2560.941442
1005.158964	2558.690567
1005.453270	2558.715772
1005.747540	2559.837429
1006.041775	2556.895916
1006.335974	2557.815927
1006.630138	2560.069322
1006.924266	2558.640155
1007.218359	2558.453632
1007.512416	2558.400700
1007.806438	2557.883982
1008.100425	2558.977913
1008.394376	2559.701318
1008.688292	2558.093190
1008.982172	2561.211144
1009.276017	2558.047820
1009.569827	2557.871379
1009.863602	2558.627552
1010.157341	2558.110834
1010.451045	2560.144940
1010.744714	2558.935063
1011.038347	2558.627552
1011.331945	2559.262738
1011.625508	2559.766853
1011.919036	2558.551935
1012.212528	2561.213664
1012.505986	2556.117058
1012.799408	2557.389949
1013.092795	2557.498334
1013.386147	2556.016235
1013.679464	2558.302398
1013.972745	2557.982285
1014.265992	2560.089487
1014.559204	2558.320042
1014.852380	2558.612429
1015.145521	2556.588406
1015.438628	2557.291647
1015.731699	2556.787531
1016.024736	2555.224773
1016.317737	2559.794579
1016.610703	2558.272151
1016.903635	2553.072201
1017.196531	2556.026317
1017.489393	2554.849208
1017.782219	2554.100596
1018.075011	2556.248128
1018.367768	2560.729713
1018.660490	2558.042778
1018.953177	2558.042778
1019.245829	2558.042778
