Dividing Wavelength (nm)	Counts (n)	Blue Motor Position (mm): 0.000000	Red Motor Position (mm): 47.500000	
326.493990	2138.959056
326.888308	2138.959056
327.282561	2138.959056
327.676750	2112.311517
328.070874	2112.140118
328.464933	2118.738988
328.858929	2126.086470
329.252859	2140.446197
329.646726	2153.233083
330.040528	2168.679179
330.434265	2186.547549
330.827938	2207.816177
331.221547	2227.396018
331.615091	2244.397310
332.008571	2268.395723
332.401986	2285.391973
332.795338	2306.952988
333.188625	2325.295226
333.581847	2343.755931
333.975006	2365.760568
334.368100	2381.796478
334.761129	2398.999416
335.154095	2414.745460
335.546996	2438.370827
335.939833	2470.966928
336.332606	2487.012921
336.725315	2498.763850
337.117960	2506.348266
337.510540	2514.146931
337.903056	2523.147912
338.295508	2528.700743
338.687896	2536.930426
339.080220	2545.384441
339.472480	2549.253527
339.864676	2556.028837
340.256807	2556.976574
340.648875	2557.800803
341.040879	2561.448078
341.432818	2560.270968
341.824694	2565.765826
342.216506	2561.952193
342.608253	2562.904971
342.999937	2559.978582
343.391557	2560.510423
343.783113	2557.911708
344.174605	2555.504557
344.566033	2556.797613
344.957397	2554.138405
345.348697	2553.435164
345.739934	2551.799309
346.131106	2550.281922
346.522215	2549.130018
346.913260	2544.880326
347.304241	2546.067518
347.695159	2545.122301
348.086012	2542.455531
348.476802	2540.698689
348.867528	2538.294058
349.258191	2538.127700
349.648789	2539.995448
350.039324	2535.884387
350.429796	2538.084850
350.820203	2531.117976
351.210548	2533.757020
351.600828	2530.815507
351.991045	2530.981865
352.381198	2530.661751
352.771288	2531.977493
353.161314	2530.142512
353.551276	2531.997657
353.941175	2531.180990
354.331010	2531.599406
354.720782	2530.175280
355.110490	2532.403470
355.500135	2531.675023
355.889717	2533.073943
356.279235	2536.083512
356.668689	2531.949766
357.058080	2534.399767
357.447408	2528.685619
357.836672	2531.120496
358.225873	2530.117307
358.615010	2531.223840
359.004084	2537.139634
359.393095	2533.089067
359.782043	2534.964376
360.170927	2535.907072
360.559748	2536.809438
360.948505	2538.281455
361.337199	2539.720705
361.725830	2538.228523
362.114398	2540.101312
362.502903	2538.331867
362.891344	2538.251208
363.279722	2542.412681
363.668037	2543.118442
364.056289	2542.309337
364.444478	2541.780016
364.832603	2542.420243
365.220665	2541.066693
365.608665	2543.902342
365.996601	2544.948381
366.384474	2545.104657
366.772284	2544.711447
367.160031	2544.439225
367.547715	2543.806560
367.935336	2543.925027
368.322893	2544.230017
368.710388	2546.954761
369.097820	2548.303269
369.485189	2544.401416
369.872495	2547.922662
370.259738	2547.121119
370.646918	2544.008206
371.034035	2547.237065
371.421090	2548.739329
371.808081	2548.845193
372.195010	2548.673794
372.581875	2549.205636
372.968678	2550.095399
373.355418	2548.819988
373.742096	2556.653941
374.128710	2551.322920
374.515262	2554.834084
374.901751	2556.056564
375.288177	2554.405586
375.674540	2558.945145
376.060841	2559.532439
376.447079	2561.364899
376.833254	2561.614436
377.219367	2558.685526
377.605417	2564.583676
377.991404	2567.021073
378.377329	2568.397308
378.763191	2571.842937
379.148991	2579.558423
379.534727	2579.729822
379.920402	2585.506985
380.306013	2590.470001
380.691563	2595.473346
381.077049	2597.033583
381.462474	2602.273862
381.847835	2607.289810
382.233134	2611.542024
382.618371	2616.462190
383.003545	2624.172635
383.388657	2629.468367
383.773706	2638.134110
384.158693	2641.042856
384.543618	2647.399751
384.928480	2655.425268
385.313280	2661.701504
385.698017	2670.178205
386.082692	2681.225893
386.467305	2683.312931
386.851856	2694.242152
387.236344	2705.073072
387.620770	2711.792930
388.005133	2718.790051
388.389435	2731.612226
388.773674	2736.734038
389.157851	2745.961870
389.541965	2755.285484
389.926018	2762.942997
390.310008	2773.184101
390.693936	2781.149124
391.077802	2790.523150
391.461606	2797.336269
391.845348	2805.407157
392.229027	2813.190698
392.612645	2832.032011
392.996200	2842.242868
393.379694	2854.951617
393.763125	2867.998123
394.146494	2880.180071
394.529801	2888.046792
394.913047	2905.181673
395.296230	2908.395409
395.679351	2911.556213
396.062410	2931.982968
396.445408	2929.558173
396.828343	2942.801284
397.211217	2948.165072
397.594028	2940.479833
397.976778	2957.503809
398.359466	2968.231385
398.742092	2966.840026
399.124656	2978.870740
399.507158	2997.182731
399.889598	3000.363699
400.271977	3015.517408
400.654294	3022.481762
401.036549	3036.007177
401.418742	3037.335522
401.800874	3064.542629
402.182944	3070.428176
402.564952	3097.978082
402.946898	3087.142122
403.328783	3097.365582
403.710606	3110.659104
404.092367	3136.895789
404.474067	3160.448060
404.855705	3151.568068
405.237282	3156.216012
405.618797	3181.134435
406.000250	3207.108980
406.381642	3237.965883
406.762972	3238.394381
407.144240	3229.075808
407.525447	3253.643871
407.906593	3255.133532
408.287677	3273.674896
408.668700	3295.677012
409.049661	3290.373718
409.430560	3304.378044
409.811399	3313.484888
410.192176	3334.453568
410.572891	3340.939012
410.953545	3379.118191
411.334138	3349.302286
411.714669	3398.728279
412.095139	3345.166019
412.475547	3397.805748
412.855894	3387.688152
413.236180	3416.354673
413.616405	3392.860376
413.996568	3420.314500
414.376670	3422.507402
414.756711	3419.442380
415.136691	3443.574384
415.516609	3465.352168
415.896466	3474.070844
416.276262	3501.305678
416.655997	3530.032693
417.035670	3537.816234
417.415283	3603.242849
417.794834	3624.153556
418.174324	3609.156123
418.553753	3606.113787
418.933121	3655.146569
419.312428	3642.145434
419.691674	3638.384733
420.070859	3676.057276
420.449983	3656.016168
420.829045	3705.532902
421.208047	3691.768032
421.586988	3732.306470
421.965867	3766.125051
422.344686	3776.363634
422.723444	3814.920899
423.102141	3719.333061
423.480777	3819.793175
423.859352	3789.203453
424.237866	3886.278432
424.616319	3869.665310
424.994712	3930.237294
425.373044	3919.300510
425.751314	3980.484995
426.129524	3917.019388
426.507673	4015.866333
426.885762	3995.111902
427.263789	4014.850540
427.641756	4018.097043
428.019662	4053.604411
428.397508	4052.008885
428.775292	4087.682611
429.153016	4097.686780
429.530679	4107.479222
429.908282	4118.232003
430.285824	4096.040844
430.663305	4171.590096
431.040726	4126.648209
431.418086	4116.918782
431.795385	4193.524156
432.172624	4225.205288
432.549802	4194.187068
432.926920	4214.197928
433.303977	4203.004046
433.680974	4245.753031
434.057910	4268.062657
434.434786	4271.475518
434.811601	4266.567955
435.188355	4372.855642
435.565050	4348.385882
435.941683	4343.067464
436.318257	4431.678346
436.694770	4433.977112
437.071222	4496.570599
437.447614	4424.527469
437.823946	4428.474693
438.200218	4446.277528
438.576429	4431.600208
438.952580	4457.743632
439.328670	4462.794868
439.704700	4505.039738
440.080670	4468.594716
440.456580	4529.741391
440.832429	4562.256834
441.208218	4469.275272
441.583947	4518.976007
441.959616	4532.335065
442.335224	4557.107295
442.710773	4580.838527
443.086261	4635.219974
443.461689	4587.180298
443.837057	4597.050877
444.212365	4672.050644
444.587612	4675.622301
444.962800	4647.180111
445.337927	4686.599414
445.712995	4575.827620
446.088002	4763.852576
446.462949	4787.339312
446.837837	4803.523936
447.212664	4795.221156
447.587431	5015.421276
447.962139	5310.573272
448.336786	5649.996681
448.711374	5638.994363
449.085901	5288.089726
449.460369	5215.411411
449.834776	5157.652391
450.209124	5385.966249
450.583412	5401.303959
450.957640	5521.573287
451.331808	5386.896342
451.705917	5235.276078
452.079965	5229.072938
452.453954	5265.893526
452.827883	5229.763576
453.201752	5235.777673
453.575562	5270.768322
453.949311	5401.389659
454.323001	5402.861676
454.696632	5396.013268
455.070202	5553.791301
455.443713	5582.263738
455.817164	5676.999622
456.190556	5749.753554
456.563888	5716.050920
456.937160	5795.716274
457.310373	5640.501668
457.683526	5702.429722
458.056619	5689.141241
458.429653	5671.310680
458.802628	5716.285334
459.175542	5744.571248
459.548398	5882.414038
459.921194	6071.729530
460.293930	6129.239013
460.666607	6381.803341
461.039224	6595.233192
461.411782	6727.465178
461.784280	6642.173896
462.156719	6650.673282
462.529099	6608.751046
462.901419	6464.102698
463.273680	6335.548234
463.645882	6324.719836
464.018024	6326.922820
464.390106	6390.360700
464.762130	6646.322766
465.134094	7029.699995
465.505999	7663.380595
465.877845	8368.960652
466.249631	8719.956030
466.621358	8651.136718
466.993026	8454.375443
467.364634	8240.801919
467.736184	7965.315464
468.107674	7809.803429
468.479105	7717.993936
468.850477	7654.077146
469.221790	7482.922411
469.593043	7259.894203
469.964238	7164.704616
470.335373	7138.709906
470.706449	7291.913092
471.077467	7467.630071
471.448425	8123.705997
471.819324	8704.068834
472.190164	8753.036082
472.560945	8271.545395
472.931667	7804.742111
473.302330	7607.580063
473.672934	7491.333576
474.043479	7560.152888
474.413965	7463.269473
474.784393	7418.836743
475.154761	7571.109836
475.525070	7583.143070
475.895321	7533.805298
476.265513	7633.128631
476.635645	7796.658621
477.005719	7785.570603
477.375734	7869.268880
477.745691	7979.939851
478.115588	8179.556941
478.485427	8415.230883
478.855207	8884.416112
479.224928	9315.954005
479.594591	9698.675885
479.964194	9714.779851
480.333739	9794.551069
480.703226	9793.709196
481.072653	9898.114013
481.442022	10014.347897
481.811333	10162.635958
482.180584	10008.230457
482.549777	9945.674779
482.918912	9880.596003
483.287988	9872.633501
483.657005	9775.447617
484.025964	9693.019710
484.394864	9759.056305
484.763706	9715.868740
485.132489	9627.827508
485.501213	9624.028999
485.869879	9675.874746
486.238487	9614.085323
486.607036	9681.248616
486.975527	9636.339497
487.343959	9688.764976
487.712333	9739.042924
488.080648	9780.120766
488.448905	9884.361745
488.817104	9882.544409
489.185244	10047.102794
489.553326	10262.506257
489.921350	10724.606145
490.289315	11346.934067
490.657222	11637.808644
491.025070	11814.445633
491.392861	11744.224881
491.760593	11582.900396
492.128267	11341.078767
492.495883	11097.117167
492.863440	10867.011179
493.230939	10636.209512
493.598380	10457.828283
493.965763	10435.009501
494.333088	10303.417741
494.700354	10227.208098
495.067563	10200.757164
495.434713	10204.001146
495.801805	10251.032591
496.168839	10212.482887
496.535815	10182.944247
496.902733	10224.190967
497.269593	10185.321151
497.636395	10193.064363
498.003139	10300.415734
498.369825	10227.170289
498.736453	10318.314351
499.103023	10257.208004
499.469535	10270.325087
499.835989	10320.789557
500.202385	10289.244537
500.568723	10302.490169
500.935003	10364.788748
501.301226	10337.465694
501.667390	10504.600109
502.033497	10608.457960
502.399546	10534.690756
502.765537	10437.772053
503.131470	10547.555781
503.497345	10639.879472
503.863163	10407.285675
504.228923	10541.955059
504.594625	10665.039871
504.960269	10565.409027
505.325856	10720.129600
505.691385	10597.737947
506.056856	10671.474904
506.422270	10763.092834
506.787625	10700.612773
507.152924	10754.081772
507.518164	10816.014867
507.883347	10682.643580
508.248472	10752.009857
508.613540	10862.297701
508.978550	10937.388208
509.343503	10917.760475
509.708398	10968.638320
510.073236	11095.272105
510.438016	11112.144847
510.802738	11024.305262
511.167403	11151.359983
511.532010	11211.606812
511.896561	11309.019549
512.261053	11505.959785
512.625488	11422.866447
512.989866	11408.068139
513.354186	11384.200797
513.718449	11397.960626
514.082655	11533.923066
514.446803	11490.833803
514.810894	11602.704569
515.174927	11598.845566
515.538904	11581.904768
515.902822	11740.839746
516.266684	11615.952721
516.630488	11714.144316
516.994235	11706.083511
517.357925	11818.211375
517.721558	11882.415511
518.085133	11944.469594
518.448651	11976.765746
518.812112	11930.029209
519.175516	11936.141608
519.538863	12027.774661
519.902152	12035.265816
520.265385	12145.596509
520.628560	12168.710199
520.991678	12109.385901
521.354739	12171.513081
521.717743	12238.194943
522.080690	12203.894932
522.443580	12337.016682
522.806413	12348.818023
523.169189	12347.527488
523.531908	12409.039647
523.894569	12362.993748
524.257174	12386.661965
524.619722	12488.092501
524.982213	12469.599028
525.344647	12458.301803
525.707025	12464.502422
526.069345	12564.743245
526.431608	12549.150957
526.793815	12625.826907
527.155964	12527.000127
527.518057	12552.717573
527.880093	12514.117458
528.242072	12621.788942
528.603995	12554.055999
528.965860	12577.729258
529.327669	12603.252620
529.689421	12555.580948
530.051117	12562.552864
530.412755	12602.105757
530.774337	12598.448400
531.135862	12560.871639
531.497331	12619.031431
531.858743	12580.002818
532.220098	12661.961897
532.581396	12579.420565
532.942638	12506.638906
533.303824	12578.319073
533.664953	12567.341960
534.026025	12522.485773
534.387040	12627.976959
534.747999	12604.207918
535.108902	12648.648210
535.469748	12523.151206
535.830537	12552.399980
536.191270	12582.825864
536.551947	12510.155111
536.912567	12574.177765
537.273131	12604.018875
537.633638	12484.374650
537.994089	12546.884958
538.354483	12462.465796
538.714821	12582.394846
539.075103	12663.854851
539.435328	12603.653391
539.795497	12586.319384
540.155609	12580.375863
540.515665	12685.516689
540.875665	12549.735730
541.235609	12647.730720
541.595496	12609.296963
541.955328	12772.521963
542.315102	12615.797531
542.674821	12556.304354
543.034483	12579.687746
543.394090	12569.678535
543.753640	12550.723797
544.113134	12790.284468
544.472571	12556.415259
544.831953	12830.442300
545.191278	12649.439671
545.550548	12592.399015
545.909761	12703.798433
546.268918	12741.413002
546.628019	12802.791571
546.987064	12699.130325
547.346053	12540.051674
547.704986	12741.014751
548.063863	12619.603602
548.422684	12677.982684
548.781449	12631.084830
549.140158	12733.868916
549.498811	12678.827078
549.857408	12551.860577
550.215949	12752.685023
550.574434	12720.963562
550.932864	12662.324860
551.291237	12848.774456
551.649555	12750.177048
552.007817	12814.040906
552.366022	12730.269532
552.724173	12770.780244
553.082267	12860.739635
553.440305	12943.238117
553.798288	12768.743618
554.156215	12840.935462
554.514086	12897.787074
554.871902	12836.562261
555.229661	12861.679810
555.587365	12806.015389
555.945014	12826.013646
556.302606	12803.613279
556.660143	12858.614788
557.017625	12898.878484
557.375050	12858.110673
557.732421	12964.418525
558.089735	12963.148154
558.446994	12923.428903
558.804197	13043.156307
559.161345	13035.536603
559.518437	12853.399715
559.875474	12949.405969
560.232455	12978.906801
560.589381	13026.069316
560.946251	12972.116367
561.303065	13148.982729
561.659825	13098.525820
562.016528	13000.382117
562.373177	12939.381635
562.729770	13062.622723
563.086307	12946.182151
563.442789	13061.601889
563.799216	13102.284001
564.155587	13036.159186
564.511904	13058.478894
564.868164	13069.488774
565.224370	13132.752734
565.580520	13077.201740
565.936615	13149.864931
566.292654	13082.726844
566.648638	13154.210406
567.004567	13152.085559
567.360441	13153.038337
567.716260	13124.628915
568.072023	13207.805433
568.427732	13188.540663
568.783385	13091.790839
569.138982	13201.932489
569.494525	13198.421325
569.850013	13150.364005
570.205445	13140.695072
570.560823	13152.612360
570.916145	13112.784724
571.271412	13114.907050
571.626625	13069.274525
571.981782	13068.286459
572.336884	13021.459181
572.691931	13095.594389
573.046923	12996.639060
573.401860	12975.607366
573.756743	12972.607880
574.111570	12999.283145
574.466342	12970.041932
574.821059	13029.545192
575.175722	12897.814801
575.530330	12927.207248
575.884882	12849.281092
576.239380	12854.264272
576.593823	12835.816170
576.948211	12829.388699
577.302544	12705.593084
577.656823	12723.842061
578.011047	12790.423100
578.365216	12731.096281
578.719330	12661.263698
579.073389	12634.550623
579.427394	12644.975729
579.781344	12630.641208
580.135239	12563.266187
580.489080	12587.458685
580.842866	12464.401599
581.196597	12560.596896
581.550273	12543.542673
581.903895	12512.600071
582.257463	12616.450360
582.610975	12477.216212
582.964434	12535.827187
583.317837	12465.921507
583.671186	12412.775142
584.024481	12469.576343
584.377721	12359.699354
584.730906	12426.333325
585.084037	12441.786983
585.437113	12355.459743
585.790135	12379.937066
586.143103	12293.932461
586.496016	12307.808237
586.848874	12321.401708
587.201679	12314.991881
587.554428	12192.990917
587.907124	12244.385480
588.259765	12178.613546
588.612352	12246.144843
588.964884	12104.997576
589.317362	12168.264057
589.669786	12157.513797
590.022155	12114.071653
590.374470	12212.800131
590.726731	12097.682862
591.078937	11979.782877
591.431090	12010.337310
591.783188	11947.252311
592.135232	11866.795495
592.487222	11926.117273
592.839157	11933.411823
593.191038	11865.530166
593.542866	11821.039462
593.894639	11681.283554
594.246358	11740.829664
594.598022	11745.124727
594.949633	11650.456899
595.301190	11638.995835
595.652692	11592.644946
596.004141	11685.525685
596.355535	11466.583333
596.706876	11449.992895
597.058162	11416.665827
597.409395	11508.039261
597.760573	11541.111751
598.111698	11430.395410
598.462768	11433.727613
598.813785	11438.017634
599.164748	11304.323714
599.515657	11386.229861
599.866511	11256.841086
600.217312	11393.186653
600.568060	11159.695531
600.918753	11318.696043
601.269392	11314.466515
601.619978	11213.744262
601.970510	11258.592887
602.320988	11306.390587
602.671412	11374.930115
603.021783	11297.077055
603.372100	11221.376568
603.722363	11242.390618
604.072572	11249.516289
604.422728	11249.680127
604.772830	11199.533249
605.122878	11204.148425
605.472872	11184.535816
605.822813	11235.640513
606.172701	11199.124915
606.522534	11236.956254
606.872314	11275.954621
607.222041	11215.296937
607.571714	11300.545369
607.921333	11156.781744
608.270899	11216.819365
608.620411	11275.775660
608.969870	11212.567152
609.319276	11212.930115
609.668627	11219.599562
610.017926	11306.214147
610.367171	11337.363436
610.716362	11327.013947
611.065500	11306.017542
611.414585	11319.419449
611.763616	11374.277285
612.112594	11341.686226
612.461518	11366.186233
612.810389	11413.139540
613.159207	11362.354956
613.507971	11355.357835
613.856682	11457.279883
614.205340	11412.247256
614.553945	11551.551981
614.902496	11424.141858
615.250994	11484.106383
615.599439	11477.663789
615.947830	11511.404232
616.296169	11476.809313
616.644454	11486.969759
616.992686	11509.949859
617.340864	11603.241452
617.688990	11486.821045
618.037063	11620.179729
618.385082	11600.917480
618.733048	11633.818570
619.080961	11617.538164
619.428821	11604.390835
619.776628	11613.227978
620.124382	11560.454658
620.472083	11575.931001
620.819731	11602.941503
621.167326	11527.304031
621.514868	11506.983140
621.862357	11407.717779
622.209793	11401.812067
622.557176	11323.149903
622.904506	11263.966757
623.251783	11171.242293
623.599007	11112.956473
623.946179	11076.057747
624.293297	11045.410052
624.640363	10907.874773
624.987376	10894.926569
625.334336	10833.845428
625.681243	10748.052552
626.028097	10721.742770
626.374899	10683.734990
626.721647	10656.117029
627.068343	10609.743455
627.414987	10551.071986
627.761577	10485.224434
628.108115	10528.810250
628.454600	10412.299102
628.801032	10423.215721
629.147412	10412.508310
629.493739	10381.651408
629.840014	10299.921701
630.186236	10350.413898
630.532405	10246.298948
630.878521	10286.144227
631.224585	10235.964582
631.570597	10162.290639
631.916556	10166.994036
632.262462	10151.278239
632.608316	10129.959199
632.954117	10110.006312
633.299866	10094.459394
633.645562	10075.683616
633.991206	9971.911464
634.336797	9871.910095
634.682336	9862.624290
635.027823	9803.844436
635.373257	9770.005691
635.718639	9694.383342
636.063968	9666.281430
636.409245	9561.594309
636.754470	9540.028252
637.099642	9499.184824
637.444762	9393.839832
637.789829	9396.486438
638.134845	9327.115120
638.479808	9304.427407
638.824719	9280.532338
639.169577	9182.000465
639.514383	9191.926497
639.859137	9120.208522
640.203839	9155.347885
640.548489	9072.602386
640.893086	9089.028985
641.237632	9011.987552
641.582125	9021.958954
641.926566	9008.715843
642.270955	8997.945418
642.615292	8983.603335
642.959576	8962.090211
643.303809	8954.634344
643.647990	8975.320719
643.992118	8944.544475
644.336195	8927.132330
644.680219	8928.717773
645.024192	8956.829767
645.368112	9027.804172
645.711981	9009.414043
646.055797	9147.861771
646.399562	9106.247046
646.743274	9268.615050
647.086935	9333.472015
647.430544	9310.275145
647.774101	9338.883693
648.117606	9362.768680
648.461059	9421.951827
648.804460	9354.995221
649.147810	9236.341583
649.491108	9194.704173
649.834354	9138.213003
650.177548	8996.778391
650.520690	8906.564422
650.863781	8900.073936
651.206820	8876.337663
651.549807	8787.615876
651.892742	8692.227163
652.235626	8652.286101
652.578458	8619.032130
652.921238	8511.085903
653.263967	8551.019403
653.606644	8481.113723
653.949269	8453.634393
654.291843	8385.137715
654.634365	8452.255637
654.976836	8377.785192
655.319255	8369.000982
655.661622	8359.067388
656.003938	8321.190678
656.346203	8290.449722
656.688416	8312.156931
657.030577	8267.716639
657.372687	8234.051814
657.714746	8268.150178
658.056753	8281.005121
658.398708	8183.511726
658.740612	8176.159203
659.082465	8224.181234
659.424266	8175.012340
659.766016	8191.817027
660.107715	8159.735124
660.449362	8182.838732
660.790958	8180.396293
661.132503	8168.426073
661.473996	8167.528747
661.815438	8191.403652
662.156829	8216.957261
662.498168	8163.493304
662.839456	8157.448960
663.180693	8183.892333
663.521879	8203.164664
663.863013	8185.054319
664.204097	8177.676590
664.545129	8255.310359
664.886110	8242.294100
665.227040	8249.245851
665.567918	8254.244155
665.908746	8273.690406
666.249522	8293.902913
666.590248	8288.211450
666.930922	8311.562075
667.271545	8289.456615
667.612118	8313.089544
667.952639	8278.827342
668.293109	8275.868185
668.633528	8252.736850
668.973896	8241.928617
669.314213	8243.141014
669.654480	8203.590642
669.994695	8203.189870
670.334859	8179.163731
670.674973	8157.811923
671.015035	8182.909308
671.355047	8170.167792
671.695008	8157.322932
672.034918	8131.910475
672.374777	8132.684292
672.714585	8109.542875
673.054342	8144.243658
673.394049	8117.850697
673.733705	8150.983681
674.073310	8107.269315
674.412864	8115.166282
674.752368	8047.088020
675.091820	8105.696475
675.431223	8028.907099
675.770574	7982.054615
676.109875	7954.235008
676.449125	7912.340499
676.788324	7906.354128
677.127473	7815.270561
677.466571	7800.976369
677.805619	7740.439673
678.144616	7738.821463
678.483562	7723.128351
678.822458	7671.272522
679.161303	7661.530492
679.500098	7634.164588
679.838842	7609.029395
680.177535	7631.107128
680.516179	7663.488980
680.854771	7677.004314
681.193314	7791.403218
681.531805	7944.245961
681.870247	8062.052686
682.208638	8223.883806
682.546978	8296.756206
682.885268	8333.546547
683.223508	8264.923840
683.561697	8214.192188
683.899836	8177.916045
684.237925	8091.820699
684.575963	8070.872184
684.913951	7984.865058
685.251889	7997.165474
685.589776	7996.363930
685.927614	7978.046898
686.265401	7998.776122
686.603137	8003.713933
686.940824	8072.891166
687.278460	8127.630535
687.616046	8140.051938
687.953582	8246.208556
688.291068	8232.668017
688.628504	8286.893188
688.965889	8298.076988
689.303224	8256.346317
689.640510	8210.219759
689.977745	8107.029860
690.314930	7983.657702
690.652065	7911.622134
690.989150	7793.815410
691.326185	7643.629355
691.663170	7529.593413
692.000105	7412.109323
692.336990	7301.123280
692.673825	7226.441106
693.010610	7140.728888
693.347345	7040.442694
693.684030	6929.023112
694.020665	6882.944445
694.357251	6770.955212
694.693786	6760.683861
695.030272	6719.948818
695.366707	6625.107070
695.703093	6569.520787
696.039429	6567.305200
696.375716	6515.716552
696.711952	6504.298338
697.048139	6479.377394
697.384276	6440.046312
697.720363	6463.573377
698.056400	6435.597494
698.392388	6407.959368
698.728326	6406.421816
699.064214	6376.016097
699.400053	6371.282453
699.735842	6312.442105
700.071581	6269.972905
700.407270	6224.897428
700.742910	6197.627306
701.078501	6154.785060
701.414042	6112.116734
701.749533	6055.905348
702.084974	5995.257747
702.420366	6038.515888
702.755709	5966.530731
703.091002	5917.566004
703.426246	5915.473925
703.761440	5902.109826
704.096584	5858.960070
704.431679	5851.136199
704.766725	5831.044681
705.101721	5820.211241
705.436668	5836.610114
705.771565	5781.079284
706.106413	5841.411813
706.441212	5834.782696
706.775961	5850.518658
707.110661	5863.071131
707.445311	5925.848620
707.779913	5891.112549
708.114465	5930.098313
708.448967	5970.341844
708.783421	6087.238640
709.117825	6128.964270
709.452180	6162.729918
709.786485	6227.559157
710.120742	6359.118149
710.454949	6360.007912
710.789107	6433.185302
711.123216	6553.313477
711.457275	6584.107366
711.791286	6691.226844
712.125247	6709.841304
712.459159	6678.366860
712.793023	6812.360729
713.126837	6644.097096
713.460602	6700.623554
713.794318	6653.030021
714.127985	6600.551609
714.461602	6457.382840
714.795171	6465.877184
715.128691	6301.026412
715.462162	6210.449481
715.795584	6139.938862
716.128957	6094.215597
716.462281	6025.976018
716.795556	5985.903886
717.128782	5902.389610
717.461960	5811.699253
717.795088	5800.086955
718.128167	5728.931068
718.461198	5651.612371
718.794180	5621.012567
719.127113	5561.416047
719.459997	5533.810688
719.792833	5464.318382
720.125619	5462.105316
720.458357	5401.034257
720.791046	5371.057036
721.123686	5345.906720
721.456278	5299.250841
721.788821	5292.435201
722.121315	5252.191670
722.453761	5258.679635
722.786158	5241.673302
723.118506	5241.360751
723.450805	5220.979366
723.783056	5245.313015
724.115259	5225.501281
724.447412	5209.866142
724.779518	5254.523203
725.111574	5261.255664
725.443582	5295.069204
725.775542	5291.089213
726.107453	5372.949989
726.439315	5350.456361
726.771129	5412.550773
727.102895	5480.218182
727.434612	5519.735787
727.766281	5547.933481
728.097901	5603.439105
728.429473	5623.074399
728.760996	5635.100072
729.092471	5657.747455
729.423897	5643.632225
729.755276	5617.372854
730.086606	5635.992356
730.417887	5718.369851
730.749120	5812.478111
731.080305	5847.738462
731.411442	5921.177991
731.742530	5943.532988
732.073570	5966.946627
732.404562	6030.901225
732.735506	6023.692375
733.066401	6004.616649
733.397249	5942.933090
733.728048	5850.299368
734.058798	5703.702614
734.389501	5580.544705
734.720156	5495.686962
735.050762	5385.593203
735.381320	5314.903623
735.711831	5260.635602
736.042293	5184.206669
736.372707	5177.063354
736.703073	5130.024347
737.033391	5157.566691
737.363661	5144.414321
737.693883	5154.602493
738.024056	5173.199309
738.354182	5199.539338
738.684260	5252.577318
739.014290	5289.990241
739.344272	5323.150951
739.674207	5378.520464
740.004093	5409.248818
740.333931	5417.695271
740.663722	5437.832160
740.993464	5446.465136
741.323159	5428.624492
741.652806	5384.395929
741.982405	5353.783523
742.311956	5306.346265
742.641460	5293.345129
742.970915	5240.896964
743.300323	5176.471018
743.629683	5143.050689
743.958996	5092.165282
744.288260	5045.673241
744.617477	4983.460361
744.946647	4973.665399
745.275768	4918.563067
745.604842	4887.801946
745.933869	4851.540927
746.262847	4847.203014
746.591778	4834.010314
746.920662	4806.901509
747.249498	4804.431344
747.578286	4819.370803
747.907027	4841.632539
748.235720	4885.470413
748.564365	4896.175303
748.892963	4878.001943
749.221514	4896.598760
749.550017	4872.517168
749.878473	4868.219584
750.206881	4836.649358
750.535242	4824.101926
750.863555	4806.979647
751.191821	4784.319661
751.520039	4796.032782
751.848210	4773.178711
752.176334	4777.569556
752.504411	4759.300414
752.832440	4729.950816
753.160421	4741.555552
753.488356	4720.579311
753.816243	4704.669430
754.144082	4677.253115
754.471875	4660.519004
754.799620	4653.504239
755.127318	4645.219102
755.454969	4635.217453
755.782572	4625.982059
756.110129	4630.821567
756.437638	4612.643166
756.765100	4614.394967
757.092515	4614.377323
757.419882	4616.708857
757.747203	4612.605358
758.074477	4629.553717
758.401703	4618.571563
758.728882	4642.973268
759.056014	4658.621010
759.383099	4675.912168
759.710138	4703.015931
760.037129	4725.320517
760.364073	4736.088421
760.690970	4738.588833
761.017820	4740.867435
761.344623	4768.964306
761.671379	4826.637627
761.998088	4915.228344
762.324751	5137.845698
762.651366	5588.910500
762.977935	6275.896261
763.304456	6838.728485
763.630931	7155.277658
763.957359	7101.763289
764.283740	6812.549773
764.610074	6497.691906
764.936362	6096.761379
765.262602	5784.106497
765.588796	5437.078507
765.914943	5183.279097
766.241044	4949.974497
766.567097	4782.207417
766.893104	4629.989777
767.219064	4530.994118
767.544978	4430.317235
767.870845	4349.126931
768.196665	4303.910302
768.522438	4256.218466
768.848165	4217.862847
769.173846	4176.134696
769.499479	4145.224861
769.825066	4111.902834
770.150607	4069.592430
770.476101	4054.879822
770.801548	4032.146739
771.126949	3998.955782
771.452303	3981.896518
771.777611	3943.107359
772.102872	3940.233902
772.428087	3914.191301
772.753256	3889.038464
773.078378	3873.501628
773.403453	3838.145495
773.728482	3816.460972
774.053465	3801.536636
774.378401	3780.734315
774.703291	3760.557096
775.028135	3735.202613
775.352932	3726.768763
775.677683	3708.502142
776.002388	3685.580015
776.327046	3686.356353
776.651658	3668.001512
776.976224	3650.632216
777.300743	3648.260353
777.625216	3632.345431
777.949643	3623.964512
778.274024	3628.133547
778.598359	3609.418263
778.922647	3611.671659
779.246889	3600.686984
779.571086	3596.381839
779.895236	3599.441819
780.219339	3600.283692
780.543397	3596.888475
780.867409	3609.778705
781.191374	3613.844396
781.515294	3604.503138
781.839167	3624.950058
782.162995	3617.842031
782.486776	3610.756689
782.810511	3604.102366
783.134201	3589.908997
783.457844	3590.045109
783.781441	3582.133018
784.104993	3572.723704
784.428498	3568.053075
784.751958	3567.347313
785.075372	3563.707600
785.398739	3552.075138
785.722061	3557.557393
786.045337	3555.150242
786.368568	3576.363417
786.691752	3574.283941
787.014891	3619.674490
787.337983	3665.488497
787.661030	3750.827669
787.984031	3847.143955
788.306987	3926.075821
788.629897	3977.402329
788.952760	3984.717043
789.275579	3969.369250
789.598351	3921.732867
789.921078	3869.647666
790.243759	3806.197183
790.566395	3760.940224
790.888984	3708.565156
791.211529	3672.818334
791.534027	3630.696973
791.856480	3589.916559
792.178888	3573.278231
792.501249	3552.846434
792.823566	3517.016433
793.145836	3518.097761
793.468062	3504.216944
793.790241	3488.745643
794.112375	3493.481807
794.434464	3518.722864
794.756507	3510.641894
795.078505	3534.642828
795.400457	3572.660690
795.722364	3622.356384
796.044226	3668.508148
796.366042	3716.540262
796.687812	3711.302503
797.009538	3733.181110
797.331218	3726.834298
797.652852	3717.891291
797.974442	3699.478476
798.295986	3688.934903
798.617484	3655.849810
798.938938	3633.910709
799.260346	3620.176085
799.581709	3585.808019
799.903026	3571.435689
800.224299	3551.008934
800.545526	3522.821322
800.866708	3504.292561
801.187845	3493.282681
801.508936	3469.924495
801.829983	3459.348154
802.150984	3433.761778
802.471940	3422.764501
802.792851	3419.119746
803.113717	3412.893921
803.434538	3404.623908
803.755314	3392.686456
804.076045	3386.959705
804.396731	3376.998385
804.717372	3375.032335
805.037967	3374.888663
805.358518	3377.900752
805.679024	3389.878533
805.999485	3384.678583
806.319901	3390.521281
806.640272	3390.483472
806.960598	3405.324629
807.280879	3403.512334
807.601115	3417.582194
807.921306	3407.280597
808.241453	3408.757655
808.561554	3412.735125
808.881611	3409.934764
809.201623	3414.131525
809.521590	3404.528127
809.841513	3403.252715
810.161390	3414.078593
810.481223	3389.714696
810.801011	3389.669326
811.120755	3384.613048
811.440453	3373.560318
811.760107	3367.626880
812.079716	3358.721682
812.399281	3351.303624
812.718801	3347.880681
813.038276	3344.563602
813.357707	3334.675378
813.677093	3347.028726
813.996434	3330.622291
814.315731	3335.182014
814.634983	3336.001202
814.954191	3336.780060
815.273354	3353.725899
815.592473	3355.974253
815.911547	3380.933006
816.230577	3392.847773
816.549562	3423.477824
816.868502	3436.073147
817.187399	3458.702886
817.506250	3482.991166
817.825058	3497.665964
818.143821	3539.832696
818.462539	3585.503029
818.781213	3637.003457
819.099843	3720.815160
819.418429	3870.063561
819.736970	4025.341182
820.055466	4206.578224
820.373919	4445.256694
820.692327	4772.369605
821.010691	5275.993477
821.329011	6334.696279
821.647286	8042.341774
821.965517	10199.214571
822.283704	11833.687718
822.601847	12940.142849
822.919945	12546.189279
823.237999	11882.218906
823.556010	10993.508853
823.873976	10042.124655
824.191897	9074.235719
824.509775	8316.096593
824.827609	7510.391658
825.145398	6960.419418
825.463144	6578.746098
825.780845	6437.346774
826.098502	6491.181256
826.416116	6865.736466
826.733685	7364.120059
827.051210	7661.381778
827.368692	7584.509223
827.686129	7146.450598
828.003522	6600.634788
828.320872	6040.320621
828.638177	5585.106949
828.955439	5211.731369
829.272656	4868.635479
829.589830	4592.347481
829.906960	4327.336544
830.224046	4118.436170
830.541088	3950.326292
830.858086	3834.142819
831.175041	3736.881317
831.491952	3685.879964
831.808819	3669.864218
832.125642	3703.624825
832.442421	3803.976554
832.759157	4015.521014
833.075849	4388.337026
833.392497	4854.240464
833.709101	5239.913939
834.025662	5360.417681
834.342179	5238.388990
834.658653	4970.166838
834.975083	4702.673133
835.291469	4454.754228
835.607811	4230.569075
835.924110	4074.426897
836.240366	3913.392278
836.556578	3749.146445
836.872746	3614.053604
837.188871	3498.984226
837.504952	3408.515679
837.820990	3331.675892
838.136984	3273.720267
838.452935	3246.011564
838.768842	3232.526478
839.084706	3261.757608
839.400526	3395.708628
839.716303	3619.603914
840.032037	3829.878003
840.347727	3903.738468
840.663373	3813.761434
840.978977	3663.799710
841.294537	3532.797766
841.610054	3426.815068
841.925527	3350.376052
842.240957	3283.048922
842.556344	3222.068604
842.871687	3163.865962
843.186987	3104.622323
843.502244	3047.742984
843.817458	3010.103208
844.132629	2975.420070
844.447756	2955.310907
844.762840	2933.868359
845.077881	2917.537542
845.392879	2903.954152
845.707833	2893.057698
846.022745	2879.895246
846.337613	2877.495657
846.652438	2867.602392
846.967221	2864.532329
847.281960	2855.428006
847.596656	2853.855166
847.911309	2849.030781
848.225919	2842.562981
848.540485	2837.073164
848.855009	2834.988647
849.169490	2829.962617
849.483928	2826.327945
849.798323	2825.065136
850.112675	2821.518684
850.426984	2825.165959
850.741251	2818.935093
851.055474	2815.623055
851.369654	2817.412664
851.683792	2819.666060
851.997887	2820.011379
852.311938	2816.389310
852.625947	2817.765545
852.939914	2810.791109
853.253837	2817.669763
853.567718	2814.569454
853.881555	2810.244144
854.195350	2815.295380
854.509103	2816.255720
854.822812	2814.350163
855.136479	2813.740184
855.450103	2814.718168
855.763685	2812.200111
856.077224	2811.302786
856.390720	2813.082313
856.704173	2818.597336
857.017584	2817.546255
857.330953	2818.289825
857.644278	2822.844508
857.957561	2825.654951
858.270802	2826.862307
858.584000	2825.682677
858.897155	2825.554128
859.210268	2823.273006
859.523339	2820.954075
859.836367	2819.517346
860.149352	2817.047181
860.462295	2818.993066
860.775195	2810.188691
861.088054	2808.532672
861.400869	2810.123156
861.713642	2807.587456
862.026373	2813.672128
862.339062	2815.570123
862.651708	2816.389310
862.964312	2819.771924
863.276873	2822.680670
863.589392	2830.864983
863.901869	2838.565346
864.214303	2843.790502
864.526696	2849.726461
864.839045	2857.817513
865.151353	2865.192721
865.463619	2868.129193
865.775842	2870.044831
866.088023	2872.303268
866.400162	2871.990717
866.712258	2874.957436
867.024313	2874.163454
867.336325	2876.406767
867.648296	2878.098074
867.960224	2877.299052
868.272110	2882.120915
868.583954	2881.538662
868.895755	2886.864641
869.207515	2884.868344
869.519233	2892.109962
869.830909	2891.046278
870.142542	2895.646331
870.454134	2901.010119
870.765684	2901.219327
871.077191	2910.089237
871.388657	2915.483271
871.700081	2919.533838
872.011463	2926.094900
872.322803	2930.934408
872.634101	2937.724842
872.945357	2945.357149
873.256571	2952.513067
873.567744	2960.767956
873.878874	2963.664099
874.189963	2972.314719
874.501010	2976.151037
874.812015	2973.756489
875.122979	2984.229486
875.433900	2985.792244
875.744780	2989.326093
876.055618	2993.114520
876.366415	2995.630056
876.677169	3002.155829
876.987882	3006.075327
877.298554	3015.676204
877.609183	3031.336548
877.919771	3048.143755
878.230317	3070.158474
878.540822	3106.938733
878.851285	3156.573933
879.161707	3219.225393
879.472087	3324.346054
879.782425	3481.546875
880.092722	3755.031992
880.402977	4172.134540
880.713191	4716.047314
881.023363	5311.379857
881.333494	5750.401343
881.643583	6038.626793
881.953631	6114.433144
882.263637	6071.462349
882.573602	5929.639567
882.883526	5770.954127
883.193408	5561.872271
883.503248	5344.873283
883.813048	5135.287312
884.122806	4915.329167
884.432522	4673.908309
884.742197	4450.552426
885.051831	4240.479984
885.361424	4041.876166
885.670975	3876.919530
885.980485	3726.526787
886.289954	3608.208386
886.599382	3500.869618
886.908768	3421.635282
887.218113	3338.562108
887.527417	3271.479474
887.836680	3215.023592
888.145901	3164.833864
888.455082	3134.223978
888.764221	3098.416662
889.073319	3068.197465
889.382376	3049.835063
889.691392	3034.557846
890.000366	3028.785725
890.309300	3018.156452
890.618193	3019.567975
890.927044	3013.359794
891.235855	3010.362828
891.544625	3014.105885
891.853353	3017.493540
892.162041	3031.449974
892.470687	3059.375446
892.779293	3092.387442
893.087858	3138.377889
893.396381	3213.508725
893.704864	3319.758604
894.013306	3474.040597
894.321707	3657.662105
894.630068	3811.228254
894.938387	3892.521901
895.246665	3900.118920
895.554903	3841.092050
895.863100	3759.468207
896.171256	3687.180582
896.479371	3610.940691
896.787446	3538.088457
897.095480	3463.413845
897.403473	3409.788571
897.711425	3354.419057
898.019336	3304.884680
898.327207	3249.363932
898.635038	3203.754092
898.942827	3153.030002
899.250576	3109.610544
899.558284	3071.759041
899.865952	3047.276677
900.173579	3015.275432
900.481165	2991.818943
900.788711	2973.930409
901.096216	2958.302832
901.403681	2947.640792
901.711105	2937.021601
902.018489	2929.774943
902.325832	2937.586210
902.633135	2945.296655
902.940397	2981.328302
903.247619	3072.026222
903.554800	3243.208683
903.861941	3512.086185
904.169041	3774.821041
904.476101	3949.895273
904.783121	3974.480980
905.090100	3909.051845
905.397039	3804.392450
905.703938	3702.001574
906.010796	3599.598095
906.317614	3514.498377
906.624391	3430.888320
906.931129	3361.476673
907.237826	3288.780714
907.544483	3229.476580
907.851099	3159.535611
908.157675	3084.059456
908.464211	3012.596059
908.770707	2956.737554
909.077163	2908.939854
909.383578	2866.826054
909.689954	2842.331088
909.996289	2821.213694
910.302584	2808.194915
910.608839	2798.460447
910.915054	2794.016669
911.221229	2786.505350
911.527363	2785.076183
911.833458	2784.647685
912.139513	2791.327214
912.445527	2792.027934
912.751502	2801.654017
913.057436	2817.871409
913.363331	2836.581652
913.669186	2865.268338
913.975000	2903.215623
914.280775	2962.870118
914.586510	3042.802653
914.892205	3150.660660
915.197859	3293.194244
915.503475	3476.306596
915.809050	3652.946106
916.114585	3781.077113
916.420081	3857.080069
916.725536	3888.892270
917.030952	3852.724512
917.336328	3813.867298
917.641665	3770.374743
917.946961	3705.623643
918.252218	3651.791682
918.557435	3579.282245
918.862612	3509.416894
919.167750	3453.336578
919.472848	3377.626009
919.777906	3312.292655
920.082925	3247.546596
920.387904	3174.177643
920.692843	3119.009776
920.997743	3066.319636
921.302603	3014.685617
921.607423	2980.708240
921.912204	2946.370421
922.216946	2921.111720
922.521647	2895.351423
922.826310	2872.267980
923.130932	2854.417254
923.435516	2834.262721
923.740059	2822.766370
924.044564	2808.527631
924.349028	2793.540280
924.653454	2777.080913
924.957840	2766.446599
925.262186	2755.855135
925.566493	2745.286356
925.870761	2734.261352
926.174989	2729.310939
926.479178	2721.320710
926.783328	2713.476675
927.087438	2707.505428
927.391509	2700.702391
927.695541	2695.865404
927.999533	2689.455577
928.303486	2684.598425
928.607400	2681.838393
928.911275	2682.897036
929.215110	2674.382527
929.518906	2671.269614
929.822663	2671.594769
930.126381	2671.483863
930.430060	2670.785664
930.733699	2669.784995
931.037299	2672.744152
931.340861	2671.335149
931.644383	2673.825479
931.947866	2674.006961
932.251309	2670.949501
932.554714	2671.027639
932.858080	2672.781961
933.161407	2671.372958
933.464694	2668.953204
933.767943	2667.786177
934.071153	2666.034376
934.374323	2664.287616
934.677455	2667.317350
934.980548	2663.047493
935.283602	2661.948521
935.586617	2659.632111
935.889593	2660.920126
936.192530	2660.516833
936.495428	2663.418017
936.798287	2667.072854
937.101108	2668.544871
937.403890	2678.102898
937.706632	2686.088086
938.009336	2698.569983
938.312002	2709.950388
938.614628	2720.047819
938.917216	2731.077864
939.219765	2738.470716
939.522275	2746.042529
939.824747	2748.502612
940.127179	2745.661922
940.429573	2745.266191
940.731929	2748.578229
941.034246	2744.729308
941.336524	2745.951788
941.638763	2745.631675
941.940964	2744.197467
942.243126	2739.224368
942.545250	2735.919892
942.847335	2728.363202
943.149381	2721.421533
943.451389	2718.595967
943.753359	2710.872919
944.055290	2705.698175
944.357182	2702.970910
944.659036	2699.159798
944.960851	2696.828264
945.262628	2693.082687
945.564367	2689.684949
945.866067	2691.126719
946.167729	2690.869621
946.469352	2689.427851
946.770937	2688.207891
947.072484	2686.098168
947.373992	2685.009279
947.675462	2683.895184
947.976893	2684.399300
948.278286	2682.571881
948.579641	2680.263033
948.880958	2678.846469
949.182236	2677.344205
949.483476	2676.056190
949.784678	2675.408402
950.085841	2677.752538
950.386967	2681.543486
950.688054	2678.823783
950.989103	2681.377128
951.290114	2686.877027
951.591087	2688.530525
951.892021	2692.094621
952.192917	2695.149560
952.493776	2700.258770
952.794596	2703.752289
953.095378	2704.795808
953.396122	2706.600541
953.696828	2703.981662
953.997496	2705.882177
954.298126	2700.200796
954.598718	2699.285827
954.899272	2694.630321
955.199788	2692.684436
955.500266	2689.110258
955.800706	2675.426046
956.101108	2670.639470
956.401472	2665.893224
956.701798	2659.354847
957.002087	2651.120122
957.302337	2650.716830
957.602550	2643.797847
957.902724	2638.696199
958.202861	2632.659417
958.502960	2628.876031
958.803022	2623.587861
959.103045	2621.654578
959.403031	2616.285749
959.702979	2615.534617
960.002889	2610.889194
960.302762	2611.768876
960.602596	2608.577825
960.902393	2604.272680
961.202153	2602.352000
961.501875	2601.154726
961.801559	2599.506269
962.101205	2598.913933
962.400814	2597.396546
962.700385	2595.856473
962.999918	2592.854466
963.299414	2597.071392
963.598873	2592.509147
963.898293	2592.718355
964.197677	2591.783221
964.497022	2591.568972
964.796331	2590.916143
965.095601	2588.304825
965.394835	2589.242480
965.694030	2588.042685
965.993189	2590.565782
966.292309	2588.095617
966.591393	2589.542428
966.890439	2589.383632
967.189447	2586.918508
967.488419	2587.344485
967.787353	2587.377253
968.086249	2587.410020
968.385108	2587.334403
968.683930	2585.602767
968.982714	2588.882037
969.281462	2586.777355
969.580172	2589.736513
969.878844	2589.461770
970.177480	2593.320773
970.476078	2594.424786
970.774639	2595.967379
971.073162	2594.195413
971.371649	2593.792121
971.670098	2594.147522
971.968510	2594.825558
972.266885	2597.066350
972.565223	2600.179263
972.863524	2602.049531
973.161788	2602.044490
973.460014	2600.895107
973.758204	2605.734614
974.056356	2604.728904
974.354471	2604.980962
974.652550	2601.374016
974.950591	2605.908534
975.248595	2607.168823
975.546563	2604.073554
975.844493	2603.067844
976.142386	2603.544233
976.440243	2602.021805
976.738062	2604.310488
977.035845	2600.907710
977.333590	2600.436362
977.631299	2597.905702
977.928971	2598.556011
978.226606	2599.102977
978.524204	2597.167173
978.821765	2596.826896
979.119290	2596.615167
979.416777	2594.792790
979.714228	2592.647779
980.011642	2595.795980
980.309020	2596.859663
980.606360	2601.152206
980.903664	2601.258070
981.200931	2609.109667
981.498162	2615.295163
981.795356	2626.728500
982.092513	2642.887918
982.389633	2659.029693
982.686717	2678.349915
982.983764	2691.361133
983.280775	2705.685572
983.577749	2710.719164
983.874686	2710.242775
984.171587	2708.937116
984.468451	2703.195242
984.765279	2698.890096
985.062070	2690.184024
985.358824	2685.372242
985.655543	2674.380006
985.952224	2665.358862
986.248869	2653.013076
986.545478	2637.680406
986.842050	2624.510392
987.138586	2612.814915
987.435086	2604.549943
987.731549	2599.304623
988.027975	2596.544591
988.324366	2588.468663
988.620719	2586.547983
988.917037	2581.829463
989.213318	2582.830132
989.509563	2578.371231
989.805772	2580.627148
990.101944	2575.747311
990.398080	2577.806622
990.694180	2577.592373
990.990244	2580.024730
991.286271	2576.306879
991.582262	2577.773855
991.878217	2575.008782
992.174136	2578.580439
992.470019	2577.433577
992.765865	2578.484657
993.061676	2581.393403
993.357450	2581.252251
993.653188	2580.349884
993.948890	2582.109247
994.244556	2588.178796
994.540186	2592.370516
994.835780	2596.582400
995.131337	2605.921137
995.426859	2612.325923
995.722345	2618.836573
996.017795	2629.642287
996.313208	2640.715181
996.608586	2647.951757
996.903928	2650.759680
997.199234	2650.094248
997.494504	2649.340595
997.789738	2649.189361
998.084936	2645.552168
998.380099	2638.136631
998.675225	2634.280148
998.970316	2629.826289
999.265371	2623.671040
999.560390	2616.948661
999.855373	2610.095212
1000.150320	2605.560695
1000.445232	2599.037442
1000.740108	2590.956472
1001.034948	2589.048395
1001.329752	2583.445153
1001.624521	2580.770821
1001.919254	2577.594894
1002.213951	2578.250244
1002.508613	2574.827300
1002.803239	2572.291600
1003.097829	2569.876887
1003.392384	2572.213462
1003.686903	2570.501990
1003.981386	2572.755386
1004.275834	2568.727504
1004.570246	2570.121383
1004.864623	2568.430076
1005.158964	2570.451579
1005.453270	2566.963100
1005.747540	2565.541495
1006.041775	2566.763975
1006.335974	2567.560477
1006.630138	2566.484191
1006.924266	2566.411094
1007.218359	2565.959911
1007.512416	2565.264231
1007.806438	2564.838254
1008.100425	2563.872873
1008.394376	2566.063254
1008.688292	2566.832030
1008.982172	2565.700291
1009.276017	2566.607699
1009.569827	2562.731052
1009.863602	2566.343038
1010.157341	2565.523851
1010.451045	2564.636608
1010.744714	2561.826164
1011.038347	2560.797769
1011.331945	2561.006977
1011.625508	2561.954714
1011.919036	2560.419682
1012.212528	2560.901113
1012.505986	2563.993861
1012.799408	2561.251473
1013.092795	2563.371278
1013.386147	2563.335990
1013.679464	2560.490259
1013.972745	2561.465722
1014.265992	2558.995557
1014.559204	2562.690722
1014.852380	2564.240877
1015.145521	2562.340362
1015.438628	2562.002605
1015.731699	2562.559652
1016.024736	2562.799107
1016.317737	2564.427400
1016.610703	2561.521175
1016.903635	2559.313149
1017.196531	2561.223747
1017.489393	2560.903633
1017.782219	2558.849363
1018.075011	2562.557132
1018.367768	2562.887327
1018.660490	2562.650393
1018.953177	2562.650393
1019.245829	2562.650393
