Dividing Wavelength (nm)	Counts (n)	Blue Motor Position (mm): 0.000000	Red Motor Position (mm): 3.000000	
326.493990	2149.454739
326.888308	2149.454739
327.282561	2149.454739
327.676750	2124.929525
328.070874	2124.097735
328.464933	2128.178549
328.858929	2140.731022
329.252859	2153.432209
329.646726	2167.630619
330.040528	2179.144614
330.434265	2201.000537
330.827938	2218.493341
331.221547	2238.789026
331.615091	2258.462129
332.008571	2277.923503
332.401986	2297.407563
332.795338	2316.458083
333.188625	2338.563543
333.581847	2359.733868
333.975006	2377.529142
334.368100	2395.662172
334.761129	2415.113464
335.154095	2429.561411
335.546996	2448.695110
335.939833	2456.387911
336.332606	2472.418780
336.725315	2483.753815
337.117960	2491.940649
337.510540	2500.273676
337.903056	2510.333298
338.295508	2518.212622
338.687896	2520.027437
339.080220	2530.689478
339.472480	2535.723070
339.864676	2539.776158
340.256807	2544.590459
340.648875	2545.137425
341.040879	2546.715306
341.432818	2548.265461
341.824694	2550.430636
342.216506	2550.791079
342.608253	2548.572971
342.999937	2548.951057
343.391557	2548.769576
343.783113	2546.591798
344.174605	2545.192877
344.566033	2542.024512
344.957397	2541.969059
345.348697	2536.741383
345.739934	2535.965045
346.131106	2534.931609
346.522215	2532.859694
346.913260	2533.051258
347.304241	2530.208048
347.695159	2533.840199
348.086012	2528.841895
348.476802	2527.016997
348.867528	2528.468849
349.258191	2523.246214
349.648789	2524.244362
350.039324	2519.291429
350.429796	2520.219001
350.820203	2519.873682
351.210548	2518.081552
351.600828	2517.852179
351.991045	2516.675070
352.381198	2515.903773
352.771288	2516.294463
353.161314	2518.782272
353.551276	2517.335461
353.941175	2515.054339
354.331010	2518.389062
354.720782	2518.474762
355.110490	2517.501819
355.500135	2519.639268
355.889717	2516.614576
356.279235	2520.004752
356.668689	2521.040709
357.058080	2520.687828
357.447408	2519.500637
357.836672	2516.730523
358.225873	2516.009638
358.615010	2516.511233
359.004084	2521.960720
359.393095	2521.070956
359.782043	2520.768487
360.170927	2521.617921
360.559748	2523.336955
360.948505	2521.227232
361.337199	2523.692356
361.725830	2523.601615
362.114398	2524.579599
362.502903	2525.355937
362.891344	2524.957686
363.279722	2525.875176
363.668037	2526.054137
364.056289	2525.834847
364.444478	2527.165711
364.832603	2526.139836
365.220665	2528.431041
365.608665	2527.911802
365.996601	2530.502955
366.384474	2528.965403
366.772284	2529.575383
367.160031	2530.215609
367.547715	2528.388191
367.935336	2530.971782
368.322893	2530.283665
368.710388	2530.271062
369.097820	2533.278110
369.485189	2531.732997
369.872495	2530.757533
370.259738	2532.622760
370.646918	2530.044210
371.034035	2532.368182
371.421090	2533.139478
371.808081	2533.154602
372.195010	2535.077802
372.581875	2532.761392
372.968678	2534.218285
373.355418	2536.275076
373.742096	2536.330529
374.128710	2536.350693
374.515262	2533.540250
374.901751	2537.510159
375.288177	2539.708102
375.674540	2540.524769
376.060841	2540.285314
376.447079	2539.708102
376.833254	2541.621220
377.219367	2536.978317
377.605417	2539.972763
377.991404	2540.098791
378.377329	2542.453010
378.763191	2542.223638
379.148991	2545.036602
379.534727	2547.756304
379.920402	2548.860317
380.306013	2548.363763
380.691563	2552.883158
381.077049	2552.910884
381.462474	2553.268806
381.847835	2554.571944
382.233134	2556.480021
382.618371	2556.026317
383.003545	2558.196534
383.388657	2558.814075
383.773706	2561.470763
384.158693	2561.629559
384.543618	2564.729869
384.928480	2562.902451
385.313280	2563.903120
385.698017	2564.873542
386.082692	2564.750034
386.467305	2567.449572
386.851856	2567.187432
387.236344	2568.939233
387.620770	2568.606516
388.005133	2567.394119
388.389435	2571.192628
388.773674	2570.938050
389.157851	2566.970662
389.541965	2569.604665
389.926018	2567.772205
390.310008	2567.419325
390.693936	2568.518296
391.077802	2568.709860
391.461606	2567.585683
391.845348	2568.382185
392.229027	2567.560477
392.612645	2563.320867
392.996200	2566.211968
393.379694	2565.518810
393.763125	2566.365723
394.146494	2566.242215
394.529801	2562.516802
394.913047	2562.718449
395.296230	2561.778273
395.679351	2557.483210
396.062410	2559.794579
396.445408	2556.686708
396.828343	2557.997408
397.211217	2552.066491
397.594028	2550.642365
397.976778	2548.610780
398.359466	2552.981460
398.742092	2549.729916
399.124656	2550.070194
399.507158	2552.240410
399.889598	2553.903991
400.271977	2549.124977
400.654294	2553.238559
401.036549	2551.776624
401.418742	2550.322251
401.800874	2549.220759
402.182944	2547.778989
402.564952	2552.069011
402.946898	2549.495502
403.328783	2550.937272
403.710606	2549.858465
404.092367	2550.483568
404.474067	2551.045657
404.855705	2552.159752
405.237282	2552.542880
405.618797	2549.830739
406.000250	2552.260575
406.381642	2551.156562
406.762972	2552.399207
407.144240	2549.855945
407.525447	2554.077911
407.906593	2551.212015
408.287677	2550.138249
408.668700	2554.178734
409.049661	2549.593805
409.430560	2552.341233
409.811399	2554.319886
410.192176	2549.901315
410.572891	2552.124464
410.953545	2554.042623
411.334138	2551.965668
411.714669	2551.229659
412.095139	2553.049516
412.475547	2553.465411
412.855894	2555.781821
413.236180	2552.565565
413.616405	2556.406924
413.996568	2552.825184
414.376670	2555.113868
414.756711	2553.349464
415.136691	2554.798796
415.516609	2553.909032
415.896466	2555.423899
416.276262	2555.267623
416.655997	2552.069011
417.035670	2551.025492
417.415283	2552.704197
417.794834	2552.371480
418.174324	2554.801317
418.553753	2553.808209
418.933121	2553.319217
419.312428	2555.749053
419.691674	2556.341389
420.070859	2554.713096
420.449983	2554.947510
420.829045	2554.889537
421.208047	2554.982798
421.586988	2556.308622
421.965867	2556.180072
422.344686	2556.618652
422.723444	2559.063612
423.102141	2556.618653
423.480777	2553.215874
423.859352	2556.263251
424.237866	2558.776266
424.616319	2557.523540
424.994712	2557.826009
425.373044	2559.850032
425.751314	2559.068653
426.129524	2556.772408
426.507673	2559.817265
426.885762	2559.182079
427.263789	2558.930022
427.641756	2558.188972
428.019662	2559.134188
428.397508	2557.445402
428.775292	2559.469425
429.153016	2556.419527
429.530679	2562.098387
429.908282	2559.973540
430.285824	2560.215516
430.663305	2558.221739
431.040726	2560.011349
431.418086	2563.325908
431.795385	2561.647203
432.172624	2560.701987
432.549802	2559.010680
432.926920	2559.476987
433.303977	2561.006977
433.680974	2559.197203
434.057910	2561.513613
434.434786	2560.770043
434.811601	2559.890361
435.188355	2561.145609
435.565050	2561.828685
435.941683	2562.942780
436.318257	2559.250135
436.694770	2557.521019
437.071222	2559.232491
437.447614	2557.712583
437.823946	2560.528067
438.200218	2562.292471
438.576429	2564.762637
438.952580	2560.971689
439.328670	2562.748696
439.704700	2563.744323
440.080670	2561.932029
440.456580	2559.761812
440.832429	2563.799776
441.208218	2563.061247
441.583947	2564.573593
441.959616	2561.687533
442.335224	2561.924467
442.710773	2560.457491
443.086261	2563.867832
443.461689	2561.621998
443.837057	2563.209961
444.212365	2563.146947
444.587612	2563.361196
444.962800	2562.123592
445.337927	2564.893707
445.712995	2562.095866
446.088002	2564.790363
446.462949	2564.505538
446.837837	2566.579972
447.212664	2564.480332
447.587431	2562.673078
447.962139	2565.004612
448.336786	2565.365054
448.711374	2562.108469
449.085901	2566.769016
449.460369	2564.949159
449.834776	2563.535116
450.209124	2564.167780
450.583412	2563.031000
450.957640	2564.175342
451.331808	2564.245918
451.705917	2564.374468
452.079965	2568.856053
452.453954	2563.109138
452.827883	2564.399673
453.201752	2565.475960
453.575562	2565.244067
453.949311	2563.668706
454.323001	2565.443192
454.696632	2566.532082
455.070202	2564.513099
455.443713	2566.625343
455.817164	2562.037893
456.190556	2563.399004
456.563888	2563.434293
456.937160	2562.408418
457.310373	2567.096691
457.683526	2564.301371
458.056619	2566.900086
458.429653	2569.471074
458.802628	2566.842112
459.175542	2564.172822
459.548398	2565.743141
459.921194	2566.559808
460.293930	2568.843451
460.666607	2566.902606
461.039224	2567.923440
461.411782	2568.223389
461.784280	2570.184397
462.156719	2565.871690
462.529099	2569.952504
462.901419	2568.369582
463.273680	2568.364541
463.645882	2566.312791
464.018024	2568.137689
464.390106	2568.407391
464.762130	2568.815724
465.134094	2568.026784
465.505999	2568.031825
465.877845	2568.447720
466.249631	2567.429407
466.621358	2567.424366
466.993026	2572.107598
467.364634	2572.692372
467.736184	2567.361351
468.107674	2568.654407
468.479105	2568.697257
468.850477	2570.902762
469.221790	2570.592731
469.593043	2567.177349
469.964238	2571.805128
470.335373	2568.281362
470.706449	2568.115004
471.077467	2567.560477
471.448425	2569.755899
471.819324	2569.380333
472.190164	2568.830848
472.560945	2571.747155
472.931667	2568.142730
473.302330	2566.426217
473.672934	2571.106929
474.043479	2570.166753
474.413965	2571.086764
474.784393	2566.574931
475.154761	2566.108625
475.525070	2567.812535
475.895321	2564.230795
476.265513	2564.107287
476.635645	2573.526682
477.005719	2568.525858
477.375734	2570.965776
477.745691	2569.725652
478.115588	2570.998544
478.485427	2571.343863
478.855207	2572.394943
479.224928	2570.227247
479.594591	2569.287072
479.964194	2574.426528
480.333739	2572.636919
480.703226	2567.963769
481.072653	2569.675241
481.442022	2569.027453
481.811333	2573.085582
482.180584	2570.360838
482.549777	2570.910324
482.918912	2571.134655
483.287988	2575.454924
483.657005	2569.715570
484.025964	2569.516445
484.394864	2572.490725
484.763706	2571.338822
485.132489	2568.462843
485.501213	2571.832855
485.869879	2574.053483
486.238487	2569.624829
486.607036	2572.611713
486.975527	2571.787484
487.343959	2571.306054
487.712333	2570.186918
488.080648	2571.507700
488.448905	2571.966445
488.817104	2569.488718
489.185244	2571.026270
489.553326	2568.609037
489.921350	2571.588359
490.289315	2574.381158
490.657222	2573.103226
491.025070	2573.544327
491.392861	2574.166909
491.760593	2572.198338
492.128267	2573.836713
492.495883	2573.478792
492.863440	2572.712536
493.230939	2572.147927
493.598380	2573.713205
493.965763	2568.924109
494.333088	2567.865467
494.700354	2567.542833
495.067563	2572.281517
495.434713	2564.825651
495.801805	2571.432083
496.168839	2572.377299
496.535815	2574.688668
496.902733	2573.834193
497.269593	2576.324523
497.636395	2571.719429
498.003139	2573.083061
498.369825	2571.832855
498.736453	2571.580797
499.103023	2573.216652
499.469535	2572.069789
499.835989	2574.781930
500.202385	2572.480643
500.568723	2571.999213
500.935003	2571.759758
501.301226	2571.769840
501.667390	2570.128945
502.033497	2573.511559
502.399546	2572.931826
502.765537	2574.829821
503.131470	2574.078689
503.497345	2572.939388
503.863163	2576.763103
504.228923	2572.399985
504.594625	2576.374934
504.960269	2572.629357
505.325856	2573.105746
505.691385	2571.074161
506.056856	2574.229923
506.422270	2572.042063
506.787625	2573.657752
507.152924	2572.634398
507.518164	2573.302351
507.883347	2572.712536
508.248472	2572.752865
508.613540	2574.073648
508.978550	2572.760427
509.343503	2574.028277
509.708398	2575.858216
510.073236	2575.860737
510.438016	2573.108267
510.802738	2574.297979
511.167403	2573.541806
511.532010	2574.454255
511.896561	2576.017012
512.261053	2573.922413
512.625488	2571.535427
512.989866	2568.745148
513.354186	2571.805128
513.718449	2570.123904
514.082655	2574.434090
514.446803	2574.587845
514.810894	2572.226065
515.174927	2572.674728
515.538904	2575.268401
515.902822	2571.600962
516.266684	2572.079871
516.630488	2574.179512
516.994235	2572.669686
517.357925	2573.882084
517.721558	2573.357804
518.085133	2575.001220
518.448651	2574.303020
518.812112	2574.474419
519.175516	2575.102043
519.538863	2575.470047
519.902152	2575.490212
520.265385	2574.665983
520.628560	2575.888463
520.991678	2574.973494
521.354739	2573.025088
521.717743	2572.021898
522.080690	2575.528021
522.443580	2573.090623
522.806413	2577.824266
523.169189	2575.137331
523.531908	2576.553895
523.894569	2572.999882
524.257174	2572.939388
524.619722	2573.478792
524.982213	2576.730336
525.344647	2575.311251
525.707025	2575.636405
526.069345	2575.185222
526.431608	2575.417115
526.793815	2575.291086
527.155964	2575.454924
527.518057	2572.462999
527.880093	2575.245716
528.242072	2574.030798
528.603995	2576.064903
528.965860	2574.726477
529.327669	2574.439131
529.689421	2574.396282
530.051117	2575.984245
530.412755	2574.950808
530.774337	2576.760583
531.135862	2573.758576
531.497331	2574.487022
531.858743	2572.440314
532.220098	2571.830334
532.581396	2571.704305
532.942638	2571.578277
533.303824	2573.309913
533.664953	2576.750500
534.026025	2574.595407
534.387040	2575.207907
534.747999	2576.455593
535.108902	2575.790161
535.469748	2572.672207
535.830537	2573.549368
536.191270	2577.630182
536.551947	2574.484502
536.912567	2576.533731
537.273131	2577.597414
537.633638	2571.527865
537.994089	2574.711354
538.354483	2574.862588
538.714821	2575.681776
539.075103	2574.973494
539.435328	2575.550706
539.795497	2572.435273
540.155609	2575.800243
540.515665	2576.226220
540.875665	2575.172619
541.235609	2572.417629
541.595496	2578.131777
541.955328	2577.655387
542.315102	2575.452403
542.674821	2576.561457
543.034483	2575.026426
543.394090	2574.391240
543.753640	2575.961560
544.113134	2574.219841
544.472571	2575.543144
544.831953	2574.855027
545.191278	2576.637074
545.550548	2579.087075
545.909761	2577.388206
546.268918	2577.287383
546.628019	2574.391240
546.987064	2577.607497
547.346053	2575.099522
547.704986	2578.383834
548.063863	2577.844431
548.422684	2574.567681
548.781449	2577.158834
549.140158	2577.279822
549.498811	2575.515418
549.857408	2575.341498
550.215949	2573.418298
550.574434	2572.921744
550.932864	2572.911662
551.291237	2574.106415
551.649555	2575.989286
552.007817	2574.265212
552.366022	2576.258988
552.724173	2576.874009
553.082267	2578.068762
553.440305	2575.868298
553.798288	2577.549523
554.156215	2573.418298
554.514086	2574.867629
554.871902	2573.935016
555.229661	2576.594225
555.587365	2574.088771
555.945014	2575.953998
556.302606	2576.521128
556.660143	2575.102043
557.017625	2576.090109
557.375050	2575.943916
557.732421	2575.916189
558.089735	2575.822928
558.446994	2576.475757
558.804197	2577.400809
559.161345	2574.887794
559.518437	2577.766293
559.875474	2574.151786
560.232455	2576.236303
560.589381	2578.315779
560.946251	2577.499112
561.303065	2576.062383
561.659825	2577.536920
562.016528	2576.692527
562.373177	2576.228741
562.729770	2575.535582
563.086307	2573.453586
563.442789	2575.885942
563.799216	2577.020202
564.155587	2576.052301
564.511904	2579.094637
564.868164	2576.387537
565.224370	2576.440469
565.580520	2575.654049
565.936615	2575.273442
566.292654	2577.161354
566.648638	2576.062383
567.004567	2574.953329
567.360441	2580.667477
567.716260	2574.539954
568.072023	2577.257136
568.427732	2570.887638
568.783385	2573.120870
569.138982	2572.221024
569.494525	2572.573904
569.850013	2573.408215
570.205445	2575.480130
570.560823	2578.560275
570.916145	2576.274111
571.271412	2574.880232
571.626625	2577.216807
571.981782	2575.240675
572.336884	2576.697568
572.691931	2574.197156
573.046923	2575.575912
573.401860	2574.030798
573.756743	2577.526838
574.111570	2576.281673
574.466342	2579.644123
574.821059	2573.859399
575.175722	2577.342836
575.530330	2579.094637
575.884882	2576.780747
576.239380	2575.475088
576.593823	2575.296128
576.948211	2577.541962
577.302544	2576.112794
577.656823	2576.614389
578.011047	2577.060531
578.365216	2575.386868
578.719330	2575.528021
579.073389	2577.657908
579.427394	2575.633885
579.781344	2577.058011
580.135239	2575.482650
580.489080	2573.725808
580.842866	2575.457444
581.196597	2575.666652
581.550273	2575.563309
581.903895	2578.817373
582.257463	2576.238823
582.610975	2575.412074
582.964434	2576.511046
583.317837	2578.671180
583.671186	2577.201684
584.024481	2578.618248
584.377721	2577.206725
584.730906	2575.480130
585.084037	2578.547672
585.437113	2573.128431
585.790135	2575.230593
586.143103	2574.043401
586.496016	2575.996848
586.848874	2572.256312
587.201679	2575.520459
587.554428	2574.277814
587.907124	2573.572053
588.259765	2573.617423
588.612352	2578.078844
588.964884	2577.075655
589.317362	2575.643967
589.669786	2576.652198
590.022155	2580.675039
590.374470	2573.312433
590.726731	2577.448700
591.078937	2576.465675
591.431090	2577.088258
591.783188	2575.001220
592.135232	2576.707651
592.487222	2576.435428
592.839157	2576.715212
593.191038	2573.453586
593.542866	2577.887281
593.894639	2575.951477
594.246358	2576.508525
594.598022	2577.365521
594.949633	2574.542475
595.301190	2576.432908
595.652692	2573.519121
596.004141	2575.775037
596.355535	2577.839390
596.706876	2577.723443
597.058162	2574.965932
597.409395	2578.076324
597.760573	2576.700089
598.111698	2576.324523
598.462768	2575.883422
598.813785	2574.376117
599.164748	2578.933320
599.515657	2577.665470
599.866511	2576.826118
600.217312	2576.112794
600.568060	2576.543813
600.918753	2577.957857
601.269392	2574.643298
601.619978	2580.922055
601.970510	2576.195973
602.320988	2576.455593
602.671412	2579.444997
603.021783	2575.732187
603.372100	2579.492888
603.722363	2573.783781
604.072572	2577.904925
604.422728	2577.698237
604.772830	2573.168761
605.122878	2575.656570
605.472872	2574.033318
605.822813	2570.426373
606.172701	2573.201528
606.522534	2577.133628
606.872314	2577.201684
607.222041	2575.946436
607.571714	2573.791343
607.921333	2576.218659
608.270899	2574.237485
608.620411	2578.517425
608.969870	2577.741087
609.319276	2574.822259
609.668627	2576.687486
610.017926	2575.361662
610.367171	2576.896694
610.716362	2574.718915
611.065500	2579.041705
611.414585	2577.496591
611.763616	2576.448031
612.112594	2575.883422
612.461518	2577.410892
612.810389	2576.236303
613.159207	2573.216652
613.507971	2576.281673
613.856682	2576.790830
614.205340	2575.928792
614.553945	2575.384348
614.902496	2575.306210
615.250994	2577.138669
615.599439	2576.095150
615.947830	2578.000707
616.296169	2576.500963
616.644454	2576.493402
616.992686	2576.629513
617.340864	2575.389389
617.688990	2573.856878
618.037063	2578.467013
618.385082	2573.718246
618.733048	2578.923238
619.080961	2575.943916
619.428821	2575.308730
619.776628	2575.220510
620.124382	2579.260995
620.472083	2574.497105
620.819731	2577.824266
621.167326	2575.419636
621.514868	2580.612024
621.862357	2579.442477
622.209793	2576.563978
622.557176	2575.780078
622.904506	2572.087433
623.251783	2571.810170
623.599007	2575.275963
623.946179	2572.044583
624.293297	2574.093812
624.640363	2575.409553
624.987376	2575.543144
625.334336	2577.426015
625.681243	2577.040367
626.028097	2575.870819
626.374899	2574.250088
626.721647	2575.275963
627.068343	2576.425346
627.414987	2576.586663
627.761577	2579.185378
628.108115	2576.725295
628.454600	2575.810325
628.801032	2577.073134
629.147412	2575.545665
629.493739	2577.481468
629.840014	2573.771178
630.186236	2573.667835
630.532405	2575.243195
630.878521	2574.653380
631.224585	2577.995665
631.570597	2577.897363
631.916556	2577.426015
632.262462	2575.129769
632.608316	2575.827969
632.954117	2576.664801
633.299866	2576.783268
633.645562	2576.246385
633.991206	2573.337639
634.336797	2576.639595
634.682336	2578.751838
635.027823	2574.978535
635.373257	2578.169585
635.718639	2575.286045
636.063968	2574.855027
636.409245	2577.794019
636.754470	2576.896694
637.099642	2576.329564
637.444762	2576.695048
637.789829	2576.727815
638.134845	2575.591035
638.479808	2575.228072
638.824719	2575.699420
639.169577	2575.477609
639.514383	2575.187743
639.859137	2577.912486
640.203839	2575.785119
640.548489	2575.727146
640.893086	2573.357804
641.237632	2572.289079
641.582125	2574.038360
641.926566	2573.511559
642.270955	2575.127249
642.615292	2577.221848
642.959576	2575.628844
643.303809	2576.138000
643.647990	2575.593556
643.992118	2575.447362
644.336195	2575.013823
644.680219	2575.507856
645.024192	2572.757907
645.368112	2576.894173
645.711981	2577.015161
646.055797	2577.799060
646.399562	2576.059862
646.743274	2575.568350
647.086935	2576.684965
647.430544	2575.248237
647.774101	2576.090109
648.117606	2574.234965
648.461059	2577.105902
648.804460	2578.502301
649.147810	2578.978690
649.491108	2575.694379
649.834354	2576.034657
650.177548	2573.511559
650.520690	2576.100192
650.863781	2576.243864
651.206820	2578.766962
651.549807	2579.079513
651.892742	2576.478278
652.235626	2575.389389
652.578458	2575.497774
652.921238	2576.357290
653.263967	2576.634554
653.606644	2575.258319
653.949269	2574.368555
654.291843	2572.596590
654.634365	2574.537434
654.976836	2576.684965
655.319255	2576.274111
655.661622	2576.775706
656.003938	2576.868967
656.346203	2573.945098
656.688416	2576.448031
657.030577	2575.575912
657.372687	2576.107753
657.714746	2575.412074
658.056753	2576.435428
658.398708	2571.762279
658.740612	2571.792526
659.082465	2572.304203
659.424266	2570.270097
659.766016	2569.889490
660.107715	2574.348391
660.449362	2574.880232
660.790958	2575.833010
661.132503	2576.198494
661.473996	2574.746642
661.815438	2575.535582
662.156829	2574.129100
662.498168	2574.812177
662.839456	2575.180181
663.180693	2573.090623
663.521879	2575.356621
663.863013	2575.833010
664.204097	2576.155644
664.545129	2575.921231
664.886110	2575.162537
665.227040	2575.452403
665.567918	2574.983576
665.908746	2573.715726
666.249522	2577.577250
666.590248	2573.708164
666.930922	2576.992476
667.271545	2574.469378
667.612118	2576.516087
667.952639	2573.294789
668.293109	2573.670355
668.633528	2574.134142
668.973896	2573.385530
669.314213	2573.100705
669.654480	2574.792012
669.994695	2573.302351
670.334859	2576.390058
670.674973	2575.172619
671.015035	2574.093812
671.355047	2574.005592
671.695008	2575.454924
672.034918	2574.305541
672.374777	2575.565829
672.714585	2574.171950
673.054342	2574.739080
673.394049	2576.770665
673.733705	2576.132959
674.073310	2576.977352
674.412864	2577.889801
674.752368	2575.759914
675.091820	2575.959039
675.431223	2574.308061
675.770574	2576.425346
676.109875	2569.433266
676.449125	2573.816549
676.788324	2571.558112
677.127473	2575.432239
677.466571	2572.110118
677.805619	2573.345201
678.144616	2576.798391
678.483562	2574.451734
678.822458	2575.631364
679.161303	2577.259657
679.500098	2574.507187
679.838842	2574.333267
680.177535	2573.541806
680.516179	2574.628175
680.854771	2574.431570
681.193314	2575.893504
681.531805	2574.502146
681.870247	2576.614389
682.208638	2575.752352
682.546978	2575.338977
682.885268	2573.279666
683.223508	2574.819738
683.561697	2572.921744
683.899836	2575.064234
684.237925	2575.381827
684.575963	2575.016343
684.913951	2574.575242
685.251889	2576.112794
685.589776	2573.821590
685.927614	2576.148082
686.265401	2573.309913
686.603137	2574.439131
686.940824	2576.135480
687.278460	2576.450552
687.616046	2574.323185
687.953582	2575.691858
688.291068	2574.066086
688.628504	2575.205387
688.965889	2573.579615
689.303224	2575.470047
689.640510	2574.678586
689.977745	2572.440314
690.314930	2574.943247
690.652065	2574.784450
690.989150	2573.829152
691.326185	2575.853175
691.663170	2574.736559
692.000105	2574.242526
692.336990	2572.657083
692.673825	2572.843606
693.010610	2575.293607
693.347345	2568.578790
693.684030	2570.181877
694.020665	2569.771023
694.357251	2568.475446
694.693786	2572.465520
695.030272	2576.276632
695.366707	2572.969635
695.703093	2573.347722
696.039429	2574.038360
696.375716	2573.952660
696.711952	2571.807649
697.048139	2572.251271
697.384276	2574.083730
697.720363	2575.210428
698.056400	2573.292269
698.392388	2573.209090
698.728326	2575.401992
699.064214	2575.205387
699.400053	2577.496591
699.735842	2574.270253
700.071581	2572.649522
700.407270	2575.331416
700.742910	2575.591035
701.078501	2574.149265
701.414042	2572.342011
701.749533	2571.802608
702.084974	2574.295458
702.420366	2574.252609
702.755709	2574.650860
703.091002	2570.771692
703.426246	2572.475602
703.761440	2573.317475
704.096584	2577.635223
704.431679	2572.100036
704.766725	2575.031467
705.101721	2572.767989
705.436668	2572.982238
705.771565	2574.776889
706.106413	2576.397620
706.441212	2576.450552
706.775961	2577.620099
707.110661	2572.609192
707.445311	2576.674883
707.779913	2572.064748
708.114465	2574.033318
708.448967	2576.143041
708.783421	2575.318813
709.117825	2571.953842
709.452180	2576.710171
709.786485	2572.904100
710.120742	2573.236816
710.454949	2575.091961
710.789107	2571.318657
711.123216	2569.876887
711.457275	2569.574418
711.791286	2568.954356
712.125247	2570.595252
712.459159	2572.205900
712.793023	2576.185891
713.126837	2573.577094
713.460602	2573.650191
713.794318	2574.582804
714.127985	2575.943916
714.461602	2572.422670
714.795171	2574.297979
715.128691	2576.367373
715.462162	2574.983576
715.795584	2574.897876
716.128957	2574.081209
716.462281	2572.377299
716.795556	2573.340160
717.128782	2572.773030
717.461960	2575.664132
717.795088	2570.696075
718.128167	2571.585838
718.461198	2574.590366
718.794180	2574.686148
719.127113	2571.966445
719.459997	2572.599110
719.792833	2572.878894
720.125619	2575.316292
720.458357	2573.199008
720.791046	2571.137176
721.123686	2573.332598
721.456278	2572.694892
721.788821	2576.687486
722.121315	2574.257650
722.453761	2570.983420
722.786158	2573.398133
723.118506	2573.998030
723.450805	2572.987279
723.783056	2573.887125
724.115259	2572.374779
724.447412	2573.945098
724.779518	2573.020047
725.111574	2573.582135
725.443582	2574.968453
725.775542	2574.633216
726.107453	2574.081209
726.439315	2572.145406
726.771129	2576.291755
727.102895	2571.958884
727.434612	2573.844275
727.766281	2572.505849
728.097901	2571.742114
728.429473	2569.952504
728.760996	2571.578277
729.092471	2568.407391
729.423897	2572.589028
729.755276	2577.191601
730.086606	2570.950653
730.417887	2574.267732
730.749120	2570.633060
731.080305	2573.231775
731.411442	2576.180850
731.742530	2573.786302
732.073570	2576.110274
732.404562	2572.215982
732.735506	2572.823442
733.066401	2574.436611
733.397249	2574.245047
733.728048	2570.398647
734.058798	2572.752865
734.389501	2573.902248
734.720156	2572.536096
735.050762	2573.952660
735.381320	2572.142886
735.711831	2573.135993
736.042293	2571.195149
736.372707	2570.950653
736.703073	2573.972825
737.033391	2571.716908
737.363661	2571.505180
737.693883	2574.250088
738.024056	2575.394430
738.354182	2573.325036
738.684260	2573.098184
739.014290	2574.242526
739.344272	2572.183215
739.674207	2572.155489
740.004093	2574.744121
740.333931	2572.480643
740.663722	2574.212279
740.993464	2573.367886
741.323159	2572.087433
741.652806	2573.882084
741.982405	2574.038360
742.311956	2575.152455
742.641460	2573.262022
742.970915	2573.932495
743.300323	2570.030642
743.629683	2573.002402
743.958996	2575.777558
744.288260	2574.323185
744.617477	2571.114490
744.946647	2568.200703
745.275768	2570.683472
745.604842	2572.122721
745.933869	2568.813204
746.262847	2570.164233
746.591778	2572.982238
746.920662	2572.384861
747.249498	2574.111456
747.578286	2571.835375
747.907027	2574.602969
748.235720	2570.121383
748.564365	2574.476940
748.892963	2571.258163
749.221514	2574.199677
749.550017	2570.953173
749.878473	2572.742783
750.206881	2571.603482
750.535242	2570.317988
750.863555	2573.335119
751.191821	2571.986610
751.520039	2572.916703
751.848210	2571.434604
752.176334	2574.784450
752.504411	2573.070458
752.832440	2572.137845
753.160421	2574.660942
753.488356	2572.657083
753.816243	2576.299317
754.144082	2571.575756
754.471875	2572.132803
754.799620	2570.391085
755.127318	2571.951322
755.454969	2572.452917
755.782572	2573.004923
756.110129	2571.530386
756.437638	2575.777558
756.765100	2570.444017
757.092515	2572.150447
757.419882	2568.099880
757.747203	2571.321178
758.074477	2571.863102
758.401703	2574.073648
758.728882	2572.558781
759.056014	2573.781261
759.383099	2573.146075
759.710138	2572.689851
760.037129	2574.227403
760.364073	2573.481312
760.690970	2572.485684
761.017820	2573.209090
761.344623	2573.251940
761.671379	2570.302865
761.998088	2566.219530
762.324751	2568.717422
762.651366	2569.397977
762.977935	2568.208265
763.304456	2567.255487
763.630931	2576.042218
763.957359	2571.729511
764.283740	2570.897721
764.610074	2572.601631
764.936362	2574.970973
765.262602	2573.529203
765.588796	2573.251940
765.914943	2572.951991
766.241044	2569.614747
766.567097	2573.529203
766.893104	2573.256981
767.219064	2570.789336
767.544978	2573.042732
767.870845	2574.111456
768.196665	2574.169430
768.522438	2571.268246
768.848165	2573.372927
769.173846	2568.661969
769.499479	2572.694892
769.825066	2570.340673
770.150607	2574.212279
770.476101	2571.331260
770.801548	2575.051632
771.126949	2571.974007
771.452303	2573.274625
771.777611	2573.138514
772.102872	2572.510890
772.428087	2571.905952
772.753256	2573.816549
773.078378	2572.336970
773.403453	2570.416291
773.728482	2571.669017
774.053465	2572.941909
774.378401	2570.297823
774.703291	2572.841086
775.028135	2570.859912
775.352932	2572.205900
775.677683	2571.855540
776.002388	2573.506518
776.327046	2572.679769
776.651658	2574.366035
776.976224	2571.449727
777.300743	2572.551219
777.625216	2569.972669
777.949643	2571.318657
778.274024	2572.641960
778.598359	2569.629871
778.922647	2568.253636
779.246889	2567.860426
779.571086	2566.902606
779.895236	2569.453430
780.219339	2575.502815
780.543397	2572.846127
780.867409	2571.149778
781.191374	2571.825293
781.515294	2570.265056
781.839167	2570.537278
782.162995	2572.979717
782.486776	2570.607854
782.810511	2571.868143
783.134201	2572.631878
783.457844	2573.075499
783.781441	2570.978379
784.104993	2570.428893
784.428498	2572.236147
784.751958	2570.733883
785.075372	2572.147927
785.398739	2571.558112
785.722061	2572.122721
786.045337	2570.151630
786.368568	2570.023081
786.691752	2570.227247
787.014891	2571.200190
787.337983	2571.149778
787.661030	2572.500808
787.984031	2575.008782
788.306987	2572.069789
788.629897	2572.964594
788.952760	2571.227916
789.275579	2570.393605
789.598351	2571.331260
789.921078	2571.890828
790.243759	2570.126424
790.566395	2569.110632
790.888984	2570.607854
791.211529	2570.862433
791.534027	2572.795715
791.856480	2572.226065
792.178888	2570.000395
792.501249	2569.907134
792.823566	2571.288410
793.145836	2572.158009
793.468062	2572.770509
793.790241	2568.558625
794.112375	2576.160685
794.434464	2570.068451
794.756507	2569.758420
795.078505	2571.681620
795.400457	2570.345714
795.722364	2567.696588
796.044226	2566.330435
796.366042	2566.978224
796.687812	2566.431258
797.009538	2570.859912
797.331218	2570.716239
797.652852	2571.167422
797.974442	2571.979048
798.295986	2569.813873
798.617484	2572.158009
798.938938	2569.108111
799.260346	2572.062227
799.581709	2571.129614
799.903026	2570.086095
800.224299	2572.163050
800.545526	2573.604820
800.866708	2572.478123
801.187845	2572.163050
801.508936	2570.156671
801.829983	2571.800087
802.150984	2569.962587
802.471940	2573.231775
802.792851	2571.805128
803.113717	2574.212279
803.434538	2569.718091
803.755314	2570.670869
804.076045	2569.660117
804.396731	2572.014336
804.717372	2572.689851
805.037967	2570.025601
805.358518	2568.730025
805.679024	2573.093143
805.999485	2571.500139
806.319901	2572.813359
806.640272	2571.174984
806.960598	2568.931671
807.280879	2568.689695
807.601115	2568.372103
807.921306	2571.666497
808.241453	2570.060889
808.561554	2572.394943
808.881611	2571.167423
809.201623	2569.917216
809.521590	2570.398647
809.841513	2568.266238
810.161390	2571.154820
810.481223	2567.298337
810.801011	2570.877556
811.120755	2569.158523
811.440453	2570.653225
811.760107	2571.540468
812.079716	2570.602813
812.399281	2567.411763
812.718801	2569.839078
813.038276	2565.854046
813.357707	2569.637432
813.677093	2570.194480
813.996434	2570.622978
814.315731	2572.455437
814.634983	2569.455951
814.954191	2568.596434
815.273354	2571.961404
815.592473	2570.791857
815.911547	2571.442165
816.230577	2572.478122
816.549562	2571.890828
816.868502	2570.471743
817.187399	2572.306723
817.506250	2568.230950
817.825058	2570.202042
818.143821	2572.238668
818.462539	2572.831003
818.781213	2572.715057
819.099843	2570.789336
819.418429	2569.057700
819.736970	2571.590879
820.055466	2569.380333
820.373919	2570.456620
820.692327	2571.550550
821.010691	2571.800087
821.329011	2569.536609
821.647286	2574.343349
821.965517	2568.719942
822.283704	2571.860581
822.601847	2573.125911
822.919945	2570.396126
823.237999	2568.409911
823.556010	2570.685992
823.873976	2572.125242
824.191897	2572.152968
824.509775	2568.241033
824.827609	2569.629871
825.145398	2569.816393
825.463144	2572.205900
825.780845	2570.864953
826.098502	2572.130283
826.416116	2569.090467
826.733685	2570.781774
827.051210	2569.186249
827.368692	2574.388720
827.686129	2572.394943
828.003522	2569.007288
828.320872	2568.707339
828.638177	2568.271280
828.955439	2566.678275
829.272656	2567.399160
829.589830	2565.465878
829.906960	2571.600962
830.224046	2568.888821
830.541088	2569.415622
830.858086	2569.319840
831.175041	2570.471743
831.491952	2571.885787
831.808819	2569.274469
832.125642	2567.956207
832.442421	2572.084913
832.759157	2570.131465
833.075849	2569.869325
833.392497	2570.650704
833.709101	2571.031311
834.025662	2571.260684
834.342179	2568.120045
834.658653	2573.433421
834.975083	2571.202711
835.291469	2569.279510
835.607811	2572.077351
835.924110	2569.420663
836.240366	2569.927299
836.556578	2568.843451
836.872746	2569.448389
837.188871	2568.727504
837.504952	2571.414439
837.820990	2568.046948
838.136984	2568.321691
838.452935	2566.985785
838.768842	2570.252453
839.084706	2571.366548
839.400526	2569.841599
839.716303	2568.639284
840.032037	2565.728018
840.347727	2570.859912
840.663373	2570.179356
840.978977	2570.842268
841.294537	2570.938050
841.610054	2569.342525
841.925527	2570.733883
842.240957	2571.739593
842.556344	2568.407391
842.871687	2568.596434
843.186987	2571.086764
843.502244	2570.169274
843.817458	2569.181208
844.132629	2568.044428
844.447756	2571.411918
844.762840	2565.649880
845.077881	2565.022256
845.392879	2566.811866
845.707833	2568.198183
846.022745	2564.939077
846.337613	2568.409911
846.652438	2571.532906
846.967221	2568.818245
847.281960	2570.333112
847.596656	2569.166084
847.911309	2567.074006
848.225919	2567.991496
848.540485	2568.372103
848.855009	2570.794377
849.169490	2571.311095
849.483928	2568.762792
849.798323	2571.316137
850.112675	2569.624829
850.426984	2568.162895
850.741251	2570.524675
851.055474	2571.081723
851.369654	2568.470405
851.683792	2568.722463
851.997887	2571.162381
852.311938	2571.222875
852.625947	2571.273287
852.939914	2569.760941
853.253837	2571.084243
853.567718	2570.743966
853.881555	2568.092319
854.195350	2568.838409
854.509103	2569.004767
854.822812	2566.663152
855.136479	2571.676579
855.450103	2568.893862
855.763685	2566.975703
856.077224	2571.555591
856.390720	2571.253122
856.704173	2568.833368
857.017584	2571.963925
857.330953	2569.869325
857.644278	2567.081567
857.957561	2570.292782
858.270802	2569.748338
858.584000	2567.804973
858.897155	2570.499470
859.210268	2568.377144
859.523339	2570.323029
859.836367	2568.064592
860.149352	2568.803121
860.462295	2573.221693
860.775195	2565.433110
861.088054	2563.207441
861.400869	2568.215827
861.713642	2564.109807
862.026373	2566.446382
862.339062	2567.469736
862.651708	2570.035683
862.964312	2569.828996
863.276873	2568.069633
863.589392	2566.947977
863.901869	2568.583831
864.214303	2567.023594
864.526696	2565.833882
864.839045	2569.443348
865.151353	2566.849674
865.463619	2566.186762
865.775842	2569.385375
866.088023	2568.689695
866.400162	2569.680282
866.712258	2568.740107
867.024313	2568.601475
867.336325	2568.024263
867.648296	2569.476115
867.960224	2567.232802
868.272110	2568.901424
868.583954	2567.971331
868.895755	2569.191290
869.207515	2569.587021
869.519233	2568.480487
869.830909	2568.866136
870.142542	2568.412432
870.454134	2567.028635
870.765684	2570.817062
871.077191	2568.505693
871.388657	2569.319840
871.700081	2569.211455
872.011463	2570.108780
872.322803	2566.814386
872.634101	2569.478636
872.945357	2570.343194
873.256571	2568.220868
873.567744	2568.074675
873.878874	2569.166084
874.189963	2570.290262
874.501010	2569.340004
874.812015	2567.154664
875.122979	2568.664490
875.433900	2568.016701
875.744780	2568.167936
876.055618	2568.301527
876.366415	2566.466547
876.677169	2568.868656
876.987882	2565.690209
877.298554	2562.947821
877.609183	2564.702143
877.919771	2563.817420
878.230317	2563.025959
878.540822	2568.727504
878.851285	2568.472926
879.161707	2567.051320
879.472087	2571.013667
879.782425	2571.086764
880.092722	2568.593913
880.402977	2567.164746
880.713191	2568.692216
881.023363	2567.068964
881.333494	2571.830334
881.643583	2568.387226
881.953631	2569.216496
882.263637	2573.874522
882.573602	2570.842268
882.883526	2568.639284
883.193408	2565.622153
883.503248	2568.513255
883.813048	2570.202042
884.122806	2567.888152
884.432522	2565.475960
884.742197	2569.589541
885.051831	2567.754561
885.361424	2567.981413
885.670975	2567.164746
885.980485	2567.920919
886.289954	2568.485529
886.599382	2569.186249
886.908768	2568.719942
887.218113	2567.613409
887.527417	2570.691033
887.836680	2569.947463
888.145901	2569.806311
888.455082	2568.455282
888.764221	2567.177349
889.073319	2568.162895
889.382376	2569.037535
889.691392	2568.646846
890.000366	2570.242371
890.309300	2571.079202
890.618193	2566.239695
890.927044	2568.540981
891.235855	2566.917730
891.544625	2566.332956
891.853353	2568.460323
892.162041	2567.116855
892.470687	2566.189283
892.779293	2567.353790
893.087858	2566.476629
893.396381	2563.109138
893.704864	2568.273800
894.013306	2563.668706
894.321707	2568.808162
894.630068	2569.599624
894.938387	2569.153482
895.246665	2568.309088
895.554903	2566.222051
895.863100	2567.303378
896.171256	2566.418656
896.479371	2566.353121
896.787446	2568.319171
897.095480	2567.162226
897.403473	2568.702298
897.711425	2569.135837
898.019336	2566.196845
898.327207	2568.067113
898.635038	2569.118193
898.942827	2566.600137
899.250576	2568.475446
899.558284	2566.297668
899.865952	2567.010991
900.173579	2569.571897
900.481165	2569.730694
900.788711	2566.683316
901.096216	2566.433779
901.403681	2567.318502
901.711105	2570.716239
902.018489	2565.952349
902.325832	2571.714388
902.633135	2568.669531
902.940397	2567.424366
903.247619	2564.132492
903.554800	2567.729356
903.861941	2566.902606
904.169041	2568.336815
904.476101	2567.404201
904.783121	2568.046948
905.090100	2570.781774
905.397039	2566.746331
905.703938	2568.301527
906.010796	2568.019222
906.317614	2569.347566
906.624391	2566.791701
906.931129	2566.574931
907.237826	2567.575600
907.544483	2568.735066
907.851099	2570.260015
908.157675	2565.934705
908.464211	2569.294634
908.770707	2563.540157
909.077163	2565.377657
909.383578	2564.671896
909.689954	2563.673747
909.996289	2564.808007
910.302584	2568.480487
910.608839	2568.228430
910.915054	2566.910168
911.221229	2565.707853
911.527363	2566.143913
911.833458	2568.109963
912.139513	2570.749007
912.445527	2564.886145
912.751502	2566.229612
913.057436	2567.908317
913.363331	2566.655590
913.669186	2565.768347
913.975000	2565.949828
914.280775	2567.084088
914.586510	2567.096691
914.892205	2565.743141
915.197859	2567.152143
915.503475	2565.251628
915.809050	2566.922771
916.114585	2566.637946
916.420081	2567.336146
916.725536	2569.788667
917.030952	2569.085426
917.336328	2565.879252
917.641665	2566.496793
917.946961	2567.847823
918.252218	2565.596947
918.557435	2568.538461
918.862612	2568.271280
919.167750	2567.502504
919.472848	2566.486711
919.777906	2568.566187
920.082925	2564.954200
920.387904	2569.040056
920.692843	2566.675754
920.997743	2565.665003
921.302603	2566.413614
921.607423	2568.377144
921.912204	2566.443861
922.216946	2568.603996
922.521647	2565.508727
922.826310	2565.226423
923.130932	2568.475446
923.435516	2566.605178
923.740059	2568.223389
924.044564	2566.637946
924.349028	2566.083419
924.653454	2563.595609
924.957840	2564.051834
925.262186	2564.510579
925.566493	2564.440003
925.870761	2562.539488
926.174989	2569.516445
926.479178	2569.529048
926.783328	2569.135837
927.087438	2569.508883
927.391509	2569.103070
927.695541	2564.258521
927.999533	2567.409242
928.303486	2567.240364
928.607400	2565.753223
928.911275	2567.719273
929.215110	2566.965621
929.518906	2566.242215
929.822663	2566.171639
930.126381	2568.692216
930.430060	2566.796742
930.733699	2565.102914
931.037299	2567.361351
931.340861	2568.634243
931.644383	2563.703994
931.947866	2565.912020
932.251309	2566.867318
932.554714	2564.782801
932.858080	2570.917885
933.161407	2564.755075
933.464694	2567.865467
933.767943	2566.262380
934.071153	2566.590055
934.374323	2567.144582
934.677455	2569.468554
934.980548	2567.996537
935.283602	2566.343038
935.586617	2567.230281
935.889593	2567.991496
936.192530	2570.317988
936.495428	2566.925292
936.798287	2566.680796
937.101108	2566.557287
937.403890	2565.982596
937.706632	2566.930333
938.009336	2563.963614
938.312002	2568.319171
938.614628	2566.045610
938.917216	2568.394788
939.219765	2568.649366
939.522275	2566.915209
939.824747	2568.629202
940.127179	2564.316494
940.429573	2563.514951
940.731929	2563.653583
941.034246	2561.652245
941.336524	2565.312122
941.638763	2566.758933
941.940964	2566.718604
942.243126	2566.411094
942.545250	2565.251628
942.847335	2567.956207
943.149381	2563.081412
943.451389	2567.242884
943.753359	2568.911506
944.055290	2567.116855
944.357182	2566.660631
944.659036	2567.179870
944.960851	2566.171639
945.262628	2567.956208
945.564367	2567.525189
945.866067	2567.336146
946.167729	2566.080898
946.469352	2565.531413
946.770937	2565.728017
947.072484	2565.491083
947.373992	2567.741958
947.675462	2565.627194
947.976893	2566.706001
948.278286	2563.502348
948.579641	2565.826320
948.880958	2566.658110
949.182236	2567.031156
949.483476	2566.055693
949.784678	2568.172977
950.085841	2567.419325
950.386967	2566.136351
950.688054	2566.453944
950.989103	2567.038718
951.290114	2566.055692
951.591087	2566.398491
951.892021	2566.864798
952.192917	2566.741289
952.493776	2566.123748
952.794596	2564.908830
953.095378	2564.044272
953.396122	2567.620971
953.696828	2564.656772
953.997496	2568.248594
954.298126	2568.014181
954.598718	2566.426217
954.899272	2565.322205
955.199788	2563.348593
955.500266	2567.109294
955.800706	2562.413459
956.101108	2563.116700
956.401472	2562.234498
956.701798	2561.672409
957.002087	2562.010167
957.302337	2567.263049
957.602550	2568.016701
957.902724	2566.476629
958.202861	2566.597617
958.502960	2565.375137
958.803022	2566.365723
959.103045	2563.464539
959.403031	2564.742472
959.702979	2567.978893
960.002889	2566.340518
960.302762	2564.238357
960.602596	2566.834551
960.902393	2567.197514
961.202153	2566.143913
961.501875	2566.615261
961.801559	2566.968141
962.101205	2564.699622
962.400814	2565.312122
962.700385	2566.557287
962.999918	2568.674572
963.299414	2564.324056
963.598873	2565.859087
963.898293	2566.186763
964.197677	2566.973182
964.497022	2565.876732
964.796331	2566.698440
965.095601	2567.263049
965.394835	2566.350600
965.694030	2565.198696
965.993189	2565.370096
966.292309	2565.730538
966.591393	2567.119376
966.890439	2566.017884
967.189447	2566.607699
967.488419	2565.901937
967.787353	2563.698953
968.086249	2568.016701
968.385108	2566.645507
968.683930	2566.650549
968.982714	2564.503017
969.281462	2566.418656
969.580172	2566.983265
969.878844	2566.607699
970.177480	2565.294478
970.476078	2566.015363
970.774639	2566.479149
971.073162	2564.250959
971.371649	2559.431616
971.670098	2562.410938
971.968510	2564.762637
972.266885	2561.054868
972.565223	2567.053841
972.863524	2568.251115
973.161788	2566.330435
973.460014	2566.499314
973.758204	2566.148954
974.056356	2563.681309
974.354471	2566.799263
974.652550	2568.505693
974.950591	2567.310940
975.248595	2565.475960
975.546563	2565.685168
975.844493	2564.661813
976.142386	2566.471588
976.440243	2564.911351
976.738062	2566.108625
977.035845	2566.542164
977.333590	2565.894376
977.631299	2568.422514
977.928971	2566.269942
978.226606	2567.005950
978.524204	2565.682647
978.821765	2568.856053
979.119290	2567.409242
979.416777	2567.288255
979.714228	2564.371947
980.011642	2564.918912
980.309020	2568.427555
980.606360	2564.508058
980.903664	2566.640466
981.200931	2566.282544
981.498162	2566.446382
981.795356	2565.622153
982.092513	2566.242215
982.389633	2564.160219
982.686717	2565.859087
982.983764	2563.429251
983.280775	2566.204407
983.577749	2565.307081
983.874686	2566.814386
984.171587	2562.529405
984.468451	2567.721794
984.765279	2564.618964
985.062070	2564.800445
985.358824	2564.571073
985.655543	2564.651731
985.952224	2564.654252
986.248869	2566.322874
986.545478	2559.111503
986.842050	2561.853891
987.138586	2562.166442
987.435086	2563.247770
987.731549	2559.078736
988.027975	2567.452092
988.324366	2567.288255
988.620719	2564.939077
988.917037	2565.964952
989.213318	2563.693912
989.509563	2564.172822
989.805772	2566.368244
990.101944	2566.937894
990.398080	2566.393450
990.694180	2566.118707
990.990244	2567.232802
991.286271	2566.368244
991.582262	2564.331618
991.878217	2566.658110
992.174136	2561.548901
992.470019	2563.134344
992.765865	2565.380178
993.061676	2562.594940
993.357450	2562.572255
993.653188	2566.363203
993.948890	2565.118038
994.244556	2566.030487
994.540186	2564.916392
994.835780	2566.317832
995.131337	2563.686350
995.426859	2566.254818
995.722345	2563.915723
996.017795	2564.288768
996.313208	2565.579303
996.608586	2567.220199
996.903928	2566.418656
997.199234	2563.893037
997.494504	2565.743141
997.789738	2563.915723
998.084936	2563.429251
998.380099	2565.443192
998.675225	2566.890003
998.970316	2564.765157
999.265371	2565.556618
999.560390	2564.124931
999.855373	2565.576783
1000.150320	2565.160888
1000.445232	2566.252298
1000.740108	2564.954200
1001.034948	2566.970662
1001.329752	2563.860270
1001.624521	2564.248439
1001.919254	2558.584703
1002.213951	2560.979251
1002.508613	2561.831206
1002.803239	2561.501010
1003.097829	2562.688202
1003.392384	2565.007132
1003.686903	2564.230795
1003.981386	2563.875393
1004.275834	2564.639128
1004.570246	2564.132492
1004.864623	2563.348593
1005.158964	2566.259859
1005.453270	2564.319015
1005.747540	2566.111145
1006.041775	2562.415979
1006.335974	2562.534447
1006.630138	2562.728531
1006.924266	2563.099056
1007.218359	2563.257852
1007.512416	2565.614592
1007.806438	2566.912689
1008.100425	2564.142575
1008.394376	2563.847667
1008.688292	2566.499314
1008.982172	2565.632236
1009.276017	2565.143244
1009.569827	2563.719118
1009.863602	2566.027966
1010.157341	2563.570404
1010.451045	2563.444375
1010.744714	2563.341031
1011.038347	2565.833882
1011.331945	2565.067626
1011.625508	2562.456309
1011.919036	2565.221382
1012.212528	2565.831361
1012.505986	2564.135013
1012.799408	2565.644838
1013.092795	2565.483522
1013.386147	2564.674416
1013.679464	2565.576783
1013.972745	2562.557132
1014.265992	2564.382029
1014.559204	2566.005281
1014.852380	2563.681309
1015.145521	2564.656772
1015.438628	2564.250959
1015.731699	2565.191135
1016.024736	2563.041082
1016.317737	2564.155177
1016.610703	2564.626525
1016.903635	2560.969168
1017.196531	2561.042265
1017.489393	2558.965310
1017.782219	2561.117882
1018.075011	2562.799107
1018.367768	2561.735424
1018.660490	2565.304561
1018.953177	2565.304561
1019.245829	2565.304561
