Dividing Wavelength (nm)	Counts (n)	Blue Motor Position (mm): 0.000000	Red Motor Position (mm): 36.000000	
326.493990	2140.312606
326.888308	2140.312606
327.282561	2140.312606
327.676750	2114.998452
328.070874	2118.101282
328.464933	2124.322066
328.858929	2132.425721
329.252859	2143.032309
329.646726	2156.509833
330.040528	2172.626402
330.434265	2189.040399
330.827938	2209.290714
331.221547	2231.146637
331.615091	2249.360326
332.008571	2270.001330
332.401986	2289.238373
332.795338	2308.568678
333.188625	2327.571307
333.581847	2349.833042
333.975006	2367.824920
334.368100	2386.101624
334.761129	2404.973183
335.154095	2419.942889
335.546996	2438.932916
335.939833	2457.388580
336.332606	2471.604634
336.725315	2484.323465
337.117960	2490.027531
337.510540	2499.252842
337.903056	2509.065448
338.295508	2516.367560
338.687896	2523.906605
339.080220	2529.174611
339.472480	2536.421270
339.864676	2540.265149
340.256807	2541.444779
340.648875	2544.814791
341.040879	2548.739329
341.432818	2546.932075
341.824694	2550.823846
342.216506	2549.356870
342.608253	2547.947868
342.999937	2546.248999
343.391557	2546.982487
343.783113	2544.408978
344.174605	2543.559543
344.566033	2541.999306
344.957397	2539.592155
345.348697	2537.737011
345.739934	2542.110212
346.131106	2535.869263
346.522215	2535.155940
346.913260	2534.021680
347.304241	2530.157636
347.695159	2530.094622
348.086012	2527.407687
348.476802	2527.140505
348.867528	2525.497089
349.258191	2524.851822
349.648789	2522.190092
350.039324	2524.340144
350.429796	2524.236801
350.820203	2519.102386
351.210548	2519.692201
351.600828	2516.652385
351.991045	2521.514578
352.381198	2519.029289
352.771288	2517.640451
353.161314	2517.423681
353.551276	2516.102899
353.941175	2517.189268
354.331010	2518.580626
354.720782	2519.394772
355.110490	2518.671367
355.500135	2517.937879
355.889717	2516.423012
356.279235	2517.698424
356.668689	2518.686490
357.058080	2521.990967
357.447408	2515.268588
357.836672	2516.049967
358.225873	2519.351923
358.615010	2514.676252
359.004084	2521.499454
359.393095	2520.080369
359.782043	2522.517767
360.170927	2522.767304
360.559748	2525.353416
360.948505	2525.575227
361.337199	2524.796369
361.725830	2525.489527
362.114398	2526.366688
362.502903	2526.109589
362.891344	2526.643952
363.279722	2524.635052
363.668037	2528.284847
364.056289	2527.652182
364.444478	2530.676875
364.832603	2531.022194
365.220665	2527.889117
365.608665	2531.493542
365.996601	2531.717873
366.384474	2529.857687
366.772284	2531.740558
367.160031	2530.339118
367.547715	2531.294416
367.935336	2530.878521
368.322893	2533.525127
368.710388	2533.167205
369.097820	2535.710467
369.485189	2532.577390
369.872495	2531.982534
370.259738	2535.634850
370.646918	2533.527647
371.034035	2535.536547
371.421090	2536.759027
371.808081	2534.906403
372.195010	2536.847247
372.581875	2534.450178
372.968678	2539.428318
373.355418	2536.930426
373.742096	2539.597197
374.128710	2539.813966
374.515262	2542.919317
374.901751	2541.238092
375.288177	2543.267157
375.674540	2545.886036
376.060841	2545.389482
376.447079	2551.030533
376.833254	2549.548434
377.219367	2548.562889
377.605417	2552.086655
377.991404	2554.866852
378.377329	2556.666543
378.763191	2558.224260
379.148991	2563.051165
379.534727	2569.259346
379.920402	2572.803277
380.306013	2575.160016
380.691563	2579.815522
381.077049	2582.981367
381.462474	2589.600402
381.847835	2593.862697
382.233134	2599.092894
382.618371	2602.851074
383.003545	2609.442383
383.388657	2615.348095
383.773706	2625.130454
384.158693	2630.234622
384.543618	2635.653862
384.928480	2640.722743
385.313280	2646.885553
385.698017	2655.027017
386.082692	2667.488749
386.467305	2672.053514
386.851856	2681.235976
387.236344	2693.647296
387.620770	2697.816331
388.005133	2706.736652
388.389435	2715.518342
388.773674	2724.587378
389.157851	2732.265055
389.541965	2742.549009
389.926018	2747.461614
390.310008	2760.119951
390.693936	2767.578338
391.077802	2778.681479
391.461606	2788.804116
391.845348	2793.371402
392.229027	2805.938998
392.612645	2819.484579
392.996200	2830.623008
393.379694	2841.199349
393.763125	2858.072091
394.146494	2864.534850
394.529801	2877.760317
394.913047	2895.817730
395.296230	2895.719428
395.679351	2901.431055
396.062410	2921.749426
396.445408	2914.832963
396.828343	2924.794283
397.211217	2937.916406
397.594028	2929.449788
397.976778	2946.100719
398.359466	2956.387194
398.742092	2956.266206
399.124656	2969.073257
399.507158	2982.442397
399.889598	2988.179230
400.271977	3001.813031
400.654294	3010.814011
401.036549	3020.588808
401.418742	3026.907895
401.800874	3049.784651
402.182944	3057.790003
402.564952	3083.588108
402.946898	3078.640216
403.328783	3087.154724
403.710606	3102.890686
404.092367	3124.912967
404.474067	3151.527738
404.855705	3141.276552
405.237282	3141.367293
405.618797	3174.626305
406.000250	3194.904347
406.381642	3225.156311
406.762972	3227.956672
407.144240	3219.822770
407.525447	3244.446286
407.906593	3240.385637
408.287677	3263.030500
408.668700	3280.593880
409.049661	3281.034981
409.430560	3294.953607
409.811399	3299.999802
410.192176	3321.074345
410.572891	3324.895540
410.953545	3365.890203
411.334138	3334.481294
411.714669	3386.193450
412.095139	3332.968948
412.475547	3379.881925
412.855894	3374.500494
413.236180	3406.965524
413.616405	3382.790671
413.996568	3409.176070
414.376670	3411.666400
414.756711	3405.299423
415.136691	3432.047785
415.516609	3458.060139
415.896466	3462.221612
416.276262	3489.761435
416.655997	3518.891743
417.035670	3526.748381
417.415283	3591.900253
417.794834	3614.277935
418.174324	3594.793876
418.553753	3597.435440
418.933121	3641.827841
419.312428	3633.383908
419.691674	3627.657157
420.070859	3662.768794
420.449983	3645.316319
420.829045	3693.759287
421.208047	3678.648429
421.586988	3726.877148
421.965867	3757.973505
422.344686	3764.045575
422.723444	3803.941266
423.102141	3706.689847
423.480777	3809.423521
423.859352	3774.216103
424.237866	3874.310733
424.616319	3860.472766
424.994712	3921.241355
425.373044	3907.181577
425.751314	3969.984271
426.129524	3905.812903
426.507673	4006.920805
426.885762	3985.213597
427.263789	4007.510620
427.641756	4006.487266
428.019662	4040.157133
428.397508	4041.770302
428.775292	4082.628854
429.153016	4084.985593
429.530679	4100.847584
429.908282	4108.142133
430.285824	4084.448710
430.663305	4159.037623
431.040726	4117.009523
431.418086	4107.365796
431.795385	4184.513094
432.172624	4217.204976
432.549802	4182.985624
432.926920	4198.320814
433.303977	4196.705124
433.680974	4236.119386
434.057910	4260.074949
434.434786	4267.797996
434.811601	4260.858848
435.188355	4365.704766
435.565050	4337.134026
435.941683	4332.231504
436.318257	4419.675359
436.694770	4425.089558
437.071222	4479.226509
437.447614	4415.821397
437.823946	4420.471861
438.200218	4440.636477
438.576429	4421.437242
438.952580	4448.097384
439.328670	4450.063434
439.704700	4492.993900
440.080670	4456.926965
440.456580	4518.696223
440.832429	4554.246440
441.208218	4456.173313
441.583947	4505.322042
441.959616	4522.555227
442.335224	4550.634453
442.710773	4570.599943
443.086261	4628.542966
443.461689	4578.010439
443.837057	4592.128191
444.212365	4661.368439
444.587612	4667.594264
444.962800	4635.444305
445.337927	4675.917209
445.712995	4563.819591
446.088002	4754.206328
446.462949	4778.232467
446.837837	4794.273419
447.212664	4784.659938
447.587431	5004.882744
447.962139	5301.436181
448.336786	5639.783304
448.711374	5626.731756
449.085901	5275.514568
449.460369	5210.554259
449.834776	5146.105628
450.209124	5380.904930
450.583412	5389.300972
450.957640	5517.169839
451.331808	5378.021390
451.705917	5225.914655
452.079965	5216.830496
452.453954	5255.692751
452.827883	5221.281835
453.201752	5230.391200
453.575562	5256.022947
453.949311	5391.995469
454.323001	5396.371190
454.696632	5391.478750
455.070202	5541.274116
455.443713	5574.921298
455.817164	5665.994783
456.190556	5737.480865
456.563888	5714.135282
456.937160	5790.367610
457.310373	5632.582015
457.683526	5691.971849
458.056619	5680.641856
458.429653	5659.753835
458.802628	5712.083532
459.175542	5738.405917
459.548398	5879.780035
459.921194	6057.861316
460.293930	6125.498477
460.666607	6374.654985
461.039224	6587.880669
461.411782	6717.534105
461.784280	6636.605942
462.156719	6641.589122
462.529099	6599.026660
462.901419	6455.893179
463.273680	6325.085319
463.645882	6311.910264
464.018024	6315.250028
464.390106	6379.444081
464.762130	6638.733309
465.134094	7025.132710
465.505999	7659.203999
465.877845	8362.792801
466.249631	8717.591729
466.621358	8651.471955
466.993026	8450.690359
467.364634	8234.172801
467.736184	7955.223074
468.107674	7800.999054
468.479105	7711.016979
468.850477	7644.960219
469.221790	7477.984601
469.593043	7257.333297
469.964238	7158.889645
470.335373	7127.148020
470.706449	7281.876155
471.077467	7461.444575
471.448425	8115.894729
471.819324	8704.527579
472.190164	8753.509950
472.560945	8271.782330
472.931667	7800.222717
473.302330	7603.216945
473.672934	7481.911660
474.043479	7555.096611
474.413965	7458.949204
474.784393	7405.361739
475.154761	7566.479536
475.525070	7579.059736
475.895321	7532.723970
476.265513	7627.273331
476.635645	7787.453474
477.005719	7769.955629
477.375734	7862.125565
477.745691	7970.583470
478.115588	8173.961260
478.485427	8412.170903
478.855207	8876.819094
479.224928	9311.036360
479.594591	9698.191934
479.964194	9709.264828
480.333739	9794.621645
480.703226	9784.693093
481.072653	9886.113546
481.442022	10001.848356
481.811333	10150.532148
482.180584	9999.441205
482.549777	9937.369478
482.918912	9874.818841
483.287988	9856.413588
483.657005	9766.212223
484.025964	9686.962764
484.394864	9742.571732
484.763706	9703.643942
485.132489	9617.387279
485.501213	9609.139951
485.869879	9673.076905
486.238487	9604.943191
486.607036	9676.005816
486.975527	9628.772725
487.343959	9684.532927
487.712333	9725.048681
488.080648	9770.043500
488.448905	9865.444816
488.817104	9868.310712
489.185244	10032.964878
489.553326	10247.158464
489.921350	10714.622140
490.289315	11340.012562
490.657222	11627.741459
491.025070	11807.206536
491.392861	11723.656973
491.760593	11568.046636
492.128267	11313.521299
492.495883	11081.451782
492.863440	10846.710453
493.230939	10620.145876
493.598380	10431.697463
493.965763	10409.561756
494.333088	10279.318505
494.700354	10210.312671
495.067563	10187.141007
495.434713	10190.309372
495.801805	10236.766126
496.168839	10191.562099
496.535815	10164.392800
496.902733	10202.592144
497.269593	10162.391462
497.636395	10168.634931
498.003139	10280.936716
498.369825	10205.153050
498.736453	10298.137132
499.103023	10239.344676
499.469535	10245.774667
499.835989	10296.776021
500.202385	10265.563717
500.568723	10286.986100
500.935003	10346.325522
501.301226	10313.152209
501.667390	10483.427263
502.033497	10581.432335
502.399546	10512.217292
502.765537	10421.685731
503.131470	10523.973263
503.497345	10613.204207
503.863163	10389.089630
504.228923	10521.230875
504.594625	10635.322269
504.960269	10543.437158
505.325856	10694.356701
505.691385	10563.448018
506.056856	10631.838832
506.422270	10733.697866
506.787625	10662.937710
507.152924	10727.885416
507.518164	10792.117277
507.883347	10656.021247
508.248472	10726.274767
508.613540	10840.366161
508.978550	10906.405276
509.343503	10889.144365
509.708398	10936.518609
510.073236	11059.114429
510.438016	11073.312839
510.802738	10998.756694
511.167403	11114.826741
511.532010	11181.311998
511.896561	11269.746440
512.261053	11473.388890
512.625488	11383.159798
512.989866	11363.907632
513.354186	11347.846516
513.718449	11352.862464
514.082655	11492.459575
514.446803	11445.375198
514.810894	11565.417674
515.174927	11552.598020
515.538904	11536.284846
515.902822	11697.493385
516.266684	11564.056563
516.630488	11666.404589
516.994235	11654.215079
517.357925	11762.645257
517.721558	11828.399547
518.085133	11885.193186
518.448651	11915.145202
518.812112	11873.827905
519.175516	11882.914585
519.538863	11968.336937
519.902152	11977.421096
520.265385	12078.483628
520.628560	12107.969337
520.991678	12049.590254
521.354739	12112.856735
521.717743	12173.413596
522.080690	12149.011891
522.443580	12272.363884
522.806413	12285.009618
523.169189	12284.800411
523.531908	12335.776558
523.894569	12295.427163
524.257174	12306.913432
524.619722	12405.601580
524.982213	12385.741955
525.344647	12370.666384
525.707025	12380.557128
526.069345	12486.224754
526.431608	12467.690952
526.793815	12546.184238
527.155964	12436.481168
527.518057	12470.647588
527.880093	12420.341914
528.242072	12526.276721
528.603995	12449.797376
528.965860	12459.221813
529.327669	12487.999240
529.689421	12436.546703
530.051117	12447.939711
530.412755	12490.270280
530.774337	12487.205258
531.135862	12438.548041
531.497331	12492.639622
531.858743	12450.639249
532.220098	12537.962116
532.581396	12458.047224
532.942638	12373.837270
533.303824	12435.959409
533.664953	12415.530133
534.026025	12371.851055
534.387040	12459.310033
534.747999	12431.460179
535.108902	12476.298722
535.469748	12353.072757
535.830537	12367.593801
536.191270	12399.481619
536.551947	12326.780619
536.912567	12380.093342
537.273131	12412.651634
537.633638	12297.816670
537.994089	12342.539266
538.354483	12257.769744
538.714821	12362.461906
539.075103	12444.930142
539.435328	12365.597504
539.795497	12342.269564
540.155609	12335.227072
540.515665	12413.901840
540.875665	12281.989967
541.235609	12362.613141
541.595496	12320.479177
541.955328	12455.451030
542.315102	12325.328767
542.674821	12245.587795
543.034483	12248.068043
543.394090	12242.185017
543.753640	12205.954244
544.113134	12420.178077
544.472571	12194.220958
544.831953	12439.952003
545.191278	12259.972728
545.550548	12194.069724
545.909761	12272.908329
546.268918	12301.809264
546.628019	12349.145698
546.987064	12239.856003
547.346053	12094.209507
547.704986	12260.255032
548.063863	12132.809622
548.422684	12173.408555
548.781449	12121.159516
549.140158	12191.922192
549.498811	12132.197122
549.857408	12003.945127
550.215949	12162.882625
550.574434	12114.966458
550.932864	12043.578678
551.291237	12205.843338
551.649555	12091.086512
552.007817	12127.216462
552.366022	12038.333358
552.724173	12045.678319
553.082267	12106.948503
553.440305	12168.125425
553.798288	11997.099240
554.156215	12034.413861
554.514086	12062.407388
554.871902	11982.694143
555.229661	11974.696352
555.587365	11916.229050
555.945014	11901.571895
556.302606	11862.991945
556.660143	11891.986141
557.017625	11895.782130
557.375050	11842.174500
557.732421	11892.528065
558.089735	11865.331040
558.446994	11821.223465
558.804197	11899.068962
559.161345	11857.776871
559.518437	11670.981957
559.875474	11725.854916
560.232455	11726.164947
560.589381	11733.565361
560.946251	11652.427990
561.303065	11772.891402
561.659825	11695.267715
562.016528	11584.750499
562.373177	11505.168324
562.729770	11581.246897
563.086307	11449.534150
563.442789	11506.776452
563.799216	11503.398879
564.155587	11421.840572
564.511904	11408.983109
564.868164	11385.680375
565.224370	11402.175031
565.580520	11317.276959
565.936615	11335.803199
566.292654	11244.228119
566.648638	11246.403377
567.004567	11219.503780
567.360441	11182.282420
567.716260	11118.138779
568.072023	11138.215174
568.427732	11078.230484
568.783385	10966.463062
569.138982	11011.402428
569.494525	10969.928856
569.850013	10883.720084
570.205445	10845.873621
570.560823	10812.659979
570.916145	10730.995807
571.271412	10696.048008
571.626625	10623.215938
571.981782	10576.928064
572.336884	10488.317182
572.691931	10511.408187
573.046923	10387.121060
573.401860	10326.523870
573.756743	10273.957238
574.111570	10250.226006
574.466342	10189.588487
574.821059	10180.050624
575.175722	10056.280215
575.530330	10020.666984
575.884882	9930.826060
576.239380	9872.608295
576.593823	9817.533689
576.948211	9766.789435
577.302544	9647.510694
577.656823	9600.784239
578.011047	9596.121171
578.365216	9508.397533
578.719330	9424.953834
579.073389	9363.618115
579.427394	9316.654726
579.781344	9262.757229
580.135239	9170.988065
580.489080	9129.958113
580.842866	9008.867078
581.196597	9022.780662
581.550273	8966.712949
581.903895	8899.257269
582.257463	8909.707581
582.610975	8768.502342
582.964434	8762.904140
583.317837	8667.449892
583.671186	8597.576979
584.024481	8578.791119
584.377721	8461.828788
584.730906	8449.364536
585.084037	8414.446983
585.437113	8314.949730
585.790135	8287.339330
586.143103	8179.430912
586.496016	8148.193402
586.848874	8100.494004
587.201679	8056.119247
587.554428	7935.766741
587.907124	7916.000376
588.259765	7833.436359
588.612352	7823.248187
588.964884	7702.114301
589.317362	7685.750716
589.669786	7635.029146
590.022155	7556.755150
590.374470	7563.074237
590.726731	7452.907381
591.078937	7349.634303
591.431090	7316.806310
591.783188	7243.331492
592.135232	7155.567524
592.487222	7142.722664
592.839157	7098.058041
593.191038	7024.852926
593.542866	6956.719211
593.894639	6846.101172
594.246358	6824.577966
594.598022	6778.642972
594.949633	6701.720005
595.301190	6654.123951
595.652692	6592.384940
596.004141	6582.073260
596.355535	6447.277847
596.706876	6395.157358
597.058162	6342.547876
597.409395	6339.934038
597.760573	6309.430016
598.111698	6224.347942
598.462768	6176.724162
598.813785	6144.117978
599.164748	6054.181273
599.515657	6036.524632
599.866511	5955.147806
600.217312	5956.871881
600.568060	5834.321431
600.918753	5854.793556
601.269392	5814.078677
601.619978	5738.809209
601.970510	5712.590168
602.320988	5692.493608
602.671412	5677.516340
603.021783	5612.505620
603.372100	5544.843253
603.722363	5512.249673
604.072572	5477.316997
604.422728	5447.690136
604.772830	5387.566815
605.122878	5350.088357
605.472872	5311.447913
605.822813	5286.723573
606.172701	5242.999126
606.522534	5220.626485
606.872314	5201.782652
607.222041	5143.343076
607.571714	5126.104850
607.921333	5058.838214
608.270899	5036.619328
608.620411	5020.117111
608.969870	4973.625070
609.319276	4935.040078
609.668627	4906.512189
610.017926	4891.534921
610.367171	4868.658164
610.716362	4837.518957
611.065500	4798.387000
611.414585	4770.486734
611.763616	4755.995938
612.112594	4719.729877
612.461518	4693.914128
612.810389	4677.928629
613.159207	4636.182834
613.507971	4604.968010
613.856682	4595.586422
614.205340	4559.451432
614.553945	4557.881112
614.902496	4504.540663
615.250994	4486.647088
615.599439	4460.274291
615.947830	4442.579841
616.296169	4405.310591
616.644454	4385.125811
616.992686	4360.073797
617.340864	4356.204711
617.688990	4309.430365
618.037063	4313.407836
618.385082	4282.903814
618.733048	4267.908902
619.080961	4238.299685
619.428821	4212.163823
619.776628	4194.880227
620.124382	4159.892098
620.472083	4133.942759
620.819731	4115.345942
621.167326	4072.475970
621.514868	4042.904562
621.862357	4002.081298
622.209793	3974.291937
622.557176	3937.143674
622.904506	3896.514495
623.251783	3861.241542
623.599007	3831.055112
623.946179	3798.799289
624.293297	3773.898510
624.640363	3734.327973
624.987376	3711.327708
625.334336	3681.022812
625.681243	3650.657422
626.028097	3628.453660
626.374899	3605.304681
626.721647	3585.530755
627.068343	3560.942527
627.414987	3535.333466
627.761577	3511.009899
628.108115	3500.383146
628.454600	3470.239567
628.801032	3456.938483
629.147412	3443.985238
629.493739	3424.455808
629.840014	3404.752458
630.186236	3393.636714
630.532405	3370.611243
630.878521	3361.726210
631.224585	3345.125690
631.570597	3326.670026
631.916556	3316.217193
632.262462	3303.359731
632.608316	3286.991104
632.954117	3272.079371
633.299866	3261.876076
633.645562	3246.918972
633.991206	3221.327555
634.336797	3203.602858
634.682336	3187.844211
635.027823	3170.900893
635.373257	3154.242400
635.718639	3135.552322
636.063968	3121.676546
636.409245	3101.151488
636.754470	3090.824684
637.099642	3071.081005
637.444762	3058.478121
637.789829	3048.443704
638.134845	3033.373175
638.479808	3025.357740
638.824719	3013.556399
639.169577	2995.279696
639.514383	2989.411793
639.859137	2977.618013
640.203839	2970.872949
640.548489	2957.672688
640.893086	2949.185905
641.237632	2938.070161
641.582125	2930.919284
641.926566	2924.486772
642.270955	2920.327820
642.615292	2913.892787
642.959576	2909.101171
643.303809	2897.897206
643.647990	2893.312277
643.992118	2884.833056
644.336195	2878.788713
644.680219	2876.162271
645.024192	2873.165305
645.368112	2869.807897
645.711981	2864.791949
646.055797	2867.206662
646.399562	2861.865559
646.743274	2865.863194
647.086935	2866.936960
647.430544	2863.183821
647.774101	2860.217102
648.117606	2854.613859
648.461059	2852.486492
648.804460	2848.362828
649.147810	2837.317660
649.491108	2827.162256
649.834354	2821.193530
650.177548	2809.109884
650.520690	2803.627629
650.863781	2798.231074
651.206820	2794.611526
651.549807	2781.512087
651.892742	2779.916562
652.235626	2774.061262
652.578458	2767.918616
652.921238	2759.842687
653.263967	2761.561721
653.606644	2755.489651
653.949269	2750.330030
654.291843	2746.886922
654.634365	2746.261819
654.976836	2742.859040
655.319255	2740.023391
655.661622	2734.420149
656.003938	2732.007957
656.346203	2727.917060
656.688416	2727.904457
657.030577	2723.163252
657.372687	2721.605536
657.714746	2715.092365
658.056753	2715.641851
658.398708	2709.509287
658.740612	2707.523072
659.082465	2707.029039
659.424266	2702.476877
659.766016	2698.658203
660.107715	2702.544933
660.449362	2699.921012
660.790958	2700.215920
661.132503	2696.056968
661.473996	2699.139633
661.815438	2695.424303
662.156829	2693.072605
662.498168	2688.906091
662.839456	2689.654702
663.180693	2687.907943
663.521879	2685.793179
663.863013	2685.813343
664.204097	2681.644309
664.545129	2682.153466
664.886110	2682.428208
665.227040	2681.019206
665.567918	2680.603311
665.908746	2678.614576
666.249522	2680.580626
666.590248	2675.221879
666.930922	2677.780265
667.271545	2678.226407
667.612118	2674.259019
667.952639	2673.772547
668.293109	2670.934378
668.633528	2669.452278
668.973896	2667.274500
669.314213	2667.967659
669.654480	2667.183759
669.994695	2662.208140
670.334859	2662.482883
670.674973	2660.990702
671.015035	2659.281751
671.355047	2661.477173
671.695008	2660.884837
672.034918	2657.504744
672.374777	2660.088335
672.714585	2656.098262
673.054342	2657.119096
673.394049	2655.153046
673.733705	2657.676143
674.073310	2654.684218
674.412864	2653.615494
674.752368	2651.541059
675.091820	2652.428302
675.431223	2649.897643
675.770574	2650.424443
676.109875	2646.139462
676.449125	2643.641571
676.788324	2643.628968
677.127473	2642.174595
677.466571	2637.864408
677.805619	2643.727270
678.144616	2642.051087
678.483562	2642.383803
678.822458	2637.498925
679.161303	2640.274080
679.500098	2637.710653
679.838842	2637.922382
680.177535	2635.220323
680.516179	2637.221661
680.854771	2637.355252
681.193314	2637.234264
681.531805	2638.035808
681.870247	2640.853813
682.208638	2641.751138
682.546978	2644.959832
682.885268	2641.859523
683.223508	2641.310037
683.561697	2641.960346
683.899836	2640.203504
684.237925	2636.846095
684.575963	2637.498925
684.913951	2637.380458
685.251889	2637.141003
685.589776	2637.972793
685.927614	2637.720736
686.265401	2637.050262
686.603137	2636.258801
686.940824	2635.883235
687.278460	2636.220992
687.616046	2637.509007
687.953582	2638.378606
688.291068	2637.307361
688.628504	2641.728453
688.965889	2638.169398
689.303224	2637.929943
689.640510	2636.079840
689.977745	2633.249232
690.314930	2633.995323
690.652065	2633.108080
690.989150	2628.891155
691.326185	2625.385032
691.663170	2626.957872
692.000105	2626.274796
692.336990	2625.170783
692.673825	2623.257665
693.010610	2624.354116
693.347345	2619.436471
693.684030	2615.673249
694.020665	2615.370780
694.357251	2614.319699
694.693786	2617.949330
695.030272	2615.965636
695.366707	2616.540328
695.703093	2615.348095
696.039429	2615.491768
696.375716	2615.126284
696.711952	2615.423712
697.048139	2614.717951
697.384276	2612.426746
697.720363	2613.175357
698.056400	2614.823815
698.392388	2609.999431
698.728326	2612.935903
699.064214	2608.852568
699.400053	2614.816253
699.735842	2608.547578
700.071581	2608.419029
700.407270	2608.857609
700.742910	2611.249637
701.078501	2608.406426
701.414042	2607.637650
701.749533	2609.175202
702.084974	2608.164451
702.420366	2608.010695
702.755709	2606.551281
703.091002	2604.234871
703.426246	2605.878287
703.761440	2604.953236
704.096584	2605.459872
704.431679	2605.306116
704.766725	2606.178236
705.101721	2603.957608
705.436668	2603.463575
705.771565	2604.025663
706.106413	2604.696137
706.441212	2603.818976
706.775961	2606.601693
707.110661	2603.692947
707.445311	2604.628081
707.779913	2604.809563
708.114465	2606.921806
708.448967	2603.970211
708.783421	2606.392485
709.117825	2605.376692
709.452180	2605.606065
709.786485	2606.251333
710.120742	2607.352825
710.454949	2606.687392
710.789107	2606.236209
711.123216	2607.178905
711.457275	2610.803495
711.791286	2608.638319
712.125247	2611.751232
712.459159	2613.223248
712.793023	2613.321551
713.126837	2611.332816
713.460602	2611.289966
713.794318	2613.014041
714.127985	2609.149996
714.461602	2607.859461
714.795171	2610.201077
715.128691	2605.759820
715.462162	2603.738317
715.795584	2605.921137
716.128957	2604.895262
716.462281	2603.319902
716.795556	2601.903337
717.128782	2604.023143
717.461960	2604.144130
717.795088	2598.384612
718.128167	2599.576845
718.461198	2602.160436
718.794180	2602.296547
719.127113	2599.171032
719.459997	2597.782194
719.792833	2600.580035
720.125619	2599.869232
720.458357	2597.792277
720.791046	2595.853953
721.123686	2596.844540
721.456278	2596.466453
721.788821	2596.847060
722.121315	2598.946701
722.453761	2596.700867
722.786158	2594.044179
723.118506	2597.847729
723.450805	2596.887389
723.783056	2597.943511
724.115259	2599.400405
724.447412	2597.842688
724.779518	2597.270517
725.111574	2594.717173
725.443582	2594.848243
725.775542	2595.213726
726.107453	2598.074581
726.439315	2595.949735
726.771129	2599.750765
727.102895	2599.387802
727.434612	2598.873604
727.766281	2598.881166
728.097901	2599.322267
728.429473	2596.194231
728.760996	2597.756988
729.092471	2594.359251
729.423897	2600.877463
729.755276	2597.114241
730.086606	2599.702874
730.417887	2599.062647
730.749120	2599.314705
731.080305	2599.720518
731.411442	2601.200097
731.742530	2603.269490
732.073570	2604.565067
732.404562	2606.437855
732.735506	2605.238061
733.066401	2603.060282
733.397249	2603.362752
733.728048	2602.125148
734.058798	2601.043821
734.389501	2599.735641
734.720156	2596.128696
735.050762	2595.843871
735.381320	2596.032914
735.711831	2597.083994
736.042293	2596.194231
736.372707	2594.402101
736.703073	2594.928901
737.033391	2592.148705
737.363661	2593.376226
737.693883	2595.654827
738.024056	2595.949735
738.354182	2594.613829
738.684260	2596.879828
739.014290	2595.092739
739.344272	2595.982502
739.674207	2596.279930
740.004093	2599.564242
740.333931	2598.424941
740.663722	2597.958635
740.993464	2598.067019
741.323159	2598.976948
741.652806	2598.621546
741.982405	2598.314036
742.311956	2595.112903
742.641460	2596.605085
742.970915	2596.090887
743.300323	2595.233891
743.629683	2596.957966
743.958996	2594.114755
744.288260	2593.000660
744.617477	2593.010742
744.946647	2590.704414
745.275768	2592.569641
745.604842	2587.979671
745.933869	2589.217274
746.262847	2586.883220
746.591778	2593.585434
746.920662	2591.516040
747.249498	2590.522933
747.578286	2592.657861
747.907027	2590.502768
748.235720	2592.176431
748.564365	2596.146340
748.892963	2593.489652
749.221514	2592.398242
749.550017	2594.497882
749.878473	2592.322625
750.206881	2594.560897
750.535242	2592.438571
750.863555	2589.454208
751.191821	2591.964703
751.520039	2593.018304
751.848210	2587.523446
752.176334	2589.532346
752.504411	2591.977306
752.832440	2591.480752
753.160421	2590.144846
753.488356	2589.938159
753.816243	2591.621904
754.144082	2590.391863
754.471875	2588.909763
754.799620	2586.197623
755.127318	2589.655854
755.454969	2588.486307
755.782572	2589.025710
756.110129	2592.390680
756.437638	2593.547625
756.765100	2587.523446
757.092515	2592.506627
757.419882	2590.543097
757.747203	2593.368664
758.074477	2590.376739
758.401703	2589.635690
758.728882	2589.237438
759.056014	2590.023858
759.383099	2590.323807
759.710138	2593.535022
760.037129	2588.677870
760.364073	2590.560741
760.690970	2587.924218
761.017820	2592.781370
761.344623	2592.690629
761.671379	2592.362954
761.998088	2589.973447
762.324751	2594.606267
762.651366	2598.936618
762.977935	2606.180757
763.304456	2609.918772
763.630931	2616.051336
763.957359	2614.155862
764.283740	2613.611417
764.610074	2609.376848
764.936362	2609.086982
765.262602	2602.472988
765.588796	2601.003492
765.914943	2593.540063
766.241044	2595.382605
766.567097	2590.666606
766.893104	2589.325659
767.219064	2591.470670
767.544978	2585.627972
767.870845	2589.398755
768.196665	2585.890112
768.522438	2585.786769
768.848165	2583.573702
769.173846	2586.908425
769.499479	2588.592171
769.825066	2583.112437
770.150607	2586.681573
770.476101	2583.109916
770.801548	2586.696697
771.126949	2586.797520
771.452303	2584.279464
771.777611	2584.665112
772.102872	2583.845924
772.428087	2581.219483
772.753256	2583.707293
773.078378	2585.093610
773.403453	2580.453228
773.728482	2581.441294
774.053465	2580.491037
774.378401	2579.956674
774.703291	2581.330389
775.028135	2582.671336
775.352932	2581.529514
775.677683	2577.872157
776.002388	2582.459607
776.327046	2581.494226
776.651658	2578.300655
776.976224	2578.522466
777.300743	2577.995665
777.625216	2578.290573
777.949643	2580.813670
778.274024	2579.714699
778.598359	2576.402661
778.922647	2573.135993
779.246889	2576.979873
779.571086	2576.543813
779.895236	2575.424677
780.219339	2578.542631
780.543397	2579.628999
780.867409	2578.643454
781.191374	2577.970460
781.515294	2579.374421
781.839167	2577.884760
782.162995	2578.799729
782.486776	2579.765110
782.810511	2576.705130
783.134201	2577.415933
783.457844	2578.857703
783.781441	2579.331571
784.104993	2577.844431
784.428498	2578.156982
784.751958	2580.390213
785.075372	2578.073803
785.398739	2579.800398
785.722061	2578.346026
786.045337	2578.610686
786.368568	2577.604976
786.691752	2579.548341
787.014891	2579.326530
787.337983	2578.802250
787.661030	2582.704103
787.984031	2580.387693
788.306987	2585.907756
788.629897	2583.871130
788.952760	2585.176789
789.275579	2585.070925
789.598351	2584.173599
789.921078	2584.912128
790.243759	2580.387693
790.566395	2578.116653
790.888984	2581.282498
791.211529	2579.760069
791.534027	2579.255954
791.856480	2580.445666
792.178888	2578.159503
792.501249	2582.683938
792.823566	2578.058680
793.145836	2579.097157
793.468062	2577.494071
793.790241	2578.613207
794.112375	2578.721592
794.434464	2579.409709
794.756507	2579.442477
795.078505	2580.992631
795.400457	2575.896025
795.722364	2573.148596
796.044226	2580.697724
796.366042	2576.442990
796.687812	2576.508525
797.009538	2583.049422
797.331218	2581.514391
797.652852	2579.984401
797.974442	2581.766448
798.295986	2581.254771
798.617484	2579.886098
798.938938	2577.380645
799.260346	2580.140676
799.581709	2579.966757
799.903026	2578.945923
800.224299	2579.114802
800.545526	2579.329051
800.866708	2579.412230
801.187845	2578.300655
801.508936	2578.298135
801.829983	2577.539441
802.150984	2577.771334
802.471940	2577.804102
802.792851	2573.345201
803.113717	2576.526169
803.434538	2576.626992
803.755314	2577.368042
804.076045	2577.670511
804.396731	2577.098340
804.717372	2575.810325
805.037967	2578.169585
805.358518	2577.090778
805.679024	2579.767631
805.999485	2577.879719
806.319901	2577.491550
806.640272	2575.485171
806.960598	2576.309399
807.280879	2574.973494
807.601115	2579.258474
807.921306	2577.337795
808.241453	2577.746128
808.561554	2575.543144
808.881611	2580.513722
809.201623	2579.533217
809.521590	2577.567167
809.841513	2578.046077
810.161390	2576.286714
810.481223	2577.756211
810.801011	2574.073648
811.120755	2577.526838
811.440453	2577.549523
811.760107	2575.727146
812.079716	2572.899059
812.399281	2573.738411
812.718801	2572.868812
813.038276	2572.407546
813.357707	2578.129256
813.677093	2579.339133
813.996434	2578.643454
814.315731	2576.793350
814.634983	2577.720922
814.954191	2578.772003
815.273354	2576.745459
815.592473	2576.069945
815.911547	2577.325192
816.230577	2577.972980
816.549562	2578.406519
816.868502	2577.297466
817.187399	2577.234451
817.506250	2578.673701
817.825058	2578.963567
818.143821	2581.045563
818.462539	2581.277457
818.781213	2578.625810
819.099843	2582.366346
819.418429	2582.457087
819.736970	2586.066553
820.055466	2589.330700
820.373919	2594.061823
820.692327	2596.146340
821.010691	2605.253184
821.329011	2621.652058
821.647286	2651.586429
821.965517	2682.324865
822.283704	2710.918289
822.601847	2726.051833
822.919945	2719.571430
823.237999	2706.940819
823.556010	2689.987419
823.873976	2676.003258
824.191897	2666.672082
824.509775	2652.624907
824.827609	2640.967239
825.145398	2631.250415
825.463144	2626.705814
825.780845	2623.734054
826.098502	2625.967285
826.416116	2630.791670
826.733685	2636.377268
827.051210	2642.177116
827.368692	2640.127887
827.686129	2634.716208
828.003522	2625.400156
828.320872	2613.500512
828.638177	2608.224944
828.955439	2601.026177
829.272656	2598.379571
829.589830	2590.323807
829.906960	2594.981833
830.224046	2587.563775
830.541088	2586.626121
830.858086	2586.633682
831.175041	2585.602767
831.491952	2584.667632
831.808819	2582.769638
832.125642	2582.404154
832.442421	2583.326686
832.759157	2587.082345
833.075849	2594.576020
833.392497	2600.073399
833.709101	2607.068000
834.025662	2611.229472
834.342179	2606.452979
834.658653	2601.958790
834.975083	2594.576020
835.291469	2596.506782
835.607811	2594.081987
835.924110	2587.684763
836.240366	2587.339444
836.556578	2584.634865
836.872746	2584.685277
837.188871	2580.695203
837.504952	2578.976170
837.820990	2576.458113
838.136984	2575.747311
838.452935	2575.538103
838.768842	2575.860737
839.084706	2577.070614
839.400526	2578.913155
839.716303	2584.097982
840.032037	2584.183682
840.347727	2585.305338
840.663373	2585.978332
840.978977	2584.012283
841.294537	2579.807960
841.610054	2578.890470
841.925527	2578.330902
842.240957	2575.137331
842.556344	2574.313102
842.871687	2574.890315
843.186987	2574.650860
843.502244	2568.427555
843.817458	2571.164902
844.132629	2571.104408
844.447756	2572.175653
844.762840	2569.486198
845.077881	2568.077195
845.392879	2564.878583
845.707833	2568.777916
846.022745	2566.670713
846.337613	2570.209603
846.652438	2572.566343
846.967221	2569.834037
847.281960	2568.795560
847.596656	2571.119532
847.911309	2568.150292
848.225919	2569.826476
848.540485	2568.508214
848.855009	2570.181877
849.169490	2567.996537
849.483928	2570.121383
849.798323	2568.324212
850.112675	2570.552402
850.426984	2569.791188
850.741251	2570.338153
851.055474	2570.149109
851.369654	2569.271949
851.683792	2569.818914
851.997887	2571.111970
852.311938	2569.982751
852.625947	2568.132648
852.939914	2567.142061
853.253837	2571.192628
853.567718	2569.644994
853.881555	2568.969479
854.195350	2568.183059
854.509103	2567.913358
854.822812	2570.081054
855.136479	2571.701785
855.450103	2568.094839
855.763685	2569.571897
856.077224	2566.174160
856.390720	2572.364697
856.704173	2570.602813
857.017584	2568.704819
857.330953	2568.525858
857.644278	2569.619788
857.957561	2570.534758
858.270802	2569.748338
858.584000	2569.667679
858.897155	2570.348235
859.210268	2567.923440
859.523339	2568.631722
859.836367	2568.929150
860.149352	2570.045766
860.462295	2572.389902
860.775195	2564.336659
861.088054	2563.588048
861.400869	2565.753223
861.713642	2563.877914
862.026373	2565.453275
862.339062	2568.467885
862.651708	2566.779098
862.964312	2567.966290
863.276873	2570.549881
863.589392	2568.556105
863.901869	2563.991340
864.214303	2568.661969
864.526696	2568.745148
864.839045	2571.744635
865.151353	2570.310426
865.463619	2571.313616
865.775842	2569.047617
866.088023	2569.692885
866.400162	2570.360838
866.712258	2571.248081
867.024313	2573.922413
867.336325	2568.510734
867.648296	2569.017370
867.960224	2569.435786
868.272110	2571.953842
868.583954	2572.984758
868.895755	2572.773030
869.207515	2568.757751
869.519233	2570.965776
869.830909	2568.989644
870.142542	2571.527865
870.454134	2569.776064
870.765684	2570.648184
871.077191	2570.154151
871.388657	2574.066086
871.700081	2570.973338
872.011463	2572.168092
872.322803	2569.332442
872.634101	2571.739593
872.945357	2572.397464
873.256571	2572.611713
873.567744	2573.229254
873.878874	2573.110787
874.189963	2570.993503
874.501010	2572.432752
874.812015	2573.559450
875.122979	2573.201528
875.433900	2573.498956
875.744780	2572.954512
876.055618	2574.749162
876.366415	2572.846127
876.677169	2573.808987
876.987882	2569.604665
877.298554	2567.555436
877.609183	2571.391754
877.919771	2569.816393
878.230317	2570.927968
878.540822	2575.190263
878.851285	2574.842424
879.161707	2577.219328
879.472087	2579.891139
879.782425	2588.070411
880.092722	2589.492017
880.402977	2601.968872
880.713191	2612.197374
881.023363	2628.699591
881.333494	2639.376755
881.643583	2643.994452
881.953631	2647.629123
882.263637	2644.264153
882.573602	2643.873464
882.883526	2637.375417
883.193408	2632.583800
883.503248	2627.840074
883.813048	2623.590381
884.122806	2617.888836
884.432522	2613.145111
884.742197	2607.037753
885.051831	2601.159767
885.361424	2597.961155
885.670975	2593.774477
885.980485	2592.161308
886.289954	2586.663929
886.599382	2585.406162
886.908768	2583.119998
887.218113	2579.656726
887.527417	2579.689493
887.836680	2576.203535
888.145901	2578.764441
888.455082	2574.247568
888.764221	2576.931982
889.073319	2574.096333
889.382376	2574.003072
889.691392	2576.221179
890.000366	2576.458113
890.309300	2571.742114
890.618193	2574.907959
890.927044	2576.054821
891.235855	2575.515418
891.544625	2575.593556
891.853353	2573.501477
892.162041	2574.008113
892.470687	2579.029102
892.779293	2575.812846
893.087858	2571.744635
893.396381	2577.441138
893.704864	2577.877198
894.013306	2581.700913
894.321707	2588.632500
894.630068	2593.063674
894.938387	2595.498552
895.246665	2596.988212
895.554903	2596.942842
895.863100	2593.819847
896.171256	2590.369178
896.479371	2588.128385
896.787446	2587.772983
897.095480	2584.440781
897.403473	2584.425657
897.711425	2585.426326
898.019336	2580.927096
898.327207	2579.513053
898.635038	2578.219997
898.942827	2575.712023
899.250576	2577.836869
899.558284	2574.887794
899.865952	2575.369224
900.173579	2573.735890
900.481165	2574.066086
900.788711	2574.930644
901.096216	2575.863257
901.403681	2575.291086
901.711105	2572.102557
902.018489	2572.135324
902.325832	2576.294276
902.633135	2570.640622
902.940397	2574.814697
903.247619	2575.714543
903.554800	2580.523804
903.861941	2587.770463
904.169041	2595.743048
904.476101	2598.500559
904.783121	2599.067688
905.090100	2599.670106
905.397039	2596.226998
905.703938	2592.667944
906.010796	2590.989239
906.317614	2587.014290
906.624391	2586.858014
906.931129	2586.532859
907.237826	2581.771490
907.544483	2582.028588
907.851099	2578.414081
908.157675	2576.982393
908.464211	2577.466344
908.770707	2569.408060
909.077163	2569.032494
909.383578	2567.575600
909.689954	2565.969993
909.996289	2565.423028
910.302584	2570.209603
910.608839	2570.454099
910.915054	2567.726835
911.221229	2567.323543
911.527363	2568.276321
911.833458	2568.694737
912.139513	2569.158523
912.445527	2568.535940
912.751502	2570.837227
913.057436	2571.152299
913.363331	2570.859912
913.669186	2569.632391
913.975000	2571.875705
914.280775	2572.949470
914.586510	2578.209914
914.892205	2580.112950
915.197859	2582.114288
915.503475	2586.311049
915.809050	2594.843202
916.114585	2595.755650
916.420081	2598.276227
916.725536	2601.129520
917.030952	2599.730600
917.336328	2598.510641
917.641665	2597.595672
917.946961	2596.690784
918.252218	2593.895465
918.557435	2590.296081
918.862612	2589.499578
919.167750	2590.928746
919.472848	2585.194433
919.777906	2583.230904
920.082925	2581.902560
920.387904	2583.198136
920.692843	2578.895511
920.997743	2578.522466
921.302603	2575.139852
921.607423	2577.325192
921.912204	2572.863771
922.216946	2573.060376
922.521647	2572.011816
922.826310	2570.287741
923.130932	2570.038204
923.435516	2569.980231
923.740059	2572.084912
924.044564	2569.029973
924.349028	2569.092988
924.653454	2564.339180
924.957840	2566.348079
925.262186	2563.280537
925.566493	2564.719787
925.870761	2561.957234
926.174989	2568.654407
926.479178	2569.624829
926.783328	2565.133161
927.087438	2566.779098
927.391509	2568.629202
927.695541	2566.393450
927.999533	2565.123079
928.303486	2565.738100
928.607400	2568.304047
928.911275	2565.289437
929.215110	2566.123748
929.518906	2563.527554
929.822663	2562.738613
930.126381	2563.482183
930.430060	2563.923284
930.733699	2565.170970
931.037299	2566.486711
931.340861	2567.452092
931.644383	2566.335477
931.947866	2566.617781
932.251309	2564.750034
932.554714	2564.077040
932.858080	2569.153482
933.161407	2565.806155
933.464694	2569.269428
933.767943	2564.928995
934.071153	2566.942936
934.374323	2562.907492
934.677455	2562.980589
934.980548	2565.264231
935.283602	2565.856567
935.586617	2563.598130
935.889593	2566.796742
936.192530	2564.422359
936.495428	2564.687019
936.798287	2566.269942
937.101108	2566.146433
937.403890	2563.605692
937.706632	2567.580642
938.009336	2565.286917
938.312002	2568.886300
938.614628	2565.947308
938.917216	2567.681465
939.219765	2571.411918
939.522275	2566.577452
939.824747	2569.130796
940.127179	2562.675599
940.429573	2562.151319
940.731929	2566.620302
941.034246	2561.596792
941.336524	2563.746844
941.638763	2567.747000
941.940964	2567.278172
942.243126	2568.470405
942.545250	2569.682803
942.847335	2565.869170
943.149381	2567.671382
943.451389	2567.235322
943.753359	2567.313460
944.055290	2566.090981
944.357182	2566.209448
944.659036	2565.445713
944.960851	2563.761967
945.262628	2565.090312
945.564367	2565.453275
945.866067	2563.840105
946.167729	2568.760272
946.469352	2565.677606
946.770937	2568.941753
947.072484	2564.520661
947.373992	2566.910168
947.675462	2565.357493
947.976893	2565.712894
948.278286	2566.590055
948.579641	2565.513768
948.880958	2563.703994
949.182236	2566.269942
949.483476	2565.218861
949.784678	2563.066288
950.085841	2564.674416
950.386967	2567.643656
950.688054	2565.102914
950.989103	2564.931515
951.290114	2565.672565
951.591087	2566.048131
951.892021	2565.039900
952.192917	2566.106104
952.493776	2565.334807
952.794596	2568.639284
953.095378	2567.739438
953.396122	2565.135682
953.696828	2565.554098
953.997496	2566.227092
954.298126	2564.359344
954.598718	2564.008984
954.899272	2565.909499
955.199788	2563.285578
955.500266	2568.142730
955.800706	2563.000753
956.101108	2561.347255
956.401472	2564.341700
956.701798	2563.867832
957.002087	2561.405228
957.302337	2563.325908
957.602550	2566.305230
957.902724	2564.621484
958.202861	2562.773901
958.502960	2563.514951
958.803022	2564.535785
959.103045	2564.155178
959.403031	2562.574776
959.702979	2561.979920
960.002889	2562.789025
960.302762	2562.594940
960.602596	2561.657286
960.902393	2561.279199
961.202153	2562.219374
961.501875	2563.149467
961.801559	2562.156360
962.101205	2562.151319
962.400814	2561.369940
962.700385	2560.278530
962.999918	2562.136195
963.299414	2563.033521
963.598873	2562.562173
963.898293	2560.938921
964.197677	2559.794579
964.497022	2561.485887
964.796331	2564.750034
965.095601	2562.042934
965.394835	2562.791545
965.694030	2560.361709
965.993189	2563.338511
966.292309	2560.265927
966.591393	2558.940104
966.890439	2563.446895
967.189447	2562.529405
967.488419	2560.596123
967.787353	2562.184086
968.086249	2562.040413
968.385108	2558.516647
968.683930	2561.206102
968.982714	2561.566545
969.281462	2560.984292
969.580172	2561.758109
969.878844	2558.995557
970.177480	2562.045455
970.476078	2560.001267
970.774639	2563.151988
971.073162	2560.192831
971.371649	2558.758622
971.670098	2558.128478
971.968510	2559.691236
972.266885	2558.231822
972.565223	2561.768191
972.863524	2560.437327
973.161788	2561.995043
973.460014	2558.887172
973.758204	2562.615105
974.056356	2560.989333
974.354471	2560.757440
974.652550	2563.572924
974.950591	2563.207441
975.248595	2560.996895
975.546563	2562.484035
975.844493	2563.978737
976.142386	2561.322049
976.440243	2563.477142
976.738062	2563.489745
977.035845	2559.633262
977.333590	2563.373799
977.631299	2560.293654
977.928971	2561.856411
978.226606	2560.187789
978.524204	2562.436144
978.821765	2561.816082
979.119290	2560.754919
979.416777	2558.778787
979.714228	2562.143757
980.011642	2560.107131
980.309020	2563.371278
980.606360	2562.975547
980.903664	2560.326421
981.200931	2562.494117
981.498162	2561.122923
981.795356	2564.840774
982.092513	2563.003274
982.389633	2562.514282
982.686717	2566.499314
982.983764	2562.962945
983.280775	2565.533933
983.577749	2563.189797
983.874686	2567.537792
984.171587	2566.900086
984.468451	2568.195662
984.765279	2565.705332
985.062070	2567.696588
985.358824	2565.236505
985.655543	2563.419169
985.952224	2562.607543
986.248869	2559.716442
986.545478	2558.509085
986.842050	2558.930022
987.138586	2556.530432
987.435086	2558.811554
987.731549	2556.172510
988.027975	2559.189641
988.324366	2559.512275
988.620719	2563.426731
988.917037	2559.217367
989.213318	2559.701318
989.509563	2557.946997
989.805772	2559.534960
990.101944	2560.490259
990.398080	2557.556307
990.694180	2559.807182
990.990244	2562.453788
991.286271	2558.740978
991.582262	2560.286092
991.878217	2560.104610
992.174136	2558.453632
992.470019	2560.575958
992.765865	2559.373643
993.061676	2558.461194
993.357450	2560.449929
993.653188	2562.514282
993.948890	2559.943293
994.244556	2560.396997
994.540186	2560.712069
994.835780	2562.287430
995.131337	2561.112841
995.426859	2559.804662
995.722345	2560.888510
996.017795	2560.684343
996.313208	2560.976730
996.608586	2561.881617
996.903928	2560.026472
997.199234	2559.197203
997.494504	2562.990671
997.789738	2564.777760
998.084936	2561.773232
998.380099	2560.623849
998.675225	2563.678788
998.970316	2563.767009
999.265371	2559.242573
999.560390	2562.340362
999.855373	2561.067471
1000.150320	2560.306257
1000.445232	2559.459343
1000.740108	2559.305587
1001.034948	2559.214847
1001.329752	2558.526729
1001.624521	2560.487738
1001.919254	2557.049671
1002.213951	2556.417006
1002.508613	2555.895247
1002.803239	2554.849208
1003.097829	2554.408107
1003.392384	2558.246945
1003.686903	2555.370967
1003.981386	2560.094528
1004.275834	2557.939435
1004.570246	2560.941442
1004.864623	2559.361040
1005.158964	2557.155535
1005.453270	2559.769374
1005.747540	2558.662840
1006.041775	2558.781308
1006.335974	2558.856925
1006.630138	2557.432799
1006.924266	2561.135526
1007.218359	2558.267110
1007.512416	2560.187789
1007.806438	2559.141750
1008.100425	2558.226781
1008.394376	2557.712583
1008.688292	2555.877603
1008.982172	2559.126627
1009.276017	2557.894064
1009.569827	2559.744168
1009.863602	2560.863304
1010.157341	2555.055895
1010.451045	2559.892882
1010.744714	2556.893395
1011.038347	2558.178890
1011.331945	2557.052192
1011.625508	2556.134702
1011.919036	2556.169990
1012.212528	2558.040258
1012.505986	2557.425237
1012.799408	2554.468600
1013.092795	2559.640824
1013.386147	2558.405742
1013.679464	2558.335165
1013.972745	2559.668551
1014.265992	2557.576472
1014.559204	2556.817778
1014.852380	2558.703170
1015.145521	2559.355999
1015.438628	2555.731409
1015.731699	2560.366750
1016.024736	2558.551935
1016.317737	2558.251986
1016.610703	2557.871379
1016.903635	2552.217725
1017.196531	2558.509085
1017.489393	2556.553118
1017.782219	2554.002294
1018.075011	2555.338199
1018.367768	2558.509085
1018.660490	2559.056050
1018.953177	2559.056050
1019.245829	2559.056050
