Dividing Wavelength (nm)	Counts (n)	Blue Motor Position (mm): 0.000000	Red Motor Position (mm): 4.000000	
326.493990	2149.298463
326.888308	2149.298463
327.282561	2149.298463
327.676750	2123.636469
328.070874	2125.358023
328.464933	2131.921606
328.858929	2141.346043
329.252859	2151.796355
329.646726	2165.551143
330.040528	2179.479851
330.434265	2197.451564
330.827938	2215.675336
331.221547	2236.525548
331.615091	2258.623446
332.008571	2277.588267
332.401986	2298.446041
332.795338	2317.786427
333.188625	2338.765189
333.581847	2354.216326
333.975006	2374.801877
334.368100	2395.757954
334.761129	2415.249575
335.154095	2430.902358
335.546996	2443.270829
335.939833	2459.195834
336.332606	2471.826445
336.725315	2483.615183
337.117960	2493.314363
337.510540	2502.842144
337.903056	2506.514624
338.295508	2516.493588
338.687896	2521.461646
339.080220	2534.321629
339.472480	2535.009747
339.864676	2540.066024
340.256807	2545.956612
340.648875	2543.925027
341.040879	2545.540717
341.432818	2549.608928
341.824694	2546.561551
342.216506	2548.867878
342.608253	2545.228165
342.999937	2544.424101
343.391557	2549.210677
343.783113	2545.679349
344.174605	2545.011396
344.566033	2542.442928
344.957397	2540.166847
345.348697	2540.449152
345.739934	2539.723225
346.131106	2534.528316
346.522215	2535.198790
346.913260	2533.159643
347.304241	2533.131917
347.695159	2530.361803
348.086012	2528.839374
348.476802	2526.810310
348.867528	2525.441637
349.258191	2526.033972
349.648789	2524.307377
350.039324	2520.710514
350.429796	2523.606657
350.820203	2517.607683
351.210548	2519.135153
351.600828	2518.429392
351.991045	2517.426202
352.381198	2513.904956
352.771288	2520.397962
353.161314	2516.173475
353.551276	2518.351254
353.941175	2517.264885
354.331010	2517.549710
354.720782	2516.617097
355.110490	2517.847138
355.500135	2518.363857
355.889717	2516.725482
356.279235	2518.184896
356.668689	2519.578775
357.058080	2516.493588
357.447408	2515.707168
357.836672	2518.673888
358.225873	2517.832015
358.615010	2513.899915
359.004084	2520.448374
359.393095	2520.249248
359.782043	2522.646317
360.170927	2524.781245
360.559748	2523.057171
360.948505	2523.377284
361.337199	2526.165042
361.725830	2525.338293
362.114398	2526.797707
362.502903	2527.213602
362.891344	2528.617563
363.279722	2526.661596
363.668037	2528.408356
364.056289	2527.783253
364.444478	2526.331400
364.832603	2528.133613
365.220665	2526.419620
365.608665	2528.738551
365.996601	2528.720907
366.384474	2528.902389
366.772284	2527.243849
367.160031	2530.500434
367.547715	2528.985568
367.935336	2532.521937
368.322893	2531.546474
368.710388	2532.330373
369.097820	2534.379602
369.485189	2533.865405
369.872495	2530.439941
370.259738	2535.208872
370.646918	2532.642925
371.034035	2532.332894
371.421090	2535.602082
371.808081	2535.690302
372.195010	2534.913965
372.581875	2535.223996
372.968678	2534.251053
373.355418	2533.872966
373.742096	2538.762886
374.128710	2535.082843
374.515262	2536.333049
374.901751	2539.987886
375.288177	2539.544264
375.674540	2537.348842
376.060841	2542.644574
376.447079	2541.296065
376.833254	2545.099616
377.219367	2541.419574
377.605417	2545.628937
377.991404	2546.362425
378.377329	2544.613145
378.763191	2545.361756
379.148991	2554.471121
379.534727	2554.975236
379.920402	2558.138560
380.306013	2556.104455
380.691563	2558.133519
381.077049	2560.951524
381.462474	2564.019066
381.847835	2562.748696
382.233134	2565.856567
382.618371	2569.098029
383.003545	2574.224882
383.388657	2573.640108
383.773706	2575.636405
384.158693	2574.217321
384.543618	2577.562126
384.928480	2577.776375
385.313280	2583.064546
385.698017	2584.014803
386.082692	2586.578230
386.467305	2583.200657
386.851856	2587.092428
387.236344	2589.736513
387.620770	2590.943869
388.005133	2592.763726
388.389435	2593.046030
388.773674	2591.213571
389.157851	2594.694488
389.541965	2596.158943
389.926018	2591.752974
390.310008	2593.393870
390.693936	2593.058633
391.077802	2592.713314
391.461606	2593.056112
391.845348	2592.620053
392.229027	2591.561410
392.612645	2590.283478
392.996200	2592.574682
393.379694	2590.328848
393.763125	2586.782397
394.146494	2586.258117
394.529801	2586.237952
394.913047	2585.824577
395.296230	2583.997159
395.679351	2576.682445
396.062410	2579.255954
396.445408	2576.195973
396.828343	2573.148596
397.211217	2567.124417
397.594028	2566.688357
397.976778	2562.713408
398.359466	2561.435475
398.742092	2559.716442
399.124656	2561.380022
399.507158	2560.465053
399.889598	2558.935063
400.271977	2560.679302
400.654294	2560.535629
401.036549	2557.170659
401.418742	2557.619322
401.800874	2557.551266
402.182944	2552.716799
402.564952	2551.837118
402.946898	2552.439536
403.328783	2555.386090
403.710606	2553.205791
404.092367	2554.844166
404.474067	2554.524053
404.855705	2552.394166
405.237282	2554.599670
405.618797	2551.738816
406.000250	2552.684032
406.381642	2551.186809
406.762972	2553.266285
407.144240	2553.435164
407.525447	2554.370298
407.906593	2552.615976
408.287677	2552.830225
408.668700	2551.872406
409.049661	2553.702345
409.430560	2553.944320
409.811399	2554.024979
410.192176	2550.168496
410.572891	2554.168652
410.953545	2555.577654
411.334138	2553.818292
411.714669	2552.646223
412.095139	2553.185627
412.475547	2554.937428
412.855894	2552.069011
413.236180	2554.836605
413.616405	2554.980277
413.996568	2555.005483
414.376670	2555.701162
414.756711	2554.665205
415.136691	2555.648230
415.516609	2555.502037
415.896466	2555.837274
416.276262	2554.347613
416.655997	2552.593291
417.035670	2553.775442
417.415283	2552.162273
417.794834	2550.047508
418.174324	2554.251831
418.553753	2554.897098
418.933121	2555.413817
419.312428	2557.372305
419.691674	2556.041440
420.070859	2558.042778
420.449983	2554.587068
420.829045	2558.173848
421.208047	2557.435319
421.586988	2557.556307
421.965867	2557.631924
422.344686	2557.531101
422.723444	2557.586554
423.102141	2558.851884
423.480777	2556.689229
423.859352	2559.305587
424.237866	2559.426575
424.616319	2558.183931
424.994712	2559.177038
425.373044	2559.242573
425.751314	2561.816082
426.129524	2558.214178
426.507673	2559.754250
426.885762	2555.544887
427.263789	2559.108982
427.641756	2561.253993
428.019662	2561.077553
428.397508	2562.042934
428.775292	2558.781308
429.153016	2560.356668
429.530679	2560.933880
429.908282	2559.454302
430.285824	2559.209806
430.663305	2559.479507
431.040726	2561.768191
431.418086	2561.395146
431.795385	2561.702656
432.172624	2561.364899
432.549802	2563.003274
432.926920	2561.090156
433.303977	2562.350444
433.680974	2560.465053
434.057910	2560.545711
434.434786	2563.351113
434.811601	2560.485218
435.188355	2562.085784
435.565050	2563.550239
435.941683	2564.704663
436.318257	2560.833057
436.694770	2560.623849
437.071222	2557.541184
437.447614	2561.117882
437.823946	2559.449260
438.200218	2562.355486
438.576429	2563.898079
438.952580	2561.422872
439.328670	2564.545867
439.704700	2565.314643
440.080670	2565.276834
440.456580	2562.559652
440.832429	2565.120558
441.208218	2564.528223
441.583947	2566.569890
441.959616	2563.454457
442.335224	2564.934036
442.710773	2566.186762
443.086261	2566.804304
443.461689	2563.963614
443.837057	2566.267421
444.212365	2562.146278
444.587612	2563.494786
444.962800	2563.015877
445.337927	2566.738769
445.712995	2564.563511
446.088002	2566.068295
446.462949	2565.473439
446.837837	2564.916392
447.212664	2563.746844
447.587431	2564.558470
447.962139	2566.597617
448.336786	2567.184911
448.711374	2564.293809
449.085901	2568.072154
449.460369	2564.618964
449.834776	2567.426886
450.209124	2567.058882
450.583412	2565.546536
450.957640	2568.069633
451.331808	2568.636763
451.705917	2568.581311
452.079965	2569.773543
452.453954	2566.693398
452.827883	2565.937225
453.201752	2563.598130
453.575562	2567.242884
453.949311	2564.167780
454.323001	2568.515776
454.696632	2565.871690
455.070202	2568.785477
455.443713	2569.549212
455.817164	2563.842626
456.190556	2563.025959
456.563888	2564.777760
456.937160	2565.385219
457.310373	2564.266083
457.683526	2568.104922
458.056619	2568.782957
458.429653	2566.814386
458.802628	2569.092988
459.175542	2570.552402
459.548398	2567.353790
459.921194	2569.234140
460.293930	2569.208934
460.666607	2568.178018
461.039224	2570.507031
461.411782	2569.324881
461.784280	2568.457802
462.156719	2569.773543
462.529099	2566.806824
462.901419	2569.839078
463.273680	2568.059551
463.645882	2570.101218
464.018024	2571.263204
464.390106	2568.581311
464.762130	2570.360838
465.134094	2570.751527
465.505999	2569.990313
465.877845	2572.389902
466.249631	2570.580128
466.621358	2569.665159
466.993026	2574.325705
467.364634	2571.719429
467.736184	2569.249263
468.107674	2569.340004
468.479105	2569.503842
468.850477	2570.254974
469.221790	2570.622978
469.593043	2568.457802
469.964238	2568.611558
470.335373	2568.379664
470.706449	2571.600962
471.077467	2568.321691
471.448425	2569.879408
471.819324	2570.557443
472.190164	2571.767320
472.560945	2572.306723
472.931667	2571.666497
473.302330	2570.325550
473.672934	2570.965776
474.043479	2571.424521
474.413965	2569.682803
474.784393	2565.334807
475.154761	2569.254305
475.525070	2567.726835
475.895321	2565.491083
476.265513	2568.230950
476.635645	2569.650035
477.005719	2569.952504
477.375734	2569.382854
477.745691	2570.169274
478.115588	2572.354614
478.485427	2572.278997
478.855207	2573.415777
479.224928	2570.728842
479.594591	2574.660942
479.964194	2570.746486
480.333739	2572.210941
480.703226	2569.776064
481.072653	2573.559450
481.442022	2571.638770
481.811333	2570.706157
482.180584	2573.947619
482.549777	2574.444172
482.918912	2572.299162
483.287988	2569.090467
483.657005	2573.423339
484.025964	2570.499470
484.394864	2571.457289
484.763706	2571.782443
485.132489	2570.398647
485.501213	2574.671024
485.869879	2571.774882
486.238487	2573.405695
486.607036	2572.342011
486.975527	2571.386713
487.343959	2572.170612
487.712333	2572.392423
488.080648	2571.595921
488.448905	2572.309244
488.817104	2575.404512
489.185244	2572.899059
489.553326	2572.911662
489.921350	2573.541806
490.289315	2573.130952
490.657222	2575.185222
491.025070	2574.471899
491.392861	2574.061045
491.760593	2575.825449
492.128267	2573.272104
492.495883	2575.210428
492.863440	2573.773699
493.230939	2574.834862
493.598380	2576.621951
493.965763	2570.486867
494.333088	2569.660117
494.700354	2570.590210
495.067563	2571.653894
495.434713	2569.188770
495.801805	2573.609862
496.168839	2572.291600
496.535815	2573.526683
496.902733	2573.572053
497.269593	2574.837382
497.636395	2573.506518
498.003139	2575.568350
498.369825	2571.709347
498.736453	2573.272104
499.103023	2571.671538
499.469535	2575.805284
499.835989	2574.018195
500.202385	2575.883422
500.568723	2573.645150
500.935003	2575.338977
501.301226	2574.582804
501.667390	2575.409553
502.033497	2574.865109
502.399546	2574.267732
502.765537	2574.736559
503.131470	2575.381827
503.497345	2575.079358
503.863163	2573.559450
504.228923	2574.781930
504.594625	2575.351580
504.960269	2573.365366
505.325856	2573.781261
505.691385	2572.808318
506.056856	2575.061714
506.422270	2574.726477
506.787625	2573.758576
507.152924	2576.347208
507.518164	2576.042218
507.883347	2573.902248
508.248472	2575.260839
508.613540	2576.279152
508.978550	2572.994841
509.343503	2573.327557
509.708398	2577.194122
510.073236	2574.698751
510.438016	2575.759914
510.802738	2574.958370
511.167403	2573.042732
511.532010	2577.970460
511.896561	2576.793350
512.261053	2573.065417
512.625488	2569.924778
512.989866	2574.000551
513.354186	2572.483164
513.718449	2571.434604
514.082655	2572.135324
514.446803	2572.513411
514.810894	2574.297979
515.174927	2578.277970
515.538904	2574.537434
515.902822	2574.010633
516.266684	2575.230592
516.630488	2576.347208
516.994235	2575.061714
517.357925	2573.385530
517.721558	2574.671024
518.085133	2574.870150
518.448651	2575.507856
518.812112	2576.526169
519.175516	2576.037177
519.538863	2576.561457
519.902152	2575.570870
520.265385	2574.166909
520.628560	2579.326530
520.991678	2573.529203
521.354739	2574.882753
521.717743	2574.736559
522.080690	2575.248237
522.443580	2576.417784
522.806413	2579.452559
523.169189	2578.552713
523.531908	2576.531210
523.894569	2575.107084
524.257174	2575.049111
524.619722	2574.108936
524.982213	2574.025757
525.344647	2577.657908
525.707025	2577.363001
526.069345	2577.395768
526.431608	2575.258319
526.793815	2575.459965
527.155964	2576.011971
527.518057	2575.379307
527.880093	2577.509194
528.242072	2575.616241
528.603995	2575.553226
528.965860	2574.855027
529.327669	2576.604307
529.689421	2577.715881
530.051117	2575.333936
530.412755	2574.655901
530.774337	2576.642116
531.135862	2577.383165
531.497331	2574.786971
531.858743	2571.553071
532.220098	2573.262022
532.581396	2574.817218
532.942638	2571.379151
533.303824	2574.711354
533.664953	2573.501477
534.026025	2578.230079
534.387040	2576.276632
534.747999	2577.599935
535.108902	2577.468865
535.469748	2576.004410
535.830537	2575.754872
536.191270	2575.094481
536.551947	2574.842424
536.912567	2576.601786
537.273131	2574.991138
537.633638	2576.690007
537.994089	2578.096488
538.354483	2578.033474
538.714821	2574.779409
539.075103	2578.376272
539.435328	2576.296797
539.795497	2576.359811
540.155609	2577.020202
540.515665	2575.520459
540.875665	2579.969277
541.235609	2577.176478
541.595496	2578.610686
541.955328	2574.890315
542.315102	2575.724626
542.674821	2576.997517
543.034483	2578.288052
543.394090	2577.148752
543.753640	2577.526838
544.113134	2575.268401
544.472571	2578.502301
544.831953	2577.123546
545.191278	2575.815366
545.550548	2574.015674
545.909761	2576.299317
546.268918	2576.445511
546.628019	2577.063052
546.987064	2575.407033
547.346053	2578.320820
547.704986	2575.714543
548.063863	2575.943916
548.422684	2578.111612
548.781449	2580.954823
549.140158	2577.047928
549.498811	2577.405850
549.857408	2578.204873
550.215949	2575.086920
550.574434	2573.594738
550.932864	2572.828483
551.291237	2571.842937
551.649555	2577.899883
552.007817	2577.859554
552.366022	2574.333267
552.724173	2576.967270
553.082267	2577.559606
553.440305	2576.105233
553.798288	2577.267219
554.156215	2575.217990
554.514086	2579.722261
554.871902	2576.569019
555.229661	2574.638257
555.587365	2574.338308
555.945014	2578.411561
556.302606	2575.185222
556.660143	2576.032136
557.017625	2574.960891
557.375050	2576.463155
557.732421	2577.897363
558.089735	2576.382496
558.446994	2577.627661
558.804197	2577.201684
559.161345	2576.430387
559.518437	2577.123546
559.875474	2578.106571
560.232455	2578.363670
560.589381	2577.390727
560.946251	2577.453741
561.303065	2578.129256
561.659825	2577.771334
562.016528	2575.921231
562.373177	2576.626992
562.729770	2575.810325
563.086307	2577.426015
563.442789	2574.597928
563.799216	2577.045408
564.155587	2578.300655
564.511904	2574.335788
564.868164	2578.018351
565.224370	2577.594894
565.580520	2578.918197
565.936615	2579.397106
566.292654	2577.733525
566.648638	2579.104719
567.004567	2578.154462
567.360441	2577.839390
567.716260	2574.897876
568.072023	2577.448700
568.427732	2576.553895
568.783385	2570.184398
569.138982	2573.506518
569.494525	2574.187074
569.850013	2573.493915
570.205445	2577.541962
570.560823	2576.412743
570.916145	2575.442321
571.271412	2578.406519
571.626625	2580.269226
571.981782	2575.457444
572.336884	2576.090109
572.691931	2577.279822
573.046923	2575.490212
573.401860	2578.494740
573.756743	2578.260326
574.111570	2577.867116
574.466342	2577.128587
574.821059	2577.665470
575.175722	2575.933833
575.530330	2578.754359
575.884882	2579.457600
576.239380	2578.318299
576.593823	2576.528690
576.948211	2578.751838
577.302544	2575.225551
577.656823	2576.828638
578.011047	2576.818556
578.365216	2576.178329
578.719330	2578.557754
579.073389	2577.010120
579.427394	2574.270253
579.781344	2577.184040
580.135239	2576.092630
580.489080	2575.051632
580.842866	2577.151272
581.196597	2582.452045
581.550273	2577.221848
581.903895	2576.732856
582.257463	2578.958526
582.610975	2576.821077
582.964434	2577.942733
583.317837	2578.421643
583.671186	2576.737898
584.024481	2578.298135
584.377721	2578.381314
584.730906	2577.925089
585.084037	2578.497260
585.437113	2576.763103
585.790135	2575.860737
586.143103	2578.005748
586.496016	2577.632702
586.848874	2573.998030
587.201679	2575.689337
587.554428	2574.827300
587.907124	2575.611200
588.259765	2572.072310
588.612352	2579.591191
588.964884	2576.742939
589.317362	2575.875860
589.669786	2578.635892
590.022155	2577.289904
590.374470	2578.522466
590.726731	2580.324678
591.078937	2576.440469
591.431090	2576.506004
591.783188	2578.855182
592.135232	2579.296283
592.487222	2580.559092
592.839157	2575.669173
593.191038	2578.187229
593.542866	2576.087589
593.894639	2577.272260
594.246358	2578.396437
594.598022	2577.080696
594.949633	2575.709502
595.301190	2575.543144
595.652692	2575.636405
596.004141	2576.657239
596.355535	2576.967270
596.706876	2577.090778
597.058162	2576.102712
597.409395	2577.680593
597.760573	2578.225038
598.111698	2576.019533
598.462768	2578.494740
598.813785	2577.937692
599.164748	2576.619430
599.515657	2580.690162
599.866511	2578.028433
600.217312	2578.630851
600.568060	2578.429205
600.918753	2578.222517
601.269392	2575.616241
601.619978	2579.744946
601.970510	2579.117322
602.320988	2577.915007
602.671412	2576.972311
603.021783	2577.552044
603.372100	2577.841910
603.722363	2578.615727
604.072572	2577.010120
604.422728	2578.572877
604.772830	2575.026426
605.122878	2575.906107
605.472872	2574.804615
605.822813	2572.745304
606.172701	2575.780078
606.522534	2574.446693
606.872314	2576.690007
607.222041	2578.335943
607.571714	2576.780747
607.921333	2577.768813
608.270899	2578.300655
608.620411	2576.858885
608.969870	2579.588670
609.319276	2577.073134
609.668627	2577.277301
610.017926	2578.303176
610.367171	2576.664801
610.716362	2574.958370
611.065500	2576.092630
611.414585	2576.080027
611.763616	2579.097158
612.112594	2576.357290
612.461518	2576.992476
612.810389	2576.992476
613.159207	2576.692527
613.507971	2574.166909
613.856682	2577.158834
614.205340	2573.786302
614.553945	2579.344174
614.902496	2578.464493
615.250994	2577.027764
615.599439	2577.889801
615.947830	2576.241344
616.296169	2573.859399
616.644454	2578.973649
616.992686	2578.028433
617.340864	2579.482806
617.688990	2576.332085
618.037063	2578.328382
618.385082	2576.866447
618.733048	2580.186047
619.080961	2576.755542
619.428821	2581.151428
619.776628	2577.332754
620.124382	2579.008937
620.472083	2576.511046
620.819731	2576.934502
621.167326	2578.104050
621.514868	2579.422312
621.862357	2576.596745
622.209793	2576.730336
622.557176	2578.020871
622.904506	2572.445355
623.251783	2576.102712
623.599007	2575.913669
623.946179	2571.328739
624.293297	2574.502146
624.640363	2575.941395
624.987376	2578.134297
625.334336	2577.088258
625.681243	2576.400140
626.028097	2578.051118
626.374899	2575.190263
626.721647	2577.637743
627.068343	2576.740418
627.414987	2578.464493
627.761577	2576.533731
628.108115	2576.208576
628.454600	2577.209245
628.801032	2577.670511
629.147412	2576.914338
629.493739	2577.541962
629.840014	2579.228228
630.186236	2577.229410
630.532405	2577.599935
630.878521	2576.183371
631.224585	2579.029102
631.570597	2577.327712
631.916556	2574.771847
632.262462	2576.299317
632.608316	2577.214287
632.954117	2577.854513
633.299866	2575.893504
633.645562	2577.650346
633.991206	2576.894173
634.336797	2575.623802
634.682336	2576.614389
635.027823	2577.035326
635.373257	2577.118505
635.718639	2579.102199
636.063968	2573.307392
636.409245	2575.694379
636.754470	2578.096488
637.099642	2578.000707
637.444762	2576.195973
637.789829	2577.388206
638.134845	2576.909297
638.479808	2575.681776
638.824719	2575.510377
639.169577	2577.456262
639.514383	2577.627661
639.859137	2579.288721
640.203839	2579.928948
640.548489	2579.318968
640.893086	2573.703123
641.237632	2574.958370
641.582125	2572.871332
641.926566	2574.817218
642.270955	2576.566498
642.615292	2576.206056
642.959576	2576.087589
643.303809	2574.121539
643.647990	2574.802094
643.992118	2575.996848
644.336195	2577.564647
644.680219	2578.121694
645.024192	2576.395099
645.368112	2575.744790
645.711981	2575.291086
646.055797	2576.468196
646.399562	2574.691189
646.743274	2575.301169
647.086935	2577.269739
647.430544	2576.657239
647.774101	2577.206725
648.117606	2575.210428
648.461059	2577.284863
648.804460	2578.192270
649.147810	2576.115315
649.491108	2575.414595
649.834354	2577.859554
650.177548	2578.240161
650.520690	2576.100192
650.863781	2574.698751
651.206820	2581.148907
651.549807	2575.107084
651.892742	2576.795871
652.235626	2575.482650
652.578458	2573.917372
652.921238	2575.858216
653.263967	2578.240161
653.606644	2573.869481
653.949269	2576.891653
654.291843	2575.742270
654.634365	2575.137331
654.976836	2574.371076
655.319255	2576.614389
655.661622	2575.563309
656.003938	2577.060531
656.346203	2575.835531
656.688416	2576.737898
657.030577	2575.192784
657.372687	2574.708833
657.714746	2577.993145
658.056753	2574.295458
658.398708	2573.715726
658.740612	2572.475602
659.082465	2571.492577
659.424266	2573.085582
659.766016	2571.936198
660.107715	2577.143710
660.449362	2573.766137
660.790958	2573.700602
661.132503	2576.541292
661.473996	2574.169430
661.815438	2576.329564
662.156829	2573.627506
662.498168	2576.004410
662.839456	2574.381158
663.180693	2574.005592
663.521879	2573.672876
663.863013	2576.334605
664.204097	2576.503484
664.545129	2576.687486
664.886110	2577.917527
665.227040	2575.303689
665.567918	2578.051118
665.908746	2574.512228
666.249522	2575.875860
666.590248	2574.008113
666.930922	2574.996179
667.271545	2576.206056
667.612118	2579.074472
667.952639	2574.860068
668.293109	2576.180850
668.633528	2575.023905
668.973896	2574.441652
669.314213	2575.764955
669.654480	2577.637743
669.994695	2575.344018
670.334859	2573.526682
670.674973	2572.480643
671.015035	2576.813515
671.355047	2577.599935
671.695008	2575.719584
672.034918	2575.470047
672.374777	2576.553895
672.714585	2574.391240
673.054342	2575.880901
673.394049	2573.375448
673.733705	2578.623289
674.073310	2579.129925
674.412864	2574.708833
674.752368	2576.309399
675.091820	2574.925603
675.431223	2573.080540
675.770574	2577.279822
676.109875	2571.001064
676.449125	2573.917372
676.788324	2571.953842
677.127473	2572.815880
677.466571	2569.803790
677.805619	2576.080027
678.144616	2578.293093
678.483562	2577.292424
678.822458	2575.903587
679.161303	2575.275963
679.500098	2576.924420
679.838842	2576.127918
680.177535	2574.096333
680.516179	2572.946950
680.854771	2575.008782
681.193314	2573.304872
681.531805	2576.042218
681.870247	2576.339646
682.208638	2576.004410
682.546978	2575.888463
682.885268	2575.369224
683.223508	2573.738411
683.561697	2575.689338
683.899836	2574.870150
684.237925	2575.200346
684.575963	2576.044739
684.913951	2573.367886
685.251889	2575.880901
685.589776	2575.633885
685.927614	2574.792012
686.265401	2575.515418
686.603137	2577.287383
686.940824	2574.794533
687.278460	2576.122877
687.616046	2576.140521
687.953582	2574.285376
688.291068	2574.834862
688.628504	2576.871488
688.965889	2576.024574
689.303224	2575.933833
689.640510	2574.802094
689.977745	2577.398289
690.314930	2571.767320
690.652065	2573.597259
690.989150	2576.339646
691.326185	2577.420974
691.663170	2576.135480
692.000105	2575.941395
692.336990	2575.661611
692.673825	2573.302351
693.010610	2575.921231
693.347345	2570.501990
693.684030	2574.963411
694.020665	2573.468709
694.357251	2567.447051
694.693786	2573.733370
695.030272	2575.422156
695.366707	2576.014492
695.703093	2571.061558
696.039429	2575.525500
696.375716	2574.925603
696.711952	2575.006261
697.048139	2575.790161
697.384276	2574.413926
697.720363	2576.112794
698.056400	2572.793195
698.392388	2576.473237
698.728326	2574.600448
699.064214	2577.549523
699.400053	2575.091961
699.735842	2574.401323
700.071581	2574.481981
700.407270	2574.814697
700.742910	2575.023905
701.078501	2574.892835
701.414042	2574.761765
701.749533	2574.340829
702.084974	2576.392578
702.420366	2572.180694
702.755709	2576.233782
703.091002	2572.531055
703.426246	2574.842424
703.761440	2574.633216
704.096584	2573.435942
704.431679	2572.594069
704.766725	2575.638926
705.101721	2573.168761
705.436668	2574.877712
705.771565	2575.175140
706.106413	2575.923751
706.441212	2573.430901
706.775961	2575.107084
707.110661	2572.221024
707.445311	2575.306210
707.779913	2574.532393
708.114465	2573.783781
708.448967	2573.713205
708.783421	2574.630695
709.117825	2574.408884
709.452180	2573.536765
709.786485	2573.851837
710.120742	2573.859399
710.454949	2576.261508
710.789107	2573.665314
711.123216	2567.784808
711.457275	2571.631209
711.791286	2568.896383
712.125247	2572.447876
712.459159	2574.960891
712.793023	2574.633216
713.126837	2574.058524
713.460602	2573.405695
713.794318	2576.221179
714.127985	2572.926785
714.461602	2574.822259
714.795171	2572.268915
715.128691	2574.194635
715.462162	2575.177660
715.795584	2576.120356
716.128957	2574.161868
716.462281	2574.532393
716.795556	2575.520459
717.128782	2573.350242
717.461960	2572.369738
717.795088	2572.331929
718.128167	2578.565316
718.461198	2572.168092
718.794180	2576.994996
719.127113	2573.630026
719.459997	2573.040211
719.792833	2573.289748
720.125619	2572.959553
720.458357	2573.733370
720.791046	2572.800756
721.123686	2577.128587
721.456278	2576.863926
721.788821	2572.193297
722.121315	2573.866960
722.453761	2572.105077
722.786158	2572.866291
723.118506	2574.618092
723.450805	2573.582135
723.783056	2573.393092
724.115259	2574.935685
724.447412	2571.895869
724.779518	2573.327557
725.111574	2573.652711
725.443582	2574.247567
725.775542	2575.187743
726.107453	2572.092474
726.439315	2574.330747
726.771129	2577.118505
727.102895	2572.369738
727.434612	2575.938875
727.766281	2577.206725
728.097901	2572.263873
728.429473	2570.156671
728.760996	2570.116342
729.092471	2568.757751
729.423897	2572.616754
729.755276	2573.418298
730.086606	2574.363514
730.417887	2575.696899
730.749120	2575.228072
731.080305	2571.817731
731.411442	2574.577763
731.742530	2571.898390
732.073570	2572.974676
732.404562	2575.759914
732.735506	2573.567012
733.066401	2574.718915
733.397249	2573.814028
733.728048	2572.558781
734.058798	2574.900397
734.389501	2573.801425
734.720156	2572.168092
735.050762	2571.807649
735.381320	2575.681776
735.711831	2573.473750
736.042293	2573.768658
736.372707	2573.012485
736.703073	2572.858730
737.033391	2574.209759
737.363661	2575.122208
737.693883	2574.184553
738.024056	2576.241344
738.354182	2572.233627
738.684260	2574.582804
739.014290	2571.122052
739.344272	2573.980386
739.674207	2572.362176
740.004093	2577.330233
740.333931	2572.349573
740.663722	2572.273956
740.993464	2572.924265
741.323159	2572.399985
741.652806	2573.506518
741.982405	2572.906621
742.311956	2571.994172
742.641460	2573.811508
742.970915	2571.386713
743.300323	2571.603482
743.629683	2571.202711
743.958996	2573.635067
744.288260	2572.815880
744.617477	2573.330078
744.946647	2570.398647
745.275768	2571.724470
745.604842	2571.946281
745.933869	2569.566856
746.262847	2567.487380
746.591778	2575.311251
746.920662	2573.904769
747.249498	2571.379151
747.578286	2571.883266
747.907027	2573.909810
748.235720	2571.427042
748.564365	2573.987948
748.892963	2575.865778
749.221514	2573.526682
749.550017	2572.130283
749.878473	2572.775551
750.206881	2574.020716
750.535242	2572.664645
750.863555	2574.832341
751.191821	2573.362845
751.520039	2572.831003
751.848210	2574.229923
752.176334	2572.475602
752.504411	2571.631209
752.832440	2571.616085
753.160421	2573.584656
753.488356	2572.740262
753.816243	2574.595407
754.144082	2571.495097
754.471875	2572.959553
754.799620	2574.608010
755.127318	2570.217165
755.454969	2571.999213
755.782572	2571.046435
756.110129	2571.542988
756.437638	2572.977197
756.765100	2571.520303
757.092515	2571.800087
757.419882	2572.389902
757.747203	2570.625498
758.074477	2572.389902
758.401703	2572.881415
758.728882	2572.732701
759.056014	2573.345201
759.383099	2572.944429
759.710138	2573.362845
760.037129	2572.861250
760.364073	2573.977866
760.690970	2572.163050
761.017820	2573.821590
761.344623	2572.926785
761.671379	2572.543658
761.998088	2569.196331
762.324751	2567.689026
762.651366	2570.209603
762.977935	2570.093657
763.304456	2567.424366
763.630931	2570.751527
763.957359	2571.084243
764.283740	2573.362845
764.610074	2571.797567
764.936362	2577.242013
765.262602	2573.231775
765.588796	2571.535427
765.914943	2574.774368
766.241044	2571.298492
766.567097	2576.657239
766.893104	2572.520972
767.219064	2573.655232
767.544978	2573.130952
767.870845	2573.166240
768.196665	2571.737073
768.522438	2571.374110
768.848165	2574.781930
769.173846	2571.827814
769.499479	2573.751014
769.825066	2571.633729
770.150607	2571.709347
770.476101	2570.980900
770.801548	2573.919893
771.126949	2572.462999
771.452303	2571.447207
771.777611	2576.626992
772.102872	2571.822772
772.428087	2572.178174
772.753256	2572.354614
773.078378	2572.518452
773.403453	2573.032649
773.728482	2573.383010
774.053465	2571.129614
774.378401	2571.737073
774.703291	2571.525344
775.028135	2572.833524
775.352932	2571.117011
775.677683	2570.239850
776.002388	2574.741601
776.327046	2574.265212
776.651658	2571.409398
776.976224	2569.871846
777.300743	2572.165571
777.625216	2572.372258
777.949643	2572.715057
778.274024	2573.335119
778.598359	2566.887483
778.922647	2570.544840
779.246889	2568.135168
779.571086	2566.794222
779.895236	2567.925961
780.219339	2571.719429
780.543397	2571.051476
780.867409	2575.495253
781.191374	2571.666497
781.515294	2573.050293
781.839167	2572.891497
782.162995	2569.718091
782.486776	2568.891342
782.810511	2573.977866
783.134201	2570.491908
783.457844	2573.274625
783.781441	2570.761610
784.104993	2572.127762
784.428498	2573.148596
784.751958	2571.472412
785.075372	2572.309244
785.398739	2571.926116
785.722061	2570.524675
786.045337	2572.558781
786.368568	2571.288410
786.691752	2570.058369
787.014891	2572.972156
787.337983	2570.766651
787.661030	2572.715057
787.984031	2572.493246
788.306987	2567.920919
788.629897	2570.875036
788.952760	2574.338308
789.275579	2572.261353
789.598351	2572.959553
789.921078	2573.677917
790.243759	2571.273287
790.566395	2569.569377
790.888984	2572.843606
791.211529	2570.401167
791.534027	2572.455437
791.856480	2570.136507
792.178888	2570.655745
792.501249	2572.805797
792.823566	2574.300500
793.145836	2571.348904
793.468062	2572.669686
793.790241	2572.462999
794.112375	2573.120870
794.434464	2571.908472
794.756507	2571.663976
795.078505	2571.089285
795.400457	2568.425035
795.722364	2569.944943
796.044226	2568.861095
796.366042	2566.451423
796.687812	2568.848492
797.009538	2571.038873
797.331218	2571.810170
797.652852	2572.866291
797.974442	2572.619275
798.295986	2571.563153
798.617484	2571.056517
798.938938	2571.910993
799.260346	2573.143555
799.581709	2571.011147
799.903026	2572.465520
800.224299	2570.068451
800.545526	2569.213975
800.866708	2571.348904
801.187845	2570.804459
801.508936	2571.059038
801.829983	2571.444686
802.150984	2569.702967
802.471940	2571.991651
802.792851	2570.121383
803.113717	2570.519634
803.434538	2570.078533
803.755314	2572.679769
804.076045	2570.756568
804.396731	2571.069120
804.717372	2574.774368
805.037967	2570.905282
805.358518	2569.345045
805.679024	2570.998544
805.999485	2571.595921
806.319901	2572.992320
806.640272	2570.685992
806.960598	2572.465520
807.280879	2570.428893
807.601115	2571.071641
807.921306	2573.572053
808.241453	2567.893193
808.561554	2569.682803
808.881611	2572.566343
809.201623	2570.406208
809.521590	2572.536096
809.841513	2571.379151
810.161390	2569.551733
810.481223	2572.720098
810.801011	2571.343863
811.120755	2569.536609
811.440453	2572.251271
811.760107	2568.460323
812.079716	2568.964438
812.399281	2566.043090
812.718801	2569.360169
813.038276	2568.856053
813.357707	2571.419480
813.677093	2569.279510
813.996434	2570.249932
814.315731	2570.567525
814.634983	2570.496949
814.954191	2572.795715
815.273354	2572.435273
815.592473	2568.636763
815.911547	2573.093143
816.230577	2568.329253
816.549562	2569.541650
816.868502	2571.106929
817.187399	2571.328739
817.506250	2569.150961
817.825058	2571.099367
818.143821	2571.457289
818.462539	2571.588359
818.781213	2569.425704
819.099843	2572.498287
819.418429	2570.058369
819.736970	2571.187587
820.055466	2570.093657
820.373919	2571.479974
820.692327	2570.091136
821.010691	2571.172464
821.329011	2569.440827
821.647286	2576.425346
821.965517	2571.694223
822.283704	2572.583987
822.601847	2571.729511
822.919945	2571.663976
823.237999	2574.393761
823.556010	2573.617423
823.873976	2568.109963
824.191897	2570.766651
824.509775	2572.760427
824.827609	2571.041394
825.145398	2570.330591
825.463144	2570.270097
825.780845	2571.795046
826.098502	2570.365879
826.416116	2571.101887
826.733685	2570.990982
827.051210	2574.376117
827.368692	2570.459140
827.686129	2570.728842
828.003522	2571.497618
828.320872	2569.246743
828.638177	2566.690878
828.955439	2568.944274
829.272656	2567.623491
829.589830	2567.658779
829.906960	2571.008626
830.224046	2572.727660
830.541088	2571.928637
830.858086	2571.517783
831.175041	2568.510734
831.491952	2568.583831
831.808819	2570.002916
832.125642	2570.517114
832.442421	2570.197000
832.759157	2570.754048
833.075849	2567.953687
833.392497	2572.611713
833.709101	2570.123904
834.025662	2568.838409
834.342179	2569.644994
834.658653	2571.129614
834.975083	2573.282187
835.291469	2573.088102
835.607811	2570.464182
835.924110	2569.604665
836.240366	2568.946794
836.556578	2570.696075
836.872746	2573.153637
837.188871	2568.409911
837.504952	2569.420663
837.820990	2570.247412
838.136984	2566.932853
838.452935	2570.673389
838.768842	2570.290262
839.084706	2570.297823
839.400526	2571.931157
839.716303	2570.353276
840.032037	2569.498801
840.347727	2568.634243
840.663373	2570.348235
840.978977	2571.384192
841.294537	2569.599624
841.610054	2569.886969
841.925527	2569.856722
842.240957	2570.393605
842.556344	2568.225909
842.871687	2572.699933
843.186987	2570.829665
843.502244	2571.795046
843.817458	2572.566343
844.132629	2573.304872
844.447756	2568.997206
844.762840	2565.183573
845.077881	2565.932184
845.392879	2566.680796
845.707833	2570.330591
846.022745	2566.217009
846.337613	2569.912175
846.652438	2569.886969
846.967221	2568.540981
847.281960	2572.021898
847.596656	2571.215313
847.911309	2569.592062
848.225919	2569.614747
848.540485	2570.582649
848.855009	2568.513255
849.169490	2571.449727
849.483928	2571.232957
849.798323	2568.326732
850.112675	2570.562484
850.426984	2569.874367
850.741251	2568.626681
851.055474	2568.457802
851.369654	2572.379820
851.683792	2568.929150
851.997887	2570.441496
852.311938	2567.341187
852.625947	2573.130952
852.939914	2569.478636
853.253837	2567.827658
853.567718	2567.172308
853.881555	2570.630540
854.195350	2569.357648
854.509103	2571.016188
854.822812	2569.660117
855.136479	2568.243553
855.450103	2570.950653
855.763685	2569.113152
856.077224	2568.987123
856.390720	2571.548030
856.704173	2570.887638
857.017584	2570.938050
857.330953	2569.665159
857.644278	2568.218347
857.957561	2571.676579
858.270802	2571.104408
858.584000	2569.768502
858.897155	2572.306723
859.210268	2567.265569
859.523339	2569.660118
859.836367	2567.968810
860.149352	2571.419480
860.462295	2570.575087
860.775195	2566.927812
861.088054	2565.259190
861.400869	2567.961249
861.713642	2564.397153
862.026373	2565.851526
862.339062	2569.350087
862.651708	2570.512072
862.964312	2567.653738
863.276873	2570.330591
863.589392	2569.229099
863.901869	2569.914696
864.214303	2567.401681
864.526696	2570.774212
864.839045	2569.513924
865.151353	2569.403019
865.463619	2569.276990
865.775842	2568.417473
866.088023	2567.825138
866.400162	2570.058369
866.712258	2568.853533
867.024313	2569.970148
867.336325	2567.578121
867.648296	2570.018039
867.960224	2569.894531
868.272110	2567.840261
868.583954	2568.977041
868.895755	2570.002916
869.207515	2567.961249
869.519233	2568.815724
869.830909	2569.831517
870.142542	2571.353945
870.454134	2570.436455
870.765684	2566.252297
871.077191	2569.042576
871.388657	2569.801270
871.700081	2568.581311
872.011463	2569.929819
872.322803	2567.888152
872.634101	2564.886145
872.945357	2570.852350
873.256571	2570.927968
873.567744	2567.799932
873.878874	2567.961249
874.189963	2571.129614
874.501010	2568.851012
874.812015	2571.195149
875.122979	2568.800601
875.433900	2573.168761
875.744780	2571.046435
876.055618	2569.208934
876.366415	2567.293296
876.677169	2569.420663
876.987882	2565.841443
877.298554	2566.307750
877.609183	2567.273131
877.919771	2563.348593
878.230317	2565.428069
878.540822	2570.237330
878.851285	2568.639284
879.161707	2569.483677
879.472087	2568.866136
879.782425	2567.076526
880.092722	2570.872515
880.402977	2570.060889
880.713191	2572.009295
881.023363	2570.060889
881.333494	2568.611558
881.643583	2571.787484
881.953631	2570.323029
882.263637	2568.551064
882.573602	2570.754048
882.883526	2568.306568
883.193408	2565.975034
883.503248	2569.932340
883.813048	2567.121897
884.122806	2567.119376
884.432522	2569.743297
884.742197	2569.090467
885.051831	2570.461661
885.361424	2571.684141
885.670975	2572.699933
885.980485	2567.623491
886.289954	2570.222206
886.599382	2567.212637
886.908768	2569.841599
887.218113	2568.972000
887.527417	2568.989644
887.836680	2567.575600
888.145901	2566.136351
888.455082	2567.081567
888.764221	2570.338153
889.073319	2567.414283
889.382376	2570.706157
889.691392	2566.905127
890.000366	2567.741958
890.309300	2568.755230
890.618193	2567.222720
890.927044	2570.474264
891.235855	2568.843451
891.544625	2569.241702
891.853353	2568.664490
892.162041	2569.466033
892.470687	2567.177349
892.779293	2568.367062
893.087858	2564.928995
893.396381	2564.271124
893.704864	2565.952349
894.013306	2562.599982
894.321707	2569.216496
894.630068	2568.132648
894.938387	2568.430076
895.246665	2567.936043
895.554903	2568.548543
895.863100	2568.147771
896.171256	2570.227247
896.479371	2568.598955
896.787446	2570.580128
897.095480	2570.565005
897.403473	2568.483008
897.711425	2568.120045
898.019336	2567.678944
898.327207	2568.364541
898.635038	2569.541650
898.942827	2569.302196
899.250576	2567.552915
899.558284	2568.553584
899.865952	2569.571897
900.173579	2569.760941
900.481165	2569.955025
900.788711	2569.763461
901.096216	2566.254818
901.403681	2568.460323
901.711105	2568.238512
902.018489	2566.476629
902.325832	2569.549212
902.633135	2568.447720
902.940397	2568.692216
903.247619	2568.316650
903.554800	2568.122566
903.861941	2566.602658
904.169041	2568.407391
904.476101	2567.686506
904.783121	2569.483677
905.090100	2566.685837
905.397039	2569.375292
905.703938	2569.587021
906.010796	2567.646177
906.317614	2569.682803
906.624391	2569.216496
906.931129	2569.178687
907.237826	2565.372616
907.544483	2568.770354
907.851099	2566.055692
908.157675	2569.392936
908.464211	2566.711043
908.770707	2563.693912
909.077163	2566.280024
909.383578	2566.726166
909.689954	2562.708366
909.996289	2562.758778
910.302584	2569.786146
910.608839	2567.189952
910.915054	2568.125086
911.221229	2567.058882
911.527363	2567.825137
911.833458	2566.332956
912.139513	2570.302865
912.445527	2567.643656
912.751502	2565.707853
913.057436	2568.230950
913.363331	2568.097360
913.669186	2568.765313
913.975000	2568.447720
914.280775	2567.966290
914.586510	2567.724314
914.892205	2564.876062
915.197859	2568.878739
915.503475	2569.670200
915.809050	2567.189952
916.114585	2570.978379
916.420081	2569.508883
916.725536	2567.678944
917.030952	2568.477967
917.336328	2569.496280
917.641665	2569.957546
917.946961	2569.460992
918.252218	2565.811197
918.557435	2567.452092
918.862612	2569.040056
919.167750	2567.111814
919.472848	2567.570559
919.777906	2567.142061
920.082925	2568.447720
920.387904	2567.996537
920.692843	2570.413770
920.997743	2567.757082
921.302603	2569.771023
921.607423	2569.024932
921.912204	2567.348748
922.216946	2567.525189
922.521647	2569.340004
922.826310	2567.447051
923.130932	2567.626012
923.435516	2567.636094
923.740059	2566.355641
924.044564	2567.789849
924.349028	2567.323543
924.653454	2563.789694
924.957840	2563.794735
925.262186	2563.583007
925.566493	2567.436969
925.870761	2564.404715
926.174989	2568.183059
926.479178	2567.653738
926.783328	2568.619119
927.087438	2567.719273
927.391509	2567.600806
927.695541	2564.535785
927.999533	2566.537123
928.303486	2568.717422
928.607400	2566.587534
928.911275	2568.218347
929.215110	2566.343038
929.518906	2563.046124
929.822663	2570.111301
930.126381	2567.918399
930.430060	2568.304047
930.733699	2566.721125
931.037299	2565.927143
931.340861	2566.239695
931.644383	2565.823799
931.947866	2566.234653
932.251309	2568.556105
932.554714	2565.821279
932.858080	2569.765982
933.161407	2566.693398
933.464694	2567.000909
933.767943	2565.831361
934.071153	2569.276990
934.374323	2565.176011
934.677455	2568.067113
934.980548	2568.974521
935.283602	2567.701629
935.586617	2568.334294
935.889593	2567.595765
936.192530	2565.173491
936.495428	2564.976886
936.798287	2567.920919
937.101108	2567.263049
937.403890	2568.283882
937.706632	2569.607185
938.009336	2567.210117
938.312002	2567.152143
938.614628	2569.143399
938.917216	2568.636763
939.219765	2569.261866
939.522275	2567.709191
939.824747	2566.327915
940.127179	2562.726010
940.429573	2562.718449
940.731929	2565.959911
941.034246	2563.396484
941.336524	2566.317832
941.638763	2568.099880
941.940964	2566.592575
942.243126	2567.464695
942.545250	2566.852195
942.847335	2566.398491
943.149381	2566.063254
943.451389	2565.491083
943.753359	2569.317319
944.055290	2567.671382
944.357182	2567.174829
944.659036	2567.174829
944.960851	2567.482339
945.262628	2567.953687
945.564367	2568.795560
945.866067	2565.072667
946.167729	2567.820096
946.469352	2564.440003
946.770937	2568.067113
947.072484	2566.002760
947.373992	2565.034859
947.675462	2564.681978
947.976893	2567.767164
948.278286	2565.793552
948.579641	2569.516445
948.880958	2563.802297
949.182236	2568.798080
949.483476	2566.282544
949.784678	2566.577452
950.085841	2568.568708
950.386967	2568.220868
950.688054	2567.041238
950.989103	2562.650393
951.290114	2566.078378
951.591087	2565.123079
951.892021	2567.285734
952.192917	2569.952504
952.493776	2564.671896
952.794596	2564.447564
953.095378	2567.812535
953.396122	2567.515107
953.696828	2565.173491
953.997496	2567.394119
954.298126	2564.886145
954.598718	2566.769016
954.899272	2565.707853
955.199788	2564.399673
955.500266	2568.793039
955.800706	2564.051834
956.101108	2560.782646
956.401472	2563.676268
956.701798	2565.269272
957.002087	2564.921433
957.302337	2563.920764
957.602550	2565.785991
957.902724	2565.962431
958.202861	2567.457133
958.502960	2563.262893
958.803022	2568.011660
959.103045	2566.509396
959.403031	2567.298337
959.702979	2563.903120
960.002889	2567.691547
960.302762	2564.787842
960.602596	2564.182904
960.902393	2566.867318
961.202153	2565.743141
961.501875	2569.206414
961.801559	2567.089129
962.101205	2565.501166
962.400814	2568.329253
962.700385	2563.867832
962.999918	2569.491239
963.299414	2566.620302
963.598873	2566.789180
963.898293	2563.489745
964.197677	2567.799932
964.497022	2567.825137
964.796331	2565.425548
965.095601	2563.898079
965.394835	2565.541495
965.694030	2566.345559
965.993189	2567.386557
966.292309	2568.094839
966.591393	2563.066288
966.890439	2564.984447
967.189447	2565.334807
967.488419	2567.472257
967.787353	2563.988819
968.086249	2566.171639
968.385108	2566.274983
968.683930	2564.671896
968.982714	2567.182390
969.281462	2567.046279
969.580172	2566.983265
969.878844	2563.386402
970.177480	2564.971844
970.476078	2566.791701
970.774639	2567.010991
971.073162	2566.237174
971.371649	2564.455126
971.670098	2563.799776
971.968510	2559.731565
972.266885	2561.236349
972.565223	2565.634756
972.863524	2567.139541
973.161788	2567.270611
973.460014	2565.486042
973.758204	2563.101576
974.056356	2566.098542
974.354471	2565.435631
974.652550	2567.197514
974.950591	2565.319684
975.248595	2568.414953
975.546563	2566.151474
975.844493	2565.014694
976.142386	2565.854046
976.440243	2564.777760
976.738062	2567.588203
977.035845	2567.449572
977.333590	2565.458316
977.631299	2565.115517
977.928971	2566.388409
978.226606	2566.058213
978.524204	2566.711042
978.821765	2564.744992
979.119290	2566.481670
979.416777	2564.724828
979.714228	2568.856053
980.011642	2564.850857
980.309020	2569.894531
980.606360	2564.876062
980.903664	2566.693398
981.200931	2565.017215
981.498162	2563.691391
981.795356	2565.705332
982.092513	2565.133161
982.389633	2565.526371
982.686717	2566.098542
982.983764	2564.835733
983.280775	2565.264231
983.577749	2566.600137
983.874686	2566.552246
984.171587	2564.916392
984.468451	2565.934705
984.765279	2566.774057
985.062070	2565.859087
985.358824	2565.639797
985.655543	2566.012843
985.952224	2564.833213
986.248869	2563.651062
986.545478	2561.437996
986.842050	2561.811041
987.138586	2561.523695
987.435086	2562.637790
987.731549	2559.638304
988.027975	2565.770867
988.324366	2563.270455
988.620719	2565.332287
988.917037	2564.122410
989.213318	2564.324056
989.509563	2567.409242
989.805772	2568.099880
990.101944	2562.294992
990.398080	2565.118038
990.694180	2565.670044
990.990244	2564.122410
991.286271	2566.330435
991.582262	2564.354303
991.878217	2565.869170
992.174136	2566.955538
992.470019	2567.396639
992.765865	2564.624005
993.061676	2566.327915
993.357450	2566.317832
993.653188	2563.764488
993.948890	2563.698953
994.244556	2566.063254
994.540186	2566.448903
994.835780	2564.462688
995.131337	2565.924623
995.426859	2562.811710
995.722345	2565.236505
996.017795	2564.147616
996.313208	2566.738769
996.608586	2565.390260
996.903928	2564.871021
997.199234	2565.387740
997.494504	2564.704663
997.789738	2562.930177
998.084936	2564.999571
998.380099	2567.956207
998.675225	2564.298850
998.970316	2565.561659
999.265371	2563.114179
999.560390	2564.901268
999.855373	2565.241546
1000.150320	2564.311453
1000.445232	2565.854046
1000.740108	2565.239026
1001.034948	2565.556618
1001.329752	2565.980075
1001.624521	2566.015363
1001.919254	2559.981102
1002.213951	2561.821123
1002.508613	2560.949004
1002.803239	2562.105948
1003.097829	2560.525547
1003.392384	2566.332956
1003.686903	2566.300188
1003.981386	2563.446895
1004.275834	2565.503686
1004.570246	2567.313460
1004.864623	2564.999571
1005.158964	2563.525033
1005.453270	2564.316494
1005.747540	2565.672565
1006.041775	2564.860939
1006.335974	2562.405897
1006.630138	2568.006619
1006.924266	2564.359344
1007.218359	2566.373285
1007.512416	2565.231464
1007.806438	2565.196176
1008.100425	2564.934036
1008.394376	2565.881773
1008.688292	2566.859757
1008.982172	2563.371278
1009.276017	2564.865980
1009.569827	2565.670044
1009.863602	2566.910168
1010.157341	2568.432597
1010.451045	2564.624005
1010.744714	2564.558470
1011.038347	2564.550908
1011.331945	2563.522513
1011.625508	2564.760116
1011.919036	2565.581824
1012.212528	2563.434292
1012.505986	2563.295661
1012.799408	2568.049469
1013.092795	2564.384550
1013.386147	2567.149623
1013.679464	2565.145764
1013.972745	2562.481514
1014.265992	2564.596278
1014.559204	2565.969993
1014.852380	2566.330435
1015.145521	2564.434962
1015.438628	2563.532595
1015.731699	2564.276165
1016.024736	2565.574262
1016.317737	2565.176011
1016.610703	2565.410425
1016.903635	2562.053016
1017.196531	2562.844477
1017.489393	2561.531257
1017.782219	2560.490259
1018.075011	2561.405228
1018.367768	2570.038204
1018.660490	2567.280693
1018.953177	2567.280693
1019.245829	2567.280693
