Dividing Wavelength (nm)	Counts (n)	Blue Motor Position (mm): 0.000000	Red Motor Position (mm): 22.000000	
326.493990	2143.450724
326.888308	2143.450724
327.282561	2143.450724
327.676750	2119.769904
328.070874	2119.459873
328.464933	2128.236522
328.858929	2137.182050
329.252859	2145.943575
329.646726	2160.409166
330.040528	2173.899294
330.434265	2193.274968
330.827938	2209.744418
331.221547	2231.045814
331.615091	2250.887795
332.008571	2273.179778
332.401986	2293.659465
332.795338	2313.055304
333.188625	2334.092039
333.581847	2351.945286
333.975006	2372.523276
334.368100	2389.713610
334.761129	2406.866136
335.154095	2422.655030
335.546996	2440.893925
335.939833	2456.012345
336.332606	2468.247226
336.725315	2482.110399
337.117960	2486.823877
337.510540	2495.693788
337.903056	2505.738287
338.295508	2513.080727
338.687896	2521.199506
339.080220	2527.120341
339.472480	2532.526978
339.864676	2536.184335
340.256807	2539.730787
340.648875	2540.532331
341.040879	2546.667415
341.432818	2544.376210
341.824694	2544.981149
342.216506	2544.340922
342.608253	2542.165664
342.999937	2545.507949
343.391557	2542.689944
343.783113	2539.650129
344.174605	2538.410005
344.566033	2537.081661
344.957397	2536.552340
345.348697	2536.300282
345.739934	2536.113759
346.131106	2531.211237
346.522215	2530.457585
346.913260	2528.252080
347.304241	2527.662265
347.695159	2526.089425
348.086012	2521.975843
348.476802	2521.048271
348.867528	2521.592716
349.258191	2520.012314
349.648789	2519.006604
350.039324	2515.321520
350.429796	2517.499299
350.820203	2514.882940
351.210548	2515.109792
351.600828	2515.024092
351.991045	2513.587363
352.381198	2511.417147
352.771288	2512.047291
353.161314	2513.335306
353.551276	2513.819256
353.941175	2514.525018
354.331010	2513.836900
354.720782	2512.271622
355.110490	2511.139883
355.500135	2516.112981
355.889717	2512.732888
356.279235	2514.207425
356.668689	2514.265398
357.058080	2513.841942
357.447408	2514.945954
357.836672	2513.526869
358.225873	2517.128774
358.615010	2512.480830
359.004084	2519.707324
359.393095	2518.404186
359.782043	2519.281347
360.170927	2518.152128
360.559748	2518.323527
360.948505	2519.344361
361.337199	2518.905781
361.725830	2521.378467
362.114398	2523.276461
362.502903	2522.132119
362.891344	2523.750329
363.279722	2521.973323
363.668037	2523.165556
364.056289	2521.698580
364.444478	2524.375433
364.832603	2523.715041
365.220665	2524.380474
365.608665	2525.562624
365.996601	2523.704959
366.384474	2523.589013
366.772284	2525.119003
367.160031	2524.398118
367.547715	2525.497089
367.935336	2527.664785
368.322893	2528.138654
368.710388	2525.494569
369.097820	2531.380116
369.485189	2528.206709
369.872495	2528.816689
370.259738	2528.788963
370.646918	2527.785773
371.034035	2527.155629
371.421090	2530.480270
371.808081	2529.577903
372.195010	2530.008922
372.581875	2528.788963
372.968678	2533.762061
373.355418	2532.111083
373.742096	2534.233409
374.128710	2534.039324
374.515262	2535.544109
374.901751	2536.446475
375.288177	2538.130221
375.674540	2538.762886
376.060841	2543.138607
376.447079	2544.376210
376.833254	2543.131045
377.219367	2544.030891
377.605417	2545.419729
377.991404	2546.838814
378.377329	2549.608928
378.763191	2551.630431
379.148991	2558.544373
379.534727	2563.530074
379.920402	2568.364541
380.306013	2571.631209
380.691563	2576.442990
381.077049	2579.752507
381.462474	2583.677046
381.847835	2587.901533
382.233134	2595.241453
382.618371	2596.708428
383.003545	2605.061620
383.388657	2611.342898
383.773706	2616.966305
384.158693	2622.783797
384.543618	2627.371247
384.928480	2637.582104
385.313280	2646.154586
385.698017	2653.769249
386.082692	2662.253511
386.467305	2665.855415
386.851856	2677.445028
387.236344	2687.988601
387.620770	2692.293747
388.005133	2698.577545
388.389435	2711.064483
388.773674	2717.186964
389.157851	2724.715927
389.541965	2738.374934
389.926018	2740.711509
390.310008	2756.855804
390.693936	2763.734458
391.077802	2770.784512
391.461606	2782.752211
391.845348	2790.429888
392.229027	2800.297947
392.612645	2815.234886
392.996200	2822.141267
393.379694	2839.997034
393.763125	2852.667974
394.146494	2860.166690
394.529801	2869.888555
394.913047	2885.984960
395.296230	2890.035527
395.679351	2895.129613
396.062410	2916.310021
396.445408	2909.683424
396.828343	2921.114240
397.211217	2928.476845
397.594028	2923.249169
397.976778	2935.032866
398.359466	2947.706327
398.742092	2948.376800
399.124656	2961.519088
399.507158	2977.101295
399.889598	2983.501040
400.271977	2995.753564
400.654294	3005.044411
401.036549	3019.623428
401.418742	3020.535876
401.800874	3045.713919
402.182944	3051.085269
402.564952	3078.209197
402.946898	3069.430027
403.328783	3078.330185
403.710606	3092.974737
404.092367	3117.268057
404.474067	3146.695792
404.855705	3133.548463
405.237282	3135.695995
405.618797	3166.769667
406.000250	3191.070549
406.381642	3217.224055
406.762972	3220.538614
407.144240	3210.446224
407.525447	3236.148547
407.906593	3235.407497
408.287677	3256.981115
408.668700	3273.911830
409.049661	3269.652055
409.430560	3287.197791
409.811399	3292.619552
410.192176	3311.975063
410.572891	3319.181392
410.953545	3356.044829
411.334138	3326.357474
411.714669	3378.503170
412.095139	3324.847649
412.475547	3375.785988
412.855894	3368.224257
413.236180	3392.497413
413.616405	3377.646174
413.996568	3400.565780
414.376670	3405.871594
414.756711	3398.481262
415.136691	3427.732558
415.516609	3449.654015
415.896466	3452.822380
416.276262	3479.563181
416.655997	3512.771782
417.035670	3514.964684
417.415283	3585.838266
417.794834	3604.752675
418.174324	3588.812547
418.553753	3588.260540
418.933121	3632.078249
419.312428	3618.683904
419.691674	3616.296917
420.070859	3655.181857
420.449983	3635.425576
420.829045	3685.073379
421.208047	3671.457223
421.586988	3710.831155
421.965867	3744.720312
422.344686	3754.548041
422.723444	3791.270326
423.102141	3697.968651
423.480777	3797.909526
423.859352	3760.010131
424.237866	3860.024103
424.616319	3847.718646
424.994712	3905.661669
425.373044	3895.269330
425.751314	3957.434319
426.129524	3891.841345
426.507673	3992.109895
426.885762	3968.832367
427.263789	3988.840707
427.641756	3994.839680
428.019662	4023.362529
428.397508	4023.556613
428.775292	4059.767221
429.153016	4065.070515
429.530679	4075.326742
429.908282	4078.701795
430.285824	4061.002304
430.663305	4130.229949
431.040726	4090.687138
431.418086	4077.965787
431.795385	4148.005058
432.172624	4180.926313
432.549802	4143.210920
432.926920	4157.467303
433.303977	4146.533041
433.680974	4186.343033
434.057910	4202.391546
434.434786	4206.220302
434.811601	4194.648333
435.188355	4291.337664
435.565050	4256.490688
435.941683	4251.631016
436.318257	4327.452490
436.694770	4326.406451
437.071222	4372.366651
437.447614	4300.263027
437.823946	4297.505516
438.200218	4302.826454
438.576429	4278.346611
438.952580	4292.764311
439.328670	4288.718785
439.704700	4314.799194
440.080670	4269.448974
440.456580	4313.980007
440.832429	4330.963654
441.208218	4234.463367
441.583947	4268.735651
441.959616	4265.748767
442.335224	4274.583389
442.710773	4281.129328
443.086261	4312.487825
443.461689	4254.522118
443.837057	4250.988269
444.212365	4294.778252
444.587612	4278.301240
444.962800	4234.584354
445.337927	4249.168412
445.712995	4141.486846
446.088002	4277.005664
446.462949	4273.106331
446.837837	4262.081328
447.212664	4233.392121
447.587431	4372.381774
447.962139	4565.652051
448.336786	4785.138848
448.711374	4747.007560
449.085901	4468.561948
449.460369	4398.578130
449.834776	4319.694155
450.209124	4442.877269
450.583412	4419.718209
450.957640	4468.919870
451.331808	4352.262529
451.705917	4227.614959
452.079965	4184.152651
452.453954	4180.432280
452.827883	4129.738437
453.201752	4098.987398
453.575562	4088.353084
453.949311	4128.868837
454.323001	4095.912294
454.696632	4061.650092
455.070202	4106.166001
455.443713	4086.629009
455.817164	4089.389041
456.190556	4086.956684
456.563888	4037.891134
456.937160	4038.264179
457.310373	3931.003549
457.683526	3921.281684
458.056619	3880.014798
458.429653	3838.420238
458.802628	3819.876354
459.175542	3792.296201
459.548398	3809.060558
459.921194	3840.976103
460.293930	3826.208043
460.666607	3871.235629
461.039224	3904.971031
461.411782	3907.090836
461.784280	3838.281606
462.156719	3793.410296
462.529099	3740.405084
462.901419	3655.491888
463.273680	3575.082964
463.645882	3538.101059
464.018024	3501.708970
464.390106	3477.662666
464.762130	3504.650483
465.134094	3558.421951
465.505999	3672.203313
465.877845	3779.400929
466.249631	3807.112152
466.621358	3737.574476
466.993026	3645.442348
467.364634	3555.896332
467.736184	3459.270016
468.107674	3394.055129
468.479105	3341.301975
468.850477	3295.198103
469.221790	3239.145513
469.593043	3174.306192
469.964238	3132.366313
470.335373	3098.247783
470.706449	3089.864345
471.077467	3080.833117
471.448425	3123.987915
471.819324	3157.514109
472.190164	3129.197947
472.560945	3060.358471
472.931667	2994.720128
473.302330	2955.068932
473.672934	2923.781011
474.043479	2911.974628
474.413965	2883.091337
474.784393	2863.604757
475.154761	2855.334744
475.525070	2837.443689
475.895321	2818.209167
476.265513	2808.063845
476.635645	2804.577887
477.005719	2790.437450
477.375734	2782.696758
477.745691	2773.665531
478.115588	2772.838782
478.485427	2769.516662
478.855207	2774.663680
479.224928	2778.570574
479.594591	2779.485543
479.964194	2769.975407
480.333739	2756.623911
480.703226	2746.057652
481.072653	2738.758062
481.442022	2733.628687
481.811333	2729.273131
482.180584	2717.847355
482.549777	2711.314020
482.918912	2700.863708
483.287988	2695.714169
483.657005	2686.319979
484.025964	2681.994669
484.394864	2676.807322
484.763706	2674.899245
485.132489	2666.533450
485.501213	2662.596309
485.869879	2659.178407
486.238487	2652.569454
486.607036	2654.593477
486.975527	2650.875627
487.343959	2646.923362
487.712333	2646.204997
488.080648	2646.333547
488.448905	2643.296252
488.817104	2638.353400
489.185244	2640.422794
489.553326	2640.720222
489.921350	2645.116108
490.289315	2647.256078
490.657222	2650.278250
491.025070	2652.304794
491.392861	2648.564257
491.760593	2645.209370
492.128267	2637.566980
492.495883	2637.226702
492.863440	2633.738224
493.230939	2632.656897
493.598380	2630.453912
493.965763	2627.225053
494.333088	2621.626852
494.700354	2621.513426
495.067563	2620.543004
495.434713	2619.781790
495.801805	2620.568210
496.168839	2620.119547
496.535815	2621.573920
496.902733	2620.409413
497.269593	2621.725154
497.636395	2616.721809
498.003139	2621.382356
498.369825	2616.225256
498.736453	2617.372118
499.103023	2616.903291
499.469535	2616.436984
499.835989	2618.448404
500.202385	2616.048815
500.568723	2614.851541
500.935003	2613.820625
501.301226	2613.470265
501.667390	2613.094699
502.033497	2616.061418
502.399546	2614.614607
502.765537	2611.607559
503.131470	2609.893566
503.497345	2613.132508
503.863163	2611.032867
504.228923	2609.230655
504.594625	2613.941613
504.960269	2609.586056
505.325856	2610.826180
505.691385	2611.380707
506.056856	2611.751232
506.422270	2612.396499
506.787625	2609.739811
507.152924	2610.740480
507.518164	2610.662342
507.883347	2607.766199
508.248472	2610.064966
508.613540	2609.752414
508.978550	2606.014398
509.343503	2607.478854
509.708398	2606.389964
510.073236	2609.439862
510.438016	2610.531272
510.802738	2610.632095
511.167403	2607.453648
511.532010	2609.427260
511.896561	2610.632095
512.261053	2610.846344
512.625488	2607.534306
512.989866	2609.397013
513.354186	2605.280911
513.718449	2604.819645
514.082655	2603.148502
514.446803	2608.048504
514.810894	2608.930706
515.174927	2608.713936
515.538904	2609.805346
515.902822	2605.895931
516.266684	2609.316354
516.630488	2608.320726
516.994235	2609.344081
517.357925	2608.131683
517.721558	2608.353494
518.085133	2609.328957
518.448651	2607.282249
518.812112	2607.564553
519.175516	2610.395161
519.538863	2609.381889
519.902152	2610.556478
520.265385	2607.637650
520.628560	2606.505911
520.991678	2608.615634
521.354739	2608.827362
521.717743	2610.579163
522.080690	2608.114039
522.443580	2608.106477
522.806413	2607.640171
523.169189	2610.264091
523.531908	2609.661673
523.894569	2608.424070
524.257174	2608.834924
524.619722	2607.771241
524.982213	2609.608741
525.344647	2605.076744
525.707025	2606.228647
526.069345	2607.405757
526.431608	2608.426591
526.793815	2610.765686
527.155964	2607.720829
527.518057	2609.323916
527.880093	2606.198401
528.242072	2609.008844
528.603995	2608.174533
528.965860	2608.701333
529.327669	2608.010695
529.689421	2604.703698
530.051117	2609.444904
530.412755	2607.793926
530.774337	2606.715119
531.135862	2607.710747
531.497331	2605.870726
531.858743	2602.412494
532.220098	2604.963318
532.581396	2601.210179
532.942638	2602.530961
533.303824	2604.701178
533.664953	2605.434666
534.026025	2604.229830
534.387040	2605.074223
534.747999	2604.406270
535.108902	2607.025150
535.469748	2606.301744
535.830537	2604.920468
536.191270	2603.743359
536.551947	2607.118411
536.912567	2603.511466
537.273131	2606.679831
537.633638	2604.489449
537.994089	2605.991713
538.354483	2605.621188
538.714821	2606.846189
539.075103	2605.974069
539.435328	2603.834099
539.795497	2604.514655
540.155609	2605.167485
540.515665	2605.810232
540.875665	2602.730087
541.235609	2606.205962
541.595496	2604.744028
541.955328	2604.365941
542.315102	2604.154213
542.674821	2605.590942
543.034483	2604.827207
543.394090	2603.234202
543.753640	2606.815942
544.113134	2603.730756
544.472571	2603.796291
544.831953	2605.921137
545.191278	2603.687906
545.550548	2604.333174
545.909761	2603.791250
546.268918	2605.449789
546.628019	2604.192021
546.987064	2603.687906
547.346053	2606.410129
547.704986	2605.810232
548.063863	2606.130345
548.422684	2603.145982
548.781449	2605.031373
549.140158	2603.211517
549.498811	2606.006837
549.857408	2603.057762
550.215949	2600.484253
550.574434	2599.516351
550.932864	2601.046341
551.291237	2599.710436
551.649555	2603.347628
552.007817	2605.648915
552.366022	2604.141610
552.724173	2603.077926
553.082267	2605.336363
553.440305	2604.509614
553.798288	2603.934922
554.156215	2602.563729
554.514086	2605.842999
554.871902	2605.820314
555.229661	2604.186980
555.587365	2606.508432
555.945014	2606.702516
556.302606	2602.372165
556.660143	2603.728235
557.017625	2605.616147
557.375050	2605.729573
557.732421	2605.603544
558.089735	2604.108842
558.446994	2604.968359
558.804197	2604.320571
559.161345	2603.254367
559.518437	2603.619850
559.875474	2603.634974
560.232455	2608.051025
560.589381	2604.025663
560.946251	2607.274687
561.303065	2604.436517
561.659825	2602.359562
562.016528	2602.803183
562.373177	2600.295209
562.729770	2603.060282
563.086307	2603.594645
563.442789	2603.851743
563.799216	2603.640015
564.155587	2601.885693
564.511904	2605.351487
564.868164	2602.982144
565.224370	2604.280242
565.580520	2604.315530
565.936615	2605.585900
566.292654	2606.331991
566.648638	2605.825355
567.004567	2606.959615
567.360441	2605.795108
567.716260	2607.688062
568.072023	2606.319388
568.427732	2601.827720
568.783385	2602.571290
569.138982	2601.467278
569.494525	2602.619181
569.850013	2602.001640
570.205445	2604.373503
570.560823	2602.702360
570.916145	2607.068000
571.271412	2603.582042
571.626625	2605.061620
571.981782	2606.100098
572.336884	2601.081629
572.691931	2604.494491
573.046923	2603.367793
573.401860	2600.285127
573.756743	2602.946856
574.111570	2602.621702
574.466342	2606.400047
574.821059	2603.904676
575.175722	2600.784201
575.530330	2603.007350
575.884882	2603.766044
576.239380	2604.023143
576.593823	2601.946187
576.948211	2603.743359
577.302544	2603.534151
577.656823	2604.164295
578.011047	2605.159923
578.365216	2600.254880
578.719330	2603.181270
579.073389	2604.370982
579.427394	2599.954932
579.781344	2601.915940
580.135239	2601.840323
580.489080	2600.834613
580.842866	2604.915427
581.196597	2602.546085
581.550273	2603.624892
581.903895	2601.290837
582.257463	2600.650611
582.610975	2601.714294
582.964434	2602.533482
583.317837	2602.057093
583.671186	2601.227823
584.024481	2602.533482
584.377721	2603.148502
584.730906	2599.145826
585.084037	2599.738162
585.437113	2603.282093
585.790135	2602.178080
586.143103	2602.871239
586.496016	2602.914089
586.848874	2597.215064
587.201679	2597.638521
587.554428	2598.079622
587.907124	2600.756475
588.259765	2596.393356
588.612352	2599.329828
588.964884	2597.903182
589.317362	2600.254880
589.669786	2603.609768
590.022155	2600.932915
590.374470	2601.341249
590.726731	2599.781012
591.078937	2599.158429
591.431090	2598.762699
591.783188	2599.597010
592.135232	2599.589448
592.487222	2600.539705
592.839157	2598.429982
593.191038	2599.781012
593.542866	2602.896445
593.894639	2599.297061
594.246358	2597.918305
594.598022	2597.966196
594.949633	2596.421083
595.301190	2599.511310
595.652692	2596.831937
596.004141	2598.689602
596.355535	2599.990220
596.706876	2597.751947
597.058162	2598.392174
597.409395	2598.598861
597.760573	2598.281268
598.111698	2596.504262
598.462768	2600.199427
598.813785	2599.773450
599.164748	2597.961155
599.515657	2596.796649
599.866511	2599.821341
600.217312	2600.486773
600.568060	2595.738006
600.918753	2600.771598
601.269392	2595.375043
601.619978	2596.622729
601.970510	2596.579879
602.320988	2597.706577
602.671412	2597.623398
603.021783	2593.784559
603.372100	2596.814293
603.722363	2595.735486
604.072572	2595.528798
604.422728	2597.588110
604.772830	2590.991760
605.122878	2593.910588
605.472872	2595.498552
605.822813	2591.790783
606.172701	2593.887903
606.522534	2596.007708
606.872314	2597.802359
607.222041	2597.525095
607.571714	2596.453850
607.921333	2597.444437
608.270899	2597.424272
608.620411	2597.058789
608.969870	2599.531475
609.319276	2599.362596
609.668627	2596.695826
610.017926	2596.877307
610.367171	2599.982658
610.716362	2596.746237
611.065500	2594.318922
611.414585	2597.149529
611.763616	2596.718511
612.112594	2596.852101
612.461518	2596.078284
612.810389	2600.721187
613.159207	2596.882348
613.507971	2595.929570
613.856682	2598.203131
614.205340	2596.819334
614.553945	2596.085846
614.902496	2598.566094
615.250994	2596.191710
615.599439	2597.237750
615.947830	2593.925712
616.296169	2596.819334
616.644454	2598.230857
616.992686	2596.983171
617.340864	2598.180445
617.688990	2596.821854
618.037063	2597.479725
618.385082	2596.143819
618.733048	2600.627926
619.080961	2595.483428
619.428821	2598.445106
619.776628	2599.337390
620.124382	2597.658686
620.472083	2599.229005
620.819731	2599.097935
621.167326	2597.512492
621.514868	2597.230188
621.862357	2594.593664
622.209793	2594.424786
622.557176	2595.049889
622.904506	2594.850763
623.251783	2594.936463
623.599007	2594.044179
623.946179	2590.969075
624.293297	2591.702563
624.640363	2593.943356
624.987376	2595.538881
625.334336	2597.028542
625.681243	2596.433686
626.028097	2595.695157
626.374899	2594.797831
626.721647	2595.145671
627.068343	2594.628952
627.414987	2593.971082
627.761577	2594.034096
628.108115	2596.100969
628.454600	2592.068046
628.801032	2593.340938
629.147412	2592.814137
629.493739	2592.844384
629.840014	2592.950248
630.186236	2594.104672
630.532405	2591.823550
630.878521	2593.303129
631.224585	2595.077615
631.570597	2591.153077
631.916556	2592.688108
632.262462	2592.126020
632.608316	2593.736668
632.954117	2590.449836
633.299866	2593.018304
633.645562	2594.056782
633.991206	2595.027204
634.336797	2589.824733
634.682336	2589.340782
635.027823	2591.773139
635.373257	2591.286667
635.718639	2592.025197
636.063968	2592.249528
636.409245	2592.637697
636.754470	2592.131061
637.099642	2590.810278
637.444762	2595.153232
637.789829	2591.435382
638.134845	2592.894796
638.479808	2591.188365
638.824719	2591.395052
639.169577	2591.390011
639.514383	2593.900506
639.859137	2588.453539
640.203839	2592.632656
640.548489	2589.055957
640.893086	2585.643096
641.237632	2587.062181
641.582125	2587.205853
641.926566	2582.893146
642.270955	2590.212902
642.615292	2589.885227
642.959576	2588.582088
643.303809	2589.950762
643.647990	2587.843559
643.992118	2587.851121
644.336195	2589.348344
644.680219	2590.399424
645.024192	2590.921184
645.368112	2589.141657
645.711981	2592.733479
646.055797	2591.039651
646.399562	2588.521595
646.743274	2591.367326
647.086935	2591.964703
647.430544	2588.680391
647.774101	2592.158787
648.117606	2590.674167
648.461059	2589.471852
648.804460	2592.126020
649.147810	2590.396904
649.491108	2588.635021
649.834354	2589.882706
650.177548	2589.955803
650.520690	2589.295412
650.863781	2589.842377
651.206820	2589.978488
651.549807	2587.624269
651.892742	2588.503951
652.235626	2590.255752
652.578458	2587.231059
652.921238	2587.755339
653.263967	2586.701738
653.606644	2590.056626
653.949269	2589.025710
654.291843	2587.851121
654.634365	2588.171234
654.976836	2586.568148
655.319255	2588.904722
655.661622	2586.681573
656.003938	2588.088055
656.346203	2587.959506
656.688416	2585.320462
657.030577	2587.704928
657.372687	2587.241142
657.714746	2589.255083
658.056753	2588.108220
658.398708	2583.803075
658.740612	2582.414237
659.082465	2581.678228
659.424266	2583.699731
659.766016	2585.073445
660.107715	2586.434557
660.449362	2585.811974
660.790958	2587.357088
661.132503	2585.993456
661.473996	2588.345154
661.815438	2587.110072
662.156829	2588.133426
662.498168	2583.528332
662.839456	2588.390525
663.180693	2584.067735
663.521879	2586.043867
663.863013	2587.006728
664.204097	2586.721903
664.545129	2587.568817
664.886110	2587.389856
665.227040	2586.245514
665.567918	2587.316759
665.908746	2586.162335
666.249522	2586.429516
666.590248	2589.567634
666.930922	2587.495720
667.271545	2588.529156
667.612118	2588.045206
667.952639	2587.120154
668.293109	2589.529825
668.633528	2588.453539
668.973896	2585.191912
669.314213	2586.177458
669.654480	2587.536049
669.994695	2585.615369
670.334859	2584.090420
670.674973	2583.936665
671.015035	2585.864907
671.355047	2588.236769
671.695008	2585.711151
672.034918	2585.287694
672.374777	2586.873137
672.714585	2587.021851
673.054342	2587.720051
673.394049	2586.734506
673.733705	2588.917325
674.073310	2588.579568
674.412864	2586.421954
674.752368	2586.926069
675.091820	2586.389187
675.431223	2583.654361
675.770574	2588.453539
676.109875	2582.184864
676.449125	2584.329875
676.788324	2583.354412
677.127473	2582.310893
677.466571	2584.160997
677.805619	2585.189392
678.144616	2583.954309
678.483562	2586.623600
678.822458	2584.244176
679.161303	2587.140318
679.500098	2582.671336
679.838842	2583.750142
680.177535	2584.181161
680.516179	2586.270719
680.854771	2585.075966
681.193314	2584.639906
681.531805	2585.403641
681.870247	2586.293405
682.208638	2585.396079
682.546978	2589.033272
682.885268	2586.197623
683.223508	2587.251224
683.561697	2585.638055
683.899836	2585.280133
684.237925	2587.097469
684.575963	2583.097313
684.913951	2586.064032
685.251889	2586.767273
685.589776	2588.314907
685.927614	2586.361460
686.265401	2583.603949
686.603137	2587.019331
686.940824	2587.261306
687.278460	2586.893302
687.616046	2586.989084
687.953582	2587.029413
688.291068	2585.562437
688.628504	2586.343816
688.965889	2584.428178
689.303224	2589.219794
689.640510	2584.135791
689.977745	2587.775504
690.314930	2584.392890
690.652065	2582.961202
690.989150	2582.913311
691.326185	2583.525811
691.663170	2583.603949
692.000105	2584.463466
692.336990	2585.575040
692.673825	2585.005390
693.010610	2583.954309
693.347345	2578.283011
693.684030	2577.327712
694.020665	2577.920048
694.357251	2577.862075
694.693786	2579.702096
695.030272	2581.418609
695.366707	2580.249061
695.703093	2584.589495
696.039429	2579.936510
696.375716	2579.931468
696.711952	2578.426684
697.048139	2582.230235
697.384276	2582.159658
697.720363	2581.925245
698.056400	2581.191757
698.392388	2581.637899
698.728326	2582.552868
699.064214	2578.799729
699.400053	2579.586149
699.735842	2580.614545
700.071581	2581.806778
700.407270	2577.446180
700.742910	2583.266192
701.078501	2580.193608
701.414042	2579.916345
701.749533	2579.515573
702.084974	2578.968608
702.420366	2577.627661
702.755709	2578.688824
703.091002	2581.768969
703.426246	2578.283011
703.761440	2578.903073
704.096584	2579.475244
704.431679	2577.602455
704.766725	2581.917683
705.101721	2577.194122
705.436668	2583.394741
705.771565	2576.919379
706.106413	2577.746128
706.441212	2576.495922
706.775961	2577.355439
707.110661	2578.683783
707.445311	2578.814853
707.779913	2577.967939
708.114465	2580.823753
708.448967	2580.117991
708.783421	2583.440112
709.117825	2579.235789
709.452180	2581.590008
709.786485	2579.412230
710.120742	2579.019020
710.454949	2579.354256
710.789107	2575.868298
711.123216	2576.858885
711.457275	2577.194122
711.791286	2579.437435
712.125247	2577.395768
712.459159	2581.330389
712.793023	2583.752663
713.126837	2581.526994
713.460602	2581.713516
713.794318	2581.214442
714.127985	2579.112281
714.461602	2581.247210
714.795171	2580.843917
715.128691	2579.117322
715.462162	2579.767631
715.795584	2579.303845
716.128957	2581.395924
716.462281	2579.961715
716.795556	2577.657908
717.128782	2581.262333
717.461960	2578.625810
717.795088	2579.016499
718.128167	2578.892991
718.461198	2580.095306
718.794180	2578.648495
719.127113	2579.185378
719.459997	2576.531210
719.792833	2575.704461
720.125619	2576.533731
720.458357	2576.894173
720.791046	2578.590522
721.123686	2577.221848
721.456278	2581.292580
721.788821	2578.144379
722.121315	2575.729667
722.453761	2576.584142
722.786158	2576.127918
723.118506	2577.433577
723.450805	2577.471385
723.783056	2575.754872
724.115259	2576.707651
724.447412	2575.669173
724.779518	2576.432908
725.111574	2576.657239
725.443582	2577.592373
725.775542	2578.613207
726.107453	2578.842579
726.439315	2575.359142
726.771129	2583.041860
727.102895	2576.009451
727.434612	2578.343505
727.766281	2577.547003
728.097901	2574.328226
728.429473	2576.011971
728.760996	2574.303020
729.092471	2575.013823
729.423897	2578.676221
729.755276	2577.899883
730.086606	2580.717888
730.417887	2579.054308
730.749120	2578.882908
731.080305	2578.252764
731.411442	2577.284863
731.742530	2578.073803
732.073570	2581.768969
732.404562	2578.983732
732.735506	2579.293762
733.066401	2580.518763
733.397249	2577.857034
733.728048	2580.496078
734.058798	2579.807960
734.389501	2578.116653
734.720156	2578.212435
735.050762	2575.611200
735.381320	2576.616910
735.711831	2575.160016
736.042293	2580.554051
736.372707	2575.117167
736.703073	2575.744790
737.033391	2576.667321
737.363661	2577.680593
737.693883	2576.795871
738.024056	2576.347208
738.354182	2574.471899
738.684260	2579.659246
739.014290	2576.001889
739.344272	2575.769996
739.674207	2575.364183
740.004093	2577.945254
740.333931	2579.034143
740.663722	2576.395099
740.993464	2574.746642
741.323159	2578.666139
741.652806	2578.124215
741.982405	2579.079513
742.311956	2578.139338
742.641460	2575.714543
742.970915	2576.914338
743.300323	2577.100861
743.629683	2573.798905
743.958996	2577.516756
744.288260	2575.540623
744.617477	2575.407033
744.946647	2572.387382
745.275768	2571.616085
745.604842	2572.387382
745.933869	2570.953173
746.262847	2569.745817
746.591778	2576.006930
746.920662	2573.055335
747.249498	2574.262691
747.578286	2573.254460
747.907027	2573.884604
748.235720	2577.599935
748.564365	2575.097002
748.892963	2573.151117
749.221514	2574.106415
749.550017	2575.054152
749.878473	2577.022723
750.206881	2575.916189
750.535242	2572.299162
750.863555	2572.813359
751.191821	2575.674214
751.520039	2574.746642
751.848210	2575.046590
752.176334	2574.590366
752.504411	2574.166909
752.832440	2573.977866
753.160421	2574.398802
753.488356	2575.525500
753.816243	2575.303689
754.144082	2574.769327
754.471875	2573.816549
754.799620	2572.858730
755.127318	2573.935016
755.454969	2573.695561
755.782572	2576.117836
756.110129	2575.084399
756.437638	2571.638770
756.765100	2573.037691
757.092515	2574.628175
757.419882	2573.594738
757.747203	2576.218659
758.074477	2575.475088
758.401703	2574.688668
758.728882	2576.359811
759.056014	2574.159347
759.383099	2577.305027
759.710138	2577.123546
760.037129	2575.500294
760.364073	2577.143710
760.690970	2574.544996
761.017820	2574.728998
761.344623	2574.408884
761.671379	2576.710171
761.998088	2572.853688
762.324751	2574.892835
762.651366	2575.747311
762.977935	2580.493557
763.304456	2580.717888
763.630931	2582.804926
763.957359	2584.534042
764.283740	2584.113106
764.610074	2582.447004
764.936362	2582.512539
765.262602	2577.950295
765.588796	2576.513566
765.914943	2577.007599
766.241044	2575.389389
766.567097	2573.856878
766.893104	2575.608679
767.219064	2571.921075
767.544978	2575.772517
767.870845	2572.997361
768.196665	2574.542475
768.522438	2571.822772
768.848165	2573.148596
769.173846	2572.359655
769.499479	2571.759758
769.825066	2571.916034
770.150607	2572.820921
770.476101	2575.018864
770.801548	2575.142372
771.126949	2570.219686
771.452303	2573.839234
771.777611	2569.496280
772.102872	2572.410067
772.428087	2569.695406
772.753256	2570.217165
773.078378	2569.345045
773.403453	2573.882084
773.728482	2570.212124
774.053465	2571.595921
774.378401	2570.444017
774.703291	2571.542988
775.028135	2571.568194
775.352932	2570.716239
775.677683	2572.221024
776.002388	2572.031980
776.327046	2570.292782
776.651658	2571.863102
776.976224	2570.038204
777.300743	2573.148596
777.625216	2569.408060
777.949643	2571.976528
778.274024	2569.052658
778.598359	2568.356979
778.922647	2568.437638
779.246889	2567.633574
779.571086	2564.641649
779.895236	2567.933522
780.219339	2572.268915
780.543397	2571.041394
780.867409	2568.407391
781.191374	2570.698595
781.515294	2572.016857
781.839167	2568.669531
782.162995	2571.217834
782.486776	2569.425704
782.810511	2568.147771
783.134201	2573.690520
783.457844	2570.912844
783.781441	2571.195149
784.104993	2571.883266
784.428498	2569.685323
784.751958	2573.312433
785.075372	2569.801270
785.398739	2568.309088
785.722061	2570.456620
786.045337	2568.251115
786.368568	2568.561146
786.691752	2569.496280
787.014891	2572.258832
787.337983	2570.471743
787.661030	2573.057855
787.984031	2571.275807
788.306987	2571.303534
788.629897	2573.808987
788.952760	2572.082392
789.275579	2573.080540
789.598351	2571.936198
789.921078	2571.923596
790.243759	2570.345714
790.566395	2571.190108
790.888984	2571.454768
791.211529	2571.439645
791.534027	2572.972156
791.856480	2570.257494
792.178888	2570.575087
792.501249	2569.052658
792.823566	2571.671538
793.145836	2570.794377
793.468062	2571.311095
793.790241	2570.416291
794.112375	2567.837740
794.434464	2568.704819
794.756507	2568.581311
795.078505	2571.699264
795.400457	2568.553584
795.722364	2568.488049
796.044226	2567.545353
796.366042	2569.332442
796.687812	2564.402194
797.009538	2570.688513
797.331218	2571.328739
797.652852	2570.882597
797.974442	2569.985272
798.295986	2569.314798
798.617484	2572.226065
798.938938	2570.970818
799.260346	2572.886456
799.581709	2569.518965
799.903026	2572.614234
800.224299	2572.301682
800.545526	2568.563667
800.866708	2570.433935
801.187845	2568.203224
801.508936	2568.735066
801.829983	2567.913358
802.150984	2571.290931
802.471940	2569.576938
802.792851	2568.223389
803.113717	2570.721280
803.434538	2567.588203
803.755314	2570.149109
804.076045	2566.892524
804.396731	2569.355128
804.717372	2566.227092
805.037967	2570.547361
805.358518	2567.925961
805.679024	2571.323698
805.999485	2566.947977
806.319901	2570.174315
806.640272	2570.887638
806.960598	2571.200190
807.280879	2568.856053
807.601115	2568.162895
807.921306	2569.539130
808.241453	2569.370251
808.561554	2569.834037
808.881611	2567.968810
809.201623	2570.859912
809.521590	2568.654407
809.841513	2571.696744
810.161390	2569.597103
810.481223	2566.958059
810.801011	2571.411918
811.120755	2570.562484
811.440453	2571.237999
811.760107	2570.338153
812.079716	2565.912020
812.399281	2565.405384
812.718801	2566.668193
813.038276	2562.927657
813.357707	2567.565518
813.677093	2569.171126
813.996434	2569.387895
814.315731	2569.665159
814.634983	2565.788511
814.954191	2567.890672
815.273354	2566.879921
815.592473	2569.271949
815.911547	2569.403019
816.230577	2568.682134
816.549562	2569.531568
816.868502	2571.076682
817.187399	2571.777402
817.506250	2570.068451
817.825058	2571.782443
818.143821	2570.784295
818.462539	2571.235478
818.781213	2570.373441
819.099843	2573.743452
819.418429	2571.779923
819.736970	2573.362845
820.055466	2573.624985
820.373919	2574.812177
820.692327	2575.734708
821.010691	2579.097157
821.329011	2585.413723
821.647286	2601.547936
821.965517	2610.919441
822.283704	2622.234311
822.601847	2629.067595
822.919945	2624.354116
823.237999	2622.229270
823.556010	2617.041922
823.873976	2609.018926
824.191897	2603.680344
824.509775	2596.353027
824.827609	2590.991760
825.145398	2590.527974
825.463144	2588.327510
825.780845	2583.200657
826.098502	2587.195771
826.416116	2588.708117
826.733685	2591.808427
827.051210	2593.328335
827.368692	2592.012594
827.686129	2587.399938
828.003522	2589.184506
828.320872	2580.606983
828.638177	2580.332240
828.955439	2577.796540
829.272656	2571.205231
829.589830	2572.692372
829.906960	2574.970973
830.224046	2574.255129
830.541088	2573.965263
830.858086	2569.133317
831.175041	2570.532237
831.491952	2570.620457
831.808819	2571.290931
832.125642	2569.587021
832.442421	2569.939902
832.759157	2572.644481
833.075849	2577.577250
833.392497	2577.317630
833.709101	2578.895511
834.025662	2580.246541
834.342179	2579.329051
834.658653	2577.030284
834.975083	2579.785275
835.291469	2579.485326
835.607811	2574.865109
835.924110	2571.220355
836.240366	2572.389902
836.556578	2571.691703
836.872746	2572.321847
837.188871	2568.528378
837.504952	2570.653225
837.820990	2569.324881
838.136984	2568.046948
838.452935	2568.561146
838.768842	2566.890003
839.084706	2571.248081
839.400526	2569.385375
839.716303	2569.760941
840.032037	2575.671693
840.347727	2571.520303
840.663373	2573.932495
840.978977	2573.672876
841.294537	2567.721794
841.610054	2568.805642
841.925527	2570.381003
842.240957	2569.551733
842.556344	2567.658779
842.871687	2568.009140
843.186987	2567.542833
843.502244	2565.304561
843.817458	2566.776577
844.132629	2566.491752
844.447756	2566.088460
844.762840	2562.910013
845.077881	2562.874724
845.392879	2564.974365
845.707833	2563.961093
846.022745	2564.112328
846.337613	2564.261042
846.652438	2564.180383
846.967221	2564.755075
847.281960	2568.762792
847.596656	2565.349931
847.911309	2566.363203
848.225919	2564.785322
848.540485	2563.830023
848.855009	2566.648028
849.169490	2563.638459
849.483928	2564.855898
849.798323	2565.415466
850.112675	2564.311453
850.426984	2567.162226
850.741251	2565.556618
851.055474	2565.410425
851.369654	2564.271124
851.683792	2565.644838
851.997887	2565.556618
852.311938	2566.587534
852.625947	2564.034190
852.939914	2565.163408
853.253837	2563.439334
853.567718	2566.806824
853.881555	2565.077709
854.195350	2562.882286
854.509103	2564.707184
854.822812	2564.757595
855.136479	2567.505024
855.450103	2568.233471
855.763685	2564.099725
856.077224	2565.697771
856.390720	2566.186763
856.704173	2565.561659
857.017584	2563.121741
857.330953	2565.975034
857.644278	2565.402863
857.957561	2565.347410
858.270802	2566.378326
858.584000	2566.156516
858.897155	2566.330435
859.210268	2565.496124
859.523339	2566.585014
859.836367	2566.113666
860.149352	2567.109294
860.462295	2568.291444
860.775195	2559.000598
861.088054	2560.117213
861.400869	2564.644169
861.713642	2561.337173
862.026373	2563.179714
862.339062	2563.348593
862.651708	2566.448902
862.964312	2564.941597
863.276873	2567.091650
863.589392	2567.081567
863.901869	2565.538974
864.214303	2566.486711
864.526696	2565.334807
864.839045	2566.645508
865.151353	2564.651731
865.463619	2568.445199
865.775842	2566.012843
866.088023	2565.760785
866.400162	2564.445044
866.712258	2566.481670
867.024313	2566.229612
867.336325	2567.472257
867.648296	2565.841443
867.960224	2564.833213
868.272110	2568.006619
868.583954	2563.540157
868.895755	2565.823799
869.207515	2563.209961
869.519233	2567.126938
869.830909	2564.815569
870.142542	2563.761967
870.454134	2567.457133
870.765684	2563.202399
871.077191	2566.164077
871.388657	2564.886145
871.700081	2565.647359
872.011463	2567.010991
872.322803	2563.507389
872.634101	2565.415466
872.945357	2563.991340
873.256571	2567.830179
873.567744	2568.483008
873.878874	2567.187432
874.189963	2567.215158
874.501010	2567.600806
874.812015	2564.944118
875.122979	2569.128276
875.433900	2566.907648
875.744780	2565.748182
876.055618	2568.419994
876.366415	2564.613922
876.677169	2567.121897
876.987882	2563.419169
877.298554	2561.886658
877.609183	2565.307081
877.919771	2561.322049
878.230317	2561.097718
878.540822	2571.159861
878.851285	2566.436300
879.161707	2568.551064
879.472087	2570.796898
879.782425	2569.375292
880.092722	2571.948801
880.402977	2580.054977
880.713191	2582.361305
881.023363	2589.449167
881.333494	2594.313880
881.643583	2594.999477
881.953631	2598.878645
882.263637	2596.796649
882.573602	2594.366812
882.883526	2593.782039
883.193408	2588.919846
883.503248	2587.904053
883.813048	2586.772314
884.122806	2586.681573
884.432522	2583.540935
884.742197	2578.726633
885.051831	2577.201684
885.361424	2578.116653
885.670975	2574.605489
885.980485	2572.528534
886.289954	2573.307392
886.599382	2570.554922
886.908768	2570.060889
887.218113	2571.162381
887.527417	2569.854202
887.836680	2568.984603
888.145901	2569.246743
888.455082	2565.806155
888.764221	2568.485529
889.073319	2565.717935
889.382376	2563.696432
889.691392	2565.564180
890.000366	2566.958059
890.309300	2566.370765
890.618193	2569.060220
890.927044	2565.760785
891.235855	2566.610219
891.544625	2567.389078
891.853353	2566.811866
892.162041	2566.915209
892.470687	2568.914027
892.779293	2565.412945
893.087858	2564.107287
893.396381	2564.049313
893.704864	2565.007132
894.013306	2567.588203
894.321707	2572.798236
894.630068	2572.846127
894.938387	2573.498956
895.246665	2576.367373
895.554903	2575.147413
895.863100	2574.885273
896.171256	2574.035839
896.479371	2571.611044
896.787446	2572.536096
897.095480	2569.503842
897.403473	2571.379151
897.711425	2570.451579
898.019336	2568.737586
898.327207	2572.236147
898.635038	2572.185736
898.942827	2566.574931
899.250576	2566.695919
899.558284	2567.739438
899.865952	2567.000909
900.173579	2563.885476
900.481165	2564.538305
900.788711	2566.736248
901.096216	2565.828841
901.403681	2563.900599
901.711105	2567.477298
902.018489	2566.607699
902.325832	2568.687175
902.633135	2566.849674
902.940397	2568.954356
903.247619	2566.247256
903.554800	2569.057700
903.861941	2572.112639
904.169041	2577.678073
904.476101	2574.555078
904.783121	2574.991138
905.090100	2576.528690
905.397039	2573.302351
905.703938	2573.952660
906.010796	2574.552557
906.317614	2571.759758
906.624391	2571.001064
906.931129	2569.902093
907.237826	2570.474264
907.544483	2567.714232
907.851099	2568.299006
908.157675	2570.133986
908.464211	2561.455640
908.770707	2564.034190
909.077163	2562.577296
909.383578	2561.473284
909.689954	2562.294992
909.996289	2561.259035
910.302584	2562.685681
910.608839	2564.694581
910.915054	2562.592420
911.221229	2565.707853
911.527363	2566.330435
911.833458	2560.114693
912.139513	2565.385219
912.445527	2562.403377
912.751502	2562.373130
913.057436	2563.512430
913.363331	2564.361865
913.669186	2564.639128
913.975000	2565.402863
914.280775	2564.838254
914.586510	2565.241546
914.892205	2569.740776
915.197859	2568.631722
915.503475	2570.635581
915.809050	2577.940213
916.114585	2575.996848
916.420081	2579.044225
916.725536	2577.070614
917.030952	2576.954667
917.336328	2573.927454
917.641665	2577.005079
917.946961	2573.309913
918.252218	2573.446024
918.557435	2573.193966
918.862612	2575.349060
919.167750	2569.894531
919.472848	2571.018708
919.777906	2570.607854
920.082925	2568.566187
920.387904	2568.157854
920.692843	2569.173646
920.997743	2569.418142
921.302603	2567.598286
921.607423	2566.499314
921.912204	2566.217009
922.216946	2568.528378
922.521647	2564.679458
922.826310	2565.055023
923.130932	2566.310271
923.435516	2562.592420
923.740059	2565.443192
924.044564	2562.070660
924.349028	2563.512430
924.653454	2562.620146
924.957840	2560.016390
925.262186	2561.062430
925.566493	2562.294992
925.870761	2556.951369
926.174989	2561.301884
926.479178	2563.081412
926.783328	2563.025959
927.087438	2564.306412
927.391509	2566.332956
927.695541	2564.077040
927.999533	2563.875393
928.303486	2564.140054
928.607400	2562.957903
928.911275	2564.089642
929.215110	2563.225085
929.518906	2564.709704
929.822663	2563.668706
930.126381	2559.776935
930.430060	2562.242060
930.733699	2564.994530
931.037299	2564.256001
931.340861	2562.529405
931.644383	2562.723490
931.947866	2561.032183
932.251309	2562.289951
932.554714	2563.048644
932.858080	2563.157029
933.161407	2561.944632
933.464694	2564.555949
933.767943	2559.408931
934.071153	2562.736093
934.374323	2562.975547
934.677455	2561.165773
934.980548	2562.998233
935.283602	2560.437327
935.586617	2559.381205
935.889593	2563.756926
936.192530	2563.066288
936.495428	2564.477811
936.798287	2563.038562
937.101108	2562.002605
937.403890	2562.811710
937.706632	2565.859087
938.009336	2561.899261
938.312002	2565.944787
938.614628	2561.463201
938.917216	2563.020918
939.219765	2563.706515
939.522275	2564.371947
939.824747	2564.210630
940.127179	2559.842470
940.429573	2560.898592
940.731929	2558.970351
941.034246	2558.488921
941.336524	2558.912377
941.638763	2563.235167
941.940964	2562.531926
942.243126	2563.199879
942.545250	2561.443037
942.847335	2560.903633
943.149381	2562.428582
943.451389	2564.044272
943.753359	2564.253480
944.055290	2564.876062
944.357182	2564.407235
944.659036	2560.475135
944.960851	2562.244580
945.262628	2564.470250
945.564367	2563.232646
945.866067	2559.620660
946.167729	2564.374468
946.469352	2562.897410
946.770937	2563.318346
947.072484	2561.546380
947.373992	2561.478325
947.675462	2561.916905
947.976893	2565.816238
948.278286	2561.616957
948.579641	2563.351113
948.880958	2560.656617
949.182236	2562.486556
949.483476	2561.188458
949.784678	2561.364899
950.085841	2563.799776
950.386967	2563.348593
950.688054	2563.177194
950.989103	2562.841957
951.290114	2564.765157
951.591087	2559.338355
951.892021	2562.335321
952.192917	2563.260373
952.493776	2560.959086
952.794596	2564.379509
953.095378	2562.042934
953.396122	2562.657955
953.696828	2562.700805
953.997496	2560.525547
954.298126	2564.162739
954.598718	2563.835064
954.899272	2561.921946
955.199788	2562.123592
955.500266	2562.970506
955.800706	2561.387584
956.101108	2558.683005
956.401472	2556.235525
956.701798	2559.144271
957.002087	2559.159394
957.302337	2559.860114
957.602550	2562.746175
957.902724	2561.682492
958.202861	2563.056206
958.502960	2563.086453
958.803022	2560.434806
959.103045	2561.175856
959.403031	2559.441699
959.702979	2558.977912
960.002889	2559.918088
960.302762	2559.766853
960.602596	2561.904302
960.902393	2559.597974
961.202153	2563.517472
961.501875	2560.659137
961.801559	2562.794066
962.101205	2560.656617
962.400814	2560.775084
962.700385	2559.093859
962.999918	2561.027142
963.299414	2560.437327
963.598873	2559.809703
963.898293	2557.906667
964.197677	2560.288613
964.497022	2559.114024
964.796331	2561.621998
965.095601	2560.858263
965.394835	2558.625032
965.694030	2560.951524
965.993189	2562.544529
966.292309	2558.335165
966.591393	2561.069991
966.890439	2560.328942
967.189447	2560.969168
967.488419	2560.616287
967.787353	2561.032183
968.086249	2558.143602
968.385108	2562.438665
968.683930	2562.113510
968.982714	2560.906154
969.281462	2561.087635
969.580172	2560.303736
969.878844	2559.232491
970.177480	2561.062430
970.476078	2562.030331
970.774639	2563.807338
971.073162	2558.390618
971.371649	2557.452963
971.670098	2557.311811
971.968510	2554.846687
972.266885	2556.177552
972.565223	2560.288612
972.863524	2560.323901
973.161788	2559.124106
973.460014	2563.005794
973.758204	2558.509085
974.056356	2560.079405
974.354471	2560.081925
974.652550	2558.821637
974.950591	2561.029662
975.248595	2560.762481
975.546563	2562.393294
975.844493	2559.645865
976.142386	2561.571586
976.440243	2559.298026
976.738062	2562.816751
977.035845	2558.625032
977.333590	2559.668551
977.631299	2561.052347
977.928971	2562.670558
978.226606	2562.128634
978.524204	2558.153684
978.821765	2562.110990
979.119290	2560.651576
979.416777	2562.950342
979.714228	2560.923798
980.011642	2560.028993
980.309020	2563.421690
980.606360	2561.135526
980.903664	2558.400700
981.200931	2560.195351
981.498162	2560.369271
981.795356	2559.121585
982.092513	2560.954045
982.389633	2560.601164
982.686717	2557.652089
982.983764	2558.783828
983.280775	2561.702656
983.577749	2563.736762
983.874686	2563.262893
984.171587	2563.058727
984.468451	2561.710218
984.765279	2562.085784
985.062070	2563.124262
985.358824	2561.042265
985.655543	2563.199879
985.952224	2558.090669
986.248869	2560.707028
986.545478	2557.410114
986.842050	2555.312994
987.138586	2559.822306
987.435086	2558.204095
987.731549	2556.570762
988.027975	2562.468912
988.324366	2556.545556
988.620719	2560.485217
988.917037	2561.682492
989.213318	2558.967830
989.509563	2560.525547
989.805772	2561.987481
990.101944	2557.952038
990.398080	2556.195196
990.694180	2559.721483
990.990244	2561.253993
991.286271	2560.374312
991.582262	2558.879610
991.878217	2558.317521
992.174136	2558.531770
992.470019	2558.806513
992.765865	2561.145609
993.061676	2558.751061
993.357450	2559.600495
993.653188	2559.945814
993.948890	2560.601164
994.244556	2559.960938
994.540186	2559.862635
994.835780	2560.659137
995.131337	2560.152501
995.426859	2558.304918
995.722345	2559.290464
996.017795	2558.647717
996.313208	2562.153839
996.608586	2561.816082
996.903928	2560.790207
997.199234	2559.582851
997.494504	2560.906154
997.789738	2560.301215
998.084936	2558.188972
998.380099	2560.686864
998.675225	2560.964127
998.970316	2558.413303
999.265371	2560.210475
999.560390	2559.915567
999.855373	2562.814231
1000.150320	2560.870866
1000.445232	2559.444219
1000.740108	2558.403221
1001.034948	2560.192831
1001.329752	2559.063612
1001.624521	2559.484548
1001.919254	2558.224260
1002.213951	2556.497665
1002.508613	2555.892726
1002.803239	2556.351471
1003.097829	2553.994732
1003.392384	2558.829198
1003.686903	2561.682492
1003.981386	2559.925649
1004.275834	2561.677450
1004.570246	2561.755588
1004.864623	2559.204764
1005.158964	2557.702501
1005.453270	2559.189641
1005.747540	2561.206102
1006.041775	2558.985474
1006.335974	2560.129816
1006.630138	2560.790207
1006.924266	2559.013201
1007.218359	2558.239383
1007.512416	2560.409600
1007.806438	2559.073694
1008.100425	2557.546225
1008.394376	2560.550753
1008.688292	2558.874569
1008.982172	2558.539332
1009.276017	2560.187789
1009.569827	2557.304249
1009.863602	2561.614436
1010.157341	2560.293654
1010.451045	2560.520506
1010.744714	2559.524878
1011.038347	2559.436657
1011.331945	2557.977243
1011.625508	2560.318859
1011.919036	2560.039075
1012.212528	2559.076215
1012.505986	2558.740978
1012.799408	2560.102090
1013.092795	2559.895402
1013.386147	2561.513613
1013.679464	2556.963972
1013.972745	2559.441699
1014.265992	2559.076215
1014.559204	2561.896741
1014.852380	2557.044630
1015.145521	2559.426575
1015.438628	2557.725186
1015.731699	2558.763663
1016.024736	2559.900444
1016.317737	2558.249466
1016.610703	2558.567058
1016.903635	2555.139074
1017.196531	2555.469269
1017.489393	2556.086811
1017.782219	2553.765359
1018.075011	2556.628735
1018.367768	2557.561348
1018.660490	2557.805844
1018.953177	2557.805844
1019.245829	2557.805844
