Dividing Wavelength (nm)	Counts (n)	Blue Motor Position (mm): 0.000000	Red Motor Position (mm): 38.500000	
326.493990	2140.191618
326.888308	2140.191618
327.282561	2140.191618
327.676750	2115.908380
328.070874	2116.730088
328.464933	2121.967847
328.858929	2131.130144
329.252859	2143.823770
329.646726	2158.120482
330.040528	2171.708912
330.434265	2190.817406
330.827938	2210.195601
331.221547	2227.476677
331.615091	2247.807650
332.008571	2269.109046
332.401986	2288.804834
332.795338	2309.009778
333.188625	2328.377892
333.581847	2346.263905
333.975006	2366.604961
334.368100	2385.426109
334.761129	2404.337998
335.154095	2419.796696
335.546996	2442.398709
335.939833	2456.201388
336.332606	2476.492033
336.725315	2484.078969
337.117960	2491.640700
337.510540	2501.231495
337.903056	2509.806498
338.295508	2515.780265
338.687896	2522.520288
339.080220	2530.185362
339.472480	2538.402443
339.864676	2542.271529
340.256807	2545.964174
340.648875	2547.105995
341.040879	2547.438711
341.432818	2549.187992
341.824694	2550.939793
342.216506	2550.284443
342.608253	2547.960471
342.999937	2549.127498
343.391557	2549.165307
343.783113	2548.094061
344.174605	2545.991900
344.566033	2542.289173
344.957397	2541.555685
345.348697	2541.548123
345.739934	2539.531662
346.131106	2535.637370
346.522215	2537.573173
346.913260	2535.455889
347.304241	2532.030425
347.695159	2530.298788
348.086012	2530.636546
348.476802	2528.027748
348.867528	2526.006246
349.258191	2523.029444
349.648789	2524.514064
350.039324	2524.224198
350.429796	2522.550535
350.820203	2522.767304
351.210548	2518.200019
351.600828	2520.720596
351.991045	2517.441325
352.381198	2517.519463
352.771288	2517.879906
353.161314	2517.758918
353.551276	2520.571882
353.941175	2519.082221
354.331010	2520.143384
354.720782	2521.055833
355.110490	2518.164731
355.500135	2520.246728
355.889717	2520.897036
356.279235	2520.047602
356.668689	2522.401821
357.058080	2523.505833
357.447408	2519.732530
357.836672	2516.796058
358.225873	2519.084742
358.615010	2517.353105
359.004084	2524.004908
359.393095	2520.856707
359.782043	2524.987933
360.170927	2525.335772
360.559748	2525.560104
360.948505	2525.295443
361.337199	2527.289219
361.725830	2527.095135
362.114398	2526.865762
362.502903	2527.470701
362.891344	2528.698222
363.279722	2528.279806
363.668037	2530.250897
364.056289	2529.340969
364.444478	2530.419776
364.832603	2530.187883
365.220665	2529.688809
365.608665	2530.087060
365.996601	2529.598068
366.384474	2531.944725
366.772284	2531.259128
367.160031	2533.482277
367.547715	2531.042358
367.935336	2531.962369
368.322893	2531.125538
368.710388	2534.001516
369.097820	2537.379089
369.485189	2531.591844
369.872495	2535.541588
370.259738	2533.948584
370.646918	2532.254756
371.034035	2534.712318
371.421090	2538.241126
371.808081	2536.277597
372.195010	2538.142824
372.581875	2532.950435
372.968678	2540.930582
373.355418	2537.215251
373.742096	2540.791950
374.128710	2542.238761
374.515262	2543.156251
374.901751	2541.575849
375.288177	2544.262784
375.674540	2545.845707
376.060841	2544.809750
376.447079	2550.806202
376.833254	2550.957437
377.219367	2548.484751
377.605417	2553.150339
377.991404	2554.516491
378.377329	2556.018755
378.763191	2556.200237
379.148991	2566.080898
379.534727	2567.971331
379.920402	2572.715057
380.306013	2576.110274
380.691563	2581.395924
381.077049	2586.850452
381.462474	2589.988570
381.847835	2594.737337
382.233134	2603.017432
382.618371	2604.333174
383.003545	2612.318361
383.388657	2618.735750
383.773706	2622.738426
384.158693	2631.847791
384.543618	2636.178142
384.928480	2643.303813
385.313280	2649.776655
385.698017	2659.077584
386.082692	2668.368430
386.467305	2674.054852
386.851856	2682.576922
387.236344	2692.117306
387.620770	2699.396732
388.005133	2708.869060
388.389435	2718.926162
388.773674	2724.025289
389.157851	2732.527195
389.541965	2744.499936
389.926018	2748.013620
390.310008	2760.810589
390.693936	2769.463730
391.077802	2781.176851
391.461606	2788.829322
391.845348	2796.670837
392.229027	2805.139975
392.612645	2822.002635
392.996200	2830.285251
393.379694	2843.616582
393.763125	2861.154756
394.146494	2865.192721
394.529801	2881.402551
394.913047	2895.114489
395.296230	2897.864439
395.679351	2900.997516
396.062410	2921.419230
396.445408	2919.395207
396.828343	2931.844336
397.211217	2938.687703
397.594028	2931.970365
397.976778	2946.085596
398.359466	2957.113120
398.742092	2953.049950
399.124656	2970.036118
399.507158	2983.518684
399.889598	2991.773573
400.271977	3001.220695
400.654294	3010.428363
401.036549	3019.653674
401.418742	3030.408976
401.800874	3052.582491
402.182944	3058.258831
402.564952	3084.619024
402.946898	3079.507294
403.328783	3082.330340
403.710606	3100.450768
404.092367	3127.279788
404.474067	3150.756442
404.855705	3144.994403
405.237282	3141.722694
405.618797	3170.878207
406.000250	3196.184800
406.381642	3229.282495
406.762972	3230.497413
407.144240	3220.241186
407.525447	3244.093405
407.906593	3243.251533
408.287677	3262.748195
408.668700	3284.135290
409.049661	3279.210083
409.430560	3296.438226
409.811399	3298.810089
410.192176	3321.540652
410.572891	3328.930983
410.953545	3368.894731
411.334138	3338.045390
411.714669	3386.879047
412.095139	3336.666634
412.475547	3384.653378
412.855894	3373.351111
413.236180	3407.230185
413.616405	3382.881412
413.996568	3410.091040
414.376670	3413.009868
414.756711	3407.235226
415.136691	3436.093311
415.516609	3456.517546
415.896466	3466.221767
416.276262	3489.965602
416.655997	3521.442567
417.035670	3525.606560
417.415283	3591.686004
417.794834	3616.533852
418.174324	3599.474587
418.553753	3599.404011
418.933121	3643.536792
419.312428	3632.093373
419.691674	3628.990543
420.070859	3664.223167
420.449983	3651.065755
420.829045	3695.929504
421.208047	3681.647915
421.586988	3725.808423
421.965867	3757.834873
422.344686	3765.434413
422.723444	3803.568221
423.102141	3707.536761
423.480777	3811.712205
423.859352	3777.560908
424.237866	3878.880539
424.616319	3861.828836
424.994712	3920.253288
425.373044	3908.598141
425.751314	3975.650528
426.129524	3908.144437
426.507673	4008.801156
426.885762	3985.828618
427.263789	4007.946680
427.641756	4011.132689
428.019662	4040.641083
428.397508	4045.079819
428.775292	4086.392075
429.153016	4087.536417
429.530679	4101.273561
429.908282	4109.470478
430.285824	4089.257971
430.663305	4162.579033
431.040726	4120.422384
431.418086	4108.971403
431.795385	4185.574257
432.172624	4221.578177
432.549802	4184.127445
432.926920	4203.669478
433.303977	4198.119168
433.680974	4240.976537
434.057910	4259.202829
434.434786	4264.261627
434.811601	4261.574692
435.188355	4366.284498
435.565050	4340.148636
435.941683	4334.230322
436.318257	4425.134928
436.694770	4429.460238
437.071222	4484.575173
437.447614	4422.969753
437.823946	4424.741718
438.200218	4442.955407
438.576429	4423.292387
438.952580	4448.208290
439.328670	4455.550730
439.704700	4494.473479
440.080670	4463.057008
440.456580	4520.432901
440.832429	4556.862799
441.208218	4460.203715
441.583947	4514.834699
441.959616	4527.324158
442.335224	4553.165113
442.710773	4574.169080
443.086261	4625.142707
443.461689	4578.696036
443.837057	4592.619703
444.212365	4670.818082
444.587612	4672.832023
444.962800	4639.648627
445.337927	4673.706663
445.712995	4566.854366
446.088002	4757.331843
446.462949	4779.916213
446.837837	4798.250889
447.212664	4786.061379
447.587431	5009.437427
447.962139	5305.617818
448.336786	5645.328573
448.711374	5633.814577
449.085901	5279.842398
449.460369	5216.117173
449.834776	5148.008664
450.209124	5385.250405
450.583412	5394.016971
450.957640	5513.434344
451.331808	5381.330908
451.705917	5231.520418
452.079965	5222.227051
452.453954	5263.209111
452.827883	5227.306014
453.201752	5233.151232
453.575562	5262.652064
453.949311	5396.945882
454.323001	5398.443104
454.696632	5395.141149
455.070202	5541.057347
455.443713	5573.897943
455.817164	5668.638868
456.190556	5742.453963
456.563888	5718.420263
456.937160	5794.448424
457.310373	5636.640144
457.683526	5693.658115
458.056619	5687.268452
458.429653	5667.882695
458.802628	5717.598554
459.175542	5741.231484
459.548398	5884.803545
459.921194	6065.707872
460.293930	6129.135669
460.666607	6378.806375
461.039224	6593.930054
461.411782	6721.173818
461.784280	6635.396065
462.156719	6642.562065
462.529099	6606.938751
462.901419	6461.118335
463.273680	6335.001269
463.645882	6320.737324
464.018024	6322.983158
464.390106	6386.534464
464.762130	6647.010883
465.134094	7027.134048
465.505999	7657.099318
465.877845	8366.127524
466.249631	8717.218683
466.621358	8648.646388
466.993026	8461.869118
467.364634	8241.109429
467.736184	7960.738096
468.107674	7808.033984
468.479105	7722.057106
468.850477	7654.397259
469.221790	7481.248748
469.593043	7257.330777
469.964238	7158.221692
470.335373	7134.170347
470.706449	7291.471991
471.077467	7469.825493
471.448425	8122.498641
471.819324	8708.845327
472.190164	8761.774922
472.560945	8273.468596
472.931667	7803.000392
473.302330	7610.430836
473.672934	7486.181517
474.043479	7560.195738
474.413965	7465.674103
474.784393	7420.172649
475.154761	7567.497849
475.525070	7584.862104
475.895321	7530.210955
476.265513	7630.408929
476.635645	7793.049155
477.005719	7785.361395
477.375734	7865.583797
477.745691	7974.210580
478.115588	8182.569030
478.485427	8412.964884
478.855207	8887.965085
479.224928	9310.708685
479.594591	9706.030928
479.964194	9716.277073
480.333739	9799.698087
480.703226	9799.950145
481.072653	9899.737265
481.442022	10009.039562
481.811333	10164.160907
482.180584	10010.957721
482.549777	9956.258682
482.918912	9887.199915
483.287988	9870.400270
483.657005	9780.332495
484.025964	9696.684629
484.394864	9757.488506
484.763706	9717.754131
485.132489	9624.422209
485.501213	9617.740160
485.869879	9682.566877
486.238487	9618.713102
486.607036	9693.627169
486.975527	9642.099015
487.343959	9695.948620
487.712333	9736.177028
488.080648	9783.483216
488.448905	9879.101301
488.817104	9889.299556
489.185244	10054.266274
489.553326	10260.676318
489.921350	10730.663091
490.289315	11353.724501
490.657222	11648.977320
491.025070	11826.491470
491.392861	11747.184038
491.760593	11589.839544
492.128267	11333.834628
492.495883	11095.599780
492.863440	10867.474966
493.230939	10641.873249
493.598380	10458.365166
493.965763	10434.901116
494.333088	10300.919849
494.700354	10229.980733
495.067563	10205.536177
495.434713	10206.405777
495.801805	10252.736501
496.168839	10208.507938
496.535815	10176.887300
496.902733	10220.720133
497.269593	10180.038021
497.636395	10192.028406
498.003139	10293.940372
498.369825	10227.276153
498.736453	10317.787550
499.103023	10263.756463
499.469535	10268.842987
499.835989	10313.787395
500.202385	10286.832345
500.568723	10309.053751
500.935003	10364.473676
501.301226	10342.277476
501.667390	10507.682774
502.033497	10605.587023
502.399546	10527.542400
502.765537	10439.271796
503.131470	10540.843484
503.497345	10641.797631
503.863163	10406.700901
504.228923	10539.527743
504.594625	10655.262553
504.960269	10563.309387
505.325856	10714.939733
505.691385	10589.651936
506.056856	10651.511935
506.422270	10753.343243
506.787625	10694.528101
507.152924	10749.643036
507.518164	10805.010028
507.883347	10674.383650
508.248472	10741.395708
508.613540	10857.160765
508.978550	10930.373442
509.343503	10915.769219
509.708398	10963.831580
510.073236	11087.775909
510.438016	11101.727302
510.802738	11007.150215
511.167403	11135.934052
511.532010	11198.547703
511.896561	11302.045112
512.261053	11493.815646
512.625488	11408.358006
512.989866	11394.146993
513.354186	11371.003056
513.718449	11386.454192
514.082655	11517.859429
514.446803	11472.940228
514.810894	11591.034298
515.174927	11576.178017
515.538904	11567.623179
515.902822	11722.920965
516.266684	11596.060328
516.630488	11693.379803
516.994235	11688.071468
517.357925	11797.187243
517.721558	11857.166892
518.085133	11925.945874
518.448651	11960.021553
518.812112	11914.247877
519.175516	11917.549832
519.538863	12008.895540
519.902152	12019.857529
520.265385	12119.417797
520.628560	12141.535859
520.991678	12091.898138
521.354739	12140.867907
521.717743	12219.625853
522.080690	12184.370544
522.443580	12314.510451
522.806413	12329.573418
523.169189	12316.297540
523.531908	12381.628373
523.894569	12345.931963
524.257174	12356.982172
524.619722	12463.355559
524.982213	12445.756891
525.344647	12433.269953
525.707025	12445.414093
526.069345	12542.821788
526.431608	12522.165660
526.793815	12605.238834
527.155964	12502.391734
527.518057	12534.904656
527.880093	12496.014674
528.242072	12600.550561
528.603995	12527.229499
528.965860	12537.402548
529.327669	12577.310842
529.689421	12515.700380
530.051117	12530.188656
530.412755	12568.957650
530.774337	12579.130698
531.135862	12531.748893
531.497331	12587.690578
531.858743	12547.058878
532.220098	12635.180767
532.581396	12557.196638
532.942638	12481.836429
533.303824	12548.515771
533.664953	12536.215356
534.026025	12487.651400
534.387040	12577.668764
534.747999	12563.997155
535.108902	12606.705810
535.469748	12476.644041
535.830537	12511.037313
536.191270	12547.938559
536.551947	12478.416006
536.912567	12537.087475
537.273131	12566.311044
537.633638	12459.700723
537.994089	12505.575223
538.354483	12422.013057
538.714821	12549.234136
539.075103	12629.000313
539.435328	12568.544275
539.795497	12542.143753
540.155609	12546.259855
540.515665	12649.505206
540.875665	12510.344154
541.235609	12598.304727
541.595496	12560.175960
541.955328	12727.534706
542.315102	12574.109709
542.674821	12512.668126
543.034483	12528.071372
543.394090	12529.823173
543.753640	12502.779903
544.113134	12743.338723
544.472571	12505.653361
544.831953	12780.854990
545.191278	12599.983431
545.550548	12533.818287
545.909761	12647.040082
546.268918	12679.031244
546.628019	12747.013724
546.987064	12646.472952
547.346053	12504.350222
547.704986	12687.306298
548.063863	12570.817836
548.422684	12618.113941
548.781449	12582.483066
549.140158	12676.036799
549.498811	12624.400260
549.857408	12497.249757
550.215949	12698.079244
550.574434	12658.423007
550.932864	12599.804470
551.291237	12793.087350
551.649555	12688.470805
552.007817	12739.610790
552.366022	12660.971311
552.724173	12702.084441
553.082267	12782.596709
553.440305	12874.370915
553.798288	12689.569776
554.156215	12757.670724
554.514086	12809.027478
554.871902	12757.237184
555.229661	12765.986107
555.587365	12719.819220
555.945014	12727.897669
556.302606	12713.008621
556.660143	12773.651181
557.017625	12804.238382
557.375050	12755.293820
557.732421	12862.118390
558.089735	12843.274557
558.446994	12814.925628
558.804197	12937.266871
559.161345	12920.802462
559.518437	12734.436046
559.875474	12832.489008
560.232455	12856.023635
560.589381	12893.595355
560.946251	12833.955984
561.303065	13010.293025
561.659825	12952.097945
562.016528	12854.531454
562.373177	12802.549596
562.729770	12912.441708
563.086307	12799.335860
563.442789	12899.974935
563.799216	12935.010954
564.155587	12875.011141
564.511904	12898.868402
564.868164	12903.501222
565.224370	12960.367958
565.580520	12892.816497
565.936615	12957.779326
566.292654	12882.895506
566.648638	12960.272176
567.004567	12952.090383
567.360441	12946.134260
567.716260	12897.915624
568.072023	12983.577430
568.427732	12959.964666
568.783385	12856.061444
569.138982	12956.088018
569.494525	12948.410341
569.850013	12893.897824
570.205445	12879.948951
570.560823	12883.608829
570.916145	12827.483143
571.271412	12831.253926
571.626625	12784.179631
571.981782	12769.366201
572.336884	12708.373280
572.691931	12792.000981
573.046923	12667.759224
573.401860	12646.755257
573.756743	12626.734314
574.111570	12648.844815
574.466342	12615.497582
574.821059	12657.775219
575.175722	12521.512831
575.530330	12535.436498
575.884882	12469.102475
576.239380	12448.380812
576.593823	12419.671441
576.948211	12409.516036
577.302544	12282.352930
577.656823	12291.605968
578.011047	12331.370590
578.365216	12267.363059
578.719330	12202.831249
579.073389	12163.807677
579.427394	12160.712409
579.781344	12136.842545
580.135239	12056.365565
580.489080	12064.406206
580.842866	11946.917074
581.196597	12011.411076
581.550273	11994.253509
581.903895	11951.491921
582.257463	12024.076975
582.610975	11874.853780
582.964434	11917.476736
583.317837	11837.524036
583.671186	11780.014553
584.024481	11811.201651
584.377721	11695.406347
584.730906	11739.082904
585.084037	11735.128119
585.437113	11646.532360
585.790135	11655.654328
586.143103	11552.910572
586.496016	11557.298896
586.848874	11553.099615
587.201679	11529.355780
587.554428	11397.791747
587.907124	11420.945767
588.259765	11339.647079
588.612352	11387.704398
588.964884	11239.648231
589.317362	11269.070925
589.669786	11243.529919
590.022155	11180.293685
590.374470	11252.551064
590.726731	11129.347784
591.078937	11005.892447
591.431090	11019.009530
591.783188	10932.208422
592.135232	10841.654176
592.487222	10873.877231
592.839157	10864.707372
593.191038	10787.348346
593.542866	10721.447862
593.894639	10575.503938
594.246358	10607.061561
594.598022	10587.554816
594.949633	10487.407254
595.301190	10456.336102
595.652692	10391.980732
596.004141	10450.604310
596.355535	10245.812476
596.706876	10205.359737
597.058162	10153.115739
597.409395	10213.934740
597.760573	10210.589934
598.111698	10104.176218
598.462768	10080.931457
598.813785	10056.217201
599.164748	9931.824209
599.515657	9963.447367
599.866511	9836.901803
600.217312	9918.185367
600.568060	9696.246048
600.918753	9812.043873
601.269392	9780.947515
601.619978	9682.229120
601.970510	9692.399648
602.320988	9698.302839
602.671412	9732.943128
603.021783	9637.209096
603.372100	9561.049864
603.722363	9546.072596
604.072572	9524.619966
604.422728	9498.826902
604.772830	9427.668495
605.122878	9402.021625
605.472872	9356.767187
605.822813	9374.393581
606.172701	9314.799581
606.522534	9317.627668
606.872314	9323.926590
607.222041	9246.801977
607.571714	9274.487994
607.921333	9144.035536
608.270899	9154.201022
608.620411	9167.983537
608.969870	9105.606820
609.319276	9052.382318
609.668627	9037.823465
610.017926	9064.251714
610.367171	9056.271568
610.716362	9019.980301
611.065500	8968.749575
611.414585	8945.472047
611.763616	8958.987381
612.112594	8892.242504
612.461518	8890.455415
612.810389	8890.117657
613.159207	8813.212335
613.507971	8774.380327
613.856682	8813.484557
614.205340	8748.050380
614.553945	8811.750400
614.902496	8694.288995
615.250994	8707.688382
615.599439	8660.987133
615.947830	8645.110019
616.296169	8590.574817
616.644454	8569.956497
616.992686	8543.140079
617.340864	8569.253256
617.688990	8457.778221
618.037063	8512.575564
618.385082	8455.736554
618.733048	8442.488402
619.080961	8399.464674
619.428821	8358.505299
619.776628	8329.490938
620.124382	8262.433510
620.472083	8244.134121
620.819731	8223.493117
621.167326	8137.034808
621.514868	8100.148685
621.862357	8000.255701
622.209793	7960.138199
622.557176	7882.360757
622.904506	7814.728637
623.251783	7730.531285
623.599007	7660.933115
623.946179	7597.853157
624.293297	7553.057464
624.640363	7442.610824
624.987376	7402.720174
625.334336	7341.525607
625.681243	7259.553925
626.028097	7208.174485
626.374899	7157.803276
626.721647	7114.507326
627.068343	7057.295271
627.414987	6994.676579
627.761577	6923.311484
628.108115	6918.240084
628.454600	6820.300547
628.801032	6802.689276
629.147412	6765.455313
629.493739	6722.242543
629.840014	6649.894423
630.186236	6643.081304
630.532405	6554.344393
630.878521	6550.719804
631.224585	6491.660166
631.570597	6429.291010
631.916556	6402.855200
632.262462	6361.109405
632.608316	6325.836451
632.954117	6284.473784
633.299866	6251.744092
633.645562	6211.258586
633.991206	6138.686135
634.336797	6066.164096
634.682336	6030.134969
635.027823	5977.684284
635.373257	5926.350215
635.718639	5869.546493
636.063968	5828.090564
636.409245	5753.874698
636.754470	5718.692485
637.099642	5668.780021
637.444762	5603.350885
637.789829	5579.639818
638.134845	5520.363410
638.479808	5486.509542
638.824719	5452.194407
639.169577	5384.590014
639.514383	5359.752249
639.859137	5306.167304
640.203839	5297.965347
640.548489	5244.947532
640.893086	5222.763934
641.237632	5168.954658
641.582125	5148.396833
641.926566	5117.547492
642.270955	5090.945323
642.615292	5068.434050
642.959576	5036.412641
643.303809	5009.432386
643.647990	4992.589891
643.992118	4963.941013
644.336195	4935.816416
644.680219	4913.900000
645.024192	4905.859359
645.368112	4907.207868
645.711981	4882.770875
646.055797	4907.449843
646.399562	4879.453795
646.743274	4917.403602
647.086935	4919.034415
647.430544	4890.372935
647.774101	4879.587386
648.117606	4868.975757
648.461059	4869.837794
648.804460	4821.437676
649.147810	4760.202781
649.491108	4724.183736
649.834354	4682.392571
650.177548	4618.856388
650.520690	4567.479469
650.863781	4543.786046
651.206820	4515.043907
651.549807	4468.589675
651.892742	4419.922375
652.235626	4386.426429
652.578458	4356.749156
652.921238	4301.999705
653.263967	4296.343530
653.606644	4259.631327
653.949269	4236.774736
654.291843	4196.206050
654.634365	4200.052450
654.976836	4163.176410
655.319255	4142.454747
655.661622	4123.905822
656.003938	4096.479424
656.346203	4071.618974
656.688416	4062.146646
657.030577	4037.061864
657.372687	4008.322246
657.714746	4002.068695
658.056753	3990.355574
658.398708	3945.489305
658.740612	3931.253086
659.082465	3924.132456
659.424266	3902.016914
659.766016	3888.279770
660.107715	3869.667830
660.449362	3859.421685
660.790958	3846.901979
661.132503	3828.090914
661.473996	3814.850323
661.815438	3806.902944
662.156829	3799.535298
662.498168	3773.195269
662.839456	3759.473248
663.180693	3749.428749
663.521879	3739.177563
663.863013	3724.744739
664.204097	3704.164229
664.545129	3710.195969
664.886110	3699.082746
665.227040	3685.000282
665.567918	3673.070392
665.908746	3662.625121
666.249522	3654.324861
666.590248	3646.400168
666.930922	3637.290803
667.271545	3622.525263
667.612118	3612.803398
667.952639	3594.284719
668.293109	3581.709561
668.633528	3565.696336
668.973896	3553.269891
669.314213	3541.150958
669.654480	3518.581712
669.994695	3503.541429
670.334859	3490.099192
670.674973	3474.537151
671.015035	3467.300574
671.355047	3451.395734
671.695008	3442.588838
672.034918	3428.503854
672.374777	3421.332813
672.714585	3406.768919
673.054342	3402.922519
673.394049	3388.870303
673.733705	3386.652195
674.073310	3365.189483
674.412864	3356.806044
674.752368	3337.314422
675.091820	3338.415914
675.431223	3315.208963
675.770574	3298.318577
676.109875	3279.409209
676.449125	3265.064605
676.788324	3251.945002
677.127473	3233.123855
677.466571	3218.275136
677.805619	3203.275183
678.144616	3198.082794
678.483562	3183.776000
678.822458	3170.248063
679.161303	3160.664830
679.500098	3149.748211
679.838842	3137.178094
680.177535	3132.479739
680.516179	3128.744244
680.854771	3122.901546
681.193314	3132.399080
681.531805	3142.640184
681.870247	3154.706186
682.208638	3167.523320
682.546978	3168.118176
682.885268	3164.980057
683.223508	3149.836431
683.561697	3136.933598
683.899836	3129.013945
684.237925	3110.215483
684.575963	3104.576952
684.913951	3089.937441
685.251889	3088.314190
685.589776	3081.122984
685.927614	3074.148547
686.265401	3073.256263
686.603137	3070.720563
686.940824	3075.113928
687.278460	3078.703230
687.616046	3077.992427
687.953582	3088.591453
688.291068	3083.099116
688.628504	3086.506936
688.965889	3083.751946
689.303224	3073.909093
689.640510	3063.093297
689.977745	3043.329453
690.314930	3023.502595
690.652065	3009.989782
690.989150	2989.303408
691.326185	2970.986375
691.663170	2952.571040
692.000105	2938.607044
692.336990	2920.388314
692.673825	2908.234092
693.010610	2896.689850
693.347345	2878.125801
693.684030	2864.751620
694.020665	2860.307842
694.357251	2848.143538
694.693786	2843.677076
695.030272	2839.402177
695.366707	2829.274499
695.703093	2823.182265
696.039429	2818.176399
696.375716	2811.567447
696.711952	2807.428659
697.048139	2805.117290
697.384276	2802.258956
697.720363	2797.618574
698.056400	2796.691002
698.392388	2794.982050
698.728326	2791.309570
699.064214	2784.496450
699.400053	2782.028806
699.735842	2773.904986
700.071581	2768.712598
700.407270	2762.824530
700.742910	2756.560896
701.078501	2752.522932
701.414042	2751.360946
701.749533	2744.043711
702.084974	2737.308730
702.420366	2734.856208
702.755709	2733.958883
703.091002	2728.688357
703.426246	2721.454301
703.761440	2722.765001
704.096584	2719.954558
704.431679	2715.974567
704.766725	2715.414999
705.101721	2711.122456
705.436668	2708.886704
705.771565	2703.805221
706.106413	2706.915613
706.441212	2703.293544
706.775961	2704.334542
707.110661	2701.753472
707.445311	2704.009388
707.779913	2701.330015
708.114465	2702.948225
708.448967	2702.691126
708.783421	2705.073072
709.117825	2705.209183
709.452180	2705.945191
709.786485	2707.991900
710.120742	2712.995245
710.454949	2714.701675
710.789107	2716.035061
711.123216	2722.094527
711.457275	2724.116030
711.791286	2728.832030
712.125247	2727.813717
712.459159	2730.455281
712.793023	2734.286558
713.126837	2726.422358
713.460602	2727.085270
713.794318	2725.073849
714.127985	2718.356512
714.461602	2709.221941
714.795171	2705.355376
715.128691	2696.699715
715.462162	2694.143850
715.795584	2685.379804
716.128957	2685.677232
716.462281	2677.571057
716.795556	2679.829494
717.128782	2675.839420
717.461960	2669.822803
717.795088	2666.140240
718.128167	2664.751402
718.461198	2660.715959
718.794180	2660.476504
719.127113	2654.885864
719.459997	2653.887716
719.792833	2649.023002
720.125619	2653.834784
720.458357	2646.600728
720.791046	2648.211377
721.123686	2644.082672
721.456278	2644.806077
721.788821	2643.245840
722.121315	2642.126704
722.453761	2645.340440
722.786158	2643.021509
723.118506	2640.765592
723.450805	2638.794501
723.783056	2640.432876
724.115259	2637.209058
724.447412	2636.858698
724.779518	2638.928092
725.111574	2639.212917
725.443582	2642.847589
725.775542	2641.284831
726.107453	2639.928761
726.439315	2638.807104
726.771129	2645.025368
727.102895	2642.366159
727.434612	2644.349853
727.766281	2645.857158
728.097901	2643.374390
728.429473	2640.064872
728.760996	2643.021509
729.092471	2640.016981
729.423897	2646.630975
729.755276	2639.240643
730.086606	2644.208701
730.417887	2645.138793
730.749120	2644.057466
731.080305	2645.579894
731.411442	2646.910759
731.742530	2648.531490
732.073570	2648.130718
732.404562	2647.298928
732.735506	2648.299597
733.066401	2647.303969
733.397249	2642.885398
733.728048	2640.684934
734.058798	2638.232413
734.389501	2634.746455
734.720156	2631.862915
735.050762	2626.668006
735.381320	2627.555249
735.711831	2624.575927
736.042293	2624.820423
736.372707	2622.655247
736.703073	2621.563837
737.033391	2621.888992
737.363661	2622.970319
737.693883	2621.828498
738.024056	2623.696246
738.354182	2621.647017
738.684260	2625.052316
739.014290	2622.395628
739.344272	2624.338993
739.674207	2628.034158
740.004093	2628.729838
740.333931	2626.693212
740.663722	2626.110958
740.993464	2627.870321
741.323159	2628.692029
741.652806	2623.479476
741.982405	2625.039713
742.311956	2623.179527
742.641460	2622.506533
742.970915	2619.955709
743.300323	2620.701800
743.629683	2618.576954
743.958996	2617.334309
744.288260	2616.643671
744.617477	2614.702827
744.946647	2608.255191
745.275768	2609.419698
745.604842	2609.767537
745.933869	2606.193359
746.262847	2608.333329
746.591778	2608.872733
746.920662	2607.982969
747.249498	2608.638319
747.578286	2610.984976
747.907027	2607.453648
748.235720	2611.698299
748.564365	2611.284925
748.892963	2609.376848
749.221514	2610.271653
749.550017	2608.759307
749.878473	2610.188474
750.206881	2609.167640
750.535242	2609.833072
750.863555	2608.653442
751.191821	2608.787033
751.520039	2608.802157
751.848210	2606.500870
752.176334	2605.933740
752.504411	2608.212342
752.832440	2604.179418
753.160421	2608.424070
753.488356	2603.627412
753.816243	2608.255191
754.144082	2604.214707
754.471875	2604.696137
754.799620	2603.438369
755.127318	2599.581886
755.454969	2605.006168
755.782572	2604.433997
756.110129	2606.364759
756.437638	2603.629933
756.765100	2601.673965
757.092515	2603.574480
757.419882	2604.285283
757.747203	2604.285283
758.074477	2601.731938
758.401703	2603.521548
758.728882	2604.640684
759.056014	2605.530448
759.383099	2603.201435
759.710138	2603.917278
760.037129	2604.665890
760.364073	2606.347115
760.690970	2605.830396
761.017820	2606.662187
761.344623	2605.318719
761.671379	2606.750407
761.998088	2602.367124
762.324751	2608.479523
762.651366	2615.262395
762.977935	2629.271762
763.304456	2633.213944
763.630931	2642.189718
763.957359	2640.563946
764.283740	2635.507669
764.610074	2631.996505
764.936362	2627.600619
765.262602	2620.328755
765.588796	2614.516304
765.914943	2612.091509
766.241044	2606.919286
766.567097	2603.758482
766.893104	2600.360744
767.219064	2598.177925
767.544978	2600.106166
767.870845	2596.484097
768.196665	2597.141968
768.522438	2593.532502
768.848165	2593.600557
769.173846	2594.208016
769.499479	2594.329004
769.825066	2593.046030
770.150607	2593.351020
770.476101	2591.871441
770.801548	2593.741709
771.126949	2591.405135
771.452303	2590.018817
771.777611	2588.566965
772.102872	2587.500761
772.428087	2587.962027
772.753256	2589.945721
773.078378	2585.927921
773.403453	2589.862542
773.728482	2588.934969
774.053465	2587.664598
774.378401	2586.202664
774.703291	2585.766604
775.028135	2585.537232
775.352932	2585.196954
775.677683	2587.604105
776.002388	2586.152252
776.327046	2584.826429
776.651658	2588.516553
776.976224	2582.502457
777.300743	2584.614700
777.625216	2586.593353
777.949643	2585.224680
778.274024	2586.731985
778.598359	2580.206211
778.922647	2581.511870
779.246889	2581.335430
779.571086	2580.158320
779.895236	2585.504464
780.219339	2583.929103
780.543397	2584.624783
780.867409	2586.094279
781.191374	2585.186871
781.515294	2582.699062
781.839167	2584.284505
782.162995	2585.254927
782.486776	2587.213415
782.810511	2582.207549
783.134201	2585.547314
783.457844	2585.237283
783.781441	2584.019844
784.104993	2583.556058
784.428498	2584.367684
784.751958	2585.030596
785.075372	2583.571182
785.398739	2583.611511
785.722061	2582.815008
786.045337	2583.276274
786.368568	2581.088413
786.691752	2583.069587
787.014891	2582.300811
787.337983	2583.966912
787.661030	2584.065215
787.984031	2589.096286
788.306987	2590.706935
788.629897	2590.916143
788.952760	2590.548138
789.275579	2587.374732
789.598351	2588.650144
789.921078	2591.455546
790.243759	2586.510174
790.566395	2583.475400
790.888984	2586.048909
791.211529	2585.693507
791.534027	2587.001687
791.856480	2585.136460
792.178888	2585.330544
792.501249	2583.999680
792.823566	2583.119998
793.145836	2583.130081
793.468062	2583.422467
793.790241	2580.377611
794.112375	2582.484813
794.434464	2585.794330
794.756507	2582.091603
795.078505	2584.801223
795.400457	2581.186716
795.722364	2581.206880
796.044226	2582.744432
796.366042	2583.999680
796.687812	2582.656212
797.009538	2584.090420
797.331218	2586.356419
797.652852	2584.178641
797.974442	2584.224011
798.295986	2585.728795
798.617484	2583.856007
798.938938	2586.081676
799.260346	2586.363981
799.581709	2582.510019
799.903026	2586.106882
800.224299	2583.014134
800.545526	2584.319793
800.866708	2582.260482
801.187845	2582.467169
801.508936	2578.557754
801.829983	2581.942889
802.150984	2581.542117
802.471940	2582.794844
802.792851	2580.120512
803.113717	2583.399782
803.434538	2582.139494
803.755314	2580.261664
804.076045	2579.674370
804.396731	2582.661253
804.717372	2580.556572
805.037967	2580.170923
805.358518	2579.550861
805.679024	2579.916345
805.999485	2578.532548
806.319901	2582.643609
806.640272	2581.398444
806.960598	2581.786613
807.280879	2580.402816
807.601115	2583.067066
807.921306	2582.073959
808.241453	2580.619586
808.561554	2580.123032
808.881611	2582.073959
809.201623	2582.782241
809.521590	2581.254771
809.841513	2581.844586
810.161390	2582.867941
810.481223	2584.004721
810.801011	2577.829307
811.120755	2580.622107
811.440453	2581.436253
811.760107	2581.164031
812.079716	2578.996334
812.399281	2575.928792
812.718801	2578.731674
813.038276	2577.032805
813.357707	2579.646643
813.677093	2576.604307
813.996434	2578.053639
814.315731	2579.571026
814.634983	2581.111098
814.954191	2581.463979
815.273354	2578.746797
815.592473	2579.936510
815.911547	2583.026737
816.230577	2582.028588
816.549562	2582.530183
816.868502	2583.276274
817.187399	2583.672005
817.506250	2581.920204
817.825058	2584.239134
818.143821	2586.437077
818.462539	2586.855493
818.781213	2582.872982
819.099843	2583.876171
819.418429	2591.074939
819.736970	2590.958992
820.055466	2593.661051
820.373919	2598.908892
820.692327	2604.678493
821.010691	2612.595625
821.329011	2633.942391
821.647286	2669.810200
821.965517	2709.778989
822.283704	2743.514390
822.601847	2763.515168
822.919945	2752.233066
823.237999	2739.494070
823.556010	2720.133519
823.873976	2706.633309
824.191897	2683.905267
824.509775	2670.631908
824.827609	2659.788387
825.145398	2647.314051
825.463144	2640.778195
825.780845	2634.658235
826.098502	2638.353400
826.416116	2644.155768
826.733685	2650.442087
827.051210	2658.386946
827.368692	2657.257727
827.686129	2647.440080
828.003522	2637.370375
828.320872	2627.875362
828.638177	2616.842797
828.955439	2611.242075
829.272656	2605.341404
829.589830	2600.837133
829.906960	2596.312698
830.224046	2592.723396
830.541088	2591.876482
830.858086	2591.760536
831.175041	2588.667788
831.491952	2588.045206
831.808819	2587.470514
832.125642	2587.057139
832.442421	2591.132912
832.759157	2593.446802
833.075849	2599.644901
833.392497	2608.197218
833.709101	2615.214504
834.025662	2619.660802
834.342179	2616.807509
834.658653	2611.511777
834.975083	2604.567587
835.291469	2603.203955
835.607811	2596.781525
835.924110	2591.127871
836.240366	2592.317583
836.556578	2589.111410
836.872746	2586.190061
837.188871	2581.121181
837.504952	2584.521439
837.820990	2582.794844
838.136984	2579.495409
838.452935	2580.773341
838.768842	2580.319637
839.084706	2579.137487
839.400526	2581.955492
839.716303	2585.433888
840.032037	2591.485793
840.347727	2589.852459
840.663373	2591.485793
840.978977	2589.537387
841.294537	2587.780545
841.610054	2581.673187
841.925527	2580.743094
842.240957	2579.560944
842.556344	2579.260995
842.871687	2578.262847
843.186987	2578.411561
843.502244	2577.705799
843.817458	2577.252095
844.132629	2575.238154
844.447756	2573.612382
844.762840	2569.130796
845.077881	2569.912175
845.392879	2569.050138
845.707833	2569.143399
846.022745	2567.005950
846.337613	2571.177505
846.652438	2572.311764
846.967221	2573.098184
847.281960	2572.200859
847.596656	2572.916703
847.911309	2571.212793
848.225919	2571.245560
848.540485	2568.737586
848.855009	2570.602813
849.169490	2571.616085
849.483928	2572.074830
849.798323	2571.432083
850.112675	2568.992165
850.426984	2571.762279
850.741251	2571.651373
851.055474	2570.557443
851.369654	2572.747824
851.683792	2571.195149
851.997887	2571.555591
852.311938	2572.016857
852.625947	2568.435117
852.939914	2569.776064
853.253837	2571.290931
853.567718	2572.528534
853.881555	2569.312278
854.195350	2572.354614
854.509103	2569.899572
854.822812	2572.994841
855.136479	2569.866805
855.450103	2567.898234
855.763685	2569.239181
856.077224	2569.755899
856.390720	2569.965107
856.704173	2574.025757
857.017584	2571.414439
857.330953	2571.880746
857.644278	2571.066599
857.957561	2574.222362
858.270802	2575.422156
858.584000	2571.439645
858.897155	2571.573235
859.210268	2571.275807
859.523339	2573.960222
859.836367	2569.375292
860.149352	2572.198338
860.462295	2570.176836
860.775195	2564.712225
861.088054	2566.395970
861.400869	2570.733883
861.713642	2567.326063
862.026373	2565.652400
862.339062	2569.405539
862.651708	2571.910993
862.964312	2569.410580
863.276873	2573.055335
863.589392	2572.331929
863.901869	2571.422001
864.214303	2573.594738
864.526696	2570.595252
864.839045	2573.176322
865.151353	2573.138514
865.463619	2571.643812
865.775842	2570.103739
866.088023	2573.849316
866.400162	2573.922413
866.712258	2571.694223
867.024313	2572.566343
867.336325	2571.565674
867.648296	2572.037022
867.960224	2572.470561
868.272110	2572.493246
868.583954	2570.723801
868.895755	2571.142217
869.207515	2575.613720
869.519233	2572.094995
869.830909	2572.145406
870.142542	2573.443503
870.454134	2569.478636
870.765684	2575.248237
871.077191	2572.606672
871.388657	2576.243864
871.700081	2575.429718
872.011463	2575.810325
872.322803	2572.924265
872.634101	2574.585325
872.945357	2575.933833
873.256571	2576.327043
873.567744	2574.686148
873.878874	2573.229254
874.189963	2574.721436
874.501010	2577.068093
874.812015	2576.085068
875.122979	2573.438462
875.433900	2576.092630
875.744780	2575.749831
876.055618	2576.009451
876.366415	2573.060376
876.677169	2575.374265
876.987882	2573.183884
877.298554	2571.613565
877.609183	2574.575243
877.919771	2573.065417
878.230317	2577.113463
878.540822	2580.012127
878.851285	2580.947261
879.161707	2581.632858
879.472087	2584.420616
879.782425	2588.176276
880.092722	2598.608943
880.402977	2606.750407
880.713191	2622.219187
881.023363	2639.530510
881.333494	2650.056439
881.643583	2658.540701
881.953631	2665.936074
882.263637	2660.496669
882.573602	2655.021976
882.883526	2650.129536
883.193408	2648.231541
883.503248	2641.068062
883.813048	2634.741414
884.122806	2628.563480
884.432522	2623.373612
884.742197	2616.779782
885.051831	2610.712754
885.361424	2605.774944
885.670975	2602.135231
885.980485	2594.024014
886.289954	2593.403952
886.599382	2588.083014
886.908768	2586.976481
887.218113	2584.995307
887.527417	2585.315421
887.836680	2580.629668
888.145901	2579.611355
888.455082	2579.976839
888.764221	2581.383321
889.073319	2577.264698
889.382376	2577.622620
889.691392	2575.296127
890.000366	2576.669842
890.309300	2576.644636
890.618193	2576.299317
890.927044	2576.601786
891.235855	2573.987948
891.544625	2577.148752
891.853353	2577.431056
892.162041	2578.585480
892.470687	2575.626323
892.779293	2579.641602
893.087858	2577.547003
893.396381	2578.532548
893.704864	2582.401634
894.013306	2585.280133
894.321707	2596.390836
894.630068	2597.262955
894.938387	2596.073243
895.246665	2603.090529
895.554903	2601.989037
895.863100	2596.852101
896.171256	2597.454519
896.479371	2594.533171
896.787446	2590.981678
897.095480	2590.785073
897.403473	2591.233735
897.711425	2587.651996
898.019336	2587.830957
898.327207	2584.319793
898.635038	2583.331727
898.942827	2580.753177
899.250576	2581.867272
899.558284	2577.650346
899.865952	2581.050605
900.173579	2575.039029
900.481165	2576.097671
900.788711	2578.247723
901.096216	2578.164544
901.403681	2574.658422
901.711105	2576.422825
902.018489	2574.512228
902.325832	2577.373083
902.633135	2576.611869
902.940397	2577.340315
903.247619	2577.945254
903.554800	2583.422467
903.861941	2593.804724
904.169041	2600.864860
904.476101	2607.372989
904.783121	2609.412136
905.090100	2605.669079
905.397039	2601.351331
905.703938	2598.538367
906.010796	2597.870414
906.317614	2592.317583
906.624391	2591.042172
906.931129	2589.416399
907.237826	2586.061512
907.544483	2583.777869
907.851099	2581.579926
908.157675	2581.068249
908.464211	2576.634554
908.770707	2573.471230
909.077163	2571.676579
909.383578	2570.446537
909.689954	2569.329922
909.996289	2566.640466
910.302584	2574.305541
910.608839	2572.536096
910.915054	2571.348904
911.221229	2567.212637
911.527363	2572.818400
911.833458	2572.410067
912.139513	2572.977197
912.445527	2570.988462
912.751502	2574.003072
913.057436	2573.448545
913.363331	2576.669842
913.669186	2575.051632
913.975000	2577.441138
914.280775	2575.172619
914.586510	2581.411047
914.892205	2580.312076
915.197859	2589.499578
915.503475	2593.943356
915.809050	2600.726228
916.114585	2604.428956
916.420081	2605.129676
916.725536	2606.921806
917.030952	2606.132866
917.336328	2604.370982
917.641665	2604.960797
917.946961	2603.342587
918.252218	2598.074581
918.557435	2596.584920
918.862612	2596.111052
919.167750	2594.243304
919.472848	2591.102665
919.777906	2587.944383
920.082925	2586.767273
920.387904	2581.201839
920.692843	2584.024885
920.997743	2581.569843
921.302603	2578.542631
921.607423	2577.872157
921.912204	2574.779409
922.216946	2576.861406
922.521647	2574.786971
922.826310	2573.572053
923.130932	2575.465006
923.435516	2572.909141
923.740059	2571.260684
924.044564	2572.372258
924.349028	2573.700602
924.653454	2565.521330
924.957840	2567.731876
925.262186	2567.280693
925.566493	2567.200034
925.870761	2566.844633
926.174989	2569.634912
926.479178	2567.232802
926.783328	2569.879408
927.087438	2568.977041
927.391509	2567.759602
927.695541	2566.829510
927.999533	2570.945612
928.303486	2567.694067
928.607400	2568.614078
928.911275	2568.520817
929.215110	2566.658110
929.518906	2565.879252
929.822663	2568.603996
930.126381	2568.399829
930.430060	2566.821948
930.733699	2566.121228
931.037299	2566.239695
931.340861	2566.625343
931.644383	2567.895714
931.947866	2568.419994
932.251309	2568.745148
932.554714	2570.297823
932.858080	2566.431258
933.161407	2566.711042
933.464694	2568.755230
933.767943	2567.835220
934.071153	2570.738924
934.374323	2568.296485
934.677455	2569.821434
934.980548	2568.543502
935.283602	2567.368913
935.586617	2566.673234
935.889593	2567.149623
936.192530	2565.798594
936.495428	2568.364541
936.798287	2568.324212
937.101108	2570.247412
937.403890	2569.014850
937.706632	2568.641804
938.009336	2567.131979
938.312002	2569.506362
938.614628	2568.480488
938.917216	2571.122052
939.219765	2569.529047
939.522275	2571.974007
939.824747	2571.873184
940.127179	2566.128789
940.429573	2567.890672
940.731929	2567.575600
941.034246	2567.641135
941.336524	2565.559139
941.638763	2569.574418
941.940964	2569.607185
942.243126	2571.293451
942.545250	2569.685323
942.847335	2571.207752
943.149381	2568.480487
943.451389	2568.765313
943.753359	2567.865467
944.055290	2568.563667
944.357182	2569.118193
944.659036	2565.710373
944.960851	2569.256825
945.262628	2567.005950
945.564367	2566.302709
945.866067	2567.220199
946.167729	2565.750703
946.469352	2568.180539
946.770937	2568.203224
947.072484	2566.335477
947.373992	2567.336146
947.675462	2565.665003
947.976893	2569.226578
948.278286	2567.583162
948.579641	2564.374468
948.880958	2566.090981
949.182236	2566.426217
949.483476	2566.963100
949.784678	2567.671382
950.085841	2567.341187
950.386967	2566.159036
950.688054	2569.710529
950.989103	2566.138872
951.290114	2564.160219
951.591087	2567.194993
951.892021	2568.588872
952.192917	2570.849830
952.493776	2568.160374
952.794596	2568.064592
953.095378	2566.196845
953.396122	2567.711712
953.696828	2568.251115
953.997496	2567.981413
954.298126	2568.858574
954.598718	2568.903944
954.899272	2569.425704
955.199788	2565.725497
955.500266	2565.105435
955.800706	2563.973696
956.101108	2563.701474
956.401472	2563.489745
956.701798	2565.899417
957.002087	2561.533778
957.302337	2564.639128
957.602550	2565.733059
957.902724	2564.573593
958.202861	2567.686506
958.502960	2566.774057
958.803022	2564.944118
959.103045	2564.805486
959.403031	2564.808007
959.702979	2564.354303
960.002889	2564.545867
960.302762	2562.892368
960.602596	2561.576627
960.902393	2562.506720
961.202153	2563.877914
961.501875	2564.366906
961.801559	2563.343552
962.101205	2564.649211
962.400814	2564.462688
962.700385	2566.448902
962.999918	2562.975547
963.299414	2560.961607
963.598873	2561.934549
963.898293	2562.857080
964.197677	2562.005125
964.497022	2563.300702
964.796331	2561.498489
965.095601	2562.879766
965.394835	2564.891186
965.694030	2562.335321
965.993189	2565.801114
966.292309	2563.910682
966.591393	2562.824313
966.890439	2563.335990
967.189447	2565.206258
967.488419	2563.283058
967.787353	2562.547049
968.086249	2560.828016
968.385108	2565.362534
968.683930	2564.001422
968.982714	2563.930846
969.281462	2563.966134
969.580172	2562.539488
969.878844	2563.817420
970.177480	2563.449416
970.476078	2563.661144
970.774639	2563.845147
971.073162	2563.845147
971.371649	2560.253324
971.670098	2556.270813
971.968510	2564.225754
972.266885	2556.913560
972.565223	2560.772563
972.863524	2562.582337
973.161788	2563.673747
973.460014	2563.850188
973.758204	2563.038562
974.056356	2564.198027
974.354471	2565.778429
974.652550	2562.542008
974.950591	2563.262893
975.248595	2563.540157
975.546563	2562.012687
975.844493	2563.940928
976.142386	2566.511917
976.440243	2559.799621
976.738062	2562.289951
977.035845	2564.598799
977.333590	2563.716597
977.631299	2565.304561
977.928971	2563.517472
978.226606	2560.369271
978.524204	2564.830692
978.821765	2559.875238
979.119290	2562.030331
979.416777	2563.119220
979.714228	2562.690722
980.011642	2560.954045
980.309020	2563.404046
980.606360	2564.853377
980.903664	2562.854560
981.200931	2562.012687
981.498162	2562.612584
981.795356	2563.577965
982.092513	2561.692574
982.389633	2563.928326
982.686717	2565.133161
982.983764	2566.698440
983.280775	2565.284396
983.577749	2566.736248
983.874686	2566.809345
984.171587	2568.689695
984.468451	2567.280693
984.765279	2565.019735
985.062070	2566.249777
985.358824	2565.652400
985.655543	2566.721125
985.952224	2565.420507
986.248869	2566.564849
986.545478	2558.156204
986.842050	2560.278530
987.138586	2558.693087
987.435086	2558.067984
987.731549	2558.239383
988.027975	2561.533778
988.324366	2563.298181
988.620719	2559.713921
988.917037	2565.029818
989.213318	2561.543860
989.509563	2561.364899
989.805772	2561.546380
990.101944	2560.659137
990.398080	2561.037224
990.694180	2561.690053
990.990244	2560.795248
991.286271	2559.398849
991.582262	2559.479507
991.878217	2561.616957
992.174136	2560.596123
992.470019	2558.251986
992.765865	2562.317677
993.061676	2562.499158
993.357450	2560.245763
993.653188	2558.251986
993.948890	2561.241391
994.244556	2563.197358
994.540186	2560.212995
994.835780	2561.196020
995.131337	2562.728531
995.426859	2561.352296
995.722345	2561.400187
996.017795	2564.220712
996.313208	2564.515620
996.608586	2563.399004
996.903928	2561.979920
997.199234	2563.066288
997.494504	2563.588048
997.789738	2562.040413
998.084936	2561.317008
998.380099	2564.646690
998.675225	2560.923798
998.970316	2562.748696
999.265371	2562.554611
999.560390	2561.876576
999.855373	2563.454457
1000.150320	2559.350958
1000.445232	2560.863304
1000.740108	2561.372461
1001.034948	2561.697615
1001.329752	2562.559652
1001.624521	2562.131154
1001.919254	2558.304918
1002.213951	2556.699311
1002.508613	2556.606050
1002.803239	2557.349620
1003.097829	2552.767211
1003.392384	2560.696946
1003.686903	2560.631411
1003.981386	2558.917419
1004.275834	2557.851215
1004.570246	2560.674261
1004.864623	2560.296174
1005.158964	2559.330793
1005.453270	2559.716442
1005.747540	2558.274672
1006.041775	2559.388767
1006.335974	2559.650907
1006.630138	2557.435319
1006.924266	2559.267779
1007.218359	2556.026317
1007.512416	2559.643345
1007.806438	2560.293654
1008.100425	2558.861966
1008.394376	2557.901626
1008.688292	2557.389949
1008.982172	2560.578479
1009.276017	2558.952707
1009.569827	2555.502037
1009.863602	2560.510423
1010.157341	2558.728375
1010.451045	2559.469425
1010.744714	2559.214847
1011.038347	2558.604867
1011.331945	2560.167625
1011.625508	2560.495300
1011.919036	2558.809034
1012.212528	2556.595967
1012.505986	2558.569579
1012.799408	2557.573951
1013.092795	2558.902295
1013.386147	2558.219219
1013.679464	2557.100083
1013.972745	2559.323232
1014.265992	2559.698797
1014.559204	2560.828016
1014.852380	2559.310629
1015.145521	2557.644527
1015.438628	2556.442212
1015.731699	2555.388611
1016.024736	2557.142932
1016.317737	2557.788200
1016.610703	2558.186451
1016.903635	2554.614794
1017.196531	2557.639486
1017.489393	2557.702501
1017.782219	2552.026161
1018.075011	2557.609239
1018.367768	2558.403221
1018.660490	2557.757953
1018.953177	2557.757953
1019.245829	2557.757953
