Dividing Wavelength (nm)	Counts (n)	Blue Motor Position (mm): 0.000000	Red Motor Position (mm): 1.000000	
326.493990	2151.317445
326.888308	2151.317445
327.282561	2151.317445
327.676750	2123.170163
328.070874	2126.215019
328.464933	2130.300875
328.858929	2141.595580
329.252859	2151.929945
329.646726	2163.776657
330.040528	2179.056394
330.434265	2198.600948
330.827938	2218.952086
331.221547	2237.571587
331.615091	2259.225864
332.008571	2279.536673
332.401986	2299.116514
332.795338	2318.351037
333.188625	2334.903665
333.581847	2357.029289
333.975006	2376.581405
334.368100	2397.570249
334.761129	2413.777558
335.154095	2429.087542
335.546996	2447.505398
335.939833	2458.041410
336.332606	2474.745273
336.725315	2483.453866
337.117960	2490.703045
337.510540	2500.981958
337.903056	2511.618793
338.295508	2515.911335
338.687896	2522.825278
339.080220	2529.288037
339.472480	2536.859850
339.864676	2538.475540
340.256807	2542.828576
340.648875	2544.688762
341.040879	2548.915769
341.432818	2546.072559
341.824694	2548.777138
342.216506	2547.859648
342.608253	2549.871068
342.999937	2546.508618
343.391557	2548.283105
343.783113	2545.029040
344.174605	2546.400234
344.566033	2542.815973
344.957397	2542.727753
345.348697	2539.335057
345.739934	2539.239275
346.131106	2538.873791
346.522215	2534.868594
346.913260	2533.691485
347.304241	2530.956659
347.695159	2529.590506
348.086012	2527.717717
348.476802	2526.326359
348.867528	2527.014477
349.258191	2523.062212
349.648789	2522.931142
350.039324	2521.411234
350.429796	2522.064063
350.820203	2520.705473
351.210548	2518.739423
351.600828	2516.599453
351.991045	2516.982580
352.381198	2518.134484
352.771288	2518.013496
353.161314	2515.487878
353.551276	2516.717920
353.941175	2516.748167
354.331010	2517.776562
354.720782	2517.953003
355.110490	2515.923938
355.500135	2517.363187
355.889717	2515.976870
356.279235	2521.932993
356.668689	2517.889988
357.058080	2516.410409
357.447408	2514.925790
357.836672	2515.775224
358.225873	2517.922756
358.615010	2518.431912
359.004084	2518.615914
359.393095	2522.716893
359.782043	2522.235463
360.170927	2523.445340
360.559748	2522.948786
360.948505	2526.026410
361.337199	2523.397449
361.725830	2525.257634
362.114398	2524.297295
362.502903	2525.547501
362.891344	2524.503982
363.279722	2526.444826
363.668037	2527.586648
364.056289	2527.332069
364.444478	2527.311905
364.832603	2527.750485
365.220665	2528.216792
365.608665	2527.937008
365.996601	2530.013963
366.384474	2528.604961
366.772284	2529.711494
367.160031	2529.184693
367.547715	2528.302491
367.935336	2528.355423
368.322893	2531.367513
368.710388	2529.706453
369.097820	2532.690816
369.485189	2530.215609
369.872495	2531.221319
370.259738	2531.586803
370.646918	2533.613347
371.034035	2531.327184
371.421090	2532.889941
371.808081	2529.333407
372.195010	2534.785415
372.581875	2531.939684
372.968678	2533.522606
373.355418	2531.478418
373.742096	2535.274407
374.128710	2532.826927
374.515262	2534.601413
374.901751	2533.361289
375.288177	2534.389685
375.674540	2535.047555
376.060841	2536.552340
376.447079	2534.273738
376.833254	2535.539068
377.219367	2530.888603
377.605417	2532.640404
377.991404	2533.046217
378.377329	2534.205683
378.763191	2532.615198
379.148991	2536.940508
379.534727	2534.621578
379.920402	2538.818338
380.306013	2535.201310
380.691563	2538.291538
381.077049	2537.553009
381.462474	2540.444110
381.847835	2539.829090
382.233134	2540.920499
382.618371	2537.878163
383.003545	2539.589635
383.388657	2539.226672
383.773706	2541.563247
384.158693	2539.660211
384.543618	2540.217258
384.928480	2538.926723
385.313280	2541.212886
385.698017	2538.929244
386.082692	2539.662732
386.467305	2542.982331
386.851856	2541.643905
387.236344	2542.405119
387.620770	2542.997455
388.005133	2539.514018
388.389435	2542.382434
388.773674	2540.141641
389.157851	2539.259439
389.541965	2539.435880
389.926018	2541.845551
390.310008	2543.544420
390.693936	2540.136600
391.077802	2541.568288
391.461606	2542.952084
391.845348	2544.008206
392.229027	2545.208001
392.612645	2547.476520
392.996200	2544.807229
393.379694	2545.359235
393.763125	2545.898639
394.146494	2543.400747
394.529801	2545.308824
394.913047	2545.807898
395.296230	2546.339740
395.679351	2548.157076
396.062410	2544.552651
396.445408	2545.412167
396.828343	2545.911242
397.211217	2543.536858
397.594028	2543.335212
397.976778	2543.849410
398.359466	2544.779503
398.742092	2543.408309
399.124656	2547.163968
399.507158	2549.563558
399.889598	2547.292518
400.271977	2548.923331
400.654294	2548.983825
401.036549	2547.857127
401.418742	2548.124308
401.800874	2546.236396
402.182944	2549.835780
402.564952	2548.938455
402.946898	2548.479710
403.328783	2549.160265
403.710606	2549.795451
404.092367	2548.893084
404.474067	2550.884340
404.855705	2549.064483
405.237282	2553.059598
405.618797	2548.855276
406.000250	2547.738660
406.381642	2551.448949
406.762972	2550.806202
407.144240	2549.288815
407.525447	2553.452808
407.906593	2549.719833
408.287677	2550.922149
408.668700	2547.703372
409.049661	2554.014897
409.430560	2550.334854
409.811399	2552.076573
410.192176	2551.322920
410.572891	2550.155893
410.953545	2553.735112
411.334138	2551.968188
411.714669	2551.040616
412.095139	2550.581871
412.475547	2552.169834
412.855894	2551.953065
413.236180	2551.302756
413.616405	2554.818961
413.996568	2553.835936
414.376670	2554.619835
414.756711	2555.534804
415.136691	2554.483724
415.516609	2555.222253
415.896466	2555.358364
416.276262	2555.973385
416.655997	2548.343598
417.035670	2550.307128
417.415283	2548.741850
417.794834	2549.515667
418.174324	2553.407437
418.553753	2553.384752
418.933121	2556.205278
419.312428	2551.448949
419.691674	2555.522202
420.070859	2555.983467
420.449983	2552.162272
420.829045	2556.469938
421.208047	2557.382387
421.586988	2556.323745
421.965867	2557.682336
422.344686	2556.200237
422.723444	2556.086811
423.102141	2554.392983
423.480777	2557.394990
423.859352	2561.261555
424.237866	2557.982285
424.616319	2558.231822
424.994712	2556.931204
425.373044	2559.817265
425.751314	2557.067315
426.129524	2558.105793
426.507673	2559.287943
426.885762	2555.265103
427.263789	2560.074363
427.641756	2556.961451
428.019662	2557.946997
428.397508	2559.766853
428.775292	2560.515464
429.153016	2557.397511
429.530679	2561.493448
429.908282	2559.108982
430.285824	2557.959599
430.663305	2556.522871
431.040726	2559.827347
431.418086	2561.589230
431.795385	2559.671071
432.172624	2559.411452
432.549802	2559.988664
432.926920	2559.605536
433.303977	2562.030331
433.680974	2560.976730
434.057910	2560.311298
434.434786	2560.931360
434.811601	2562.075702
435.188355	2558.604867
435.565050	2562.844477
435.941683	2559.582851
436.318257	2555.149156
436.694770	2554.962633
437.071222	2556.948848
437.447614	2558.562017
437.823946	2556.527912
438.200218	2563.179714
438.576429	2560.843139
438.952580	2562.660475
439.328670	2560.026472
439.704700	2559.676112
440.080670	2561.997564
440.456580	2561.659806
440.832429	2561.609395
441.208218	2559.454302
441.583947	2563.393963
441.959616	2560.139898
442.335224	2562.191648
442.710773	2560.144940
443.086261	2562.892368
443.461689	2561.226267
443.837057	2561.821123
444.212365	2561.871535
444.587612	2563.041083
444.962800	2562.768860
445.337927	2561.942111
445.712995	2565.644838
446.088002	2563.998902
446.462949	2564.172822
446.837837	2564.926474
447.212664	2566.398491
447.587431	2563.308264
447.962139	2561.795918
448.336786	2561.185938
448.711374	2564.707184
449.085901	2565.859087
449.460369	2564.805486
449.834776	2562.312636
450.209124	2562.814231
450.583412	2564.828172
450.957640	2563.993861
451.331808	2565.236505
451.705917	2565.435631
452.079965	2565.012174
452.453954	2563.388922
452.827883	2563.310784
453.201752	2563.583007
453.575562	2564.218192
453.949311	2565.884293
454.323001	2563.714077
454.696632	2566.514437
455.070202	2568.828327
455.443713	2564.767678
455.817164	2560.248283
456.190556	2560.785166
456.563888	2564.198027
456.937160	2559.784497
457.310373	2566.002760
457.683526	2565.362534
458.056619	2566.612740
458.429653	2566.345559
458.802628	2566.388409
459.175542	2566.085939
459.548398	2567.643656
459.921194	2566.025446
460.293930	2564.903789
460.666607	2563.111659
461.039224	2565.733059
461.411782	2565.365054
461.784280	2566.030487
462.156719	2567.341187
462.529099	2565.982596
462.901419	2565.712894
463.273680	2565.478480
463.645882	2566.784139
464.018024	2564.631567
464.390106	2564.765157
464.762130	2566.345559
465.134094	2569.234140
465.505999	2567.530230
465.877845	2566.940415
466.249631	2568.813204
466.621358	2568.709860
466.993026	2569.992834
467.364634	2570.446537
467.736184	2569.181208
468.107674	2568.704819
468.479105	2565.808676
468.850477	2566.864798
469.221790	2569.944943
469.593043	2567.169787
469.964238	2568.750189
470.335373	2568.488049
470.706449	2570.139027
471.077467	2567.121897
471.448425	2568.475446
471.819324	2569.123235
472.190164	2568.213306
472.560945	2567.396639
472.931667	2566.542164
473.302330	2568.578790
473.672934	2569.841599
474.043479	2568.170457
474.413965	2571.152299
474.784393	2566.406053
475.154761	2567.452092
475.525070	2564.954200
475.895321	2565.496124
476.265513	2563.489745
476.635645	2570.312947
477.005719	2566.993347
477.375734	2569.113152
477.745691	2568.483008
478.115588	2569.637432
478.485427	2569.249263
478.855207	2569.299675
479.224928	2567.898234
479.594591	2571.011147
479.964194	2568.828327
480.333739	2570.496949
480.703226	2568.941753
481.072653	2569.985272
481.442022	2571.737073
481.811333	2570.857392
482.180584	2569.430745
482.549777	2567.391598
482.918912	2569.302196
483.287988	2570.194480
483.657005	2569.554253
484.025964	2569.992834
484.394864	2567.484860
484.763706	2572.016857
485.132489	2569.375292
485.501213	2569.201372
485.869879	2569.657597
486.238487	2566.947977
486.607036	2568.261197
486.975527	2573.141034
487.343959	2569.733214
487.712333	2568.535940
488.080648	2570.708677
488.448905	2570.179356
488.817104	2570.098698
489.185244	2571.691703
489.553326	2570.418811
489.921350	2571.739593
490.289315	2570.963256
490.657222	2572.929306
491.025070	2568.863615
491.392861	2570.597772
491.760593	2571.079202
492.128267	2570.862433
492.495883	2571.565674
492.863440	2571.298493
493.230939	2570.673389
493.598380	2573.249419
493.965763	2568.079716
494.333088	2568.137689
494.700354	2567.068964
495.067563	2567.540312
495.434713	2565.294478
495.801805	2570.436455
496.168839	2570.693554
496.535815	2571.001064
496.902733	2569.259346
497.269593	2572.531055
497.636395	2568.540981
498.003139	2570.759089
498.369825	2569.675241
498.736453	2571.663976
499.103023	2571.953842
499.469535	2573.435942
499.835989	2572.218503
500.202385	2571.006106
500.568723	2573.448545
500.935003	2571.792526
501.301226	2571.817731
501.667390	2574.633216
502.033497	2575.709502
502.399546	2570.766651
502.765537	2572.551219
503.131470	2573.146075
503.497345	2571.492577
503.863163	2574.728998
504.228923	2572.599110
504.594625	2574.613051
504.960269	2570.562484
505.325856	2572.765468
505.691385	2571.734552
506.056856	2575.654049
506.422270	2574.333267
506.787625	2572.548699
507.152924	2572.107598
507.518164	2574.481981
507.883347	2572.939388
508.248472	2570.010478
508.613540	2575.079358
508.978550	2571.232957
509.343503	2572.934347
509.708398	2573.761096
510.073236	2573.085582
510.438016	2573.773699
510.802738	2571.971487
511.167403	2573.335119
511.532010	2569.874367
511.896561	2570.721280
512.261053	2572.936867
512.625488	2570.474264
512.989866	2568.127607
513.354186	2568.351938
513.718449	2570.479305
514.082655	2568.815724
514.446803	2572.042063
514.810894	2570.779254
515.174927	2572.921744
515.538904	2570.179356
515.902822	2572.210941
516.266684	2572.183215
516.630488	2575.407033
516.994235	2574.918041
517.357925	2572.394943
517.721558	2577.357959
518.085133	2573.672876
518.448651	2574.529872
518.812112	2571.744635
519.175516	2573.980386
519.538863	2574.751683
519.902152	2573.322516
520.265385	2574.421487
520.628560	2575.263360
520.991678	2574.696230
521.354739	2571.913513
521.717743	2572.964594
522.080690	2576.148083
522.443580	2574.633216
522.806413	2572.679769
523.169189	2572.311764
523.531908	2575.901066
523.894569	2574.214800
524.257174	2573.027608
524.619722	2573.549368
524.982213	2573.866960
525.344647	2573.604820
525.707025	2573.342680
526.069345	2576.120356
526.431608	2573.577094
526.793815	2577.115984
527.155964	2573.443503
527.518057	2575.938875
527.880093	2574.366035
528.242072	2574.797053
528.603995	2574.907959
528.965860	2574.171950
529.327669	2574.716395
529.689421	2573.256981
530.051117	2573.393092
530.412755	2571.994172
530.774337	2574.066086
531.135862	2575.081878
531.497331	2573.617423
531.858743	2570.481826
532.220098	2572.909141
532.581396	2570.133986
532.942638	2569.566856
533.303824	2572.604151
533.664953	2577.501632
534.026025	2576.760583
534.387040	2573.546847
534.747999	2570.779254
535.108902	2573.992989
535.469748	2574.393761
535.830537	2575.059193
536.191270	2570.638101
536.551947	2573.778740
536.912567	2575.134811
537.273131	2572.510890
537.633638	2575.235634
537.994089	2573.143555
538.354483	2570.131465
538.714821	2578.270408
539.075103	2576.246385
539.435328	2575.344018
539.795497	2575.611200
540.155609	2575.328895
540.515665	2571.356466
540.875665	2575.346539
541.235609	2572.820921
541.595496	2577.040367
541.955328	2574.290417
542.315102	2572.939388
542.674821	2571.974007
543.034483	2575.974163
543.394090	2569.955025
543.753640	2575.575912
544.113134	2573.350242
544.472571	2573.680438
544.831953	2572.299162
545.191278	2573.430901
545.550548	2575.086920
545.909761	2573.882084
546.268918	2574.905438
546.628019	2573.201528
546.987064	2573.874522
547.346053	2576.357290
547.704986	2575.654049
548.063863	2575.989286
548.422684	2575.535582
548.781449	2574.015674
549.140158	2573.380489
549.498811	2577.947774
549.857408	2573.874522
550.215949	2570.960735
550.574434	2573.594738
550.932864	2574.209759
551.291237	2569.037535
551.649555	2575.956519
552.007817	2575.003741
552.366022	2575.953998
552.724173	2575.706982
553.082267	2573.705643
553.440305	2574.310582
553.798288	2577.118505
554.156215	2576.198494
554.514086	2572.909141
554.871902	2573.284707
555.229661	2576.034657
555.587365	2573.940057
555.945014	2574.217321
556.302606	2574.154306
556.660143	2574.088771
557.017625	2574.071127
557.375050	2573.642629
557.732421	2574.199677
558.089735	2575.641447
558.446994	2574.348391
558.804197	2573.919892
559.161345	2574.792012
559.518437	2574.081209
559.875474	2573.935016
560.232455	2575.701940
560.589381	2574.610531
560.946251	2578.149421
561.303065	2576.639595
561.659825	2576.014492
562.016528	2572.891497
562.373177	2577.632702
562.729770	2576.596745
563.086307	2575.124728
563.442789	2574.146744
563.799216	2575.112125
564.155587	2574.794533
564.511904	2575.533062
564.868164	2575.565829
565.224370	2577.423494
565.580520	2573.524162
565.936615	2577.302507
566.292654	2576.533731
566.648638	2573.259501
567.004567	2576.944585
567.360441	2574.219841
567.716260	2577.461303
568.072023	2575.764955
568.427732	2572.853688
568.783385	2571.679100
569.138982	2570.121383
569.494525	2575.391909
569.850013	2575.701940
570.205445	2574.764286
570.560823	2572.286559
570.916145	2579.109760
571.271412	2572.805797
571.626625	2576.576581
571.981782	2573.763617
572.336884	2577.113463
572.691931	2575.454924
573.046923	2575.689337
573.401860	2575.517938
573.756743	2576.858885
574.111570	2576.591704
574.466342	2575.134811
574.821059	2576.574060
575.175722	2574.345870
575.530330	2573.788823
575.884882	2578.378793
576.239380	2576.972311
576.593823	2578.303176
576.948211	2575.941395
577.302544	2576.914338
577.656823	2576.140521
578.011047	2575.817887
578.365216	2577.385686
578.719330	2575.601117
579.073389	2576.183371
579.427394	2574.320664
579.781344	2574.424008
580.135239	2574.323185
580.489080	2575.235634
580.842866	2576.513566
581.196597	2574.499625
581.550273	2577.342836
581.903895	2575.696899
582.257463	2578.656057
582.610975	2575.588514
582.964434	2575.528021
583.317837	2578.197312
583.671186	2578.076324
584.024481	2574.769327
584.377721	2576.188412
584.730906	2574.862588
585.084037	2574.847465
585.437113	2573.937537
585.790135	2575.427197
586.143103	2577.181519
586.496016	2575.827969
586.848874	2573.561971
587.201679	2572.213462
587.554428	2573.330077
587.907124	2571.497618
588.259765	2573.072979
588.612352	2576.022054
588.964884	2572.566343
589.317362	2575.076837
589.669786	2572.717577
590.022155	2577.720923
590.374470	2573.801425
590.726731	2576.465675
591.078937	2577.138669
591.431090	2577.357959
591.783188	2575.099522
592.135232	2573.249419
592.487222	2573.461147
592.839157	2574.887794
593.191038	2575.008782
593.542866	2578.131777
593.894639	2576.710171
594.246358	2575.964080
594.598022	2577.289904
594.949633	2575.422156
595.301190	2573.279666
595.652692	2577.065572
596.004141	2574.852506
596.355535	2576.725295
596.706876	2574.855027
597.058162	2573.506518
597.409395	2576.369893
597.760573	2577.438618
598.111698	2574.446693
598.462768	2576.727815
598.813785	2575.825449
599.164748	2575.981724
599.515657	2577.234451
599.866511	2576.168247
600.217312	2576.059862
600.568060	2573.342680
600.918753	2579.634040
601.269392	2575.538103
601.619978	2573.027608
601.970510	2574.741601
602.320988	2578.398958
602.671412	2574.126580
603.021783	2576.788309
603.372100	2575.643967
603.722363	2575.394430
604.072572	2577.262177
604.422728	2578.315779
604.772830	2570.998544
605.122878	2570.653225
605.472872	2570.537278
605.822813	2569.569377
606.172701	2570.312947
606.522534	2574.885273
606.872314	2573.844275
607.222041	2576.500963
607.571714	2576.886612
607.921333	2575.538103
608.270899	2575.701940
608.620411	2574.731518
608.969870	2577.670511
609.319276	2574.544996
609.668627	2578.487178
610.017926	2576.203535
610.367171	2574.981055
610.716362	2573.085582
611.065500	2575.628844
611.414585	2576.536251
611.763616	2577.259657
612.112594	2575.495253
612.461518	2574.043401
612.810389	2574.492063
613.159207	2574.940726
613.507971	2579.147569
613.856682	2575.054152
614.205340	2575.578432
614.553945	2575.152455
614.902496	2578.441807
615.250994	2574.996179
615.599439	2576.170768
615.947830	2575.336457
616.296169	2575.638926
616.644454	2576.120356
616.992686	2575.875860
617.340864	2575.470047
617.688990	2576.135480
618.037063	2577.806622
618.385082	2576.516087
618.733048	2575.485171
619.080961	2575.386868
619.428821	2577.400809
619.776628	2572.876374
620.124382	2576.843762
620.472083	2576.382496
620.819731	2574.945767
621.167326	2575.613720
621.514868	2575.780078
621.862357	2574.862588
622.209793	2573.864440
622.557176	2578.167065
622.904506	2572.200859
623.251783	2571.185067
623.599007	2573.302351
623.946179	2573.183884
624.293297	2571.331260
624.640363	2575.691858
624.987376	2576.430387
625.334336	2576.841241
625.681243	2575.061714
626.028097	2575.321333
626.374899	2575.207907
626.721647	2578.852662
627.068343	2578.219997
627.414987	2577.015161
627.761577	2574.784450
628.108115	2576.160685
628.454600	2573.859399
628.801032	2576.548854
629.147412	2574.913000
629.493739	2575.467527
629.840014	2578.308217
630.186236	2575.160016
630.532405	2575.338977
630.878521	2575.593556
631.224585	2578.792168
631.570597	2576.684965
631.916556	2575.288566
632.262462	2576.342167
632.608316	2577.153793
632.954117	2573.877043
633.299866	2575.449883
633.645562	2574.502146
633.991206	2576.538772
634.336797	2577.123546
634.682336	2576.261508
635.027823	2573.546847
635.373257	2574.870150
635.718639	2573.239337
636.063968	2574.739080
636.409245	2575.313772
636.754470	2574.741601
637.099642	2573.614903
637.444762	2576.221179
637.789829	2571.255643
638.134845	2574.575243
638.479808	2573.451065
638.824719	2575.890984
639.169577	2574.451734
639.514383	2576.017012
639.859137	2576.165727
640.203839	2575.419636
640.548489	2577.078175
640.893086	2572.662125
641.237632	2572.581466
641.582125	2571.840417
641.926566	2568.835889
642.270955	2573.645150
642.615292	2575.724626
642.959576	2575.691858
643.303809	2574.968452
643.647990	2572.573904
643.992118	2577.632702
644.336195	2573.423339
644.680219	2573.730849
645.024192	2572.833524
645.368112	2576.279152
645.711981	2576.495922
646.055797	2574.681107
646.399562	2577.786457
646.743274	2574.176991
647.086935	2575.631364
647.430544	2574.045921
647.774101	2574.860068
648.117606	2576.959708
648.461059	2576.054821
648.804460	2578.348546
649.147810	2574.608010
649.491108	2574.577763
649.834354	2576.059862
650.177548	2574.640777
650.520690	2576.861406
650.863781	2575.064234
651.206820	2576.024574
651.549807	2575.097002
651.892742	2574.156827
652.235626	2571.651373
652.578458	2572.510890
652.921238	2574.192115
653.263967	2574.434090
653.606644	2572.891497
653.949269	2574.013154
654.291843	2573.529203
654.634365	2574.706313
654.976836	2575.530541
655.319255	2573.693041
655.661622	2574.484502
656.003938	2576.329564
656.346203	2575.122208
656.688416	2576.233782
657.030577	2574.103895
657.372687	2574.421487
657.714746	2573.919892
658.056753	2575.187743
658.398708	2572.059707
658.740612	2574.902917
659.082465	2569.581980
659.424266	2569.219017
659.766016	2571.575756
660.107715	2572.662125
660.449362	2576.392578
660.790958	2573.735890
661.132503	2577.337795
661.473996	2575.568350
661.815438	2574.126580
662.156829	2575.303689
662.498168	2576.735377
662.839456	2572.639439
663.180693	2573.821590
663.521879	2575.366704
663.863013	2571.953843
664.204097	2573.690520
664.545129	2572.594069
664.886110	2573.367886
665.227040	2574.734039
665.567918	2577.552044
665.908746	2573.471230
666.249522	2573.887125
666.590248	2573.372927
666.930922	2575.769996
667.271545	2573.660273
667.612118	2575.167578
667.952639	2573.690520
668.293109	2576.248906
668.633528	2576.768144
668.973896	2574.424008
669.314213	2574.212279
669.654480	2572.205900
669.994695	2574.479461
670.334859	2576.896694
670.674973	2575.429718
671.015035	2578.214956
671.355047	2573.529203
671.695008	2574.048442
672.034918	2572.561302
672.374777	2575.850654
672.714585	2573.393092
673.054342	2573.012485
673.394049	2574.429049
673.733705	2574.325705
674.073310	2573.181363
674.412864	2576.206056
674.752368	2573.776220
675.091820	2575.162537
675.431223	2574.454255
675.770574	2573.940057
676.109875	2573.148596
676.449125	2571.127093
676.788324	2570.691033
677.127473	2572.515931
677.466571	2570.060889
677.805619	2576.198494
678.144616	2573.345201
678.483562	2573.861919
678.822458	2573.125911
679.161303	2577.577250
679.500098	2573.466189
679.838842	2577.650346
680.177535	2571.613565
680.516179	2572.871332
680.854771	2573.080540
681.193314	2574.804615
681.531805	2573.551888
681.870247	2575.563309
682.208638	2573.236816
682.546978	2572.828483
682.885268	2574.948288
683.223508	2576.062383
683.561697	2572.447876
683.899836	2575.112125
684.237925	2574.403843
684.575963	2573.178843
684.913951	2573.642629
685.251889	2576.576581
685.589776	2575.033987
685.927614	2573.942578
686.265401	2574.605489
686.603137	2573.788823
686.940824	2572.342011
687.278460	2575.669173
687.616046	2574.970973
687.953582	2575.379307
688.291068	2573.733370
688.628504	2573.388051
688.965889	2574.139183
689.303224	2572.170612
689.640510	2573.100705
689.977745	2574.101374
690.314930	2575.323854
690.652065	2574.297979
690.989150	2573.526682
691.326185	2575.709502
691.663170	2573.423339
692.000105	2574.320664
692.336990	2575.225551
692.673825	2576.190932
693.010610	2574.764286
693.347345	2570.990982
693.684030	2570.549881
694.020665	2571.250602
694.357251	2571.772361
694.693786	2572.712536
695.030272	2573.642629
695.366707	2572.120201
695.703093	2572.011816
696.039429	2573.801425
696.375716	2574.204718
696.711952	2574.406364
697.048139	2572.757907
697.384276	2572.699933
697.720363	2574.257650
698.056400	2574.353432
698.392388	2574.386199
698.728326	2571.999213
699.064214	2571.061558
699.400053	2573.380489
699.735842	2574.245047
700.071581	2574.320664
700.407270	2572.667166
700.742910	2574.592887
701.078501	2573.105746
701.414042	2574.839903
701.749533	2574.960891
702.084974	2575.918710
702.420366	2574.655901
702.755709	2572.581466
703.091002	2573.942578
703.426246	2574.010633
703.761440	2572.866291
704.096584	2573.761096
704.431679	2576.780747
704.766725	2572.427711
705.101721	2574.449214
705.436668	2574.585325
705.771565	2572.735221
706.106413	2575.767475
706.441212	2572.808318
706.775961	2574.555078
707.110661	2572.367217
707.445311	2576.410223
707.779913	2572.644481
708.114465	2576.120356
708.448967	2575.212948
708.783421	2572.490725
709.117825	2572.445355
709.452180	2574.174471
709.786485	2574.358473
710.120742	2571.220355
710.454949	2572.873853
710.789107	2571.144737
711.123216	2570.199521
711.457275	2573.665314
711.791286	2570.996023
712.125247	2570.025601
712.459159	2574.066086
712.793023	2572.226065
713.126837	2574.502146
713.460602	2574.131621
713.794318	2572.694892
714.127985	2573.009964
714.461602	2573.829152
714.795171	2574.817218
715.128691	2570.736404
715.462162	2573.874522
715.795584	2573.425859
716.128957	2572.210941
716.462281	2570.817062
716.795556	2574.734039
717.128782	2573.597259
717.461960	2571.648853
717.795088	2572.702454
718.128167	2573.012485
718.461198	2573.677917
718.794180	2572.873853
719.127113	2573.153637
719.459997	2572.130283
719.792833	2574.716395
720.125619	2571.840417
720.458357	2574.658422
720.791046	2571.643812
721.123686	2574.890315
721.456278	2576.574060
721.788821	2573.332598
722.121315	2573.090623
722.453761	2572.551219
722.786158	2570.847309
723.118506	2574.597928
723.450805	2571.202711
723.783056	2573.723288
724.115259	2573.662794
724.447412	2571.916034
724.779518	2573.907290
725.111574	2574.285376
725.443582	2572.450396
725.775542	2572.785633
726.107453	2573.851837
726.439315	2573.443503
726.771129	2576.342167
727.102895	2574.469378
727.434612	2576.248906
727.766281	2571.127093
728.097901	2569.352607
728.429473	2569.168605
728.760996	2570.817062
729.092471	2567.131979
729.423897	2572.465520
729.755276	2572.142886
730.086606	2574.386199
730.417887	2574.260170
730.749120	2570.517114
731.080305	2572.518452
731.411442	2573.577094
731.742530	2570.743966
732.073570	2575.497774
732.404562	2572.669686
732.735506	2575.102043
733.066401	2573.567012
733.397249	2572.324367
733.728048	2571.537947
734.058798	2573.864440
734.389501	2573.970304
734.720156	2573.703123
735.050762	2569.650035
735.381320	2572.692372
735.711831	2573.274625
736.042293	2574.645819
736.372707	2572.921744
736.703073	2570.625498
737.033391	2573.942578
737.363661	2574.804615
737.693883	2572.193297
738.024056	2574.111456
738.354182	2571.878225
738.684260	2574.338308
739.014290	2572.697413
739.344272	2573.130952
739.674207	2569.793708
740.004093	2570.668348
740.333931	2572.687330
740.663722	2571.348904
740.993464	2571.079202
741.323159	2573.529203
741.652806	2573.834193
741.982405	2571.711867
742.311956	2573.251940
742.641460	2573.083061
742.970915	2573.181363
743.300323	2574.638257
743.629683	2571.323698
743.958996	2573.718246
744.288260	2572.790674
744.617477	2574.504666
744.946647	2568.654407
745.275768	2571.606003
745.604842	2571.243040
745.933869	2569.342525
746.262847	2569.004767
746.591778	2571.994172
746.920662	2569.241702
747.249498	2572.770509
747.578286	2574.653380
747.907027	2572.982238
748.235720	2573.224213
748.564365	2569.793708
748.892963	2568.946794
749.221514	2571.036352
749.550017	2575.989286
749.878473	2572.672207
750.206881	2569.418142
750.535242	2574.537434
750.863555	2575.248237
751.191821	2573.098184
751.520039	2572.881415
751.848210	2573.544327
752.176334	2573.682958
752.504411	2573.599779
752.832440	2573.781261
753.160421	2572.704974
753.488356	2572.606672
753.816243	2573.151117
754.144082	2571.558112
754.471875	2571.139696
754.799620	2572.160530
755.127318	2570.025601
755.454969	2571.482495
755.782572	2571.764799
756.110129	2573.501477
756.437638	2572.899059
756.765100	2572.450396
757.092515	2570.166753
757.419882	2571.709347
757.747203	2570.771692
758.074477	2570.706157
758.401703	2571.603482
758.728882	2572.271435
759.056014	2571.638770
759.383099	2571.023750
759.710138	2572.594069
760.037129	2574.955850
760.364073	2572.621795
760.690970	2569.854202
761.017820	2573.564491
761.344623	2572.891497
761.671379	2572.717577
761.998088	2566.680796
762.324751	2571.265725
762.651366	2568.664490
762.977935	2569.604665
763.304456	2566.005281
763.630931	2571.638770
763.957359	2571.260684
764.283740	2572.100036
764.610074	2573.861919
764.936362	2573.493915
765.262602	2572.253791
765.588796	2572.208421
765.914943	2571.106929
766.241044	2569.879408
766.567097	2568.987123
766.893104	2569.632391
767.219064	2573.604820
767.544978	2571.477453
767.870845	2571.565674
768.196665	2574.265212
768.522438	2571.343863
768.848165	2571.013667
769.173846	2571.248081
769.499479	2569.644994
769.825066	2573.675397
770.150607	2573.302351
770.476101	2571.510221
770.801548	2572.677248
771.126949	2570.875036
771.452303	2571.563153
771.777611	2569.955025
772.102872	2572.551219
772.428087	2570.300344
772.753256	2573.262022
773.078378	2573.909810
773.403453	2573.115828
773.728482	2572.001733
774.053465	2571.348904
774.378401	2570.000395
774.703291	2569.481157
775.028135	2570.507031
775.352932	2571.558112
775.677683	2572.704974
776.002388	2573.743452
776.327046	2573.607341
776.651658	2573.413257
776.976224	2570.151630
777.300743	2571.424521
777.625216	2569.193811
777.949643	2572.984758
778.274024	2570.648184
778.598359	2570.774212
778.922647	2567.918399
779.246889	2567.936043
779.571086	2566.731207
779.895236	2568.956877
780.219339	2570.174315
780.543397	2569.644994
780.867409	2571.623647
781.191374	2574.184553
781.515294	2570.766651
781.839167	2570.746486
782.162995	2567.878070
782.486776	2570.126424
782.810511	2572.800756
783.134201	2569.329922
783.457844	2571.303534
783.781441	2571.222875
784.104993	2569.836558
784.428498	2572.672207
784.751958	2570.680951
785.075372	2570.237330
785.398739	2572.309244
785.722061	2572.997361
786.045337	2569.758420
786.368568	2570.776733
786.691752	2571.855540
787.014891	2569.536609
787.337983	2572.490725
787.661030	2571.840417
787.984031	2569.017370
788.306987	2571.807649
788.629897	2572.987279
788.952760	2573.297310
789.275579	2570.827145
789.598351	2571.502659
789.921078	2569.483677
790.243759	2569.677762
790.566395	2569.750858
790.888984	2571.401836
791.211529	2571.263204
791.534027	2571.056517
791.856480	2571.237999
792.178888	2572.568863
792.501249	2569.425704
792.823566	2569.902093
793.145836	2568.755230
793.468062	2573.130952
793.790241	2571.505180
794.112375	2571.996692
794.434464	2569.319840
794.756507	2569.869325
795.078505	2570.015519
795.400457	2568.737586
795.722364	2565.949828
796.044226	2568.997206
796.366042	2569.130796
796.687812	2570.799418
797.009538	2569.392936
797.331218	2570.872515
797.652852	2569.518965
797.974442	2567.421845
798.295986	2571.323698
798.617484	2567.933522
798.938938	2570.123904
799.260346	2571.280848
799.581709	2570.638101
799.903026	2573.125911
800.224299	2571.369069
800.545526	2572.450396
800.866708	2569.168605
801.187845	2569.375292
801.508936	2572.026939
801.829983	2571.142217
802.150984	2572.813359
802.471940	2574.484502
802.792851	2571.192628
803.113717	2572.410067
803.434538	2571.139696
803.755314	2571.059038
804.076045	2569.957546
804.396731	2569.932340
804.717372	2570.116342
805.037967	2569.148440
805.358518	2569.725652
805.679024	2570.890159
805.999485	2571.548030
806.319901	2571.565674
806.640272	2569.362689
806.960598	2572.246229
807.280879	2569.125755
807.601115	2571.691703
807.921306	2570.302865
808.241453	2570.779254
808.561554	2569.697926
808.881611	2571.046435
809.201623	2572.067268
809.521590	2572.024419
809.841513	2570.035683
810.161390	2571.139696
810.481223	2567.648697
810.801011	2573.264543
811.120755	2570.270097
811.440453	2573.410736
811.760107	2571.427042
812.079716	2566.433779
812.399281	2565.372616
812.718801	2566.408573
813.038276	2565.957390
813.357707	2568.876218
813.677093	2570.146589
813.996434	2569.559294
814.315731	2567.293296
814.634983	2569.415622
814.954191	2570.007957
815.273354	2571.815211
815.592473	2568.450241
815.911547	2571.858061
816.230577	2572.483164
816.549562	2570.290262
816.868502	2569.937381
817.187399	2569.622309
817.506250	2567.258008
817.825058	2571.510221
818.143821	2568.304047
818.462539	2569.511403
818.781213	2570.718760
819.099843	2566.557287
819.418429	2570.315468
819.736970	2568.692216
820.055466	2571.227916
820.373919	2571.003585
820.692327	2570.204562
821.010691	2573.758576
821.329011	2569.904613
821.647286	2574.497105
821.965517	2571.351425
822.283704	2570.786815
822.601847	2570.622978
822.919945	2569.324881
823.237999	2570.723801
823.556010	2570.751527
823.873976	2567.867987
824.191897	2570.638101
824.509775	2569.755899
824.827609	2566.895045
825.145398	2570.577607
825.463144	2571.386713
825.780845	2571.154820
826.098502	2571.666497
826.416116	2572.906621
826.733685	2569.355128
827.051210	2567.764644
827.368692	2569.246743
827.686129	2570.993503
828.003522	2570.202042
828.320872	2566.789180
828.638177	2566.307750
828.955439	2569.231619
829.272656	2567.797411
829.589830	2565.511248
829.906960	2572.077351
830.224046	2570.023081
830.541088	2569.518965
830.858086	2569.168605
831.175041	2571.275807
831.491952	2568.631722
831.808819	2570.509552
832.125642	2569.425704
832.442421	2570.486867
832.759157	2566.572411
833.075849	2570.812021
833.392497	2568.324212
833.709101	2570.590210
834.025662	2568.120045
834.342179	2570.978379
834.658653	2570.625498
834.975083	2570.149109
835.291469	2570.582649
835.607811	2567.310940
835.924110	2570.809501
836.240366	2571.074161
836.556578	2569.234140
836.872746	2569.483677
837.188871	2570.814542
837.504952	2566.607699
837.820990	2569.708008
838.136984	2567.895714
838.452935	2568.276321
838.768842	2570.751527
839.084706	2569.314798
839.400526	2570.912844
839.716303	2571.694223
840.032037	2570.171795
840.347727	2570.867474
840.663373	2566.864798
840.978977	2568.961918
841.294537	2568.339335
841.610054	2571.563153
841.925527	2570.895200
842.240957	2566.625343
842.556344	2571.994172
842.871687	2568.573749
843.186987	2569.690364
843.502244	2569.715570
843.817458	2570.111301
844.132629	2568.349417
844.447756	2569.400498
844.762840	2566.756413
845.077881	2565.206258
845.392879	2565.967472
845.707833	2568.230950
846.022745	2566.998388
846.337613	2568.951835
846.652438	2569.239181
846.967221	2568.301527
847.281960	2567.373954
847.596656	2571.260684
847.911309	2568.931671
848.225919	2567.779767
848.540485	2568.654407
848.855009	2570.265056
849.169490	2571.679100
849.483928	2568.218347
849.798323	2568.102401
850.112675	2569.158523
850.426984	2569.571897
850.741251	2568.427555
851.055474	2567.903275
851.369654	2566.998388
851.683792	2567.915878
851.997887	2567.315981
852.311938	2566.824468
852.625947	2568.450241
852.939914	2567.986454
853.253837	2569.188770
853.567718	2568.845971
853.881555	2569.695406
854.195350	2567.459654
854.509103	2568.609037
854.822812	2568.099880
855.136479	2568.954356
855.450103	2567.626012
855.763685	2567.396639
856.077224	2568.893862
856.390720	2570.270097
856.704173	2567.762123
857.017584	2570.655745
857.330953	2568.646846
857.644278	2568.772874
857.957561	2571.129614
858.270802	2570.325550
858.584000	2569.130796
858.897155	2568.989644
859.210268	2568.440158
859.523339	2570.207083
859.836367	2569.471074
860.149352	2568.266238
860.462295	2569.811352
860.775195	2564.772719
861.088054	2563.441854
861.400869	2566.118707
861.713642	2563.242729
862.026373	2565.743141
862.339062	2571.301013
862.651708	2569.161043
862.964312	2569.158523
863.276873	2572.094995
863.589392	2570.275138
863.901869	2567.820096
864.214303	2569.697926
864.526696	2568.208265
864.839045	2568.160374
865.151353	2568.553584
865.463619	2568.140210
865.775842	2568.742627
866.088023	2570.040725
866.400162	2572.538616
866.712258	2568.924109
867.024313	2571.666497
867.336325	2569.619788
867.648296	2569.113152
867.960224	2569.425704
868.272110	2570.703636
868.583954	2568.687175
868.895755	2571.479974
869.207515	2569.183728
869.519233	2570.504511
869.830909	2569.206414
870.142542	2568.762792
870.454134	2570.953173
870.765684	2567.678944
871.077191	2568.838409
871.388657	2571.336301
871.700081	2567.956208
872.011463	2569.637432
872.322803	2566.232133
872.634101	2567.956207
872.945357	2569.249263
873.256571	2569.760941
873.567744	2569.511403
873.878874	2569.705488
874.189963	2568.936712
874.501010	2568.142730
874.812015	2569.110632
875.122979	2567.938563
875.433900	2568.208265
875.744780	2568.183059
876.055618	2568.813204
876.366415	2568.581311
876.677169	2568.412432
876.987882	2565.440672
877.298554	2564.671896
877.609183	2565.004612
877.919771	2564.117369
878.230317	2567.056362
878.540822	2568.684654
878.851285	2570.189439
879.161707	2566.015363
879.472087	2568.669531
879.782425	2567.247925
880.092722	2568.109963
880.402977	2567.986454
880.713191	2567.532751
881.023363	2569.836558
881.333494	2567.648697
881.643583	2567.676423
881.953631	2567.505024
882.263637	2567.535271
882.573602	2567.263049
882.883526	2569.050138
883.193408	2570.650704
883.503248	2567.986454
883.813048	2567.615930
884.122806	2566.630384
884.432522	2568.301527
884.742197	2567.074006
885.051831	2569.360169
885.361424	2568.084757
885.670975	2569.760941
885.980485	2570.587690
886.289954	2565.932184
886.599382	2569.912175
886.908768	2567.149623
887.218113	2567.578121
887.527417	2571.122052
887.836680	2567.875549
888.145901	2568.387226
888.455082	2568.455282
888.764221	2567.159705
889.073319	2564.649211
889.382376	2566.642987
889.691392	2568.263718
890.000366	2570.474264
890.309300	2565.526371
890.618193	2567.527709
890.927044	2567.588203
891.235855	2569.150961
891.544625	2567.870508
891.853353	2566.912689
892.162041	2568.704819
892.470687	2570.993503
892.779293	2567.623491
893.087858	2565.014694
893.396381	2564.974365
893.704864	2564.061916
894.013306	2562.214333
894.321707	2569.592062
894.630068	2568.351938
894.938387	2568.450241
895.246665	2567.343707
895.554903	2567.162226
895.863100	2565.339849
896.171256	2569.559294
896.479371	2568.054510
896.787446	2569.912175
897.095480	2566.337997
897.403473	2569.541650
897.711425	2567.895714
898.019336	2569.496280
898.327207	2568.588872
898.635038	2565.967472
898.942827	2567.734397
899.250576	2567.699109
899.558284	2567.494942
899.865952	2569.314798
900.173579	2566.849674
900.481165	2569.624829
900.788711	2568.924109
901.096216	2568.906465
901.403681	2566.285065
901.711105	2570.257494
902.018489	2564.591237
902.325832	2570.454099
902.633135	2567.686506
902.940397	2568.188101
903.247619	2569.839078
903.554800	2568.094839
903.861941	2569.002247
904.169041	2570.685992
904.476101	2569.965107
904.783121	2568.394788
905.090100	2568.220868
905.397039	2566.206927
905.703938	2566.479149
906.010796	2566.963100
906.317614	2567.217678
906.624391	2568.430076
906.931129	2566.610219
907.237826	2567.351269
907.544483	2569.352607
907.851099	2566.718604
908.157675	2566.645507
908.464211	2568.072154
908.770707	2563.996381
909.077163	2563.698953
909.383578	2563.542677
909.689954	2567.058882
909.996289	2563.572924
910.302584	2567.293296
910.608839	2568.082236
910.915054	2567.595765
911.221229	2567.076526
911.527363	2568.218347
911.833458	2571.079202
912.139513	2569.231619
912.445527	2568.709860
912.751502	2570.391085
913.057436	2566.378326
913.363331	2568.810683
913.669186	2566.779098
913.975000	2566.726166
914.280775	2567.368913
914.586510	2565.183573
914.892205	2568.377144
915.197859	2565.503686
915.503475	2567.363872
915.809050	2568.445199
916.114585	2567.880590
916.420081	2566.655590
916.725536	2569.556774
917.030952	2568.755230
917.336328	2566.043090
917.641665	2567.615930
917.946961	2567.666341
918.252218	2564.288768
918.557435	2568.064592
918.862612	2564.296330
919.167750	2569.977710
919.472848	2567.658779
919.777906	2566.698440
920.082925	2565.544015
920.387904	2566.242215
920.692843	2567.353790
920.997743	2566.335477
921.302603	2565.763306
921.607423	2566.337997
921.912204	2570.393605
922.216946	2567.063923
922.521647	2567.452092
922.826310	2566.983265
923.130932	2569.559294
923.435516	2566.211968
923.740059	2569.735735
924.044564	2568.717422
924.349028	2569.738255
924.653454	2563.441854
924.957840	2564.187945
925.262186	2562.917574
925.566493	2565.919581
925.870761	2562.254662
926.174989	2566.353121
926.479178	2563.494786
926.783328	2564.765157
927.087438	2564.802966
927.391509	2566.244736
927.695541	2568.266238
927.999533	2567.651218
928.303486	2567.436969
928.607400	2565.186093
928.911275	2566.874880
929.215110	2566.063254
929.518906	2569.196331
929.822663	2566.587534
930.126381	2567.348748
930.430060	2566.199365
930.733699	2566.264900
931.037299	2564.205589
931.340861	2568.273800
931.644383	2567.588203
931.947866	2568.306568
932.251309	2565.975034
932.554714	2567.099211
932.858080	2567.910837
933.161407	2565.423028
933.464694	2566.975703
933.767943	2565.566701
934.071153	2567.845302
934.374323	2564.417317
934.677455	2564.601320
934.980548	2567.759602
935.283602	2567.167267
935.586617	2567.449572
935.889593	2568.067113
936.192530	2564.931515
936.495428	2564.485373
936.798287	2567.691547
937.101108	2566.217009
937.403890	2566.345559
937.706632	2566.151474
938.009336	2568.752710
938.312002	2566.499314
938.614628	2567.074006
938.917216	2567.217678
939.219765	2566.204407
939.522275	2567.613409
939.824747	2569.024932
940.127179	2564.785322
940.429573	2563.794735
940.731929	2565.702812
941.034246	2562.204251
941.336524	2561.795918
941.638763	2568.447720
941.940964	2566.121227
942.243126	2569.092988
942.545250	2566.683316
942.847335	2565.294478
943.149381	2565.155847
943.451389	2566.383367
943.753359	2568.059551
944.055290	2564.021587
944.357182	2567.618450
944.659036	2562.947821
944.960851	2567.527709
945.262628	2565.165929
945.564367	2567.678944
945.866067	2561.760629
946.167729	2565.342369
946.469352	2567.094170
946.770937	2565.662482
947.072484	2566.332956
947.373992	2566.274983
947.675462	2565.836402
947.976893	2567.769685
948.278286	2564.800445
948.579641	2565.286917
948.880958	2568.132648
949.182236	2564.752554
949.483476	2567.913358
949.784678	2567.908317
950.085841	2563.333469
950.386967	2569.024932
950.688054	2568.684654
950.989103	2565.528892
951.290114	2566.970662
951.591087	2566.458985
951.892021	2568.465364
952.192917	2568.379664
952.493776	2566.113666
952.794596	2565.120558
953.095378	2565.816238
953.396122	2567.283213
953.696828	2564.739951
953.997496	2567.240364
954.298126	2565.470919
954.598718	2566.940415
954.899272	2565.702812
955.199788	2566.713563
955.500266	2568.755230
955.800706	2560.596123
956.101108	2561.702656
956.401472	2561.468242
956.701798	2561.493448
957.002087	2562.274827
957.302337	2566.078378
957.602550	2565.717935
957.902724	2567.865467
958.202861	2566.852195
958.502960	2566.186763
958.803022	2564.780281
959.103045	2568.636763
959.403031	2566.766495
959.702979	2566.635425
960.002889	2566.123748
960.302762	2567.547874
960.602596	2565.854046
960.902393	2565.969993
961.202153	2566.317832
961.501875	2564.061916
961.801559	2567.557956
962.101205	2564.394632
962.400814	2566.148954
962.700385	2569.909655
962.999918	2566.509396
963.299414	2566.945456
963.598873	2567.225240
963.898293	2565.481001
964.197677	2566.703481
964.497022	2564.626525
964.796331	2567.825138
965.095601	2566.471588
965.394835	2566.330435
965.694030	2566.375806
965.993189	2567.066444
966.292309	2566.648028
966.591393	2566.146433
966.890439	2566.668193
967.189447	2567.026115
967.488419	2561.397666
967.787353	2566.915209
968.086249	2567.764644
968.385108	2564.560990
968.683930	2566.675754
968.982714	2566.698440
969.281462	2567.426886
969.580172	2566.801783
969.878844	2564.586196
970.177480	2565.596948
970.476078	2563.860270
970.774639	2565.791032
971.073162	2566.489232
971.371649	2563.068809
971.670098	2562.005125
971.968510	2562.383212
972.266885	2562.809189
972.565223	2566.874880
972.863524	2566.214489
973.161788	2562.708366
973.460014	2564.571073
973.758204	2565.533933
974.056356	2565.498645
974.354471	2567.585683
974.652550	2565.370096
974.950591	2564.553429
975.248595	2562.925136
975.546563	2565.581824
975.844493	2563.651062
976.142386	2568.851012
976.440243	2565.397822
976.738062	2564.722307
977.035845	2566.448902
977.333590	2564.797925
977.631299	2566.219530
977.928971	2566.043090
978.226606	2566.653069
978.524204	2564.684499
978.821765	2565.092832
979.119290	2566.138872
979.416777	2561.243911
979.714228	2566.859757
980.011642	2566.184242
980.309020	2567.172308
980.606360	2565.969993
980.903664	2566.305230
981.200931	2567.915878
981.498162	2565.173491
981.795356	2564.916392
982.092513	2566.874880
982.389633	2565.760785
982.686717	2564.286248
982.983764	2561.700136
983.280775	2567.275652
983.577749	2562.753737
983.874686	2565.433110
984.171587	2564.954200
984.468451	2567.411763
984.765279	2563.885476
985.062070	2564.497976
985.358824	2564.669375
985.655543	2566.834551
985.952224	2563.454457
986.248869	2565.163408
986.545478	2561.798438
986.842050	2562.625187
987.138586	2561.145609
987.435086	2562.640311
987.731549	2563.807338
988.027975	2566.204407
988.324366	2561.977399
988.620719	2566.826989
988.917037	2564.124931
989.213318	2564.843295
989.509563	2564.412276
989.805772	2567.951166
990.101944	2564.066957
990.398080	2562.461350
990.694180	2564.860939
990.990244	2563.088973
991.286271	2564.939077
991.582262	2564.104766
991.878217	2566.133830
992.174136	2563.421690
992.470019	2562.519323
992.765865	2566.138872
993.061676	2566.164077
993.357450	2564.271124
993.653188	2564.616443
993.948890	2566.078378
994.244556	2566.085939
994.540186	2567.981413
994.835780	2565.874211
995.131337	2565.579303
995.426859	2565.158367
995.722345	2563.096535
996.017795	2564.732390
996.313208	2566.779098
996.608586	2566.955538
996.903928	2566.663152
997.199234	2565.528892
997.494504	2563.799776
997.789738	2565.264231
998.084936	2563.245249
998.380099	2564.676937
998.675225	2563.986299
998.970316	2565.622153
999.265371	2565.765826
999.560390	2564.611402
999.855373	2568.470405
1000.150320	2565.997719
1000.445232	2565.962431
1000.740108	2565.216340
1001.034948	2565.440672
1001.329752	2564.724828
1001.624521	2564.855898
1001.919254	2561.737944
1002.213951	2562.761298
1002.508613	2561.712738
1002.803239	2563.444375
1003.097829	2559.708880
1003.392384	2565.463357
1003.686903	2564.157698
1003.981386	2563.714077
1004.275834	2563.222564
1004.570246	2566.138872
1004.864623	2565.629715
1005.158964	2564.397153
1005.453270	2566.085939
1005.747540	2564.107287
1006.041775	2566.002760
1006.335974	2566.002760
1006.630138	2563.885476
1006.924266	2566.965621
1007.218359	2564.664334
1007.512416	2564.376988
1007.806438	2563.131823
1008.100425	2564.074519
1008.394376	2563.489745
1008.688292	2564.699622
1008.982172	2565.097873
1009.276017	2566.358162
1009.569827	2564.160219
1009.863602	2567.343707
1010.157341	2566.156516
1010.451045	2563.882955
1010.744714	2562.587379
1011.038347	2563.865311
1011.331945	2565.065106
1011.625508	2564.238357
1011.919036	2563.792214
1012.212528	2563.623336
1012.505986	2565.082750
1012.799408	2565.324725
1013.092795	2563.542677
1013.386147	2561.939590
1013.679464	2564.709704
1013.972745	2561.679971
1014.265992	2564.644169
1014.559204	2564.319015
1014.852380	2562.700805
1015.145521	2564.808007
1015.438628	2565.095353
1015.731699	2565.680127
1016.024736	2563.885476
1016.317737	2565.128120
1016.610703	2564.606361
1016.903635	2562.105948
1017.196531	2561.967317
1017.489393	2561.785835
1017.782219	2561.115362
1018.075011	2562.607543
1018.367768	2563.096535
1018.660490	2562.468912
1018.953177	2562.468912
1019.245829	2562.468912
