Dividing Wavelength (nm)	Counts (n)	Blue Motor Position (mm): 0.000000	Red Motor Position (mm): 30.500000	
326.493990	2144.055663
326.888308	2144.055663
327.282561	2144.055663
327.676750	2118.169338
328.070874	2120.329472
328.464933	2125.244597
328.858929	2132.110649
329.252859	2145.631023
329.646726	2158.188538
330.040528	2173.304438
330.434265	2195.450226
330.827938	2210.944213
331.221547	2234.181411
331.615091	2251.568351
332.008571	2272.106012
332.401986	2291.640483
332.795338	2311.807619
333.188625	2331.092553
333.581847	2350.385049
333.975006	2369.382637
334.368100	2389.096069
334.761129	2407.508883
335.154095	2423.262489
335.546996	2439.991558
335.939833	2457.822119
336.332606	2467.821248
336.725315	2482.087713
337.117960	2490.647593
337.510540	2498.836947
337.903056	2505.513955
338.295508	2513.746160
338.687896	2522.923580
339.080220	2529.487163
339.472480	2538.457896
339.864676	2536.874973
340.256807	2541.406971
340.648875	2545.397044
341.040879	2546.377548
341.432818	2543.557023
341.824694	2547.400903
342.216506	2548.217570
342.608253	2548.010882
342.999937	2547.965512
343.391557	2545.422250
343.783113	2545.167672
344.174605	2543.821683
344.566033	2542.074924
344.957397	2539.113246
345.348697	2538.757844
345.739934	2539.524100
346.131106	2532.325332
346.522215	2533.094108
346.913260	2532.378264
347.304241	2526.969106
347.695159	2524.254445
348.086012	2526.056657
348.476802	2526.054137
348.867528	2523.558766
349.258191	2523.684794
349.648789	2522.356450
350.039324	2521.375946
350.429796	2518.820081
350.820203	2517.118692
351.210548	2515.639113
351.600828	2517.602642
351.991045	2514.232631
352.381198	2518.948630
352.771288	2516.569206
353.161314	2515.495440
353.551276	2516.851510
353.941175	2516.546521
354.331010	2516.438136
354.720782	2515.800430
355.110490	2516.279339
355.500135	2517.151459
355.889717	2517.907632
356.279235	2518.411748
356.668689	2519.235976
357.058080	2519.152797
357.447408	2516.412930
357.836672	2515.623989
358.225873	2515.548372
358.615010	2516.029802
359.004084	2518.227745
359.393095	2519.160359
359.782043	2520.400483
360.170927	2520.745802
360.559748	2524.360309
360.948505	2524.173786
361.337199	2523.354599
361.725830	2522.973992
362.114398	2524.609846
362.502903	2522.066584
362.891344	2523.944414
363.279722	2525.267717
363.668037	2527.574045
364.056289	2527.763088
364.444478	2527.211082
364.832603	2529.449354
365.220665	2529.406504
365.608665	2528.713345
365.996601	2528.851977
366.384474	2527.178314
366.772284	2530.896165
367.160031	2526.449867
367.547715	2531.039838
367.935336	2529.209899
368.322893	2529.459436
368.710388	2530.510517
369.097820	2535.355066
369.485189	2531.765764
369.872495	2530.697039
370.259738	2533.144520
370.646918	2532.199303
371.034035	2532.995806
371.421090	2534.215765
371.808081	2531.952287
372.195010	2534.583769
372.581875	2533.731814
372.968678	2536.822041
373.355418	2534.112421
373.742096	2538.346990
374.128710	2539.990407
374.515262	2541.444779
374.901751	2538.478060
375.288177	2541.185160
375.674540	2543.557023
376.060841	2545.792775
376.447079	2542.881508
376.833254	2544.708927
377.219367	2544.774462
377.605417	2551.585060
377.991404	2551.501881
378.377329	2551.887530
378.763191	2557.062274
379.148991	2564.011505
379.534727	2565.977555
379.920402	2572.372258
380.306013	2573.186405
380.691563	2576.150603
381.077049	2580.415419
381.462474	2587.341965
381.847835	2591.962182
382.233134	2598.167842
382.618371	2600.844695
383.003545	2607.418360
383.388657	2613.606376
383.773706	2622.110803
384.158693	2628.734879
384.543618	2634.875004
384.928480	2642.318268
385.313280	2646.946047
385.698017	2655.044661
386.082692	2665.744510
386.467305	2671.209121
386.851856	2679.711027
387.236344	2691.560259
387.620770	2697.342462
388.005133	2704.881508
388.389435	2716.657643
388.773674	2719.924311
389.157851	2728.983264
389.541965	2740.872826
389.926018	2742.513721
390.310008	2758.027872
390.693936	2767.323760
391.077802	2774.774585
391.461606	2783.704989
391.845348	2794.747637
392.229027	2803.806590
392.612645	2820.286122
392.996200	2827.245435
393.379694	2838.938391
393.763125	2857.641072
394.146494	2862.805734
394.529801	2875.721170
394.913047	2892.094838
395.296230	2892.866135
395.679351	2901.022722
396.062410	2918.596184
396.445408	2916.488982
396.828343	2926.074736
397.211217	2930.808379
397.594028	2928.129006
397.976778	2939.509411
398.359466	2954.106072
398.742092	2950.705813
399.124656	2967.969245
399.507158	2979.647078
399.889598	2986.689569
400.271977	3002.410408
400.654294	3007.688496
401.036549	3019.265506
401.418742	3025.395549
401.800874	3048.199208
402.182944	3054.838408
402.564952	3083.699013
402.946898	3075.106367
403.328783	3085.869230
403.710606	3100.586879
404.092367	3121.598408
404.474067	3149.465907
404.855705	3140.512817
405.237282	3138.483753
405.618797	3172.405677
406.000250	3193.742361
406.381642	3224.861403
406.762972	3225.317628
407.144240	3216.057028
407.525447	3239.498394
407.906593	3240.128538
408.287677	3261.440016
408.668700	3282.012965
409.049661	3278.274949
409.430560	3291.117288
409.811399	3298.580717
410.192176	3317.548058
410.572891	3325.934018
410.953545	3366.752240
411.334138	3331.433916
411.714669	3385.102040
412.095139	3333.347034
412.475547	3382.631875
412.855894	3371.455637
413.236180	3402.037797
413.616405	3381.926113
413.996568	3409.198756
414.376670	3408.354362
414.756711	3405.075092
415.136691	3432.995522
415.516609	3455.269861
415.896466	3459.575006
416.276262	3486.749346
416.655997	3518.450642
417.035670	3523.658154
417.415283	3590.647527
417.794834	3612.556381
418.174324	3594.415789
418.553753	3592.953854
418.933121	3638.717449
419.312428	3630.845687
419.691674	3623.039461
420.070859	3663.401459
420.449983	3643.602327
420.829045	3690.825336
421.208047	3675.722039
421.586988	3721.283987
421.965867	3753.975870
422.344686	3762.369391
422.723444	3797.425575
423.102141	3705.631205
423.480777	3806.315650
423.859352	3771.778705
424.237866	3871.323849
424.616319	3855.061087
424.994712	3916.422012
425.373044	3904.585382
425.751314	3971.163901
426.129524	3904.708891
426.507673	4005.186648
426.885762	3979.363338
427.263789	4002.688757
427.641756	4008.022297
428.019662	4035.297460
428.397508	4040.315929
428.775292	4077.317998
429.153016	4085.162034
429.530679	4096.885237
429.908282	4104.928398
430.285824	4081.529882
430.663305	4159.461080
431.040726	4111.166826
431.418086	4106.302112
431.795385	4180.601158
432.172624	4214.533165
432.549802	4180.235675
432.926920	4198.532543
433.303977	4190.204556
433.680974	4233.061926
434.057910	4255.197632
434.434786	4261.158797
434.811601	4258.207201
435.188355	4364.008417
435.565050	4330.532635
435.941683	4329.778983
436.318257	4416.769134
436.694770	4421.061676
437.071222	4476.761385
437.447614	4411.773350
437.823946	4418.190739
438.200218	4433.997277
438.576429	4414.737549
438.952580	4442.108493
439.328670	4447.550419
439.704700	4492.772090
440.080670	4454.325730
440.456580	4515.595914
440.832429	4550.730235
441.208218	4453.249443
441.583947	4504.049151
441.959616	4519.328888
442.335224	4544.149009
442.710773	4569.649686
443.086261	4617.570894
443.461689	4575.782249
443.837057	4586.066203
444.212365	4662.086803
444.587612	4664.297349
444.962800	4629.901557
445.337927	4675.067774
445.712995	4559.143921
446.088002	4751.290021
446.462949	4770.600160
446.837837	4789.559940
447.212664	4777.609885
447.587431	5001.129605
447.962139	5302.207478
448.336786	5638.427233
448.711374	5622.585407
449.085901	5269.946613
449.460369	5208.356316
449.834776	5139.267303
450.209124	5374.394280
450.583412	5385.139499
450.957640	5506.981667
451.331808	5373.209609
451.705917	5225.881888
452.079965	5214.395619
452.453954	5250.429786
452.827883	5217.949632
453.201752	5224.704778
453.575562	5256.234675
453.949311	5387.839037
454.323001	5391.289707
454.696632	5383.183532
455.070202	5539.804620
455.443713	5568.206481
455.817164	5664.106871
456.190556	5730.332509
456.563888	5703.329568
456.937160	5785.331498
457.310373	5628.738136
457.683526	5681.632442
458.056619	5680.445251
458.429653	5658.105377
458.802628	5702.336461
459.175542	5728.850410
459.548398	5867.580443
459.921194	6056.837961
460.293930	6114.236539
460.666607	6362.024374
461.039224	6580.407159
461.411782	6708.399534
461.784280	6625.530527
462.156719	6626.921885
462.529099	6587.684064
462.901419	6447.492096
463.273680	6315.804555
463.645882	6304.792154
464.018024	6305.384490
464.390106	6373.341764
464.762130	6629.782740
465.134094	7011.670308
465.505999	7641.507029
465.877845	8348.428033
466.249631	8698.420221
466.621358	8633.280951
466.993026	8437.505221
467.364634	8217.781490
467.736184	7944.288811
468.107674	7780.196733
468.479105	7691.863115
468.850477	7628.866336
469.221790	7462.959442
469.593043	7238.302941
469.964238	7142.291646
470.335373	7119.399766
470.706449	7270.473065
471.077467	7450.422092
471.448425	8103.259077
471.819324	8681.741563
472.190164	8723.447029
472.560945	8244.764266
472.931667	7777.666074
473.302330	7586.200530
473.672934	7465.658980
474.043479	7537.563478
474.413965	7442.709127
474.784393	7389.361116
475.154761	7541.203191
475.525070	7552.313894
475.895321	7505.811770
476.265513	7597.989268
476.635645	7758.981037
477.005719	7744.656598
477.375734	7831.334197
477.745691	7937.868902
478.115588	8142.519583
478.485427	8377.601190
478.855207	8835.834513
479.224928	9256.783462
479.594591	9639.238160
479.964194	9650.963884
480.333739	9730.296522
480.703226	9728.922808
481.072653	9820.500408
481.442022	9932.562738
481.811333	10077.831148
482.180584	9917.716540
482.549777	9853.071303
482.918912	9782.701837
483.287988	9772.352348
483.657005	9671.912399
484.025964	9588.677908
484.394864	9648.987752
484.763706	9601.643755
485.132489	9502.524588
485.501213	9487.275098
485.869879	9538.399960
486.238487	9477.207914
486.607036	9546.980004
486.975527	9484.905756
487.343959	9530.767653
487.712333	9564.492972
488.080648	9588.456097
488.448905	9684.870685
488.817104	9681.740128
489.185244	9834.250156
489.553326	10022.181850
489.921350	10457.934148
490.289315	11043.683457
490.657222	11314.025414
491.025070	11464.708023
491.392861	11371.025741
491.760593	11213.653521
492.128267	10956.559716
492.495883	10709.691891
492.863440	10473.556683
493.230939	10236.108255
493.598380	10045.076251
493.965763	10004.999078
494.333088	9866.420279
494.700354	9778.757134
495.067563	9727.957427
495.434713	9714.951250
495.801805	9736.822296
496.168839	9674.246453
496.535815	9616.878122
496.902733	9638.025763
497.269593	9576.122914
497.636395	9560.318897
498.003139	9633.279516
498.369825	9537.106904
498.736453	9597.900699
499.103023	9524.967805
499.469535	9501.294547
499.835989	9515.775261
500.202385	9463.611922
500.568723	9441.874467
500.935003	9462.906160
501.301226	9407.997913
501.667390	9519.064614
502.033497	9572.266431
502.399546	9473.981575
502.765537	9365.284216
503.131470	9416.189788
503.497345	9457.610428
503.863163	9227.164163
504.228923	9301.566552
504.594625	9357.659471
504.960269	9241.337367
505.325856	9325.844749
505.691385	9177.302110
506.056856	9190.353657
506.422270	9227.259944
506.787625	9131.384760
507.152924	9128.503741
507.518164	9131.062126
507.883347	8982.932862
508.248472	8992.964758
508.613540	9022.430302
508.978550	9025.518009
509.343503	8962.375036
509.708398	8950.377090
510.073236	8996.632197
510.438016	8954.137791
510.802738	8838.307199
511.167403	8871.036890
511.532010	8856.362091
511.896561	8864.251497
512.261053	8953.701731
512.625488	8828.849994
512.989866	8763.352803
513.354186	8684.436060
513.718449	8625.530177
514.082655	8667.344028
514.446803	8565.162360
514.810894	8578.523938
515.174927	8512.522632
515.538904	8435.632433
515.902822	8472.475705
516.266684	8330.589910
516.630488	8321.064650
516.994235	8244.587825
517.357925	8241.081703
517.721558	8217.559679
518.085133	8185.276130
518.448651	8127.938046
518.812112	8038.281125
519.175516	7965.663303
519.538863	7948.198226
519.902152	7887.230511
520.265385	7873.223665
520.628560	7812.515570
520.991678	7709.890281
521.354739	7667.920154
521.717743	7621.770912
522.080690	7536.766975
522.443580	7525.268103
522.806413	7460.612785
523.169189	7385.655868
523.531908	7337.144845
523.894569	7248.420537
524.257174	7176.654671
524.619722	7155.754047
524.982213	7071.022333
525.344647	6996.836713
525.707025	6922.487256
526.069345	6891.673203
526.431608	6816.537325
526.793815	6770.496467
527.155964	6657.861967
527.518057	6600.208811
527.880093	6515.230081
528.242072	6477.771787
528.603995	6380.482559
528.965860	6315.766746
529.327669	6256.749958
529.689421	6171.993039
530.051117	6107.342761
530.412755	6047.405963
530.774337	5985.213248
531.135862	5906.717441
531.497331	5857.646849
531.858743	5781.164984
532.220098	5735.794599
532.581396	5650.205889
532.942638	5563.513167
533.303824	5516.524572
533.664953	5454.223472
534.026025	5379.269076
534.387040	5342.229198
534.747999	5273.440133
535.108902	5227.043874
535.469748	5140.144464
535.830537	5087.615641
536.191270	5039.465060
536.551947	4966.113751
536.912567	4923.493315
537.273131	4878.569073
537.633638	4797.623266
537.994089	4755.575001
538.354483	4688.106719
538.714821	4661.716278
539.075103	4623.980721
539.435328	4563.857400
539.795497	4511.139534
540.155609	4460.622131
540.515665	4426.922018
540.875665	4356.383672
541.235609	4327.482737
541.595496	4275.813431
541.955328	4255.737036
542.315102	4191.858055
542.674821	4134.625835
543.034483	4097.906071
543.394090	4057.821336
543.753640	4010.593286
544.113134	4004.548942
544.472571	3936.395063
544.831953	3929.818878
545.191278	3868.745299
545.550548	3823.463135
545.909761	3801.082932
546.268918	3774.163171
546.628019	3742.040938
546.987064	3700.327911
547.346053	3654.695386
547.704986	3638.384733
548.063863	3595.174483
548.422684	3568.116089
548.781449	3538.035524
549.140158	3511.226668
549.498811	3487.404696
549.857408	3446.359621
550.215949	3431.692384
550.574434	3402.773805
550.932864	3370.739793
551.291237	3359.997094
551.649555	3333.382322
552.007817	3312.022953
552.366022	3282.849796
552.724173	3261.026641
553.082267	3246.361925
553.440305	3231.722414
553.798288	3199.413659
554.156215	3180.600073
554.514086	3166.356292
554.871902	3146.620175
555.229661	3128.663585
555.587365	3109.489557
555.945014	3089.662698
556.302606	3074.602251
556.660143	3060.948286
557.017625	3047.763148
557.375050	3032.493493
557.732421	3020.707276
558.089735	3002.980058
558.446994	2987.634786
558.804197	2978.563229
559.161345	2964.626960
559.518437	2946.604835
559.875474	2938.440686
560.232455	2926.220929
560.589381	2912.813980
560.946251	2904.990110
561.303065	2899.127248
561.659825	2884.180227
562.016528	2873.619009
562.373177	2860.892616
562.729770	2855.357429
563.086307	2844.569360
563.442789	2837.824296
563.799216	2830.116372
564.155587	2823.010866
564.511904	2812.207673
564.868164	2804.618216
565.224370	2801.540592
565.580520	2791.516257
565.936615	2790.331586
566.292654	2782.260699
566.648638	2778.754576
567.004567	2768.969697
567.360441	2762.915271
567.716260	2761.090373
568.072023	2755.315731
568.427732	2748.013620
568.783385	2741.664287
569.138982	2740.429204
569.494525	2736.600448
569.850013	2730.097359
570.205445	2730.180538
570.560823	2725.139384
570.916145	2724.095866
571.271412	2719.425237
571.626625	2717.640668
571.981782	2713.353167
572.336884	2708.710264
572.691931	2709.050542
573.046923	2703.192721
573.401860	2699.096784
573.756743	2698.131403
574.111570	2695.663758
574.466342	2694.660568
574.821059	2691.681246
575.175722	2689.357274
575.530330	2685.150432
575.884882	2683.338137
576.239380	2684.414423
576.593823	2679.229596
576.948211	2678.027281
577.302544	2675.098371
577.656823	2673.981755
578.011047	2674.705161
578.365216	2673.512928
578.719330	2669.737104
579.073389	2668.456651
579.427394	2665.875580
579.781344	2665.741989
580.135239	2663.773419
580.489080	2663.962462
580.842866	2661.227636
581.196597	2661.663696
581.550273	2663.644869
581.903895	2662.140085
582.257463	2657.625732
582.610975	2656.307470
582.964434	2655.730258
583.317837	2655.032058
583.671186	2654.601039
584.024481	2653.484424
584.377721	2653.106337
584.730906	2650.555513
585.084037	2651.697335
585.437113	2651.021820
585.790135	2649.106182
586.143103	2650.016110
586.496016	2651.475524
586.848874	2644.324647
587.201679	2648.652478
587.554428	2642.555202
587.907124	2643.354225
588.259765	2641.960346
588.612352	2645.438742
588.964884	2642.696354
589.317362	2642.275418
589.669786	2645.920172
590.022155	2645.068217
590.374470	2642.464461
590.726731	2642.323309
591.078937	2640.775675
591.431090	2637.629995
591.783188	2639.142341
592.135232	2636.936836
592.487222	2637.347690
592.839157	2639.928761
593.191038	2637.342649
593.542866	2638.108904
593.894639	2637.509007
594.246358	2637.304840
594.598022	2636.974645
594.949633	2635.719397
595.301190	2631.530199
595.652692	2633.158491
596.004141	2636.026908
596.355535	2634.572535
596.706876	2631.147071
597.058162	2631.550363
597.409395	2633.702936
597.760573	2632.321660
598.111698	2631.656227
598.462768	2631.736886
598.813785	2630.441309
599.164748	2629.697739
599.515657	2630.479118
599.866511	2629.085239
600.217312	2629.652369
600.568060	2627.277985
600.918753	2631.353758
601.269392	2632.576238
601.619978	2627.030969
601.970510	2627.794704
602.320988	2628.331587
602.671412	2628.034158
603.021783	2625.662296
603.372100	2627.802265
603.722363	2626.562142
604.072572	2629.513737
604.422728	2627.015845
604.772830	2624.258334
605.122878	2625.037192
605.472872	2623.164404
605.822813	2622.085597
606.172701	2624.439816
606.522534	2624.787655
606.872314	2628.273613
607.222041	2625.929477
607.571714	2627.393932
607.921333	2625.367388
608.270899	2623.371091
608.620411	2623.880248
608.969870	2625.478293
609.319276	2626.990640
609.668627	2625.352265
610.017926	2624.308746
610.367171	2624.964096
610.716362	2623.708848
611.065500	2625.710187
611.414585	2630.736217
611.763616	2626.748664
612.112594	2624.827985
612.461518	2627.696401
612.810389	2623.905453
613.159207	2625.669857
613.507971	2623.880248
613.856682	2626.070629
614.205340	2622.524177
614.553945	2628.273613
614.902496	2625.742954
615.250994	2623.824795
615.599439	2624.956534
615.947830	2625.385032
616.296169	2623.572737
616.644454	2626.582306
616.992686	2624.530557
617.340864	2626.244549
617.688990	2624.172635
618.037063	2628.644138
618.385082	2627.187245
618.733048	2626.899899
619.080961	2627.146915
619.428821	2624.873355
619.776628	2626.037862
620.124382	2624.848149
620.472083	2625.130454
620.819731	2624.429733
621.167326	2623.184568
621.514868	2625.773201
621.862357	2624.838067
622.209793	2624.356637
622.557176	2625.861421
622.904506	2620.119547
623.251783	2619.433950
623.599007	2620.054012
623.946179	2618.476131
624.293297	2618.408075
624.640363	2619.547376
624.987376	2620.422016
625.334336	2621.702469
625.681243	2620.870679
626.028097	2620.633745
626.374899	2620.527880
626.721647	2619.791872
627.068343	2619.933024
627.414987	2617.447735
627.761577	2617.039402
628.108115	2619.580143
628.454600	2617.735081
628.801032	2617.709875
629.147412	2619.451594
629.493739	2615.895060
629.840014	2618.720627
630.186236	2615.121243
630.532405	2617.800616
630.878521	2617.677108
631.224585	2616.268105
631.570597	2613.193002
631.916556	2615.665688
632.262462	2616.633589
632.608316	2617.215842
632.954117	2615.438836
633.299866	2615.539659
633.645562	2616.288270
633.991206	2614.997735
634.336797	2617.704834
634.682336	2612.436828
635.027823	2611.665532
635.373257	2615.461521
635.718639	2614.312138
636.063968	2614.544031
636.409245	2612.855244
636.754470	2612.918259
637.099642	2612.431787
637.444762	2614.213835
637.789829	2611.574791
638.134845	2610.939606
638.479808	2610.808536
638.824719	2611.295007
639.169577	2611.126128
639.514383	2609.462548
639.859137	2609.223093
640.203839	2609.240737
640.548489	2609.810387
640.893086	2604.980962
641.237632	2603.524068
641.582125	2604.948194
641.926566	2606.798298
642.270955	2608.998762
642.615292	2609.185284
642.959576	2610.899277
643.303809	2611.826849
643.647990	2609.018926
643.992118	2608.686210
644.336195	2608.229986
644.680219	2607.567074
645.024192	2609.132352
645.368112	2609.465068
645.711981	2609.281066
646.055797	2608.587907
646.399562	2608.224944
646.743274	2610.052363
647.086935	2611.645367
647.430544	2610.133021
647.774101	2613.097220
648.117606	2608.918103
648.461059	2611.189143
648.804460	2613.646705
649.147810	2610.286776
649.491108	2610.649739
649.834354	2610.929523
650.177548	2606.848709
650.520690	2609.898607
650.863781	2608.383741
651.206820	2608.494646
651.549807	2607.436004
651.892742	2606.526076
652.235626	2607.315016
652.578458	2606.425253
652.921238	2605.842999
653.263967	2605.772423
653.606644	2605.787547
653.949269	2604.602875
654.291843	2606.135386
654.634365	2605.306116
654.976836	2605.664038
655.319255	2607.617485
655.661622	2608.272835
656.003938	2601.550457
656.346203	2604.612958
656.688416	2605.482557
657.030577	2601.774788
657.372687	2604.305447
657.714746	2606.846189
658.056753	2605.016250
658.398708	2599.420569
658.740612	2601.923502
659.082465	2600.567432
659.424266	2598.339242
659.766016	2600.070878
660.107715	2602.886362
660.449362	2602.911568
660.790958	2603.665221
661.132503	2607.705706
661.473996	2603.140941
661.815438	2606.024481
662.156829	2605.694285
662.498168	2603.692947
662.839456	2603.513986
663.180693	2601.278234
663.521879	2606.281580
663.863013	2605.122114
664.204097	2605.422063
664.545129	2606.450458
664.886110	2604.688575
665.227040	2607.161261
665.567918	2604.996085
665.908746	2606.523555
666.249522	2603.718153
666.590248	2606.016919
666.930922	2602.573811
667.271545	2605.129676
667.612118	2605.021291
667.952639	2601.931064
668.293109	2608.595469
668.633528	2604.824686
668.973896	2603.077926
669.314213	2604.300406
669.654480	2604.355859
669.994695	2604.166816
670.334859	2603.640015
670.674973	2602.379727
671.015035	2606.395006
671.355047	2603.861826
671.695008	2602.707402
672.034918	2603.466095
672.374777	2602.924171
672.714585	2604.617999
673.054342	2601.691609
673.394049	2604.562546
673.733705	2604.154213
674.073310	2605.507762
674.412864	2601.873091
674.752368	2601.169850
675.091820	2601.338728
675.431223	2604.040787
675.770574	2602.644387
676.109875	2599.274376
676.449125	2600.517020
676.788324	2599.486104
677.127473	2599.188676
677.466571	2596.143819
677.805619	2603.614809
678.144616	2602.087340
678.483562	2601.295878
678.822458	2602.500714
679.161303	2603.902155
679.500098	2600.121290
679.838842	2601.805035
680.177535	2600.564911
680.516179	2602.248657
680.854771	2599.864191
681.193314	2600.287648
681.531805	2603.075406
681.870247	2603.027515
682.208638	2603.589603
682.546978	2602.515838
682.885268	2603.231682
683.223508	2603.496342
683.561697	2604.837289
683.899836	2605.994234
684.237925	2605.059100
684.575963	2604.381065
684.913951	2604.706219
685.251889	2605.782505
685.589776	2602.838472
685.927614	2603.085488
686.265401	2600.741352
686.603137	2602.949377
686.940824	2604.239912
687.278460	2603.917278
687.616046	2603.463575
687.953582	2603.584562
688.291068	2604.098760
688.628504	2604.683534
688.965889	2605.379213
689.303224	2600.844695
689.640510	2604.693616
689.977745	2602.077257
690.314930	2603.577001
690.652065	2602.921651
690.989150	2602.649428
691.326185	2600.322936
691.663170	2601.053903
692.000105	2600.804366
692.336990	2597.593151
692.673825	2597.774633
693.010610	2600.353183
693.347345	2592.546956
693.684030	2592.720876
694.020665	2592.846905
694.357251	2591.601740
694.693786	2593.189703
695.030272	2596.955445
695.366707	2594.833119
695.703093	2593.235073
696.039429	2594.500403
696.375716	2594.031576
696.711952	2596.191710
697.048139	2593.436720
697.384276	2593.058633
697.720363	2593.219950
698.056400	2595.465784
698.392388	2595.173397
698.728326	2595.617019
699.064214	2592.723396
699.400053	2594.339086
699.735842	2591.538725
700.071581	2592.007552
700.407270	2591.916812
700.742910	2594.278592
701.078501	2592.904878
701.414042	2592.998139
701.749533	2591.473190
702.084974	2594.076946
702.420366	2591.783221
702.755709	2590.840525
703.091002	2591.939497
703.426246	2592.161308
703.761440	2590.754826
704.096584	2593.035948
704.431679	2589.358426
704.766725	2588.662747
705.101721	2590.838005
705.436668	2589.250041
705.771565	2587.531008
706.106413	2593.192224
706.441212	2592.307501
706.775961	2590.938828
707.110661	2589.650813
707.445311	2590.785073
707.779913	2588.715679
708.114465	2591.004363
708.448967	2593.507296
708.783421	2592.869590
709.117825	2590.706935
709.452180	2594.543253
709.786485	2593.093921
710.120742	2593.817327
710.454949	2595.891762
710.789107	2592.554518
711.123216	2592.110896
711.457275	2587.641913
711.791286	2589.857500
712.125247	2593.638366
712.459159	2593.426637
712.793023	2595.662389
713.126837	2595.395208
713.460602	2594.137440
713.794318	2596.862184
714.127985	2593.961000
714.461602	2593.015783
714.795171	2596.244642
715.128691	2592.569641
715.462162	2593.696339
715.795584	2590.396904
716.128957	2591.037130
716.462281	2590.114599
716.795556	2591.533684
717.128782	2590.228025
717.461960	2589.232397
717.795088	2589.300453
718.128167	2588.582088
718.461198	2589.315576
718.794180	2589.542428
719.127113	2588.022520
719.459997	2587.387335
719.792833	2588.604774
720.125619	2589.355906
720.458357	2585.272571
720.791046	2588.839187
721.123686	2587.286512
721.456278	2586.321131
721.788821	2587.314238
722.121315	2590.233066
722.453761	2587.543611
722.786158	2587.195771
723.118506	2586.832808
723.450805	2588.198961
723.783056	2584.743250
724.115259	2587.455391
724.447412	2586.900864
724.779518	2589.045875
725.111574	2589.076122
725.443582	2588.241811
725.775542	2588.609815
726.107453	2588.824064
726.439315	2590.638879
726.771129	2589.880186
727.102895	2588.859352
727.434612	2587.450349
727.766281	2591.216091
728.097901	2585.842221
728.429473	2586.507654
728.760996	2586.348857
729.092471	2585.464135
729.423897	2589.633169
729.755276	2588.756008
730.086606	2589.728951
730.417887	2590.742223
730.749120	2589.222315
731.080305	2587.974629
731.411442	2589.461770
731.742530	2591.624425
732.073570	2592.486462
732.404562	2592.476380
732.735506	2593.164497
733.066401	2593.540063
733.397249	2589.852459
733.728048	2588.806420
734.058798	2589.373550
734.389501	2586.187540
734.720156	2588.912284
735.050762	2588.355237
735.381320	2590.439754
735.711831	2586.006059
736.042293	2587.243662
736.372707	2586.132088
736.703073	2587.160483
737.033391	2586.336254
737.363661	2585.698548
737.693883	2586.913467
738.024056	2588.332551
738.354182	2587.609146
738.684260	2586.792479
739.014290	2587.818354
739.344272	2589.030751
739.674207	2588.188878
740.004093	2589.502099
740.333931	2589.050916
740.663722	2590.621235
740.993464	2588.720720
741.323159	2587.445308
741.652806	2588.733323
741.982405	2591.324476
742.311956	2587.039495
742.641460	2586.976481
742.970915	2586.784917
743.300323	2587.047057
743.629683	2583.054463
743.958996	2587.382294
744.288260	2587.236100
744.617477	2587.347006
744.946647	2582.618403
745.275768	2582.386510
745.604842	2579.266036
745.933869	2580.738053
746.262847	2580.012127
746.591778	2584.408013
746.920662	2585.118816
747.249498	2584.750812
747.578286	2583.087231
747.907027	2587.127716
748.235720	2584.357602
748.564365	2585.247365
748.892963	2583.709813
749.221514	2583.472879
749.550017	2585.953127
749.878473	2584.687797
750.206881	2587.213415
750.535242	2583.573702
750.863555	2583.324165
751.191821	2584.445822
751.520039	2585.479258
751.848210	2584.304669
752.176334	2583.253589
752.504411	2583.016655
752.832440	2584.781058
753.160421	2582.467169
753.488356	2585.154104
753.816243	2585.728795
754.144082	2582.441963
754.471875	2583.803075
754.799620	2582.013465
755.127318	2582.086562
755.454969	2582.557910
755.782572	2582.570512
756.110129	2582.220152
756.437638	2583.009093
756.765100	2581.998342
757.092515	2583.924062
757.419882	2582.971284
757.747203	2581.549679
758.074477	2586.578230
758.401703	2584.549165
758.728882	2584.523960
759.056014	2582.928434
759.383099	2586.729464
759.710138	2582.394072
760.037129	2584.506316
760.364073	2584.297108
760.690970	2583.601428
761.017820	2583.853486
761.344623	2584.534042
761.671379	2585.431367
761.998088	2582.678897
762.324751	2585.786769
762.651366	2588.612335
762.977935	2592.572162
763.304456	2594.533171
763.630931	2600.557349
763.957359	2600.028028
764.283740	2600.564911
764.610074	2596.247163
764.936362	2593.477049
765.262602	2592.657861
765.588796	2587.014290
765.914943	2587.200812
766.241044	2585.431367
766.567097	2586.764752
766.893104	2582.888105
767.219064	2581.862230
767.544978	2580.750656
767.870845	2581.279977
768.196665	2581.274936
768.522438	2581.227045
768.848165	2580.319637
769.173846	2578.837538
769.499479	2577.766293
769.825066	2579.669328
770.150607	2579.107240
770.476101	2578.630851
770.801548	2579.596232
771.126949	2577.904925
771.452303	2578.230079
771.777611	2576.387537
772.102872	2578.502301
772.428087	2575.744790
772.753256	2580.790985
773.078378	2573.932495
773.403453	2579.772672
773.728482	2576.889132
774.053465	2576.984914
774.378401	2576.972311
774.703291	2578.076324
775.028135	2577.783937
775.352932	2576.722774
775.677683	2575.336457
776.002388	2575.336457
776.327046	2576.188412
776.651658	2576.354770
776.976224	2575.338977
777.300743	2576.490881
777.625216	2578.870306
777.949643	2575.638926
778.274024	2579.717219
778.598359	2571.338822
778.922647	2572.462999
779.246889	2572.457958
779.571086	2569.536609
779.895236	2571.036353
780.219339	2575.190263
780.543397	2574.164388
780.867409	2574.471899
781.191374	2575.477609
781.515294	2576.022054
781.839167	2576.233782
782.162995	2577.993145
782.486776	2580.241499
782.810511	2577.610017
783.134201	2577.010120
783.457844	2575.822928
783.781441	2575.974163
784.104993	2573.844275
784.428498	2575.817887
784.751958	2573.388051
785.075372	2574.308061
785.398739	2574.285376
785.722061	2577.178998
786.045337	2574.769327
786.368568	2575.253278
786.691752	2575.951478
787.014891	2575.207907
787.337983	2574.416446
787.661030	2576.649677
787.984031	2575.427197
788.306987	2580.223855
788.629897	2579.076993
788.952760	2575.643967
789.275579	2577.733525
789.598351	2581.579926
789.921078	2575.979204
790.243759	2575.107084
790.566395	2574.877712
790.888984	2575.316292
791.211529	2575.167578
791.534027	2575.646488
791.856480	2573.519121
792.178888	2573.282187
792.501249	2574.451734
792.823566	2574.602969
793.145836	2576.027095
793.468062	2574.981055
793.790241	2574.973494
794.112375	2575.470047
794.434464	2573.821590
794.756507	2575.356621
795.078505	2575.094481
795.400457	2573.100705
795.722364	2571.878225
796.044226	2574.784450
796.366042	2572.011816
796.687812	2573.072979
797.009538	2576.359811
797.331218	2575.520459
797.652852	2576.924420
797.974442	2573.667835
798.295986	2576.548854
798.617484	2576.793350
798.938938	2577.388206
799.260346	2575.328895
799.581709	2575.328895
799.903026	2576.558937
800.224299	2575.785119
800.545526	2574.507187
800.866708	2576.112794
801.187845	2574.408884
801.508936	2576.871488
801.829983	2572.011816
802.150984	2575.618761
802.471940	2573.851837
802.792851	2574.436611
803.113717	2576.062383
803.434538	2573.135993
803.755314	2576.039698
804.076045	2571.676579
804.396731	2575.127249
804.717372	2573.907290
805.037967	2572.793195
805.358518	2575.964080
805.679024	2574.996179
805.999485	2573.438462
806.319901	2572.737742
806.640272	2571.182546
806.960598	2574.237485
807.280879	2573.677917
807.601115	2573.216652
807.921306	2571.686661
808.241453	2573.377968
808.561554	2572.067268
808.881611	2573.935016
809.201623	2572.309244
809.521590	2571.643812
809.841513	2572.213462
810.161390	2572.969635
810.481223	2574.053483
810.801011	2572.919223
811.120755	2573.216652
811.440453	2575.258319
811.760107	2574.471899
812.079716	2569.947463
812.399281	2570.993503
812.718801	2569.229099
813.038276	2569.713050
813.357707	2572.425190
813.677093	2575.144893
813.996434	2573.965263
814.315731	2572.326888
814.634983	2571.968966
814.954191	2571.467371
815.273354	2572.886456
815.592473	2574.653380
815.911547	2573.176322
816.230577	2573.972825
816.549562	2572.878894
816.868502	2573.451065
817.187399	2576.004410
817.506250	2574.950808
817.825058	2577.103381
818.143821	2577.894842
818.462539	2575.651529
818.781213	2574.381158
819.099843	2578.154462
819.418429	2576.120356
819.736970	2579.266036
820.055466	2583.780389
820.373919	2584.801223
820.692327	2585.852304
821.010691	2594.749940
821.329011	2604.272680
821.647286	2629.894344
821.965517	2653.600370
822.283704	2672.844975
822.601847	2686.826615
822.919945	2680.416788
823.237999	2672.000582
823.556010	2660.751247
823.873976	2647.193064
824.191897	2636.785602
824.509775	2629.622122
824.827609	2623.071142
825.145398	2615.138887
825.463144	2611.433639
825.780845	2606.337032
826.098502	2607.246961
826.416116	2614.165944
826.733685	2617.084772
827.051210	2620.638786
827.368692	2621.420165
827.686129	2613.160234
828.003522	2607.254522
828.320872	2600.280086
828.638177	2593.993767
828.955439	2591.778180
829.272656	2585.595205
829.589830	2581.526994
829.906960	2585.045719
830.224046	2582.504977
830.541088	2583.301480
830.858086	2578.467013
831.175041	2577.176478
831.491952	2578.625810
831.808819	2577.103381
832.125642	2577.456262
832.442421	2580.995152
832.759157	2578.799729
833.075849	2584.365163
833.392497	2590.860690
833.709101	2596.032914
834.025662	2596.020311
834.342179	2596.456371
834.658653	2590.752305
834.975083	2587.331882
835.291469	2593.232553
835.607811	2586.762232
835.924110	2581.771490
836.240366	2580.339802
836.556578	2579.497929
836.872746	2579.742425
837.188871	2572.042063
837.504952	2571.321178
837.820990	2573.141034
838.136984	2571.447207
838.452935	2570.522155
838.768842	2571.812690
839.084706	2574.202197
839.400526	2573.287228
839.716303	2576.954667
840.032037	2580.206211
840.347727	2582.774679
840.663373	2583.493044
840.978977	2580.894329
841.294537	2576.841241
841.610054	2574.837382
841.925527	2571.842937
842.240957	2572.967114
842.556344	2572.820921
842.871687	2571.749676
843.186987	2569.256825
843.502244	2571.795046
843.817458	2570.083574
844.132629	2570.529717
844.447756	2571.502659
844.762840	2564.482852
845.077881	2565.387740
845.392879	2563.721638
845.707833	2564.543346
846.022745	2563.010836
846.337613	2567.336146
846.652438	2568.341856
846.967221	2567.258008
847.281960	2568.649366
847.596656	2566.249777
847.911309	2569.050138
848.225919	2568.336815
848.540485	2568.019222
848.855009	2566.564849
849.169490	2566.373285
849.483928	2569.506362
849.798323	2567.356310
850.112675	2566.814386
850.426984	2565.521330
850.741251	2566.685837
851.055474	2568.626681
851.369654	2569.435786
851.683792	2567.726835
851.997887	2565.685168
852.311938	2567.779767
852.625947	2567.943605
852.939914	2567.104252
853.253837	2571.124573
853.567718	2568.162895
853.881555	2569.524006
854.195350	2568.692216
854.509103	2563.567883
854.822812	2567.870508
855.136479	2568.543502
855.450103	2567.036197
855.763685	2567.666341
856.077224	2568.510734
856.390720	2566.713563
856.704173	2566.562328
857.017584	2567.023594
857.330953	2567.799932
857.644278	2566.910168
857.957561	2566.801783
858.270802	2567.890672
858.584000	2567.134499
858.897155	2566.801783
859.210268	2567.613409
859.523339	2567.197514
859.836367	2566.418656
860.149352	2567.315981
860.462295	2564.452606
860.775195	2563.482183
861.088054	2564.326577
861.400869	2561.755588
861.713642	2563.225085
862.026373	2562.385733
862.339062	2565.992678
862.651708	2567.290775
862.964312	2566.771536
863.276873	2565.518810
863.589392	2568.573749
863.901869	2563.023438
864.214303	2568.838409
864.526696	2566.527040
864.839045	2568.735066
865.151353	2564.928995
865.463619	2570.290262
865.775842	2567.167267
866.088023	2564.989488
866.400162	2567.618450
866.712258	2565.120558
867.024313	2566.295147
867.336325	2568.672051
867.648296	2567.386557
867.960224	2568.140210
868.272110	2569.148440
868.583954	2567.999057
868.895755	2569.652556
869.207515	2566.983265
869.519233	2568.556105
869.830909	2567.192473
870.142542	2567.479818
870.454134	2565.385219
870.765684	2567.729356
871.077191	2568.505693
871.388657	2568.145251
871.700081	2568.654407
872.011463	2569.201372
872.322803	2567.472257
872.634101	2567.686506
872.945357	2568.225909
873.256571	2570.630540
873.567744	2568.896383
873.878874	2569.390416
874.189963	2565.513768
874.501010	2570.350756
874.812015	2569.042576
875.122979	2570.108780
875.433900	2570.023081
875.744780	2567.162226
876.055618	2568.737586
876.366415	2568.520817
876.677169	2570.277659
876.987882	2569.463512
877.298554	2564.823130
877.609183	2568.465364
877.919771	2568.046948
878.230317	2568.233471
878.540822	2572.946950
878.851285	2575.414595
879.161707	2573.435942
879.472087	2573.478792
879.782425	2579.888619
880.092722	2581.905080
880.402977	2590.275916
880.713191	2599.768409
881.023363	2615.436315
881.333494	2621.236162
881.643583	2625.448047
881.953631	2626.731020
882.263637	2622.448560
882.573602	2620.018724
882.883526	2617.230966
883.193408	2615.713578
883.503248	2610.460696
883.813048	2608.746704
884.122806	2605.578339
884.432522	2598.853439
884.742197	2597.595672
885.051831	2593.882862
885.361424	2589.514702
885.670975	2586.628641
885.980485	2582.643609
886.289954	2582.600759
886.599382	2578.628330
886.908768	2580.042374
887.218113	2574.613051
887.527417	2573.385530
887.836680	2574.852506
888.145901	2574.252609
888.455082	2571.608523
888.764221	2572.498287
889.073319	2574.736559
889.382376	2569.350087
889.691392	2568.863615
890.000366	2572.420149
890.309300	2571.694223
890.618193	2570.474264
890.927044	2573.239337
891.235855	2571.248081
891.544625	2569.869325
891.853353	2570.912844
892.162041	2567.542833
892.470687	2571.873184
892.779293	2575.391909
893.087858	2567.129458
893.396381	2571.260684
893.704864	2572.883935
894.013306	2574.126580
894.321707	2582.094123
894.630068	2582.051274
894.938387	2586.810123
895.246665	2586.522777
895.554903	2586.132088
895.863100	2583.666963
896.171256	2582.199988
896.479371	2582.361305
896.787446	2581.632858
897.095480	2578.822415
897.403473	2577.050449
897.711425	2577.574729
898.019336	2577.030284
898.327207	2574.401323
898.635038	2574.978535
898.942827	2571.936198
899.250576	2571.676579
899.558284	2572.483164
899.865952	2572.359655
900.173579	2570.638101
900.481165	2569.403019
900.788711	2571.159861
901.096216	2570.832186
901.403681	2570.018039
901.711105	2567.530230
902.018489	2567.593244
902.325832	2570.683472
902.633135	2571.071641
902.940397	2567.643656
903.247619	2573.060376
903.554800	2574.993658
903.861941	2577.945254
904.169041	2587.304156
904.476101	2586.444639
904.783121	2590.722058
905.090100	2589.144177
905.397039	2585.940524
905.703938	2583.533373
906.010796	2586.769794
906.317614	2580.707806
906.624391	2576.659760
906.931129	2576.488360
907.237826	2575.560788
907.544483	2575.253278
907.851099	2573.088102
908.157675	2571.260684
908.464211	2569.007288
908.770707	2565.097873
909.077163	2564.752554
909.383578	2566.544684
909.689954	2564.334138
909.996289	2564.114848
910.302584	2569.062741
910.608839	2565.980075
910.915054	2565.455795
911.221229	2565.949828
911.527363	2565.470919
911.833458	2566.799263
912.139513	2567.298337
912.445527	2567.353790
912.751502	2568.029304
913.057436	2566.537123
913.363331	2567.028635
913.669186	2567.547874
913.975000	2567.842782
914.280775	2568.956877
914.586510	2570.839747
914.892205	2574.033318
915.197859	2577.451221
915.503475	2582.421798
915.809050	2582.991449
916.114585	2587.273909
916.420081	2590.585947
916.725536	2587.712489
917.030952	2591.911771
917.336328	2589.320617
917.641665	2587.074783
917.946961	2587.964547
918.252218	2586.303487
918.557435	2585.449011
918.862612	2581.632858
919.167750	2580.634709
919.472848	2577.093299
919.777906	2578.000707
920.082925	2577.363001
920.387904	2576.304358
920.692843	2572.727660
920.997743	2572.659604
921.302603	2573.624985
921.607423	2570.685992
921.912204	2568.104922
922.216946	2568.934191
922.521647	2571.442165
922.826310	2565.647359
923.130932	2568.556105
923.435516	2566.509396
923.740059	2568.598955
924.044564	2567.333625
924.349028	2567.613409
924.653454	2563.406566
924.957840	2565.637277
925.262186	2562.829354
925.566493	2561.722821
925.870761	2561.644683
926.174989	2562.279868
926.479178	2566.343038
926.783328	2563.920764
927.087438	2563.993861
927.391509	2565.191135
927.695541	2565.927143
927.999533	2562.854560
928.303486	2565.851526
928.607400	2562.451267
928.911275	2564.684499
929.215110	2563.598130
929.518906	2565.874211
929.822663	2562.363047
930.126381	2561.841288
930.430060	2562.824313
930.733699	2562.441185
931.037299	2560.744837
931.340861	2564.808007
931.644383	2562.355486
931.947866	2561.939590
932.251309	2561.319528
932.554714	2562.035372
932.858080	2563.003274
933.161407	2562.320197
933.464694	2565.455795
933.767943	2560.911195
934.071153	2561.916905
934.374323	2562.095866
934.677455	2562.458829
934.980548	2565.357493
935.283602	2560.429765
935.586617	2562.297512
935.889593	2564.737431
936.192530	2564.581155
936.495428	2562.547049
936.798287	2559.779456
937.101108	2563.855229
937.403890	2563.338511
937.706632	2564.472770
938.009336	2563.822461
938.312002	2564.319015
938.614628	2563.840105
938.917216	2566.123748
939.219765	2564.881104
939.522275	2565.760785
939.824747	2567.144582
940.127179	2560.344065
940.429573	2562.746175
940.731929	2562.645352
941.034246	2564.583676
941.336524	2563.335990
941.638763	2566.383367
941.940964	2564.235836
942.243126	2564.147616
942.545250	2564.732390
942.847335	2564.709704
943.149381	2563.177194
943.451389	2568.767833
943.753359	2564.031669
944.055290	2563.003274
944.357182	2563.774570
944.659036	2564.336659
944.960851	2562.310115
945.262628	2565.516289
945.564367	2562.053016
945.866067	2565.425548
946.167729	2563.860270
946.469352	2565.334808
946.770937	2563.280537
947.072484	2562.564693
947.373992	2563.136864
947.675462	2563.920764
947.976893	2563.361196
948.278286	2563.449416
948.579641	2563.734241
948.880958	2563.981258
949.182236	2564.185424
949.483476	2561.621998
949.784678	2565.233984
950.085841	2564.966803
950.386967	2564.306412
950.688054	2562.602502
950.989103	2563.701474
951.290114	2563.953531
951.591087	2561.674930
951.892021	2562.647872
952.192917	2565.014694
952.493776	2562.791545
952.794596	2565.939746
953.095378	2564.092163
953.396122	2565.929664
953.696828	2564.394632
953.997496	2565.347410
954.298126	2562.952862
954.598718	2563.245249
954.899272	2563.426731
955.199788	2562.312636
955.500266	2564.596278
955.800706	2560.482697
956.101108	2557.946997
956.401472	2557.778118
956.701798	2558.622511
957.002087	2558.892213
957.302337	2564.419838
957.602550	2562.564693
957.902724	2559.373643
958.202861	2563.739282
958.502960	2561.435475
958.803022	2561.271637
959.103045	2560.036555
959.403031	2560.210475
959.702979	2559.842470
960.002889	2561.886658
960.302762	2559.159394
960.602596	2561.012018
960.902393	2558.438509
961.202153	2563.552760
961.501875	2561.057388
961.801559	2562.988150
962.101205	2561.122923
962.400814	2562.242060
962.700385	2561.934549
962.999918	2559.824826
963.299414	2559.902964
963.598873	2560.132337
963.898293	2561.609395
964.197677	2558.587223
964.497022	2561.876576
964.796331	2559.262738
965.095601	2561.657286
965.394835	2560.616288
965.694030	2558.902295
965.993189	2562.393294
966.292309	2558.947666
966.591393	2560.593602
966.890439	2560.323901
967.189447	2561.057388
967.488419	2560.497820
967.787353	2562.345403
968.086249	2559.731565
968.385108	2561.261555
968.683930	2558.884651
968.982714	2561.959755
969.281462	2559.837429
969.580172	2562.310115
969.878844	2561.228788
970.177480	2559.855073
970.476078	2559.766853
970.774639	2559.570248
971.073162	2561.959755
971.371649	2556.860628
971.670098	2557.936914
971.968510	2555.940617
972.266885	2557.773077
972.565223	2560.765002
972.863524	2557.533622
973.161788	2562.899930
973.460014	2561.241391
973.758204	2560.681823
974.056356	2558.617470
974.354471	2561.899261
974.652550	2560.608726
974.950591	2559.976061
975.248595	2562.980589
975.546563	2557.831050
975.844493	2558.125958
976.142386	2560.959086
976.440243	2560.986812
976.738062	2560.858263
977.035845	2562.965465
977.333590	2560.578479
977.631299	2560.843139
977.928971	2560.228119
978.226606	2560.149981
978.524204	2559.298026
978.821765	2559.257697
979.119290	2560.412121
979.416777	2560.704508
979.714228	2559.933211
980.011642	2561.422872
980.309020	2561.947152
980.606360	2558.897254
980.903664	2562.723490
981.200931	2558.438509
981.498162	2561.599312
981.795356	2562.920095
982.092513	2560.064281
982.389633	2562.368088
982.686717	2563.547718
982.983764	2564.757595
983.280775	2561.742985
983.577749	2564.288768
983.874686	2563.431772
984.171587	2565.009653
984.468451	2563.320867
984.765279	2562.695763
985.062070	2565.717935
985.358824	2563.741803
985.655543	2562.433623
985.952224	2559.741647
986.248869	2561.995043
986.545478	2556.250648
986.842050	2557.435319
987.138586	2558.972871
987.435086	2556.510268
987.731549	2556.883313
988.027975	2560.633932
988.324366	2558.637635
988.620719	2559.895402
988.917037	2562.294992
989.213318	2560.056719
989.509563	2558.803993
989.805772	2559.852553
990.101944	2558.536812
990.398080	2559.615618
990.694180	2558.360371
990.990244	2558.688046
991.286271	2556.343910
991.582262	2561.332131
991.878217	2558.221739
992.174136	2558.325083
992.470019	2558.161246
992.765865	2559.376164
993.061676	2558.670402
993.357450	2562.673078
993.653188	2558.685526
993.948890	2560.591082
994.244556	2560.888510
994.540186	2559.759291
994.835780	2556.958930
995.131337	2561.019580
995.426859	2560.928839
995.722345	2560.273489
996.017795	2561.574107
996.313208	2561.962276
996.608586	2564.971844
996.903928	2559.908005
997.199234	2560.341545
997.494504	2564.142575
997.789738	2558.471277
998.084936	2560.722152
998.380099	2561.029662
998.675225	2561.253993
998.970316	2561.047306
999.265371	2560.780125
999.560390	2560.308777
999.855373	2560.996895
1000.150320	2560.165104
1000.445232	2562.191648
1000.740108	2560.674261
1001.034948	2559.066133
1001.329752	2560.369271
1001.624521	2561.380022
1001.919254	2556.727037
1002.213951	2556.301060
1002.508613	2555.466749
1002.803239	2554.710576
1003.097829	2555.103786
1003.392384	2559.008159
1003.686903	2561.226267
1003.981386	2557.828529
1004.275834	2558.763663
1004.570246	2560.828016
1004.864623	2559.960937
1005.158964	2558.607388
1005.453270	2558.115875
1005.747540	2558.993036
1006.041775	2557.173179
1006.335974	2559.252655
1006.630138	2558.098231
1006.924266	2559.839950
1007.218359	2559.897923
1007.512416	2560.109652
1007.806438	2557.203426
1008.100425	2559.550083
1008.394376	2556.404403
1008.688292	2558.526729
1008.982172	2558.259548
1009.276017	2557.311811
1009.569827	2558.337686
1009.863602	2563.368757
1010.157341	2558.282233
1010.451045	2555.514640
1010.744714	2558.554456
1011.038347	2559.938252
1011.331945	2557.654610
1011.625508	2560.649055
1011.919036	2557.271482
1012.212528	2558.809034
1012.505986	2557.959599
1012.799408	2561.841288
1013.092795	2559.275341
1013.386147	2558.214178
1013.679464	2559.716442
1013.972745	2559.363561
1014.265992	2559.751730
1014.559204	2558.819116
1014.852380	2558.970351
1015.145521	2558.912378
1015.438628	2559.151832
1015.731699	2558.672923
1016.024736	2556.613611
1016.317737	2558.161246
1016.610703	2559.154353
1016.903635	2556.550597
1017.196531	2553.783003
1017.489393	2557.939435
1017.782219	2552.938610
1018.075011	2556.553117
1018.367768	2560.452450
1018.660490	2559.560166
1018.953177	2559.560166
1019.245829	2559.560166
