Dividing Wavelength (nm)	Counts (n)	Blue Motor Position (mm): 0.000000	Red Motor Position (mm): 14.000000	
326.493990	2147.322331
326.888308	2147.322331
327.282561	2147.322331
327.676750	2125.451285
328.070874	2120.510954
328.464933	2128.967489
328.858929	2136.725825
329.252859	2148.849800
329.646726	2163.474188
330.040528	2177.372649
330.434265	2196.725638
330.827938	2213.895808
331.221547	2234.698130
331.615091	2253.834350
332.008571	2273.850251
332.401986	2293.853549
332.795338	2313.844245
333.188625	2334.318891
333.581847	2351.970492
333.975006	2373.261805
334.368100	2390.716800
334.761129	2409.243040
335.154095	2426.314908
335.546996	2440.714964
335.939833	2455.684670
336.332606	2470.540951
336.725315	2483.589977
337.117960	2488.038796
337.510540	2498.347955
337.903056	2505.743328
338.295508	2514.078876
338.687896	2519.664474
339.080220	2529.116638
339.472480	2533.462112
339.864676	2536.665766
340.256807	2538.687268
340.648875	2540.247505
341.040879	2542.226158
341.432818	2545.631458
341.824694	2548.530121
342.216506	2544.640871
342.608253	2543.874616
342.999937	2545.991900
343.391557	2542.359749
343.783113	2540.575180
344.174605	2541.265818
344.566033	2539.140972
344.957397	2537.923533
345.348697	2534.102339
345.739934	2534.606454
346.131106	2531.153264
346.522215	2533.439427
346.913260	2530.702081
347.304241	2527.833664
347.695159	2527.390042
348.086012	2525.930628
348.476802	2523.851152
348.867528	2521.738909
349.258191	2520.501306
349.648789	2521.282685
350.039324	2517.963085
350.429796	2519.059536
350.820203	2517.476613
351.210548	2515.850841
351.600828	2513.874709
351.991045	2515.598784
352.381198	2512.997548
352.771288	2517.479134
353.161314	2512.569050
353.551276	2519.316635
353.941175	2514.779596
354.331010	2511.666684
354.720782	2511.311282
355.110490	2517.090965
355.500135	2516.486027
355.889717	2515.724812
356.279235	2512.198525
356.668689	2517.650533
357.058080	2513.519308
357.447408	2510.136693
357.836672	2514.905625
358.225873	2512.695079
358.615010	2511.749863
359.004084	2519.588857
359.393095	2518.726820
359.782043	2518.328568
360.170927	2517.242200
360.559748	2519.021727
360.948505	2519.230935
361.337199	2521.605318
361.725830	2520.597088
362.114398	2522.248066
362.502903	2522.454753
362.891344	2524.554393
363.279722	2521.812006
363.668037	2524.909795
364.056289	2522.648837
364.444478	2525.050947
364.832603	2523.916688
365.220665	2525.970958
365.608665	2525.071112
365.996601	2526.641431
366.384474	2524.466173
366.772284	2527.783252
367.160031	2528.310053
367.547715	2525.124044
367.935336	2528.070598
368.322893	2526.510361
368.710388	2525.640762
369.097820	2530.535723
369.485189	2528.057995
369.872495	2528.907430
370.259738	2527.485824
370.646918	2528.877183
371.034035	2530.253418
371.421090	2531.324663
371.808081	2531.624612
372.195010	2531.450692
372.581875	2531.743079
372.968678	2533.605785
373.355418	2533.078985
373.742096	2535.473533
374.128710	2535.302133
374.515262	2537.467309
374.901751	2536.136444
375.288177	2539.486291
375.674540	2539.985365
376.060841	2542.054759
376.447079	2542.405119
376.833254	2545.565923
377.219367	2543.153731
377.605417	2548.923331
377.991404	2547.915100
378.377329	2549.941644
378.763191	2551.156562
379.148991	2560.001267
379.534727	2560.603685
379.920402	2565.430589
380.306013	2570.549881
380.691563	2576.183371
381.077049	2579.003896
381.462474	2583.661922
381.847835	2590.986719
382.233134	2594.691967
382.618371	2600.779160
383.003545	2605.653956
383.388657	2606.954574
383.773706	2617.800616
384.158693	2623.716410
384.543618	2628.361833
384.928480	2636.220992
385.313280	2645.491674
385.698017	2655.740340
386.082692	2661.638490
386.467305	2665.696619
386.851856	2676.517456
387.236344	2683.990966
387.620770	2690.657892
388.005133	2701.347659
388.389435	2713.927858
388.773674	2717.441542
389.157851	2723.717779
389.541965	2738.609348
389.926018	2742.861561
390.310008	2752.800196
390.693936	2759.663727
391.077802	2772.052362
391.461606	2781.796912
391.845348	2793.058850
392.229027	2798.921712
392.612645	2814.340081
392.996200	2821.102789
393.379694	2832.760457
393.763125	2850.371728
394.146494	2860.083511
394.529801	2870.327136
394.913047	2887.023437
395.296230	2888.099724
395.679351	2895.114489
396.062410	2912.206521
396.445408	2908.365162
396.828343	2916.551996
397.211217	2924.640527
397.594028	2920.136256
397.976778	2935.705860
398.359466	2947.792026
398.742092	2944.658949
399.124656	2958.393573
399.507158	2972.196252
399.889598	2976.292190
400.271977	2988.791731
400.654294	2994.541167
401.036549	3006.234123
401.418742	3007.476767
401.800874	3028.284130
402.182944	3032.669934
402.564952	3061.328893
402.946898	3050.024106
403.328783	3053.036195
403.710606	3065.573545
404.092367	3084.298911
404.474067	3106.492591
404.855705	3091.220415
405.237282	3088.510795
405.618797	3112.047942
406.000250	3124.769294
406.381642	3145.153199
406.762972	3146.277377
407.144240	3126.127885
407.525447	3140.757313
407.906593	3133.722383
408.287677	3145.584218
408.668700	3155.469921
409.049661	3140.686737
409.430560	3144.185298
409.811399	3138.130872
410.192176	3145.889208
410.572891	3141.672283
410.953545	3160.362361
411.334138	3124.832308
411.714669	3152.223418
412.095139	3103.157867
412.475547	3127.642752
412.855894	3110.452417
413.236180	3118.268726
413.616405	3092.049685
413.996568	3096.201075
414.376670	3081.511153
414.756711	3068.555387
415.136691	3070.985223
415.516609	3066.047413
415.896466	3056.033161
416.276262	3059.645148
416.655997	3057.159859
417.035670	3045.000596
417.415283	3064.530026
417.794834	3057.245559
418.174324	3031.666744
418.553753	3016.318951
418.933121	3021.579395
419.312428	2999.536950
419.691674	2980.677993
420.070859	2979.700010
420.449983	2954.859724
420.829045	2956.664457
421.208047	2936.784667
421.586988	2935.663010
421.965867	2928.151691
422.344686	2912.178795
422.723444	2907.573701
423.102141	2865.606095
423.480777	2877.667056
423.859352	2853.461956
424.237866	2862.936804
424.616319	2843.157837
424.994712	2839.626509
425.373044	2822.418530
425.751314	2817.823518
426.129524	2789.971143
426.507673	2794.835857
426.885762	2778.550409
427.263789	2768.127824
427.641756	2753.702562
428.019662	2747.877509
428.397508	2733.900910
428.775292	2727.619632
429.153016	2716.902139
429.530679	2707.281097
429.908282	2696.780373
430.285824	2686.824095
430.663305	2683.244875
431.040726	2670.853719
431.418086	2662.056906
431.795385	2657.691267
432.172624	2649.766573
432.549802	2641.496560
432.926920	2637.650159
433.303977	2631.918367
433.680974	2626.191617
434.057910	2622.506533
434.434786	2617.921604
434.811601	2612.177209
435.188355	2609.550768
435.565050	2605.490118
435.941683	2600.068358
436.318257	2595.259097
436.694770	2593.540063
437.071222	2593.719024
437.447614	2586.704259
437.823946	2586.704259
438.200218	2586.810123
438.576429	2583.367015
438.952580	2579.528176
439.328670	2581.655543
439.704700	2583.036819
440.080670	2581.055646
440.456580	2578.993814
440.832429	2577.408371
441.208218	2576.470716
441.583947	2575.281004
441.959616	2576.891653
442.335224	2574.098853
442.710773	2574.615572
443.086261	2571.195149
443.461689	2572.888977
443.837057	2571.124573
444.212365	2573.635067
444.587612	2573.246898
444.962800	2574.766806
445.337927	2571.797567
445.712995	2570.519634
446.088002	2569.385375
446.462949	2573.461147
446.837837	2573.226734
447.212664	2574.015674
447.587431	2572.831003
447.962139	2575.694379
448.336786	2577.325192
448.711374	2576.765624
449.085901	2574.746642
449.460369	2573.531724
449.834776	2569.750858
450.209124	2575.512897
450.583412	2575.714543
450.957640	2573.478792
451.331808	2572.939388
451.705917	2572.964594
452.079965	2573.199007
452.453954	2574.567681
452.827883	2571.033832
453.201752	2571.787484
453.575562	2572.039542
453.949311	2572.183215
454.323001	2577.075655
454.696632	2571.744635
455.070202	2575.495253
455.443713	2573.390571
455.817164	2570.585169
456.190556	2571.177505
456.563888	2570.648184
456.937160	2573.158678
457.310373	2574.633216
457.683526	2575.139852
458.056619	2572.568863
458.429653	2574.224882
458.802628	2575.787640
459.175542	2576.672363
459.548398	2575.064234
459.921194	2577.015161
460.293930	2576.798391
460.666607	2578.262847
461.039224	2576.896694
461.411782	2578.600604
461.784280	2581.481623
462.156719	2579.926427
462.529099	2580.188567
462.901419	2577.519276
463.273680	2578.358628
463.645882	2581.085893
464.018024	2579.064390
464.390106	2576.289235
464.762130	2580.007086
465.134094	2582.817529
465.505999	2584.692838
465.877845	2583.747622
466.249631	2587.099989
466.621358	2586.389187
466.993026	2588.226687
467.364634	2589.923035
467.736184	2583.240986
468.107674	2583.306521
468.479105	2580.606983
468.850477	2583.689649
469.221790	2583.195616
469.593043	2583.603949
469.964238	2583.629155
470.335373	2581.927765
470.706449	2582.199988
471.077467	2582.779720
471.448425	2585.391038
471.819324	2588.395566
472.190164	2587.268868
472.560945	2586.124526
472.931667	2586.253075
473.302330	2584.778538
473.672934	2582.235276
474.043479	2584.377766
474.413965	2583.019175
474.784393	2580.019689
475.154761	2580.140676
475.525070	2580.274267
475.895321	2578.829976
476.265513	2580.208732
476.635645	2583.843404
477.005719	2583.026737
477.375734	2584.155955
477.745691	2585.086048
478.115588	2585.411203
478.485427	2587.203333
478.855207	2589.184506
479.224928	2586.719382
479.594591	2592.055443
479.964194	2590.391863
480.333739	2588.246852
480.703226	2589.582758
481.072653	2587.760380
481.442022	2591.551328
481.811333	2589.360947
482.180584	2590.361616
482.549777	2589.534867
482.918912	2588.766091
483.287988	2591.377408
483.657005	2587.364650
484.025964	2590.583427
484.394864	2588.004876
484.763706	2590.679208
485.132489	2589.441605
485.501213	2588.869434
485.869879	2590.470001
486.238487	2584.297108
486.607036	2585.605287
486.975527	2586.802561
487.343959	2583.840883
487.712333	2586.326172
488.080648	2587.611666
488.448905	2584.927252
488.817104	2587.641913
489.185244	2585.663260
489.553326	2588.574527
489.921350	2589.368508
490.289315	2589.892788
490.657222	2587.503282
491.025070	2592.226843
491.392861	2589.703745
491.760593	2592.264651
492.128267	2592.834302
492.495883	2590.074270
492.863440	2591.967223
493.230939	2586.840370
493.598380	2587.253744
493.965763	2584.773497
494.333088	2581.204360
494.700354	2581.920204
495.067563	2582.373908
495.434713	2579.883577
495.801805	2586.772314
496.168839	2587.223498
496.535815	2586.674012
496.902733	2586.389187
497.269593	2589.214753
497.636395	2585.106213
498.003139	2588.231728
498.369825	2588.819023
498.736453	2588.115782
499.103023	2586.716862
499.469535	2587.198292
499.835989	2584.949937
500.202385	2587.586461
500.568723	2586.210226
500.935003	2585.844742
501.301226	2584.735688
501.667390	2585.852304
502.033497	2588.506471
502.399546	2582.608321
502.765537	2583.994638
503.131470	2587.523446
503.497345	2588.017479
503.863163	2584.234093
504.228923	2585.930442
504.594625	2586.575709
504.960269	2587.437747
505.325856	2586.328693
505.691385	2587.105030
506.056856	2584.339957
506.422270	2584.506316
506.787625	2584.287025
507.152924	2586.174938
507.518164	2583.614031
507.883347	2583.999680
508.248472	2586.805082
508.613540	2586.318610
508.978550	2586.084197
509.343503	2584.939855
509.708398	2585.713672
510.073236	2585.088569
510.438016	2589.469332
510.802738	2584.471028
511.167403	2585.144022
511.532010	2586.454722
511.896561	2586.401789
512.261053	2585.572520
512.625488	2582.215111
512.989866	2580.362487
513.354186	2582.063877
513.718449	2581.358115
514.082655	2585.005390
514.446803	2583.498085
514.810894	2584.866758
515.174927	2587.871286
515.538904	2586.278281
515.902822	2586.641244
516.266684	2583.934145
516.630488	2587.122674
516.994235	2586.789958
517.357925	2585.748960
517.721558	2585.199474
518.085133	2585.580081
518.448651	2585.731316
518.812112	2588.256934
519.175516	2585.572520
519.538863	2587.720051
519.902152	2585.874989
520.265385	2586.958837
520.628560	2585.607808
520.991678	2583.304000
521.354739	2585.965730
521.717743	2586.953796
522.080690	2586.913467
522.443580	2583.921542
522.806413	2585.204515
523.169189	2586.190061
523.531908	2586.956316
523.894569	2585.557396
524.257174	2586.772314
524.619722	2586.331213
524.982213	2584.954978
525.344647	2587.382294
525.707025	2583.876171
526.069345	2586.081676
526.431608	2586.840370
526.793815	2585.227201
527.155964	2585.307859
527.518057	2584.748291
527.880093	2587.974629
528.242072	2586.066553
528.603995	2584.705441
528.965860	2587.699887
529.327669	2585.093610
529.689421	2585.542273
530.051117	2586.283322
530.412755	2584.103023
530.774337	2586.323652
531.135862	2586.553024
531.497331	2584.140832
531.858743	2583.445153
532.220098	2581.325348
532.581396	2584.977663
532.942638	2579.853331
533.303824	2584.544124
533.664953	2585.330544
534.026025	2585.635534
534.387040	2586.099320
534.747999	2586.989084
535.108902	2586.245514
535.469748	2583.848445
535.830537	2587.432705
536.191270	2584.733167
536.551947	2587.097469
536.912567	2583.745101
537.273131	2586.232911
537.633638	2585.401120
537.994089	2585.396079
538.354483	2586.154773
538.714821	2586.616038
539.075103	2586.043867
539.435328	2585.877509
539.795497	2584.105544
540.155609	2587.715010
540.515665	2584.745770
540.875665	2586.048909
541.235609	2587.309197
541.595496	2584.085379
541.955328	2585.824577
542.315102	2586.568148
542.674821	2584.231573
543.034483	2586.883220
543.394090	2586.356419
543.753640	2584.649988
544.113134	2585.844742
544.472571	2584.440781
544.831953	2585.786769
545.191278	2585.660740
545.550548	2585.781727
545.909761	2583.614031
546.268918	2585.217118
546.628019	2586.555545
546.987064	2585.680904
547.346053	2584.861717
547.704986	2584.629824
548.063863	2588.826584
548.422684	2584.390369
548.781449	2586.653847
549.140158	2583.427509
549.498811	2587.498240
549.857408	2586.779876
550.215949	2583.460276
550.574434	2580.974987
550.932864	2579.432394
551.291237	2582.769638
551.649555	2585.602767
552.007817	2584.549165
552.366022	2584.206367
552.724173	2584.491192
553.082267	2584.551686
553.440305	2585.204515
553.798288	2584.932293
554.156215	2585.638055
554.514086	2583.649319
554.871902	2584.065215
555.229661	2583.331727
555.587365	2585.103692
555.945014	2586.444639
556.302606	2584.375246
556.660143	2585.741398
557.017625	2585.638055
557.375050	2582.741912
557.732421	2584.760894
558.089735	2583.861048
558.446994	2585.411203
558.804197	2586.205184
559.161345	2583.384659
559.518437	2584.564289
559.875474	2584.680235
560.232455	2585.416244
560.589381	2581.421129
560.946251	2588.332551
561.303065	2584.448342
561.659825	2585.242324
562.016528	2581.476582
562.373177	2586.164855
562.729770	2584.211408
563.086307	2584.995307
563.442789	2587.016810
563.799216	2585.844742
564.155587	2587.820874
564.511904	2584.496233
564.868164	2586.177458
565.224370	2585.154104
565.580520	2582.449525
565.936615	2585.443970
566.292654	2588.720720
566.648638	2583.498085
567.004567	2587.036975
567.360441	2584.150914
567.716260	2584.743250
568.072023	2585.501943
568.427732	2581.521953
568.783385	2581.884916
569.138982	2581.060687
569.494525	2582.930955
569.850013	2581.932807
570.205445	2585.988415
570.560823	2584.118147
570.916145	2584.665112
571.271412	2584.065215
571.626625	2582.880543
571.981782	2585.610328
572.336884	2585.209557
572.691931	2585.270050
573.046923	2586.379104
573.401860	2584.902046
573.756743	2583.578743
574.111570	2584.602097
574.466342	2588.264496
574.821059	2586.081676
575.175722	2586.396748
575.530330	2584.614700
575.884882	2585.413723
576.239380	2586.553024
576.593823	2584.140832
576.948211	2585.360791
577.302544	2584.944896
577.656823	2582.615883
578.011047	2585.383476
578.365216	2582.999011
578.719330	2584.529001
579.073389	2588.065370
579.427394	2580.241499
579.781344	2585.065884
580.135239	2585.209557
580.489080	2584.206367
580.842866	2582.993969
581.196597	2585.063363
581.550273	2583.130081
581.903895	2582.958681
582.257463	2585.043198
582.610975	2585.539752
582.964434	2583.137642
583.317837	2583.495564
583.671186	2584.319793
584.024481	2587.150401
584.377721	2583.833322
584.730906	2584.370204
585.084037	2584.342478
585.437113	2584.753332
585.790135	2587.092427
586.143103	2583.919021
586.496016	2585.655699
586.848874	2581.222004
587.201679	2580.042374
587.554428	2583.790472
587.907124	2584.450863
588.259765	2579.192939
588.612352	2584.594536
588.964884	2584.448342
589.317362	2585.721234
589.669786	2583.041860
590.022155	2585.522108
590.374470	2585.698548
590.726731	2583.412385
591.078937	2583.898857
591.431090	2584.670153
591.783188	2581.640420
592.135232	2585.335585
592.487222	2584.241655
592.839157	2585.043198
593.191038	2582.656212
593.542866	2583.908939
593.894639	2583.712334
594.246358	2581.922724
594.598022	2583.034299
594.949633	2582.799885
595.301190	2582.789803
595.652692	2585.640575
596.004141	2581.436253
596.355535	2582.862899
596.706876	2580.967426
597.058162	2581.176633
597.409395	2581.141345
597.760573	2582.396593
598.111698	2584.501274
598.462768	2582.746953
598.813785	2580.818712
599.164748	2582.366346
599.515657	2583.205698
599.866511	2584.130750
600.217312	2582.220152
600.568060	2584.120667
600.918753	2581.557241
601.269392	2583.067066
601.619978	2581.489185
601.970510	2586.119485
602.320988	2582.812488
602.671412	2581.131263
603.021783	2583.873651
603.372100	2580.581777
603.722363	2582.893146
604.072572	2582.903229
604.422728	2583.898857
604.772830	2579.243351
605.122878	2581.461459
605.472872	2577.690676
605.822813	2577.035326
606.172701	2579.354256
606.522534	2581.610173
606.872314	2583.155286
607.222041	2583.767787
607.571714	2583.808116
607.921333	2582.033630
608.270899	2581.088413
608.620411	2583.094792
608.969870	2584.004721
609.319276	2583.661922
609.668627	2585.159145
610.017926	2581.743763
610.367171	2583.616552
610.716362	2580.276787
611.065500	2582.711665
611.414585	2581.244689
611.763616	2584.103023
612.112594	2582.305852
612.461518	2581.917683
612.810389	2584.302149
613.159207	2583.876171
613.507971	2583.944227
613.856682	2583.712334
614.205340	2582.474731
614.553945	2581.675708
614.902496	2581.552199
615.250994	2581.181675
615.599439	2581.355594
615.947830	2583.634196
616.296169	2583.472879
616.644454	2582.502457
616.992686	2580.710327
617.340864	2584.198805
617.688990	2583.109916
618.037063	2585.396079
618.385082	2582.268043
618.733048	2581.297621
619.080961	2580.654874
619.428821	2582.583115
619.776628	2580.740574
620.124382	2582.303331
620.472083	2583.619072
620.819731	2582.116809
621.167326	2585.612849
621.514868	2583.233424
621.862357	2581.126222
622.209793	2581.922724
622.557176	2584.440781
622.904506	2578.149421
623.251783	2577.075655
623.599007	2576.352249
623.946179	2579.273598
624.293297	2577.302507
624.640363	2579.573547
624.987376	2582.492375
625.334336	2581.779051
625.681243	2579.641602
626.028097	2582.124370
626.374899	2580.906932
626.721647	2581.380800
627.068343	2583.810636
627.414987	2581.905080
627.761577	2581.655543
628.108115	2583.982036
628.454600	2582.310893
628.801032	2582.328537
629.147412	2584.395410
629.493739	2580.533886
629.840014	2580.733012
630.186236	2579.621437
630.532405	2580.054977
630.878521	2582.434401
631.224585	2579.283680
631.570597	2579.160172
631.916556	2580.007086
632.262462	2581.237127
632.608316	2582.857858
632.954117	2584.029927
633.299866	2580.508681
633.645562	2579.311407
633.991206	2582.779720
634.336797	2581.423650
634.682336	2582.338619
635.027823	2580.672518
635.373257	2581.859710
635.718639	2580.264185
636.063968	2580.508681
636.409245	2582.867941
636.754470	2580.561613
637.099642	2578.189750
637.444762	2581.254771
637.789829	2578.414081
638.134845	2579.613876
638.479808	2580.236458
638.824719	2580.899370
639.169577	2578.003227
639.514383	2581.673187
639.859137	2579.545820
640.203839	2582.434401
640.548489	2580.828794
640.893086	2578.340984
641.237632	2580.095306
641.582125	2575.258319
641.926566	2573.148596
642.270955	2578.235120
642.615292	2578.555233
642.959576	2580.851479
643.303809	2581.834504
643.647990	2580.060018
643.992118	2581.544638
644.336195	2579.886098
644.680219	2578.121694
645.024192	2580.445666
645.368112	2578.343505
645.711981	2580.211252
646.055797	2577.622620
646.399562	2578.005748
646.743274	2579.792837
647.086935	2580.042374
647.430544	2579.712178
647.774101	2580.521283
648.117606	2579.127404
648.461059	2581.877354
648.804460	2580.788465
649.147810	2579.255954
649.491108	2579.210583
649.834354	2578.661098
650.177548	2581.877354
650.520690	2579.366859
650.863781	2576.790830
651.206820	2581.274936
651.549807	2579.530697
651.892742	2581.083372
652.235626	2578.340984
652.578458	2578.348546
652.921238	2577.869637
653.263967	2579.813001
653.606644	2579.437435
653.949269	2578.035995
654.291843	2577.637743
654.634365	2577.244533
654.976836	2579.455079
655.319255	2579.520614
655.661622	2577.070614
656.003938	2577.554564
656.346203	2578.091447
656.688416	2577.907445
657.030577	2576.367373
657.372687	2580.274267
657.714746	2577.471385
658.056753	2580.697724
658.398708	2575.747311
658.740612	2575.079358
659.082465	2573.506518
659.424266	2575.608679
659.766016	2571.522824
660.107715	2579.697055
660.449362	2580.291911
660.790958	2580.329720
661.132503	2577.607497
661.473996	2579.921386
661.815438	2577.741087
662.156829	2578.424163
662.498168	2577.136149
662.839456	2578.340984
663.180693	2577.468865
663.521879	2581.166551
663.863013	2579.293762
664.204097	2576.987435
664.545129	2579.434915
664.886110	2579.210583
665.227040	2577.710840
665.567918	2580.944740
665.908746	2576.926941
666.249522	2578.431725
666.590248	2579.858372
666.930922	2579.510532
667.271545	2579.797878
667.612118	2580.037333
667.952639	2576.584142
668.293109	2578.262847
668.633528	2580.024730
668.973896	2581.184195
669.314213	2580.417940
669.654480	2577.184040
669.994695	2579.439956
670.334859	2578.383834
670.674973	2578.214956
671.015035	2578.134297
671.355047	2576.942064
671.695008	2577.060531
672.034918	2578.824935
672.374777	2578.991293
672.714585	2580.060018
673.054342	2578.547672
673.394049	2579.019020
673.733705	2579.150090
674.073310	2579.152610
674.412864	2578.401478
674.752368	2577.143710
675.091820	2578.537589
675.431223	2577.428536
675.770574	2577.685634
676.109875	2575.104564
676.449125	2572.619275
676.788324	2574.287897
677.127473	2577.302507
677.466571	2575.006261
677.805619	2576.974832
678.144616	2577.035326
678.483562	2577.325192
678.822458	2575.908628
679.161303	2579.961715
679.500098	2575.344018
679.838842	2578.144379
680.177535	2576.533731
680.516179	2578.580439
680.854771	2578.159503
681.193314	2576.647157
681.531805	2577.849472
681.870247	2576.183371
682.208638	2580.244020
682.546978	2582.285687
682.885268	2578.822415
683.223508	2578.013309
683.561697	2577.335274
683.899836	2577.829307
684.237925	2577.385686
684.575963	2577.446180
684.913951	2577.373083
685.251889	2579.780234
685.589776	2576.024574
685.927614	2579.689493
686.265401	2577.000037
686.603137	2577.786457
686.940824	2578.882908
687.278460	2579.238310
687.616046	2576.523648
687.953582	2576.780747
688.291068	2577.279822
688.628504	2576.455593
688.965889	2579.608835
689.303224	2577.829307
689.640510	2577.791499
689.977745	2578.066242
690.314930	2578.083886
690.652065	2579.102199
690.989150	2578.565316
691.326185	2577.688155
691.663170	2575.890984
692.000105	2576.569019
692.336990	2580.024730
692.673825	2578.111612
693.010610	2577.446180
693.347345	2572.508369
693.684030	2571.575756
694.020665	2571.903431
694.357251	2571.674058
694.693786	2573.458627
695.030272	2575.840572
695.366707	2573.771178
695.703093	2577.000037
696.039429	2577.075655
696.375716	2576.513566
696.711952	2574.754203
697.048139	2572.677248
697.384276	2572.228585
697.720363	2574.413926
698.056400	2575.500294
698.392388	2576.604307
698.728326	2577.811663
699.064214	2575.671693
699.400053	2579.180337
699.735842	2576.223700
700.071581	2575.240675
700.407270	2574.043401
700.742910	2574.910479
701.078501	2575.356621
701.414042	2576.626992
701.749533	2573.904769
702.084974	2578.840059
702.420366	2575.490212
702.755709	2573.443503
703.091002	2575.462486
703.426246	2574.492063
703.761440	2575.570870
704.096584	2577.262177
704.431679	2570.365879
704.766725	2576.639595
705.101721	2573.138514
705.436668	2575.273442
705.771565	2574.502146
706.106413	2575.928792
706.441212	2573.251940
706.775961	2572.944429
707.110661	2575.142372
707.445311	2577.025243
707.779913	2574.219841
708.114465	2578.577919
708.448967	2575.772517
708.783421	2574.948288
709.117825	2575.275963
709.452180	2574.406364
709.786485	2575.780078
710.120742	2575.795202
710.454949	2574.204718
710.789107	2573.690520
711.123216	2570.156671
711.457275	2574.088771
711.791286	2570.557443
712.125247	2572.349573
712.459159	2575.833010
712.793023	2576.082547
713.126837	2578.126735
713.460602	2575.054152
713.794318	2575.948957
714.127985	2573.332598
714.461602	2571.946281
714.795171	2577.181519
715.128691	2573.882084
715.462162	2575.457444
715.795584	2578.875347
716.128957	2574.247567
716.462281	2574.976014
716.795556	2576.458113
717.128782	2572.359655
717.461960	2572.213462
717.795088	2575.001220
718.128167	2573.738411
718.461198	2575.366704
718.794180	2577.058011
719.127113	2576.742939
719.459997	2575.752352
719.792833	2575.470047
720.125619	2574.234965
720.458357	2573.665314
720.791046	2573.642629
721.123686	2570.960735
721.456278	2573.529203
721.788821	2572.009295
722.121315	2574.464337
722.453761	2573.781261
722.786158	2573.017526
723.118506	2575.621282
723.450805	2575.749831
723.783056	2573.793864
724.115259	2573.012485
724.447412	2570.985941
724.779518	2574.930644
725.111574	2574.376117
725.443582	2576.465675
725.775542	2573.561971
726.107453	2575.248237
726.439315	2573.942578
726.771129	2578.945923
727.102895	2574.648339
727.434612	2573.309913
727.766281	2572.611713
728.097901	2569.327401
728.429473	2570.602813
728.760996	2570.685992
729.092471	2569.284552
729.423897	2574.179512
729.755276	2571.638770
730.086606	2573.861919
730.417887	2575.896025
730.749120	2573.597259
731.080305	2575.278483
731.411442	2574.696230
731.742530	2576.135480
732.073570	2576.450552
732.404562	2574.413926
732.735506	2573.050293
733.066401	2574.348391
733.397249	2573.670355
733.728048	2573.501477
734.058798	2575.107084
734.389501	2572.062227
734.720156	2573.748493
735.050762	2571.258163
735.381320	2573.718246
735.711831	2573.574573
736.042293	2575.651529
736.372707	2571.666497
736.703073	2575.165058
737.033391	2572.551219
737.363661	2573.967783
737.693883	2571.505180
738.024056	2577.166396
738.354182	2575.157496
738.684260	2572.959553
739.014290	2571.333781
739.344272	2569.115673
739.674207	2574.048442
740.004093	2571.885787
740.333931	2571.996692
740.663722	2572.407546
740.993464	2572.740262
741.323159	2572.997361
741.652806	2575.238154
741.982405	2573.841755
742.311956	2572.987279
742.641460	2574.408884
742.970915	2576.102712
743.300323	2574.771847
743.629683	2573.700602
743.958996	2572.503328
744.288260	2572.667166
744.617477	2572.624316
744.946647	2570.554922
745.275768	2570.083574
745.604842	2572.163050
745.933869	2571.197669
746.262847	2568.861095
746.591778	2572.508369
746.920662	2572.107598
747.249498	2571.157340
747.578286	2571.737073
747.907027	2572.659604
748.235720	2573.546847
748.564365	2573.708164
748.892963	2571.681620
749.221514	2575.170099
749.550017	2571.784964
749.878473	2572.936867
750.206881	2572.825962
750.535242	2572.238668
750.863555	2572.715057
751.191821	2572.652042
751.520039	2571.792526
751.848210	2574.197156
752.176334	2571.721949
752.504411	2573.390571
752.832440	2572.029460
753.160421	2569.866805
753.488356	2571.590879
753.816243	2573.728329
754.144082	2571.197669
754.471875	2572.367217
754.799620	2570.565005
755.127318	2569.443348
755.454969	2570.363358
755.782572	2574.683627
756.110129	2572.405026
756.437638	2569.768502
756.765100	2573.824111
757.092515	2572.899059
757.419882	2568.926630
757.747203	2570.181877
758.074477	2573.912331
758.401703	2570.224727
758.728882	2571.999213
759.056014	2573.332598
759.383099	2573.491394
759.710138	2574.270253
760.037129	2572.087433
760.364073	2572.636919
760.690970	2572.006775
761.017820	2571.900910
761.344623	2572.294120
761.671379	2570.837227
761.998088	2570.628019
762.324751	2571.593400
762.651366	2571.132134
762.977935	2572.505849
763.304456	2571.157340
763.630931	2576.301838
763.957359	2574.600448
764.283740	2578.666139
764.610074	2577.310068
764.936362	2577.342836
765.262602	2572.178174
765.588796	2573.884604
765.914943	2571.464851
766.241044	2574.134142
766.567097	2574.275294
766.893104	2572.881415
767.219064	2570.186918
767.544978	2573.133473
767.870845	2571.250602
768.196665	2571.628688
768.522438	2571.532906
768.848165	2570.529717
769.173846	2570.653225
769.499479	2574.229923
769.825066	2569.468554
770.150607	2571.016188
770.476101	2571.313616
770.801548	2572.200859
771.126949	2573.113308
771.452303	2574.439131
771.777611	2570.726322
772.102872	2571.079202
772.428087	2570.746486
772.753256	2570.622978
773.078378	2571.391754
773.403453	2571.210272
773.728482	2569.755899
774.053465	2570.917885
774.378401	2570.726322
774.703291	2571.747155
775.028135	2571.656414
775.352932	2572.117680
775.677683	2570.295303
776.002388	2570.847309
776.327046	2570.471743
776.651658	2569.380333
776.976224	2570.552402
777.300743	2570.650704
777.625216	2570.990982
777.949643	2569.788667
778.274024	2571.205231
778.598359	2566.461505
778.922647	2567.689026
779.246889	2567.346228
779.571086	2564.407235
779.895236	2567.008471
780.219339	2570.136507
780.543397	2569.526527
780.867409	2569.229099
781.191374	2571.497618
781.515294	2569.955025
781.839167	2569.037535
782.162995	2568.571228
782.486776	2571.053997
782.810511	2570.176836
783.134201	2571.827814
783.457844	2570.950653
783.781441	2570.396126
784.104993	2572.034501
784.428498	2571.369069
784.751958	2571.661456
785.075372	2569.206414
785.398739	2569.239181
785.722061	2570.270097
786.045337	2569.730694
786.368568	2571.313616
786.691752	2570.159192
787.014891	2569.995354
787.337983	2569.529047
787.661030	2570.935529
787.984031	2569.201372
788.306987	2571.875705
788.629897	2570.166753
788.952760	2571.875705
789.275579	2570.875036
789.598351	2570.817062
789.921078	2569.002247
790.243759	2571.956363
790.566395	2570.592731
790.888984	2569.145920
791.211529	2568.714901
791.534027	2567.172308
791.856480	2573.962742
792.178888	2570.065930
792.501249	2571.263204
792.823566	2570.504511
793.145836	2567.152143
793.468062	2567.931002
793.790241	2568.462843
794.112375	2568.238512
794.434464	2571.548030
794.756507	2569.294634
795.078505	2572.699933
795.400457	2564.462688
795.722364	2566.711042
796.044226	2566.292627
796.366042	2566.378326
796.687812	2565.070147
797.009538	2568.241033
797.331218	2569.584500
797.652852	2570.340673
797.974442	2567.391598
798.295986	2569.839078
798.617484	2570.915365
798.938938	2569.186249
799.260346	2570.953173
799.581709	2569.463513
799.903026	2568.845971
800.224299	2569.713050
800.545526	2571.472412
800.866708	2567.711712
801.187845	2570.073492
801.508936	2570.466702
801.829983	2571.084243
802.150984	2571.114490
802.471940	2567.532751
802.792851	2568.344376
803.113717	2568.649366
803.434538	2571.064079
803.755314	2568.379664
804.076045	2566.655590
804.396731	2568.639284
804.717372	2569.660118
805.037967	2571.227916
805.358518	2569.145920
805.679024	2569.788667
805.999485	2570.968297
806.319901	2570.282700
806.640272	2570.307906
806.960598	2568.268759
807.280879	2569.803790
807.601115	2568.505693
807.921306	2567.368913
808.241453	2567.653738
808.561554	2571.490056
808.881611	2569.400498
809.201623	2572.019378
809.521590	2569.733214
809.841513	2567.341187
810.161390	2570.680951
810.481223	2567.769685
810.801011	2569.208934
811.120755	2570.325550
811.440453	2569.244222
811.760107	2568.553584
812.079716	2567.353790
812.399281	2563.419169
812.718801	2564.402194
813.038276	2565.576783
813.357707	2566.776577
813.677093	2569.425704
813.996434	2568.838409
814.315731	2568.064592
814.634983	2568.374623
814.954191	2570.683472
815.273354	2570.023081
815.592473	2569.672720
815.911547	2565.549057
816.230577	2568.452761
816.549562	2568.767833
816.868502	2568.692216
817.187399	2572.387382
817.506250	2566.610219
817.825058	2570.340673
818.143821	2567.890673
818.462539	2569.438307
818.781213	2568.538461
819.099843	2570.053327
819.418429	2570.935529
819.736970	2572.009295
820.055466	2569.544171
820.373919	2573.347722
820.692327	2572.331929
821.010691	2575.091961
821.329011	2577.100861
821.647286	2583.649319
821.965517	2589.020669
822.283704	2597.320929
822.601847	2598.056937
822.919945	2597.406628
823.237999	2592.935125
823.556010	2593.378746
823.873976	2588.488827
824.191897	2584.037488
824.509775	2581.690831
824.827609	2584.362643
825.145398	2577.587332
825.463144	2576.175809
825.780845	2577.902404
826.098502	2577.501632
826.416116	2580.803588
826.733685	2577.972980
827.051210	2579.124884
827.368692	2580.065059
827.686129	2579.134966
828.003522	2577.715881
828.320872	2572.397464
828.638177	2570.423852
828.955439	2571.563153
829.272656	2567.908317
829.589830	2568.745148
829.906960	2571.031311
830.224046	2569.067782
830.541088	2570.469223
830.858086	2568.326732
831.175041	2571.280848
831.491952	2570.260015
831.808819	2570.834706
832.125642	2567.759602
832.442421	2568.674572
832.759157	2570.512072
833.075849	2572.929306
833.392497	2573.912331
833.709101	2573.841755
834.025662	2572.475602
834.342179	2573.138514
834.658653	2572.160530
834.975083	2572.473081
835.291469	2575.283525
835.607811	2573.216652
835.924110	2571.192628
836.240366	2569.387895
836.556578	2570.383523
836.872746	2567.936043
837.188871	2568.881259
837.504952	2572.717577
837.820990	2566.832030
838.136984	2569.450910
838.452935	2569.806311
838.768842	2567.875549
839.084706	2569.100549
839.400526	2568.157854
839.716303	2566.567370
840.032037	2570.184398
840.347727	2568.336815
840.663373	2572.916703
840.978977	2570.277659
841.294537	2566.756413
841.610054	2571.237999
841.925527	2566.867318
842.240957	2569.413101
842.556344	2568.299006
842.871687	2568.483008
843.186987	2570.673389
843.502244	2569.607185
843.817458	2568.936712
844.132629	2566.816907
844.447756	2564.737431
844.762840	2563.875393
845.077881	2563.905640
845.392879	2564.240877
845.707833	2562.141237
846.022745	2562.839436
846.337613	2567.852864
846.652438	2567.346228
846.967221	2568.054510
847.281960	2566.312791
847.596656	2568.188101
847.911309	2566.373285
848.225919	2567.759602
848.540485	2565.670044
848.855009	2567.109294
849.169490	2566.582493
849.483928	2568.069633
849.798323	2565.647359
850.112675	2564.429920
850.426984	2567.265569
850.741251	2566.189283
851.055474	2564.671896
851.369654	2567.933522
851.683792	2566.335477
851.997887	2563.867832
852.311938	2567.477298
852.625947	2567.873028
852.939914	2564.351783
853.253837	2566.635425
853.567718	2567.240364
853.881555	2567.099211
854.195350	2565.027297
854.509103	2566.088460
854.822812	2566.625343
855.136479	2566.002760
855.450103	2564.734910
855.763685	2566.098542
856.077224	2566.353121
856.390720	2563.225085
856.704173	2569.748338
857.017584	2566.143913
857.330953	2565.329766
857.644278	2567.043759
857.957561	2566.809345
858.270802	2568.299006
858.584000	2564.238357
858.897155	2567.890672
859.210268	2567.084088
859.523339	2564.092163
859.836367	2564.187945
860.149352	2566.819427
860.462295	2566.353121
860.775195	2563.194838
861.088054	2562.967986
861.400869	2564.109807
861.713642	2559.933211
862.026373	2564.351782
862.339062	2564.971844
862.651708	2565.460836
862.964312	2564.467729
863.276873	2566.847154
863.589392	2564.646690
863.901869	2565.042421
864.214303	2567.744479
864.526696	2565.546536
864.839045	2567.399160
865.151353	2566.688357
865.463619	2566.121227
865.775842	2568.299006
866.088023	2564.722307
866.400162	2566.940415
866.712258	2565.107956
867.024313	2565.733059
867.336325	2567.331104
867.648296	2565.987637
867.960224	2565.034859
868.272110	2565.720456
868.583954	2566.249777
868.895755	2564.971844
869.207515	2565.458316
869.519233	2566.353121
869.830909	2567.933522
870.142542	2566.542164
870.454134	2567.789849
870.765684	2568.382185
871.077191	2568.790518
871.388657	2568.546022
871.700081	2565.662482
872.011463	2566.035528
872.322803	2565.685168
872.634101	2563.998902
872.945357	2564.772719
873.256571	2567.058882
873.567744	2567.005950
873.878874	2567.845302
874.189963	2567.003429
874.501010	2567.275652
874.812015	2567.215158
875.122979	2567.925961
875.433900	2565.609550
875.744780	2565.687688
876.055618	2566.103583
876.366415	2565.052503
876.677169	2568.172977
876.987882	2563.613253
877.298554	2565.498645
877.609183	2565.554098
877.919771	2561.037224
878.230317	2560.694425
878.540822	2568.546022
878.851285	2567.265569
879.161707	2567.925961
879.472087	2568.467885
879.782425	2567.442010
880.092722	2568.520817
880.402977	2574.292938
880.713191	2572.412587
881.023363	2579.487847
881.333494	2578.502301
881.643583	2579.760069
881.953631	2584.851635
882.263637	2582.691500
882.573602	2580.788465
882.883526	2581.133784
883.193408	2579.807960
883.503248	2578.862744
883.813048	2576.745459
884.122806	2577.403330
884.432522	2575.815366
884.742197	2572.183215
885.051831	2573.009964
885.361424	2570.617937
885.670975	2568.117524
885.980485	2568.853533
886.289954	2569.574418
886.599382	2567.898234
886.908768	2567.515107
887.218113	2568.036866
887.527417	2568.104922
887.836680	2568.631722
888.145901	2566.859757
888.455082	2565.153326
888.764221	2563.996381
889.073319	2569.420663
889.382376	2566.718604
889.691392	2567.512586
890.000366	2567.867987
890.309300	2566.330435
890.618193	2566.630384
890.927044	2569.329922
891.235855	2566.474108
891.544625	2566.698440
891.853353	2567.063923
892.162041	2565.226423
892.470687	2567.658779
892.779293	2569.745817
893.087858	2564.974365
893.396381	2566.312791
893.704864	2567.154664
894.013306	2564.918912
894.321707	2567.832699
894.630068	2569.423183
894.938387	2569.397977
895.246665	2574.343349
895.554903	2571.963925
895.863100	2565.780950
896.171256	2571.520303
896.479371	2568.349417
896.787446	2569.581980
897.095480	2567.867987
897.403473	2569.738255
897.711425	2571.336301
898.019336	2568.394788
898.327207	2565.223902
898.635038	2569.181208
898.942827	2565.657441
899.250576	2567.936043
899.558284	2567.817576
899.865952	2568.372103
900.173579	2566.763975
900.481165	2566.753892
900.788711	2564.440003
901.096216	2567.194993
901.403681	2562.544529
901.711105	2567.321022
902.018489	2565.153326
902.325832	2566.753892
902.633135	2563.454457
902.940397	2566.033007
903.247619	2566.859757
903.554800	2568.014181
903.861941	2568.672051
904.169041	2571.111970
904.476101	2572.213462
904.783121	2573.410736
905.090100	2569.186249
905.397039	2571.046435
905.703938	2571.079202
906.010796	2571.759758
906.317614	2569.080385
906.624391	2570.839747
906.931129	2564.281206
907.237826	2569.531568
907.544483	2565.886814
907.851099	2568.793039
908.157675	2564.883624
908.464211	2565.823799
908.770707	2560.966648
909.077163	2562.156360
909.383578	2564.082081
909.689954	2562.214333
909.996289	2562.040413
910.302584	2564.986968
910.608839	2564.412276
910.915054	2562.985630
911.221229	2564.505538
911.527363	2566.295147
911.833458	2565.493604
912.139513	2565.400343
912.445527	2567.568039
912.751502	2565.949828
913.057436	2565.886814
913.363331	2564.402194
913.669186	2563.409087
913.975000	2562.426062
914.280775	2563.666186
914.586510	2567.323543
914.892205	2567.333625
915.197859	2565.949828
915.503475	2569.125755
915.809050	2571.537947
916.114585	2571.253122
916.420081	2569.261866
916.725536	2571.598441
917.030952	2571.328739
917.336328	2571.013667
917.641665	2570.602813
917.946961	2570.456620
918.252218	2569.115673
918.557435	2568.435117
918.862612	2570.577607
919.167750	2567.341187
919.472848	2568.515776
919.777906	2568.994685
920.082925	2566.602658
920.387904	2569.067782
920.692843	2564.185424
920.997743	2565.256670
921.302603	2567.467216
921.607423	2568.162895
921.912204	2564.364385
922.216946	2566.458985
922.521647	2566.935374
922.826310	2567.016032
923.130932	2564.863460
923.435516	2567.061403
923.740059	2566.395970
924.044564	2569.246743
924.349028	2565.218861
924.653454	2563.608212
924.957840	2563.439334
925.262186	2562.967986
925.566493	2561.243911
925.870761	2561.193500
926.174989	2564.308933
926.479178	2565.851526
926.783328	2565.612071
927.087438	2563.867832
927.391509	2563.789694
927.695541	2560.618808
927.999533	2561.851370
928.303486	2565.019735
928.607400	2563.850188
928.911275	2562.146278
929.215110	2563.797256
929.518906	2562.201730
929.822663	2564.548388
930.126381	2565.090312
930.430060	2562.771381
930.733699	2563.212482
931.037299	2564.205589
931.340861	2561.899261
931.644383	2564.324056
931.947866	2564.805486
932.251309	2561.006977
932.554714	2565.390260
932.858080	2564.384550
933.161407	2564.203068
933.464694	2563.958572
933.767943	2563.852708
934.071153	2563.215002
934.374323	2563.237688
934.677455	2564.893707
934.980548	2565.826320
935.283602	2563.250290
935.586617	2562.602502
935.889593	2563.031000
936.192530	2561.218705
936.495428	2565.344890
936.798287	2563.136864
937.101108	2564.021587
937.403890	2562.418500
937.706632	2561.397666
938.009336	2563.467060
938.312002	2563.530074
938.614628	2563.930846
938.917216	2565.407904
939.219765	2564.402194
939.522275	2565.017215
939.824747	2566.244736
940.127179	2562.272307
940.429573	2563.298181
940.731929	2559.988664
941.034246	2560.759960
941.336524	2561.896741
941.638763	2562.176525
941.940964	2564.654252
942.243126	2563.651062
942.545250	2563.948490
942.847335	2562.231977
943.149381	2563.673747
943.451389	2562.655434
943.753359	2563.381360
944.055290	2566.685837
944.357182	2562.771381
944.659036	2563.981258
944.960851	2565.012174
945.262628	2562.869683
945.564367	2563.280537
945.866067	2562.660475
946.167729	2562.794066
946.469352	2561.475804
946.770937	2565.112997
947.072484	2563.638459
947.373992	2566.239695
947.675462	2560.321380
947.976893	2564.429920
948.278286	2562.322718
948.579641	2564.200548
948.880958	2562.403377
949.182236	2564.805486
949.483476	2565.319684
949.784678	2562.436144
950.085841	2564.729869
950.386967	2565.090312
950.688054	2558.120916
950.989103	2561.581668
951.290114	2563.104097
951.591087	2563.638459
951.892021	2562.305074
952.192917	2565.039900
952.493776	2564.135013
952.794596	2564.394632
953.095378	2563.023438
953.396122	2564.135013
953.696828	2560.364230
953.997496	2563.824982
954.298126	2563.237688
954.598718	2563.845147
954.899272	2565.871690
955.199788	2563.489745
955.500266	2563.068809
955.800706	2561.327090
956.101108	2558.481359
956.401472	2560.959086
956.701798	2560.442368
957.002087	2561.962276
957.302337	2564.127451
957.602550	2562.859601
957.902724	2562.630228
958.202861	2561.916905
958.502960	2562.184086
958.803022	2561.037224
959.103045	2563.187276
959.403031	2562.446226
959.702979	2561.884138
960.002889	2563.693912
960.302762	2563.711556
960.602596	2564.268603
960.902393	2562.484035
961.202153	2562.511761
961.501875	2564.631567
961.801559	2563.628377
962.101205	2560.765002
962.400814	2560.661658
962.700385	2561.700136
962.999918	2563.318346
963.299414	2561.216185
963.598873	2561.710218
963.898293	2562.562173
964.197677	2563.318346
964.497022	2561.296843
964.796331	2562.012687
965.095601	2561.037224
965.394835	2564.092163
965.694030	2563.043603
965.993189	2563.315825
966.292309	2559.540001
966.591393	2560.046637
966.890439	2561.768191
967.189447	2561.329611
967.488419	2562.100907
967.787353	2562.473953
968.086249	2562.136195
968.385108	2560.694425
968.683930	2563.983778
968.982714	2560.449929
969.281462	2559.935732
969.580172	2561.982440
969.878844	2561.480845
970.177480	2560.976730
970.476078	2562.322718
970.774639	2562.015208
971.073162	2563.346072
971.371649	2556.953889
971.670098	2559.456822
971.968510	2559.774415
972.266885	2557.102603
972.565223	2563.129303
972.863524	2558.587223
973.161788	2561.075032
973.460014	2563.774570
973.758204	2560.891030
974.056356	2563.751885
974.354471	2561.022100
974.652550	2562.216854
974.950591	2564.092163
975.248595	2561.105279
975.546563	2560.938921
975.844493	2560.485218
976.142386	2563.371278
976.440243	2563.086453
976.738062	2563.177194
977.035845	2560.843139
977.333590	2563.184755
977.631299	2562.771381
977.928971	2562.771381
978.226606	2559.784497
978.524204	2562.400856
978.821765	2560.107131
979.119290	2563.424210
979.416777	2560.374312
979.714228	2561.712738
980.011642	2559.686195
980.309020	2564.092163
980.606360	2561.173335
980.903664	2564.712225
981.200931	2562.040413
981.498162	2562.582337
981.795356	2559.330793
982.092513	2562.955383
982.389633	2563.600651
982.686717	2565.168449
982.983764	2559.797100
983.280775	2564.898748
983.577749	2560.253324
983.874686	2562.138716
984.171587	2562.536967
984.468451	2562.587379
984.765279	2562.153839
985.062070	2563.867832
985.358824	2561.432954
985.655543	2565.241546
985.952224	2560.850701
986.248869	2560.727193
986.545478	2558.771225
986.842050	2560.218036
987.138586	2558.133519
987.435086	2559.963458
987.731549	2557.372305
988.027975	2561.039744
988.324366	2559.290464
988.620719	2562.365568
988.917037	2561.556463
989.213318	2561.773232
989.509563	2559.890361
989.805772	2562.214333
990.101944	2560.013870
990.398080	2560.772563
990.694180	2561.221226
990.990244	2560.144940
991.286271	2560.119734
991.582262	2560.114693
991.878217	2564.167780
992.174136	2562.617626
992.470019	2562.839436
992.765865	2562.836916
993.061676	2562.728531
993.357450	2560.570917
993.653188	2561.816082
993.948890	2562.778943
994.244556	2561.150650
994.540186	2563.283058
994.835780	2560.661658
995.131337	2562.678119
995.426859	2561.639642
995.722345	2560.505382
996.017795	2561.616957
996.313208	2562.834395
996.608586	2561.112841
996.903928	2560.018911
997.199234	2561.178376
997.494504	2561.964796
997.789738	2560.575958
998.084936	2562.567214
998.380099	2564.838254
998.675225	2561.256514
998.970316	2563.958573
999.265371	2562.756257
999.560390	2564.591237
999.855373	2564.384550
1000.150320	2560.354148
1000.445232	2562.060578
1000.740108	2562.514282
1001.034948	2558.995557
1001.329752	2560.316339
1001.624521	2563.013356
1001.919254	2557.402552
1002.213951	2557.205947
1002.508613	2558.801472
1002.803239	2558.370453
1003.097829	2556.704352
1003.392384	2560.160063
1003.686903	2560.621329
1003.981386	2564.268603
1004.275834	2560.878428
1004.570246	2561.211144
1004.864623	2562.650393
1005.158964	2559.479507
1005.453270	2558.708211
1005.747540	2560.674261
1006.041775	2559.219888
1006.335974	2560.686864
1006.630138	2559.517316
1006.924266	2558.592264
1007.218359	2560.603685
1007.512416	2560.883469
1007.806438	2560.633932
1008.100425	2559.721483
1008.394376	2561.032183
1008.688292	2562.700805
1008.982172	2559.688715
1009.276017	2559.177038
1009.569827	2560.399518
1009.863602	2561.296843
1010.157341	2558.393139
1010.451045	2563.580486
1010.744714	2560.107131
1011.038347	2558.264589
1011.331945	2561.415310
1011.625508	2558.715772
1011.919036	2557.692418
1012.212528	2559.686195
1012.505986	2561.503531
1012.799408	2559.522357
1013.092795	2560.228119
1013.386147	2559.250135
1013.679464	2563.393963
1013.972745	2560.568397
1014.265992	2561.027142
1014.559204	2564.127451
1014.852380	2560.142419
1015.145521	2562.080743
1015.438628	2559.633263
1015.731699	2559.106462
1016.024736	2560.122254
1016.317737	2560.003787
1016.610703	2562.582337
1016.903635	2556.616132
1017.196531	2557.705021
1017.489393	2557.541184
1017.782219	2555.943138
1018.075011	2558.723334
1018.367768	2562.310115
1018.660490	2559.429096
1018.953177	2559.429096
1019.245829	2559.429096
