Dividing Wavelength (nm)	Counts (n)	Blue Motor Position (mm): 0.000000	Red Motor Position (mm): 29.000000	
326.493990	2144.073307
326.888308	2144.073307
327.282561	2144.073307
327.676750	2118.766715
328.070874	2118.123968
328.464933	2123.213012
328.858929	2135.987296
329.252859	2147.695376
329.646726	2160.386481
330.040528	2174.582370
330.434265	2194.757068
330.827938	2210.573688
331.221547	2232.411966
331.615091	2252.019534
332.008571	2274.596342
332.401986	2294.193827
332.795338	2313.355253
333.188625	2332.078098
333.581847	2354.072653
333.975006	2370.874818
334.368100	2389.413662
334.761129	2408.156672
335.154095	2424.608477
335.546996	2442.345777
335.939833	2458.772377
336.332606	2469.152113
336.725315	2479.637713
337.117960	2488.391676
337.510540	2497.180928
337.903056	2507.832886
338.295508	2515.687004
338.687896	2520.314783
339.080220	2531.589324
339.472480	2534.215765
339.864676	2538.399923
340.256807	2541.548123
340.648875	2543.584749
341.040879	2542.090047
341.432818	2546.705223
341.824694	2545.770089
342.216506	2549.921480
342.608253	2547.048022
342.999937	2543.844369
343.391557	2544.595501
343.783113	2545.303783
344.174605	2543.549461
344.566033	2544.172044
344.957397	2539.733308
345.348697	2538.243647
345.739934	2536.675848
346.131106	2534.092257
346.522215	2533.008408
346.913260	2530.470188
347.304241	2529.131761
347.695159	2526.845598
348.086012	2525.701256
348.476802	2524.687984
348.867528	2520.806296
349.258191	2521.411234
349.648789	2520.123219
350.039324	2519.039371
350.429796	2516.748167
350.820203	2518.865451
351.210548	2518.000893
351.600828	2519.573733
351.991045	2516.274298
352.381198	2515.303876
352.771288	2517.176665
353.161314	2516.735564
353.551276	2516.049967
353.941175	2512.831190
354.331010	2515.661798
354.720782	2514.638444
355.110490	2516.929648
355.500135	2515.258506
355.889717	2516.433095
356.279235	2516.158352
356.668689	2520.138343
357.058080	2517.590039
357.447408	2515.661798
357.836672	2515.187930
358.225873	2517.050636
358.615010	2516.138187
359.004084	2520.002232
359.393095	2519.893847
359.782043	2520.491223
360.170927	2521.239835
360.559748	2522.326203
360.948505	2522.875689
361.337199	2521.305370
361.725830	2523.573889
362.114398	2527.150588
362.502903	2523.767973
362.891344	2523.909126
363.279722	2526.560773
363.668037	2527.543798
364.056289	2526.112110
364.444478	2527.871473
364.832603	2527.442975
365.220665	2529.610671
365.608665	2524.929959
365.996601	2526.623787
366.384474	2527.831143
366.772284	2528.728469
367.160031	2528.433561
367.547715	2528.204189
367.935336	2531.385157
368.322893	2530.797863
368.710388	2530.303829
369.097820	2534.614016
369.485189	2531.894313
369.872495	2530.255938
370.259738	2529.199817
370.646918	2531.435568
371.034035	2532.537061
371.421090	2534.039324
371.808081	2531.304498
372.195010	2533.573018
372.581875	2533.336083
372.968678	2534.969417
373.355418	2534.626619
373.742096	2540.252547
374.128710	2536.922864
374.515262	2539.534182
374.901751	2541.114584
375.288177	2542.765562
375.674540	2544.356046
376.060841	2543.141128
376.447079	2544.764379
376.833254	2546.382590
377.219367	2548.744370
377.605417	2548.809905
377.991404	2550.357539
378.377329	2554.012376
378.763191	2556.338868
379.148991	2565.221382
379.534727	2566.085939
379.920402	2568.089798
380.306013	2572.641960
380.691563	2577.620099
381.077049	2581.728640
381.462474	2585.098651
381.847835	2592.247007
382.233134	2599.400405
382.618371	2601.857967
383.003545	2606.566405
383.388657	2612.633433
383.773706	2621.359671
384.158693	2626.791514
384.543618	2631.976341
384.928480	2639.278452
385.313280	2648.007210
385.698017	2657.829898
386.082692	2664.272493
386.467305	2670.216013
386.851856	2677.417302
387.236344	2687.229907
387.620770	2695.925898
388.005133	2705.395705
388.389435	2716.047663
388.773674	2721.431616
389.157851	2728.716083
389.541965	2739.763772
389.926018	2742.720408
390.310008	2753.949579
390.693936	2766.607916
391.077802	2774.169647
391.461606	2784.599794
391.845348	2793.404169
392.229027	2801.759882
392.612645	2815.575164
392.996200	2828.178048
393.379694	2839.185408
393.763125	2852.725947
394.146494	2863.740868
394.529801	2875.418701
394.913047	2895.792524
395.296230	2893.574417
395.679351	2900.453071
396.062410	2917.648447
396.445408	2914.069228
396.828343	2923.927204
397.211217	2935.189142
397.594028	2926.157915
397.976778	2942.150975
398.359466	2954.267388
398.742092	2951.613221
399.124656	2970.273052
399.507158	2981.240082
399.889598	2987.523880
400.271977	3001.313957
400.654294	3008.414422
401.036549	3018.942872
401.418742	3024.636855
401.800874	3047.392623
402.182944	3054.377142
402.564952	3082.602562
402.946898	3074.511511
403.328783	3082.952923
403.710606	3097.678133
404.092367	3122.415075
404.474067	3145.460710
404.855705	3138.070378
405.237282	3141.069865
405.618797	3170.318639
406.000250	3195.879810
406.381642	3222.890312
406.762972	3229.073287
407.144240	3214.690876
407.525447	3239.553846
407.906593	3238.691809
408.287677	3260.635952
408.668700	3280.059517
409.049661	3278.683282
409.430560	3290.398924
409.811399	3297.849749
410.192176	3318.682318
410.572891	3325.744974
410.953545	3364.387939
411.334138	3337.105214
411.714669	3383.166237
412.095139	3330.345027
412.475547	3382.289076
412.855894	3373.038559
413.236180	3400.780029
413.616405	3381.648850
413.996568	3408.097263
414.376670	3409.546595
414.756711	3401.853794
415.136691	3431.019390
415.516609	3453.097123
415.896466	3461.833443
416.276262	3486.870333
416.655997	3518.029705
417.035670	3523.670757
417.415283	3589.916559
417.794834	3613.413377
418.174324	3594.060388
418.553753	3594.995522
418.933121	3636.554794
419.312428	3631.254021
419.691674	3627.006849
420.070859	3663.182169
420.449983	3643.599807
420.829045	3689.786858
421.208047	3673.302285
421.586988	3723.844893
421.965867	3751.404882
422.344686	3763.037344
422.723444	3797.939773
423.102141	3702.540977
423.480777	3804.120227
423.859352	3774.266514
424.237866	3873.743603
424.616319	3859.426726
424.994712	3916.520314
425.373044	3905.081936
425.751314	3971.582317
426.129524	3905.785177
426.507673	4006.905682
426.885762	3982.347701
427.263789	4005.063140
427.641756	4007.036752
428.019662	4034.082542
428.397508	4040.711660
428.775292	4076.866815
429.153016	4083.816046
429.530679	4098.621914
429.908282	4103.574848
430.285824	4084.574739
430.663305	4153.983866
431.040726	4115.356025
431.418086	4106.443265
431.795385	4179.088812
432.172624	4217.167168
432.549802	4182.216848
432.926920	4200.511195
433.303977	4193.168755
433.680974	4231.849528
434.057910	4256.558744
434.434786	4262.232563
434.811601	4254.675873
435.188355	4361.573540
435.565050	4333.433819
435.941683	4329.287470
436.318257	4422.485802
436.694770	4426.584260
437.071222	4480.194411
437.447614	4412.443824
437.823946	4416.885080
438.200218	4434.521557
438.576429	4413.618412
438.952580	4442.360551
439.328670	4449.292138
439.704700	4489.974249
440.080670	4455.835555
440.456580	4514.655738
440.832429	4549.848033
441.208218	4453.403199
441.583947	4508.316488
441.959616	4516.785626
442.335224	4546.672107
442.710773	4565.289088
443.086261	4620.681286
443.461689	4574.572372
443.837057	4583.275925
444.212365	4661.002955
444.587612	4664.685518
444.962800	4633.057319
445.337927	4669.550232
445.712995	4561.578798
446.088002	4753.233385
446.462949	4773.861787
446.837837	4791.430208
447.212664	4776.107621
447.587431	4999.140870
447.962139	5297.685562
448.336786	5635.717613
448.711374	5623.437362
449.085901	5272.653713
449.460369	5208.406728
449.834776	5139.952900
450.209124	5379.402666
450.583412	5386.757710
450.957640	5509.000649
451.331808	5371.039392
451.705917	5223.343667
452.079965	5211.186924
452.453954	5250.117235
452.827883	5213.115166
453.201752	5222.549685
453.575562	5254.482874
453.949311	5391.967742
454.323001	5388.035642
454.696632	5384.214448
455.070202	5539.900402
455.443713	5567.931738
455.817164	5656.275438
456.190556	5730.040122
456.563888	5702.545669
456.937160	5782.253873
457.310373	5623.908710
457.683526	5683.601013
458.056619	5674.068191
458.429653	5652.078678
458.802628	5698.646337
459.175542	5728.575667
459.548398	5869.516246
459.921194	6053.341921
460.293930	6111.635304
460.666607	6364.340784
461.039224	6576.659061
461.411782	6708.374328
461.784280	6620.678416
462.156719	6628.661083
462.529099	6584.366985
462.901419	6436.693945
463.273680	6314.856818
463.645882	6297.623634
464.018024	6297.767307
464.390106	6368.784561
464.762130	6616.700946
465.134094	7005.353743
465.505999	7629.841799
465.877845	8332.603851
466.249631	8684.685597
466.621358	8609.882436
466.993026	8420.927387
467.364634	8203.814973
467.736184	7918.727641
468.107674	7767.394723
468.479105	7685.266765
468.850477	7613.140456
469.221790	7441.968077
469.593043	7219.978347
469.964238	7116.808613
470.335373	7091.897751
470.706449	7241.168837
471.077467	7416.598471
471.448425	8062.420690
471.819324	8638.241447
472.190164	8677.703599
472.560945	8194.014970
472.931667	7727.748568
473.302330	7535.647839
473.672934	7404.096409
474.043479	7475.506874
474.413965	7372.029629
474.784393	7322.079357
475.154761	7463.995399
475.525070	7477.704817
475.895321	7409.792913
476.265513	7507.006524
476.635645	7654.921539
477.005719	7643.082389
477.375734	7716.574851
477.745691	7809.498440
478.115588	7998.113211
478.485427	8215.424750
478.855207	8651.812233
479.224928	9053.289725
479.594591	9411.274663
479.964194	9406.321729
480.333739	9475.866967
480.703226	9462.351633
481.072653	9528.617601
481.442022	9622.476324
481.811333	9742.992668
482.180584	9572.573942
482.549777	9494.083176
482.918912	9411.952698
483.287988	9376.004230
483.657005	9267.392570
484.025964	9169.967231
484.394864	9209.991472
484.763706	9150.142893
485.132489	9041.581645
485.501213	9005.973455
485.869879	9039.570225
486.238487	8948.337943
486.607036	8986.943099
486.975527	8912.994414
487.343959	8930.552752
487.712333	8939.954504
488.080648	8942.079351
488.448905	9002.600923
488.817104	8967.925347
489.185244	9079.891894
489.553326	9217.732164
489.921350	9574.759282
490.289315	10057.381707
490.657222	10260.572975
491.025070	10371.490962
491.392861	10250.712478
491.760593	10076.863246
492.128267	9821.362446
492.495883	9579.036701
492.863440	9341.305968
493.230939	9108.828117
493.598380	8913.942151
493.965763	8847.537552
494.333088	8694.067184
494.700354	8589.001977
495.067563	8517.384824
495.434713	8469.945046
495.801805	8450.687838
496.168839	8369.704223
496.535815	8284.879247
496.902733	8272.495653
497.269593	8184.346037
497.636395	8131.920557
498.003139	8157.615318
498.369825	8047.627424
498.736453	8056.033548
499.103023	7959.722304
499.469535	7903.397492
499.835989	7877.518728
500.202385	7798.894372
500.568723	7750.317814
500.935003	7731.035401
501.301226	7636.811194
501.667390	7688.036879
502.033497	7686.572424
502.399546	7576.854231
502.765537	7454.689429
503.131470	7453.096424
503.497345	7445.252389
503.863163	7245.151349
504.228923	7258.757423
504.594625	7257.643328
504.960269	7139.012375
505.325856	7156.351424
505.691385	7015.415886
506.056856	6986.376319
506.422270	6971.152034
506.787625	6875.057560
507.152924	6828.326064
507.518164	6792.180991
507.883347	6655.721997
508.248472	6631.915148
508.613540	6613.464525
508.978550	6577.442960
509.343503	6500.204922
509.708398	6453.738086
510.073236	6446.486386
510.438016	6379.759153
510.802738	6275.694614
511.167403	6264.898983
511.532010	6214.918464
511.896561	6189.168250
512.261053	6194.935330
512.625488	6087.906593
512.989866	6014.068812
513.354186	5940.994767
513.718449	5868.553386
514.082655	5853.480336
514.446803	5771.427995
514.810894	5740.384570
515.174927	5673.909395
515.538904	5599.925421
515.902822	5583.148461
516.266684	5478.642821
516.630488	5440.410710
516.994235	5371.530905
517.357925	5342.025031
517.721558	5296.102640
518.085133	5248.312502
518.448651	5188.877298
518.812112	5117.739055
519.175516	5056.725970
519.538863	5019.895300
519.902152	4957.662256
520.265385	4921.802008
520.628560	4870.399883
520.991678	4796.310045
521.354739	4750.070061
521.717743	4704.981981
522.080690	4645.667765
522.443580	4613.873208
522.806413	4561.535949
523.169189	4507.824975
523.531908	4463.470383
523.894569	4406.076846
524.257174	4354.042056
524.619722	4318.658198
524.982213	4266.782204
525.344647	4218.354359
525.707025	4170.208820
526.069345	4136.148264
526.431608	4085.197322
526.793815	4050.720871
527.155964	3992.540914
527.518057	3952.166313
527.880093	3904.852563
528.242072	3871.255794
528.603995	3830.142663
528.965860	3787.998617
529.327669	3754.021240
529.689421	3708.885269
530.051117	3674.736493
530.412755	3639.718118
530.774337	3607.646297
531.135862	3570.757654
531.497331	3537.665000
531.858743	3500.451202
532.220098	3479.951350
532.581396	3438.233281
532.942638	3404.439906
533.303824	3383.390568
533.664953	3353.317565
534.026025	3323.161383
534.387040	3305.166984
534.747999	3275.492232
535.108902	3253.071700
535.469748	3224.584140
535.830537	3200.550439
536.191270	3180.993283
536.551947	3154.807009
536.912567	3137.795635
537.273131	3118.414919
537.633638	3094.353492
537.994089	3076.059145
538.354483	3054.460321
538.714821	3039.823331
539.075103	3030.746733
539.435328	3009.851151
539.795497	2990.770383
540.155609	2977.108857
540.515665	2967.460088
540.875665	2947.444187
541.235609	2937.119904
541.595496	2923.745723
541.955328	2913.701223
542.315102	2899.646487
542.674821	2883.373642
543.034483	2874.125645
543.394090	2861.489993
543.753640	2851.034640
544.113134	2846.437108
544.472571	2829.239211
544.831953	2825.624704
545.191278	2813.067190
545.550548	2802.851292
545.909761	2798.785601
546.268918	2790.976854
546.628019	2783.503343
546.987064	2779.508229
547.346053	2765.642535
547.704986	2764.399891
548.063863	2757.672471
548.422684	2750.362798
548.781449	2747.980852
549.140158	2742.899369
549.498811	2737.449882
549.857408	2730.951835
550.215949	2727.201216
550.574434	2719.039588
550.932864	2715.364587
551.291237	2712.286963
551.649555	2711.500543
552.007817	2706.411498
552.366022	2705.604913
552.724173	2700.422607
553.082267	2699.973944
553.440305	2698.023018
553.798288	2693.186031
554.156215	2689.889116
554.514086	2689.863910
554.871902	2687.066070
555.229661	2685.894002
555.587365	2679.058197
555.945014	2680.389062
556.302606	2679.363187
556.660143	2677.956705
557.017625	2674.727846
557.375050	2670.810869
557.732421	2670.667197
558.089735	2668.559994
558.446994	2668.166784
558.804197	2668.454130
559.161345	2665.331135
559.518437	2661.913233
559.875474	2660.418531
560.232455	2662.971875
560.589381	2660.239570
560.946251	2661.880465
561.303065	2660.045485
561.659825	2659.513644
562.016528	2654.447284
562.373177	2653.943169
562.729770	2654.711945
563.086307	2654.291008
563.442789	2654.502737
563.799216	2654.119609
564.155587	2650.006028
564.511904	2650.928559
564.868164	2651.692293
565.224370	2647.495533
565.580520	2651.934269
565.936615	2649.219607
566.292654	2649.481747
566.648638	2646.494864
567.004567	2648.029895
567.360441	2647.717344
567.716260	2646.545275
568.072023	2645.884884
568.427732	2641.468833
568.783385	2643.147538
569.138982	2638.915489
569.494525	2639.785088
569.850013	2637.987917
570.205445	2643.603762
570.560823	2640.972280
570.916145	2641.252064
571.271412	2640.858854
571.626625	2639.212917
571.981782	2639.815335
572.336884	2641.347846
572.691931	2637.877011
573.046923	2638.368524
573.401860	2637.836682
573.756743	2638.870119
574.111570	2638.444141
574.466342	2638.121507
574.821059	2638.665952
575.175722	2637.753503
575.530330	2635.873153
575.884882	2636.531023
576.239380	2635.694192
576.593823	2636.427680
576.948211	2635.719397
577.302544	2631.688995
577.656823	2634.227216
578.011047	2633.886938
578.365216	2633.269397
578.719330	2632.790487
579.073389	2631.716721
579.427394	2631.341155
579.781344	2630.645476
580.135239	2630.590023
580.489080	2631.794859
580.842866	2630.131278
581.196597	2632.876187
581.550273	2629.768315
581.903895	2630.176649
582.257463	2629.458284
582.610975	2630.632873
582.964434	2628.573562
583.317837	2628.775208
583.671186	2628.223202
584.024481	2628.646659
584.377721	2628.482821
584.730906	2627.056175
585.084037	2628.939046
585.437113	2625.364867
585.790135	2626.544497
586.143103	2626.746144
586.496016	2628.946607
586.848874	2623.489558
587.201679	2624.709517
587.554428	2625.989971
587.907124	2624.391925
588.259765	2620.628703
588.612352	2626.990640
588.964884	2626.065588
589.317362	2627.862759
589.669786	2626.415948
590.022155	2622.937552
590.374470	2624.054167
590.726731	2624.913684
591.078937	2624.482666
591.431090	2624.197840
591.783188	2620.762294
592.135232	2625.347223
592.487222	2621.891512
592.839157	2624.838067
593.191038	2625.475773
593.542866	2622.047788
593.894639	2621.460494
594.246358	2624.054167
594.598022	2622.549383
594.949633	2622.297325
595.301190	2621.014352
595.652692	2621.848663
596.004141	2621.483179
596.355535	2621.281533
596.706876	2620.981584
597.058162	2619.171810
597.409395	2619.968312
597.760573	2620.348919
598.111698	2618.856738
598.462768	2619.665843
598.813785	2621.115175
599.164748	2618.453446
599.515657	2619.214660
599.866511	2619.880092
600.217312	2620.585854
600.568060	2617.253651
600.918753	2620.616101
601.269392	2617.659464
601.619978	2619.686008
601.970510	2620.905967
602.320988	2620.868158
602.671412	2619.645678
603.021783	2617.155348
603.372100	2618.652571
603.722363	2620.313631
604.072572	2619.605349
604.422728	2619.010493
604.772830	2614.637292
605.122878	2613.467744
605.472872	2613.674432
605.822813	2612.867847
606.172701	2615.143928
606.522534	2617.493106
606.872314	2618.975205
607.222041	2616.099227
607.571714	2617.498147
607.921333	2618.531583
608.270899	2616.101747
608.620411	2615.753908
608.969870	2618.745832
609.319276	2617.667026
609.668627	2616.265585
610.017926	2618.377828
610.367171	2617.261213
610.716362	2616.797427
611.065500	2615.731222
611.414585	2616.779782
611.763616	2617.422530
612.112594	2619.590226
612.461518	2617.236007
612.810389	2618.181223
613.159207	2617.122581
613.507971	2619.070987
613.856682	2618.342540
614.205340	2619.355812
614.553945	2620.681636
614.902496	2616.114350
615.250994	2617.588888
615.599439	2617.407406
615.947830	2615.524535
616.296169	2619.287757
616.644454	2619.713734
616.992686	2619.320524
617.340864	2617.883795
617.688990	2616.913373
618.037063	2618.786162
618.385082	2619.486882
618.733048	2621.062243
619.080961	2618.130812
619.428821	2615.683332
619.776628	2619.617952
620.124382	2618.171141
620.472083	2617.969495
620.819731	2620.681636
621.167326	2619.292798
621.514868	2618.551748
621.862357	2615.950513
622.209793	2616.189967
622.557176	2617.084772
622.904506	2613.936572
623.251783	2612.489761
623.599007	2612.830038
623.946179	2612.386417
624.293297	2612.661160
624.640363	2615.305245
624.987376	2614.264247
625.334336	2616.195009
625.681243	2612.537652
626.028097	2614.680142
626.374899	2612.552775
626.721647	2612.986314
627.068343	2613.825666
627.414987	2613.467744
627.761577	2614.251644
628.108115	2613.750049
628.454600	2611.116046
628.801032	2611.743670
629.147412	2612.318361
629.493739	2611.642847
629.840014	2611.264760
630.186236	2612.678804
630.532405	2612.827518
630.878521	2610.889194
631.224585	2613.031685
631.570597	2612.751901
631.916556	2612.719133
632.262462	2610.485902
632.608316	2612.595625
632.954117	2611.559668
633.299866	2609.684358
633.645562	2610.972373
633.991206	2610.402723
634.336797	2609.911210
634.682336	2612.071345
635.027823	2607.196549
635.373257	2610.067486
635.718639	2609.613782
636.063968	2609.102105
636.409245	2607.473812
636.754470	2606.523555
637.099642	2607.509101
637.444762	2606.957094
637.789829	2610.327106
638.134845	2608.187136
638.479808	2604.912906
638.824719	2607.345263
639.169577	2602.672113
639.514383	2604.265118
639.859137	2604.053390
640.203839	2610.072527
640.548489	2608.232506
640.893086	2602.268821
641.237632	2602.651949
641.582125	2601.636156
641.926566	2602.909048
642.270955	2604.411312
642.615292	2606.049687
642.959576	2605.878287
643.303809	2604.716301
643.647990	2601.058944
643.992118	2603.642536
644.336195	2604.517176
644.680219	2603.740838
645.024192	2606.395006
645.368112	2604.307968
645.711981	2607.715788
646.055797	2607.156220
646.399562	2606.178236
646.743274	2607.637650
647.086935	2606.601693
647.430544	2605.984152
647.774101	2607.677979
648.117606	2607.274687
648.461059	2604.738987
648.804460	2607.859461
649.147810	2605.487598
649.491108	2604.683534
649.834354	2604.491970
650.177548	2606.284100
650.520690	2607.138576
650.863781	2604.560026
651.206820	2608.383741
651.549807	2603.365272
651.892742	2605.558174
652.235626	2603.463575
652.578458	2602.475508
652.921238	2602.583893
653.263967	2602.271342
653.606644	2602.278903
653.949269	2600.580035
654.291843	2601.500045
654.634365	2604.628081
654.976836	2600.925354
655.319255	2604.098760
655.661622	2601.802514
656.003938	2602.717484
656.346203	2600.872422
656.688416	2600.668255
657.030577	2600.201948
657.372687	2601.961311
657.714746	2599.975096
658.056753	2602.566249
658.398708	2596.791607
658.740612	2601.111876
659.082465	2596.731114
659.424266	2596.320260
659.766016	2594.712132
660.107715	2598.707246
660.449362	2602.183122
660.790958	2599.861670
661.132503	2601.684047
661.473996	2603.511466
661.815438	2602.878801
662.156829	2601.235385
662.498168	2600.446444
662.839456	2601.525251
663.180693	2603.521548
663.521879	2603.642536
663.863013	2600.595158
664.204097	2602.853595
664.545129	2600.469129
664.886110	2600.020467
665.227040	2602.856116
665.567918	2598.709767
665.908746	2600.259921
666.249522	2602.609099
666.590248	2603.813935
666.930922	2601.545416
667.271545	2598.954263
667.612118	2601.749582
667.952639	2599.733121
668.293109	2603.077926
668.633528	2602.760334
668.973896	2597.028542
669.314213	2600.073399
669.654480	2601.905858
669.994695	2599.864191
670.334859	2598.016608
670.674973	2599.070209
671.015035	2599.803697
671.355047	2602.891404
671.695008	2601.187494
672.034918	2601.893255
672.374777	2598.936618
672.714585	2601.353852
673.054342	2600.701022
673.394049	2600.663214
673.733705	2603.755962
674.073310	2601.328646
674.412864	2602.309150
674.752368	2601.371496
675.091820	2601.076588
675.431223	2599.846547
675.770574	2601.104315
676.109875	2596.100969
676.449125	2596.458891
676.788324	2597.454519
677.127473	2596.211875
677.466571	2594.729776
677.805619	2597.933429
678.144616	2594.119796
678.483562	2599.113059
678.822458	2597.520054
679.161303	2599.894438
679.500098	2597.759509
679.838842	2599.544077
680.177535	2598.513162
680.516179	2599.755806
680.854771	2599.085333
681.193314	2598.324118
681.531805	2602.901486
681.870247	2600.330497
682.208638	2602.036928
682.546978	2598.704725
682.885268	2601.827720
683.223508	2603.428287
683.561697	2600.222113
683.899836	2600.564911
684.237925	2602.399891
684.575963	2599.375199
684.913951	2600.262442
685.251889	2600.000302
685.589776	2601.789912
685.927614	2600.753954
686.265401	2601.255549
686.603137	2600.280086
686.940824	2600.577514
687.278460	2599.901999
687.616046	2601.003492
687.953582	2603.549274
688.291068	2602.611620
688.628504	2600.567432
688.965889	2601.870570
689.303224	2601.144644
689.640510	2601.641197
689.977745	2601.525251
690.314930	2600.922833
690.652065	2602.188163
690.989150	2599.128182
691.326185	2597.058789
691.663170	2598.377050
692.000105	2598.568614
692.336990	2595.054930
692.673825	2597.938470
693.010610	2593.794642
693.347345	2591.639548
693.684030	2589.383632
694.020665	2590.787593
694.357251	2589.756677
694.693786	2593.131730
695.030272	2594.815475
695.366707	2592.274734
695.703093	2595.269179
696.039429	2594.150043
696.375716	2589.171903
696.711952	2591.384970
697.048139	2591.410176
697.384276	2591.498396
697.720363	2592.352872
698.056400	2590.066708
698.392388	2591.805906
698.728326	2592.688108
699.064214	2593.698860
699.400053	2592.867069
699.735842	2590.480083
700.071581	2592.327666
700.407270	2589.933118
700.742910	2590.253231
701.078501	2590.911102
701.414042	2590.308684
701.749533	2589.688622
702.084974	2587.223497
702.420366	2590.991760
702.755709	2591.236256
703.091002	2589.847418
703.426246	2590.780032
703.761440	2588.811461
704.096584	2588.282140
704.431679	2588.614856
704.766725	2589.320617
705.101721	2586.338775
705.436668	2591.760536
705.771565	2588.713158
706.106413	2589.285329
706.441212	2588.438416
706.775961	2590.288519
707.110661	2587.573858
707.445311	2588.682912
707.779913	2587.982191
708.114465	2589.449167
708.448967	2589.544949
708.783421	2590.717017
709.117825	2590.018817
709.452180	2590.888416
709.786485	2590.979157
710.120742	2591.364805
710.454949	2592.496544
710.789107	2588.254413
711.123216	2590.215422
711.457275	2589.739033
711.791286	2591.352203
712.125247	2592.816658
712.459159	2593.116606
712.793023	2596.779005
713.126837	2592.360433
713.460602	2594.250866
713.794318	2593.250197
714.127985	2593.706421
714.461602	2591.034610
714.795171	2591.281626
715.128691	2593.933273
715.462162	2592.428489
715.795584	2589.877665
716.128957	2591.115268
716.462281	2590.588468
716.795556	2590.313725
717.128782	2588.476224
717.461960	2587.841039
717.795088	2586.928590
718.128167	2585.428847
718.461198	2585.864907
718.794180	2591.057295
719.127113	2585.383476
719.459997	2587.397417
719.792833	2586.127047
720.125619	2585.938003
720.458357	2585.998497
720.791046	2586.147211
721.123686	2583.868610
721.456278	2587.664598
721.788821	2582.537745
722.121315	2589.103848
722.453761	2586.600915
722.786158	2586.265678
723.118506	2585.075966
723.450805	2584.029927
723.783056	2585.103692
724.115259	2584.370204
724.447412	2586.129567
724.779518	2585.123857
725.111574	2585.655699
725.443582	2586.885740
725.775542	2585.355750
726.107453	2586.242993
726.439315	2587.609146
726.771129	2590.527974
727.102895	2584.423137
727.434612	2589.358426
727.766281	2585.610328
728.097901	2584.402972
728.429473	2584.355081
728.760996	2584.047571
729.092471	2584.382807
729.423897	2587.818354
729.755276	2588.188878
730.086606	2586.749629
730.417887	2588.486307
730.749120	2589.096286
731.080305	2588.040164
731.411442	2587.876327
731.742530	2586.921028
732.073570	2589.161821
732.404562	2588.829105
732.735506	2592.977975
733.066401	2591.289188
733.397249	2591.211050
733.728048	2588.836667
734.058798	2588.289702
734.389501	2588.042685
734.720156	2586.363981
735.050762	2586.023703
735.381320	2587.830957
735.711831	2587.611666
736.042293	2585.985894
736.372707	2585.517067
736.703073	2585.254927
737.033391	2587.102510
737.363661	2584.738209
737.693883	2584.879361
738.024056	2588.193920
738.354182	2582.341140
738.684260	2584.433219
739.014290	2584.017324
739.344272	2584.067735
739.674207	2585.829618
740.004093	2587.803230
740.333931	2585.265009
740.663722	2585.832139
740.993464	2586.653847
741.323159	2584.715523
741.652806	2583.861048
741.982405	2585.781728
742.311956	2586.139649
742.641460	2585.940524
742.970915	2586.648806
743.300323	2585.277612
743.629683	2584.811305
743.958996	2585.554876
744.288260	2584.037488
744.617477	2584.828949
744.946647	2580.967426
745.275768	2582.580595
745.604842	2578.819894
745.933869	2579.848289
746.262847	2580.332240
746.591778	2583.482961
746.920662	2583.828280
747.249498	2584.150914
747.578286	2583.861048
747.907027	2585.837180
748.235720	2586.056470
748.564365	2585.229721
748.892963	2581.907601
749.221514	2581.353074
749.550017	2581.138825
749.878473	2583.049422
750.206881	2583.908939
750.535242	2582.981367
750.863555	2583.465317
751.191821	2581.640420
751.520039	2582.245358
751.848210	2583.850966
752.176334	2582.174782
752.504411	2581.020358
752.832440	2582.699062
753.160421	2586.293405
753.488356	2582.900708
753.816243	2580.536407
754.144082	2582.202508
754.471875	2582.515060
754.799620	2582.961202
755.127318	2579.843248
755.454969	2581.065728
755.782572	2580.165882
756.110129	2581.879874
756.437638	2583.001531
756.765100	2578.905594
757.092515	2581.925245
757.419882	2582.129412
757.747203	2582.157138
758.074477	2581.128743
758.401703	2580.743094
758.728882	2581.842066
759.056014	2581.516911
759.383099	2581.559761
759.710138	2584.826429
760.037129	2581.804257
760.364073	2582.724268
760.690970	2581.080852
761.017820	2582.129412
761.344623	2581.269895
761.671379	2581.915162
761.998088	2581.963053
762.324751	2583.767787
762.651366	2584.758373
762.977935	2592.173911
763.304456	2591.153077
763.630931	2600.091043
763.957359	2599.022318
764.283740	2598.316557
764.610074	2595.427975
764.936362	2591.354723
765.262602	2589.776842
765.588796	2587.634352
765.914943	2584.798702
766.241044	2582.694021
766.567097	2582.774679
766.893104	2580.445666
767.219064	2580.329720
767.544978	2581.761407
767.870845	2580.743094
768.196665	2581.723599
768.522438	2579.419791
768.848165	2581.698393
769.173846	2579.341653
769.499479	2581.204360
769.825066	2579.734863
770.150607	2578.497260
770.476101	2580.929617
770.801548	2577.292424
771.126949	2577.857034
771.452303	2579.084555
771.777611	2577.960377
772.102872	2577.158834
772.428087	2573.272104
772.753256	2576.125397
773.078378	2577.715881
773.403453	2575.772517
773.728482	2575.565829
774.053465	2574.897876
774.378401	2577.778896
774.703291	2571.679100
775.028135	2576.478278
775.352932	2573.572053
775.677683	2575.981724
776.002388	2576.173288
776.327046	2576.783268
776.651658	2577.219328
776.976224	2574.459296
777.300743	2575.291086
777.625216	2574.343349
777.949643	2575.190263
778.274024	2577.874678
778.598359	2569.758420
778.922647	2569.892011
779.246889	2572.624316
779.571086	2569.844120
779.895236	2571.643812
780.219339	2574.671024
780.543397	2574.517269
780.867409	2572.601631
781.191374	2575.565829
781.515294	2572.097515
781.839167	2575.888463
782.162995	2574.091292
782.486776	2574.388720
782.810511	2573.083061
783.134201	2573.814028
783.457844	2573.004923
783.781441	2574.247567
784.104993	2573.206569
784.428498	2576.473237
784.751958	2575.104564
785.075372	2575.631364
785.398739	2573.451065
785.722061	2574.978535
786.045337	2574.950808
786.368568	2574.086251
786.691752	2574.592887
787.014891	2575.744790
787.337983	2574.638257
787.661030	2574.471899
787.984031	2575.827969
788.306987	2577.584811
788.629897	2577.441138
788.952760	2577.950295
789.275579	2577.115984
789.598351	2577.050449
789.921078	2577.196643
790.243759	2574.602969
790.566395	2574.343349
790.888984	2574.855027
791.211529	2575.033987
791.534027	2574.512228
791.856480	2572.858730
792.178888	2575.777558
792.501249	2573.042732
792.823566	2575.802763
793.145836	2574.512228
793.468062	2574.814697
793.790241	2574.277814
794.112375	2572.175653
794.434464	2574.499625
794.756507	2576.458113
795.078505	2574.671024
795.400457	2568.964438
795.722364	2570.131465
796.044226	2573.297310
796.366042	2571.679100
796.687812	2571.313616
797.009538	2577.201684
797.331218	2575.175140
797.652852	2575.238154
797.974442	2576.848803
798.295986	2573.763617
798.617484	2575.966601
798.938938	2570.575087
799.260346	2576.753021
799.581709	2573.072979
799.903026	2572.909141
800.224299	2575.076837
800.545526	2574.161868
800.866708	2574.882753
801.187845	2574.701271
801.508936	2573.763617
801.829983	2573.531724
802.150984	2571.679100
802.471940	2574.103895
802.792851	2573.161199
803.113717	2573.178843
803.434538	2573.708164
803.755314	2573.768658
804.076045	2575.039029
804.396731	2573.309913
804.717372	2572.669686
805.037967	2572.984758
805.358518	2571.850499
805.679024	2574.413926
805.999485	2572.609193
806.319901	2575.943916
806.640272	2572.359655
806.960598	2574.935685
807.280879	2571.258163
807.601115	2573.977866
807.921306	2572.992320
808.241453	2571.807649
808.561554	2573.962742
808.881611	2573.130952
809.201623	2573.622464
809.521590	2574.161868
809.841513	2572.402505
810.161390	2575.507856
810.481223	2572.100036
810.801011	2574.368555
811.120755	2573.599779
811.440453	2573.236816
811.760107	2574.608010
812.079716	2571.641291
812.399281	2568.566187
812.718801	2569.516445
813.038276	2568.334294
813.357707	2575.041549
813.677093	2570.219686
813.996434	2573.919892
814.315731	2573.894687
814.634983	2574.996179
814.954191	2574.076168
815.273354	2571.104408
815.592473	2570.872515
815.911547	2573.965263
816.230577	2569.834037
816.549562	2571.626168
816.868502	2571.222875
817.187399	2577.390727
817.506250	2573.483833
817.825058	2574.976014
818.143821	2575.896025
818.462539	2574.686148
818.781213	2576.974832
819.099843	2579.444997
819.418429	2577.433577
819.736970	2579.760069
820.055466	2580.324678
820.373919	2585.232242
820.692327	2584.773497
821.010691	2591.198447
821.329011	2603.506424
821.647286	2623.524846
821.965517	2644.342291
822.283704	2661.928356
822.601847	2674.977383
822.919945	2669.023780
823.237999	2662.061947
823.556010	2653.333189
823.873976	2644.554020
824.191897	2632.495580
824.509775	2624.628859
824.827609	2615.428753
825.145398	2610.548916
825.463144	2606.878956
825.780845	2604.197062
826.098502	2604.481888
826.416116	2608.908021
826.733685	2614.123094
827.051210	2616.326079
827.368692	2614.992693
827.686129	2610.916921
828.003522	2605.394337
828.320872	2597.938470
828.638177	2592.524271
828.955439	2586.268199
829.272656	2583.485482
829.589830	2581.658064
829.906960	2583.455235
830.224046	2581.022878
830.541088	2581.204360
830.858086	2582.411716
831.175041	2577.541962
831.491952	2577.965418
831.808819	2577.519276
832.125642	2576.994996
832.442421	2576.916858
832.759157	2580.475913
833.075849	2583.664443
833.392497	2589.265165
833.709101	2592.080649
834.025662	2595.813624
834.342179	2592.756164
834.658653	2590.477562
834.975083	2588.579568
835.291469	2587.165524
835.607811	2582.590677
835.924110	2579.029102
836.240366	2577.007599
836.556578	2577.695717
836.872746	2576.795871
837.188871	2575.230592
837.504952	2572.435273
837.820990	2575.308730
838.136984	2572.039542
838.452935	2570.905282
838.768842	2571.479974
839.084706	2573.602300
839.400526	2574.174471
839.716303	2576.495922
840.032037	2575.419636
840.347727	2579.208063
840.663373	2576.498443
840.978977	2576.654718
841.294537	2574.928123
841.610054	2571.522824
841.925527	2574.129100
842.240957	2573.201528
842.556344	2573.612382
842.871687	2570.996023
843.186987	2571.477453
843.502244	2568.770354
843.817458	2569.531568
844.132629	2567.895714
844.447756	2571.716908
844.762840	2565.876732
845.077881	2562.499158
845.392879	2566.791701
845.707833	2568.026784
846.022745	2562.846998
846.337613	2568.046948
846.652438	2567.404201
846.967221	2569.579459
847.281960	2565.546536
847.596656	2568.727504
847.911309	2567.736917
848.225919	2568.856053
848.540485	2569.738255
848.855009	2569.183728
849.169490	2569.549212
849.483928	2566.786660
849.798323	2565.430589
850.112675	2566.395970
850.426984	2565.652400
850.741251	2567.890672
851.055474	2568.858574
851.369654	2568.440158
851.683792	2567.222720
851.997887	2564.684499
852.311938	2567.883111
852.625947	2565.516289
852.939914	2568.397308
853.253837	2568.553584
853.567718	2567.134499
853.881555	2569.256825
854.195350	2566.416135
854.509103	2568.319171
854.822812	2567.401681
855.136479	2568.939232
855.450103	2564.704663
855.763685	2566.421176
856.077224	2567.189952
856.390720	2564.709704
856.704173	2565.012174
857.017584	2567.043759
857.330953	2566.607699
857.644278	2567.661300
857.957561	2568.848492
858.270802	2567.898234
858.584000	2566.574931
858.897155	2568.346897
859.210268	2566.640466
859.523339	2566.882442
859.836367	2564.755075
860.149352	2564.692060
860.462295	2569.874367
860.775195	2564.119889
861.088054	2563.527554
861.400869	2564.213151
861.713642	2561.616957
862.026373	2563.983778
862.339062	2569.092988
862.651708	2567.734397
862.964312	2567.510065
863.276873	2568.135168
863.589392	2565.415466
863.901869	2566.345559
864.214303	2566.126269
864.526696	2567.719273
864.839045	2566.859757
865.151353	2567.963769
865.463619	2568.651887
865.775842	2565.375137
866.088023	2567.815055
866.400162	2567.066444
866.712258	2568.959397
867.024313	2566.816907
867.336325	2567.462174
867.648296	2568.074675
867.960224	2566.521999
868.272110	2565.165929
868.583954	2566.448903
868.895755	2568.505693
869.207515	2568.251115
869.519233	2567.149623
869.830909	2565.879252
870.142542	2570.247412
870.454134	2567.762123
870.765684	2569.208934
871.077191	2567.941084
871.388657	2568.609037
871.700081	2566.602658
872.011463	2572.800756
872.322803	2566.592575
872.634101	2569.488718
872.945357	2569.266908
873.256571	2571.767320
873.567744	2568.699778
873.878874	2568.724983
874.189963	2569.881928
874.501010	2572.019378
874.812015	2570.799418
875.122979	2571.278328
875.433900	2570.214644
875.744780	2569.276990
876.055618	2568.941753
876.366415	2568.094839
876.677169	2569.193811
876.987882	2567.943605
877.298554	2564.195507
877.609183	2566.973182
877.919771	2567.300857
878.230317	2564.727348
878.540822	2572.304203
878.851285	2571.684141
879.161707	2573.665314
879.472087	2575.689337
879.782425	2576.916858
880.092722	2585.993456
880.402977	2586.164855
880.713191	2598.026690
881.023363	2607.839296
881.333494	2617.732561
881.643583	2621.024434
881.953631	2623.567696
882.263637	2619.343209
882.573602	2620.326234
882.883526	2614.027312
883.193408	2610.493464
883.503248	2607.645212
883.813048	2604.759151
884.122806	2602.563729
884.432522	2596.524426
884.742197	2592.814137
885.051831	2592.723396
885.361424	2587.747777
885.670975	2585.191912
885.980485	2580.738053
886.289954	2578.935841
886.599382	2575.585994
886.908768	2578.421643
887.218113	2575.399471
887.527417	2575.583473
887.836680	2572.084912
888.145901	2574.542475
888.455082	2569.042576
888.764221	2572.369738
889.073319	2567.744479
889.382376	2570.501990
889.691392	2568.964438
890.000366	2569.176167
890.309300	2567.739438
890.618193	2568.767833
890.927044	2567.676423
891.235855	2569.844120
891.544625	2571.343863
891.853353	2571.053997
892.162041	2571.295972
892.470687	2570.010478
892.779293	2569.660117
893.087858	2568.155333
893.396381	2570.522155
893.704864	2570.703636
894.013306	2573.904769
894.321707	2578.698906
894.630068	2583.863568
894.938387	2584.987746
895.246665	2585.242324
895.554903	2582.142014
895.863100	2581.718557
896.171256	2582.414237
896.479371	2582.580595
896.787446	2578.958526
897.095480	2577.123546
897.403473	2577.355439
897.711425	2577.156313
898.019336	2575.452403
898.327207	2573.196487
898.635038	2572.435273
898.942827	2574.466858
899.250576	2572.145406
899.558284	2571.968966
899.865952	2573.327557
900.173579	2567.941084
900.481165	2571.442165
900.788711	2567.139541
901.096216	2569.153482
901.403681	2567.653738
901.711105	2570.764130
902.018489	2571.669017
902.325832	2572.886456
902.633135	2566.902606
902.940397	2567.152143
903.247619	2570.827145
903.554800	2572.014336
903.861941	2579.646643
904.169041	2585.650657
904.476101	2587.122674
904.783121	2586.961357
905.090100	2587.720051
905.397039	2584.758373
905.703938	2582.867941
906.010796	2583.009093
906.317614	2579.374421
906.624391	2579.230748
906.931129	2575.303689
907.237826	2575.028946
907.544483	2574.807136
907.851099	2571.303534
908.157675	2574.807136
908.464211	2573.776220
908.770707	2564.727348
909.077163	2566.395970
909.383578	2566.511917
909.689954	2567.404201
909.996289	2563.802297
910.302584	2569.667679
910.608839	2569.287072
910.915054	2568.924109
911.221229	2567.217678
911.527363	2566.935374
911.833458	2566.464026
912.139513	2563.134344
912.445527	2569.118193
912.751502	2568.425035
913.057436	2566.305230
913.363331	2566.983265
913.669186	2564.729869
913.975000	2567.016032
914.280775	2567.840261
914.586510	2573.042732
914.892205	2573.715726
915.197859	2575.422156
915.503475	2581.108578
915.809050	2582.706624
916.114585	2583.833322
916.420081	2588.032603
916.725536	2589.587799
917.030952	2586.671491
917.336328	2586.784917
917.641665	2586.358940
917.946961	2584.256778
918.252218	2580.387693
918.557435	2582.754515
918.862612	2580.914493
919.167750	2577.582291
919.472848	2579.185378
919.777906	2576.402661
920.082925	2575.033987
920.387904	2573.821590
920.692843	2570.862433
920.997743	2570.559963
921.302603	2570.383523
921.607423	2570.691033
921.912204	2568.634243
922.216946	2569.738255
922.521647	2568.883780
922.826310	2568.994685
923.130932	2567.527709
923.435516	2566.073337
923.740059	2565.503686
924.044564	2564.744992
924.349028	2567.663821
924.653454	2559.842470
924.957840	2562.141237
925.262186	2562.388253
925.566493	2563.794735
925.870761	2561.150650
926.174989	2564.450085
926.479178	2565.140723
926.783328	2563.872873
927.087438	2565.463357
927.391509	2563.693912
927.695541	2563.187276
927.999533	2563.688871
928.303486	2563.814900
928.607400	2564.787842
928.911275	2561.672409
929.215110	2564.750034
929.518906	2565.244067
929.822663	2564.825651
930.126381	2562.995712
930.430060	2566.358162
930.733699	2563.482183
931.037299	2563.625856
931.340861	2562.967986
931.644383	2563.494786
931.947866	2564.669375
932.251309	2565.377657
932.554714	2561.659806
932.858080	2564.137533
933.161407	2563.845147
933.464694	2564.001422
933.767943	2564.777760
934.071153	2563.547718
934.374323	2562.373130
934.677455	2563.865311
934.980548	2562.574776
935.283602	2562.350444
935.586617	2563.245249
935.889593	2563.671227
936.192530	2562.809189
936.495428	2562.662996
936.798287	2562.922615
937.101108	2562.257183
937.403890	2559.965979
937.706632	2564.288768
938.009336	2562.763819
938.312002	2563.162070
938.614628	2566.335477
938.917216	2567.873028
939.219765	2565.670044
939.522275	2567.633574
939.824747	2567.615930
940.127179	2562.138716
940.429573	2561.919426
940.731929	2560.270968
941.034246	2562.599982
941.336524	2564.823130
941.638763	2565.039900
941.940964	2567.149623
942.243126	2565.049982
942.545250	2563.429251
942.847335	2563.885476
943.149381	2560.485218
943.451389	2564.316494
943.753359	2565.128120
944.055290	2563.784653
944.357182	2563.290620
944.659036	2564.830692
944.960851	2565.982596
945.262628	2562.403377
945.564367	2566.423697
945.866067	2564.351783
946.167729	2564.639128
946.469352	2561.828685
946.770937	2562.400856
947.072484	2562.768860
947.373992	2565.276834
947.675462	2565.934705
947.976893	2564.797925
948.278286	2562.942780
948.579641	2564.790363
948.880958	2563.068809
949.182236	2564.518141
949.483476	2564.508058
949.784678	2564.457647
950.085841	2563.073850
950.386967	2566.090981
950.688054	2561.221226
950.989103	2565.294478
951.290114	2562.635270
951.591087	2565.896896
951.892021	2563.774570
952.192917	2563.819941
952.493776	2564.699622
952.794596	2563.061247
953.095378	2565.324725
953.396122	2566.728687
953.696828	2564.550908
953.997496	2566.698440
954.298126	2563.956052
954.598718	2564.422359
954.899272	2564.066957
955.199788	2563.048644
955.500266	2563.366237
955.800706	2562.249621
956.101108	2558.360371
956.401472	2561.967317
956.701798	2562.521844
957.002087	2557.513457
957.302337	2561.042265
957.602550	2563.464539
957.902724	2562.884807
958.202861	2562.647873
958.502960	2560.273489
958.803022	2562.216854
959.103045	2560.288612
959.403031	2562.718449
959.702979	2559.885320
960.002889	2563.378840
960.302762	2561.468243
960.602596	2562.239539
960.902393	2559.126627
961.202153	2560.979251
961.501875	2560.815413
961.801559	2559.696277
962.101205	2561.100238
962.400814	2560.742316
962.700385	2561.979920
962.999918	2561.780794
963.299414	2558.778787
963.598873	2561.773232
963.898293	2561.654765
964.197677	2560.054199
964.497022	2563.031000
964.796331	2561.564024
965.095601	2561.632080
965.394835	2565.183573
965.694030	2559.766853
965.993189	2560.921277
966.292309	2562.224416
966.591393	2559.701318
966.890439	2562.872204
967.189447	2560.442368
967.488419	2560.984292
967.787353	2559.348437
968.086249	2559.688715
968.385108	2564.918912
968.683930	2561.122923
968.982714	2559.073694
969.281462	2561.480845
969.580172	2563.220043
969.878844	2559.587892
970.177480	2562.599982
970.476078	2564.182904
970.774639	2559.292985
971.073162	2562.335321
971.371649	2560.840619
971.670098	2560.165104
971.968510	2556.172510
972.266885	2556.623694
972.565223	2559.822306
972.863524	2560.810372
973.161788	2562.050496
973.460014	2560.230639
973.758204	2562.093346
974.056356	2560.707028
974.354471	2561.364899
974.652550	2562.753737
974.950591	2562.542008
975.248595	2560.311298
975.546563	2561.480845
975.844493	2562.216854
976.142386	2563.628377
976.440243	2559.660989
976.738062	2561.853891
977.035845	2560.845660
977.333590	2560.112172
977.631299	2562.708366
977.928971	2561.450598
978.226606	2557.982285
978.524204	2563.439334
978.821765	2558.105793
979.119290	2557.810885
979.416777	2559.303067
979.714228	2562.410938
980.011642	2561.702656
980.309020	2562.037893
980.606360	2560.500341
980.903664	2561.082594
981.200931	2561.092677
981.498162	2563.033521
981.795356	2560.049158
982.092513	2563.988819
982.389633	2563.343552
982.686717	2561.092677
982.983764	2562.640311
983.280775	2563.230126
983.577749	2563.577965
983.874686	2563.656103
984.171587	2565.818758
984.468451	2564.132492
984.765279	2562.849519
985.062070	2563.416648
985.358824	2564.503017
985.655543	2562.191648
985.952224	2562.511761
986.248869	2561.188458
986.545478	2557.382387
986.842050	2557.788200
987.138586	2558.335165
987.435086	2557.029507
987.731549	2557.818447
988.027975	2560.263407
988.324366	2561.188458
988.620719	2558.171328
988.917037	2560.505382
989.213318	2561.369940
989.509563	2560.117213
989.805772	2560.399518
990.101944	2559.776935
990.398080	2556.916081
990.694180	2559.441699
990.990244	2558.390618
991.286271	2559.580330
991.582262	2559.376164
991.878217	2559.653427
992.174136	2558.297357
992.470019	2561.306926
992.765865	2559.673592
993.061676	2560.210475
993.357450	2560.180228
993.653188	2562.438665
993.948890	2558.224260
994.244556	2558.602347
994.540186	2561.932029
994.835780	2560.896072
995.131337	2561.022100
995.426859	2559.852553
995.722345	2558.032696
996.017795	2559.792059
996.313208	2562.337842
996.608586	2562.373130
996.903928	2561.979920
997.199234	2561.884138
997.494504	2561.279199
997.789738	2562.748696
998.084936	2559.247614
998.380099	2561.553942
998.675225	2558.690567
998.970316	2560.674261
999.265371	2559.066133
999.560390	2563.081412
999.855373	2562.143757
1000.150320	2562.284909
1000.445232	2562.095866
1000.740108	2561.495969
1001.034948	2560.147460
1001.329752	2560.694425
1001.624521	2561.117882
1001.919254	2555.333158
1002.213951	2557.115206
1002.508613	2554.992880
1002.803239	2558.209137
1003.097829	2554.322407
1003.392384	2560.754919
1003.686903	2560.069322
1003.981386	2558.647717
1004.275834	2560.606205
1004.570246	2559.398849
1004.864623	2559.224929
1005.158964	2560.205433
1005.453270	2560.235680
1005.747540	2557.823488
1006.041775	2557.931873
1006.335974	2558.241904
1006.630138	2560.258366
1006.924266	2558.367933
1007.218359	2560.833057
1007.512416	2557.578992
1007.806438	2559.519837
1008.100425	2561.112841
1008.394376	2562.191648
1008.688292	2560.815413
1008.982172	2558.844322
1009.276017	2559.476987
1009.569827	2558.511606
1009.863602	2561.047306
1010.157341	2559.686195
1010.451045	2560.583520
1010.744714	2558.468756
1011.038347	2560.875907
1011.331945	2560.883469
1011.625508	2558.226781
1011.919036	2561.097718
1012.212528	2560.008828
1012.505986	2560.260886
1012.799408	2561.891699
1013.092795	2559.020762
1013.386147	2558.378015
1013.679464	2559.802141
1013.972745	2558.125957
1014.265992	2556.805175
1014.559204	2558.483879
1014.852380	2557.518498
1015.145521	2558.274672
1015.438628	2558.930022
1015.731699	2560.152501
1016.024736	2557.780638
1016.317737	2558.935063
1016.610703	2562.037893
1016.903635	2555.824671
1017.196531	2557.258879
1017.489393	2556.187634
1017.782219	2557.430278
1018.075011	2557.397511
1018.367768	2560.099569
1018.660490	2559.124106
1018.953177	2559.124106
1019.245829	2559.124106
