Dividing Wavelength (nm)	Counts (n)	Blue Motor Position (mm): 0.000000	Red Motor Position (mm): 44.500000	
326.493990	2138.684313
326.888308	2138.684313
327.282561	2138.684313
327.676750	2113.382762
328.070874	2113.249172
328.464933	2120.347116
328.858929	2126.167128
329.252859	2141.141876
329.646726	2154.490851
330.040528	2168.336380
330.434265	2187.785152
330.827938	2205.865250
331.221547	2224.262941
331.615091	2245.632392
332.008571	2264.846750
332.401986	2287.078239
332.795338	2305.440642
333.188625	2326.404280
333.581847	2344.209635
333.975006	2363.726462
334.368100	2382.315717
334.761129	2400.829355
335.154095	2413.943916
335.546996	2438.028029
335.939833	2465.300671
336.332606	2478.730305
336.725315	2489.541059
337.117960	2496.800321
337.510540	2505.307268
337.903056	2517.547190
338.295508	2522.134640
338.687896	2530.134951
339.080220	2538.188194
339.472480	2543.171375
339.864676	2548.852755
340.256807	2550.828887
340.648875	2552.467262
341.040879	2556.719476
341.432818	2555.597819
341.824694	2556.898437
342.216506	2557.528581
342.608253	2554.307283
342.999937	2555.738971
343.391557	2552.847869
343.783113	2555.136553
344.174605	2552.404248
344.566033	2548.419216
344.957397	2551.375852
345.348697	2546.178423
345.739934	2544.363608
346.131106	2541.709440
346.522215	2545.220604
346.913260	2538.253729
347.304241	2539.067875
347.695159	2538.273894
348.086012	2536.028060
348.476802	2532.171577
348.867528	2533.535209
349.258191	2531.057482
349.648789	2529.703932
350.039324	2529.459436
350.429796	2529.766947
350.820203	2526.568334
351.210548	2527.422810
351.600828	2526.777542
351.991045	2526.563293
352.381198	2524.214116
352.771288	2525.832326
353.161314	2524.617408
353.551276	2526.863242
353.941175	2523.616739
354.331010	2523.775535
354.720782	2522.076666
355.110490	2529.081350
355.500135	2525.048427
355.889717	2528.935156
356.279235	2525.320649
356.668689	2526.134795
357.058080	2526.757378
357.447408	2524.715710
357.836672	2523.142870
358.225873	2524.466173
358.615010	2526.850639
359.004084	2531.082688
359.393095	2529.857687
359.782043	2530.321473
360.170927	2529.807276
360.559748	2530.865918
360.948505	2532.562266
361.337199	2530.974303
361.725830	2530.664272
362.114398	2533.958666
362.502903	2533.525127
362.891344	2534.636701
363.279722	2535.324819
363.668037	2535.070240
364.056289	2535.032432
364.444478	2534.261135
364.832603	2535.211393
365.220665	2538.581404
365.608665	2536.632998
365.996601	2539.456044
366.384474	2537.472350
366.772284	2536.297761
367.160031	2539.393030
367.547715	2539.577032
367.935336	2539.584594
368.322893	2539.019984
368.710388	2538.987217
369.097820	2543.922507
369.485189	2540.330684
369.872495	2541.313709
370.259738	2542.576518
370.646918	2540.423946
371.034035	2542.566436
371.421090	2540.272711
371.808081	2543.110881
372.195010	2544.161961
372.581875	2541.782537
372.968678	2543.499050
373.355418	2544.492157
373.742096	2547.330327
374.128710	2546.571633
374.515262	2549.019113
374.901751	2549.437529
375.288177	2551.053219
375.674540	2552.474824
376.060841	2551.159083
376.447079	2556.530432
376.833254	2556.666543
377.219367	2553.077242
377.605417	2556.628735
377.991404	2562.186607
378.377329	2563.121741
378.763191	2562.756257
379.148991	2574.242526
379.534727	2576.430387
379.920402	2578.308217
380.306013	2582.169741
380.691563	2587.682242
381.077049	2591.523602
381.462474	2592.761205
381.847835	2598.777822
382.233134	2607.781323
382.618371	2612.126797
383.003545	2616.358846
383.388657	2623.270268
383.773706	2628.991978
384.158693	2636.077319
384.543618	2641.884729
384.928480	2652.476193
385.313280	2657.451812
385.698017	2665.018584
386.082692	2673.260870
386.467305	2678.874195
386.851856	2686.317459
387.236344	2698.320446
387.620770	2703.971579
388.005133	2711.172868
388.389435	2723.402707
388.773674	2729.106772
389.157851	2737.931312
389.541965	2753.077459
389.926018	2755.610639
390.310008	2763.701691
390.693936	2774.595624
391.077802	2782.169958
391.461606	2795.408028
391.845348	2803.670479
392.229027	2810.420584
392.612645	2827.656289
392.996200	2833.665344
393.379694	2847.982221
393.763125	2864.973430
394.146494	2872.756972
394.529801	2882.884650
394.913047	2901.226888
395.296230	2903.366858
395.679351	2909.335584
396.062410	2927.052719
396.445408	2919.112902
396.828343	2933.429779
397.211217	2939.012857
397.594028	2934.889193
397.976778	2948.991821
398.359466	2965.017649
398.742092	2959.157308
399.124656	2975.321768
399.507158	2990.324241
399.889598	2996.338338
400.271977	3011.083713
400.654294	3014.806605
401.036549	3027.222967
401.418742	3034.225130
401.800874	3054.752708
402.182944	3063.249573
402.564952	3090.774273
402.946898	3084.079621
403.328783	3091.162442
403.710606	3108.279680
404.092367	3134.488638
404.474067	3154.991011
404.855705	3147.048673
405.237282	3146.600011
405.618797	3178.087057
406.000250	3201.593958
406.381642	3231.177969
406.762972	3232.879359
407.144240	3224.780745
407.525447	3245.963673
407.906593	3250.465424
408.287677	3267.849843
408.668700	3290.154428
409.049661	3287.293573
409.430560	3300.440903
409.811399	3303.677323
410.192176	3327.620283
410.572891	3332.311077
410.953545	3373.527551
411.334138	3342.327850
411.714669	3391.844583
412.095139	3336.742251
412.475547	3389.850807
412.855894	3378.563664
413.236180	3408.649270
413.616405	3388.978688
413.996568	3412.909045
414.376670	3415.875764
414.756711	3415.071700
415.136691	3438.697067
415.516609	3460.492496
415.896466	3465.969710
416.276262	3493.754029
416.655997	3523.199409
417.035670	3529.216026
417.415283	3596.896037
417.794834	3619.170375
418.174324	3601.629680
418.553753	3601.095318
418.933121	3648.247750
419.312428	3635.418014
419.691674	3629.270327
420.070859	3669.559228
420.449983	3649.548368
420.829045	3699.990153
421.208047	3685.731250
421.586988	3725.851273
421.965867	3758.618773
422.344686	3769.482459
422.723444	3805.095691
423.102141	3711.877194
423.480777	3810.968635
423.859352	3780.671300
424.237866	3875.767626
424.616319	3861.632231
424.994712	3920.838062
425.373044	3907.473963
425.751314	3973.951659
426.129524	3909.099736
426.507673	4009.101104
426.885762	3989.115450
427.263789	4009.345600
427.641756	4016.546889
428.019662	4043.564953
428.397508	4048.875808
428.775292	4084.524328
429.153016	4090.001541
429.530679	4103.630301
429.908282	4107.033080
430.285824	4085.582970
430.663305	4160.900329
431.040726	4119.951036
431.418086	4112.270838
431.795385	4185.480995
432.172624	4214.253381
432.549802	4184.462682
432.926920	4203.556052
433.303977	4199.676884
433.680974	4237.112493
434.057910	4259.197788
434.434786	4267.354375
434.811601	4262.242645
435.188355	4370.564438
435.565050	4338.127134
435.941683	4333.179241
436.318257	4419.559412
436.694770	4429.195578
437.071222	4483.897138
437.447614	4422.253909
437.823946	4425.349178
438.200218	4443.530099
438.576429	4424.587963
438.952580	4450.045790
439.328670	4455.182726
439.704700	4499.028162
440.080670	4461.239672
440.456580	4518.570194
440.832429	4555.748704
441.208218	4460.874189
441.583947	4508.135006
441.959616	4526.764590
442.335224	4553.767531
442.710773	4575.250408
443.086261	4625.177995
443.461689	4578.645625
443.837057	4588.483437
444.212365	4670.203061
444.587612	4669.887989
444.962800	4637.528822
445.337927	4676.897713
445.712995	4563.446546
446.088002	4756.585753
446.462949	4775.038896
446.837837	4801.315911
447.212664	4784.276811
447.587431	5007.834340
447.962139	5308.463549
448.336786	5644.461494
448.711374	5630.479854
449.085901	5281.972286
449.460369	5213.780598
449.834776	5150.562008
450.209124	5382.422318
450.583412	5393.792640
450.957640	5519.309809
451.331808	5380.458788
451.705917	5227.595880
452.079965	5220.427359
452.453954	5256.776599
452.827883	5222.617741
453.201752	5230.670984
453.575562	5259.738277
453.949311	5391.304831
454.323001	5400.976284
454.696632	5394.538731
455.070202	5546.224529
455.443713	5573.474487
455.817164	5667.335730
456.190556	5742.159056
456.563888	5709.487338
456.937160	5793.397344
457.310373	5633.494464
457.683526	5691.452610
458.056619	5682.186969
458.429653	5665.853631
458.802628	5707.244024
459.175542	5739.008335
459.548398	5874.897678
459.921194	6064.351801
460.293930	6122.504031
460.666607	6373.417382
461.039224	6589.037614
461.411782	6718.013015
461.784280	6632.492360
462.156719	6641.785727
462.529099	6597.352997
462.901419	6460.697399
463.273680	6325.251677
463.645882	6313.646941
464.018024	6316.772457
464.390106	6382.962807
464.762130	6642.413351
465.134094	7024.744541
465.505999	7647.478276
465.877845	8353.844753
466.249631	8717.160710
466.621358	8644.278228
466.993026	8450.922252
467.364634	8234.576094
467.736184	7954.867672
468.107674	7800.053838
468.479105	7712.375570
468.850477	7650.933987
469.221790	7468.784495
469.593043	7254.313646
469.964238	7154.990312
470.335373	7132.131200
470.706449	7276.451873
471.077467	7462.810728
471.448425	8112.895243
471.819324	8692.955610
472.190164	8745.998631
472.560945	8263.948377
472.931667	7794.785832
473.302330	7602.148220
473.672934	7476.820094
474.043479	7556.493010
474.413965	7458.124975
474.784393	7410.559168
475.154761	7559.467291
475.525070	7569.841986
475.895321	7521.419183
476.265513	7622.678319
476.635645	7790.989843
477.005719	7774.984180
477.375734	7863.211934
477.745691	7966.719425
478.115588	8170.495467
478.485427	8410.620748
478.855207	8878.961584
479.224928	9306.607706
479.594591	9693.435605
479.964194	9702.134116
480.333739	9788.910018
480.703226	9783.705027
481.072653	9884.177743
481.442022	10002.851546
481.811333	10155.825359
482.180584	9993.898457
482.549777	9935.572307
482.918912	9867.655362
483.287988	9859.710503
483.657005	9771.676833
484.025964	9686.309934
484.394864	9747.534748
484.763706	9706.250218
485.132489	9620.361560
485.501213	9614.700344
485.869879	9669.321246
486.238487	9609.626422
486.607036	9681.107463
486.975527	9626.209298
487.343959	9677.349283
487.712333	9729.716789
488.080648	9771.301268
488.448905	9875.307833
488.817104	9882.776302
489.185244	10041.945694
489.553326	10248.161654
489.921350	10713.336646
490.289315	11338.336379
490.657222	11638.789148
491.025070	11815.242136
491.392861	11732.693241
491.760593	11571.850187
492.128267	11328.027219
492.495883	11088.516959
492.863440	10853.279076
493.230939	10627.110230
493.598380	10451.506677
493.965763	10422.719167
494.333088	10295.258634
494.700354	10224.624507
495.067563	10194.483448
495.434713	10197.790445
495.801805	10238.147402
496.168839	10201.054592
496.535815	10167.359519
496.902733	10220.037057
497.269593	10173.618112
497.636395	10185.500112
498.003139	10289.529362
498.369825	10219.611079
498.736453	10309.315891
499.103023	10255.219269
499.469535	10258.977449
499.835989	10311.894441
500.202385	10279.333629
500.568723	10297.466659
500.935003	10354.580412
501.301226	10324.383900
501.667390	10496.221711
502.033497	10597.417833
502.399546	10523.254899
502.765537	10430.207802
503.131470	10538.055726
503.497345	10628.594849
503.863163	10404.439944
504.228923	10532.641527
504.594625	10651.209466
504.960269	10555.493077
505.325856	10705.316170
505.691385	10584.802346
506.056856	10649.835751
506.422270	10759.836249
506.787625	10684.821359
507.152924	10740.243804
507.518164	10808.702673
507.883347	10675.563280
508.248472	10748.080278
508.613540	10854.304951
508.978550	10928.800602
509.343503	10912.179918
509.708398	10959.571805
510.073236	11091.975190
510.438016	11108.013621
510.802738	11019.438028
511.167403	11141.577624
511.532010	11200.758249
511.896561	11296.698969
512.261053	11491.738690
512.625488	11411.473439
512.989866	11403.251317
513.354186	11377.274251
513.718449	11390.537527
514.082655	11523.187929
514.446803	11480.330559
514.810894	11583.691857
515.174927	11587.606313
515.538904	11578.670868
515.902822	11728.509084
516.266684	11597.867582
516.630488	11709.718183
516.994235	11693.460462
517.357925	11802.535907
517.721558	11865.527645
518.085133	11933.482399
518.448651	11966.610342
518.812112	11919.079822
519.175516	11926.928899
519.538863	12017.336952
519.902152	12023.996316
520.265385	12131.851803
520.628560	12153.884166
520.991678	12095.510125
521.354739	12159.464723
521.717743	12228.730177
522.080690	12197.739684
522.443580	12326.195845
522.806413	12343.686129
523.169189	12334.833862
523.531908	12394.652194
523.894569	12357.456040
524.257174	12377.567724
524.619722	12474.690594
524.982213	12455.050258
525.344647	12440.682970
525.707025	12450.815689
526.069345	12555.953994
526.431608	12530.140765
526.793815	12606.115995
527.155964	12512.864731
527.518057	12541.788351
527.880093	12499.919048
528.242072	12616.949435
528.603995	12544.732385
528.965860	12561.249726
529.327669	12586.044641
529.689421	12529.908872
530.051117	12544.014021
530.412755	12591.063110
530.774337	12593.707195
531.135862	12543.141901
531.497331	12611.230246
531.858743	12562.880539
532.220098	12651.062923
532.581396	12569.244996
532.942638	12489.909837
533.303824	12569.088720
533.664953	12553.335114
534.026025	12505.827280
534.387040	12614.088580
534.747999	12580.569948
535.108902	12628.062658
535.469748	12505.013134
535.830537	12538.045295
536.191270	12570.843042
536.551947	12496.491063
536.912567	12561.920199
537.273131	12590.858943
537.633638	12472.986684
537.994089	12527.025332
538.354483	12441.575254
538.714821	12575.306983
539.075103	12658.634736
539.435328	12595.063265
539.795497	12571.523597
540.155609	12568.806415
540.515665	12663.970797
540.875665	12527.025332
541.235609	12626.457051
541.595496	12592.494797
541.955328	12753.058068
542.315102	12606.657919
542.674821	12531.307793
543.034483	12558.323336
543.394090	12556.798387
543.753640	12532.991538
544.113134	12776.045729
544.472571	12542.867158
544.831953	12811.311121
545.191278	12626.469654
545.550548	12567.347001
545.909761	12687.364272
546.268918	12724.336094
546.628019	12782.364816
546.987064	12685.267152
547.346053	12529.616485
547.704986	12723.022873
548.063863	12610.748815
548.422684	12662.002227
548.781449	12617.776184
549.140158	12718.110269
549.498811	12657.351762
549.857408	12534.801312
550.215949	12737.128022
550.574434	12704.133670
550.932864	12636.367959
551.291237	12835.128052
551.649555	12735.204822
552.007817	12794.670272
552.366022	12709.270606
552.724173	12752.417841
553.082267	12840.237262
553.440305	12932.767641
553.798288	12751.205444
554.156215	12834.815501
554.514086	12879.530536
554.871902	12827.775530
555.229661	12836.451355
555.587365	12793.281434
555.945014	12805.115543
556.302606	12788.464612
556.660143	12855.091022
557.017625	12883.253428
557.375050	12845.729599
557.732421	12937.161006
558.089735	12932.356787
558.446994	12918.954879
558.804197	13021.539839
559.161345	13018.875590
559.518437	12833.988752
559.875474	12937.153445
560.232455	12963.639667
560.589381	13000.432528
560.946251	12948.002008
561.303065	13123.507258
561.659825	13076.034712
562.016528	12984.331083
562.373177	12920.918409
562.729770	13049.198130
563.086307	12926.035180
563.442789	13038.863765
563.799216	13075.664188
564.155587	13019.218388
564.511904	13040.184547
564.868164	13050.145867
565.224370	13115.118778
565.580520	13067.391654
565.936615	13130.484215
566.292654	13060.830593
566.648638	13128.676962
567.004567	13132.435142
567.360441	13140.460659
567.716260	13103.791306
568.072023	13184.154860
568.427732	13166.611644
568.783385	13071.364083
569.138982	13186.577134
569.494525	13183.010518
569.850013	13127.731745
570.205445	13118.660189
570.560823	13130.922796
570.916145	13089.103904
571.271412	13103.463631
571.626625	13059.678689
571.981782	13052.573182
572.336884	12991.350890
572.691931	13079.898757
573.046923	12986.539108
573.401860	12964.678145
573.756743	12944.934466
574.111570	12985.064571
574.466342	12958.109521
574.821059	13008.793282
575.175722	12881.509188
575.530330	12904.398547
575.884882	12838.586284
576.239380	12831.911796
576.593823	12820.044920
576.948211	12813.052840
577.302544	12685.796473
577.656823	12707.425543
578.011047	12758.220209
578.365216	12699.611755
578.719330	12637.792085
579.073389	12619.326339
579.427394	12624.049900
579.781344	12616.911626
580.135239	12547.963765
580.489080	12570.268350
580.842866	12446.054319
581.196597	12537.153010
581.550273	12531.877443
581.903895	12489.955208
582.257463	12605.168258
582.610975	12452.050772
582.964434	12523.027697
583.317837	12444.050461
583.671186	12396.028429
584.024481	12455.675361
584.377721	12336.328565
584.730906	12405.099985
585.084037	12420.977099
585.437113	12341.147908
585.790135	12361.408305
586.143103	12275.691046
586.496016	12292.026905
586.848874	12306.857979
587.201679	12304.186168
587.554428	12178.429544
587.907124	12221.279352
588.259765	12158.398519
588.612352	12233.335271
588.964884	12093.498704
589.317362	12155.943477
589.669786	12143.214564
590.022155	12096.203283
590.374470	12193.845392
590.726731	12078.965058
591.078937	11963.699075
591.431090	11994.296358
591.783188	11930.498036
592.135232	11843.104593
592.487222	11909.370560
592.839157	11914.721745
593.191038	11854.671520
593.542866	11803.045064
593.894639	11662.074238
594.246358	11719.825696
594.598022	11726.303579
594.949633	11630.251954
595.301190	11616.769388
595.652692	11581.319994
596.004141	11671.024806
596.355535	11449.103132
596.706876	11428.943558
597.058162	11401.945658
597.409395	11489.792805
597.760573	11517.047803
598.111698	11412.116186
598.462768	11414.004098
598.813785	11418.684809
599.164748	11290.999944
599.515657	11371.033303
599.866511	11238.274516
600.217312	11371.983560
600.568060	11139.878755
600.918753	11304.250617
601.269392	11296.890532
601.619978	11202.724299
601.970510	11245.987482
602.320988	11283.216403
602.671412	11354.112670
603.021783	11283.665065
603.372100	11201.640451
603.722363	11222.006713
604.072572	11228.224976
604.422728	11235.786707
604.772830	11177.531133
605.122878	11184.452637
605.472872	11162.047229
605.822813	11220.577546
606.172701	11180.911227
606.522534	11219.395395
606.872314	11274.084352
607.222041	11199.462673
607.571714	11281.646083
607.921333	11141.617953
608.270899	11196.455624
608.620411	11263.578588
608.969870	11204.962572
609.319276	11190.854902
609.668627	11203.079701
610.017926	11286.994747
610.367171	11314.937863
610.716362	11303.950668
611.065500	11283.448296
611.414585	11292.040942
611.763616	11360.015861
612.112594	11317.367699
612.461518	11347.982627
612.810389	11390.628268
613.159207	11337.486944
613.507971	11330.517549
613.856682	11433.057139
614.205340	11389.136086
614.553945	11528.408043
614.902496	11401.239897
615.250994	11464.892026
615.599439	11457.201745
615.947830	11490.758186
616.296169	11451.928698
616.644454	11468.219187
616.992686	11484.171918
617.340864	11575.482338
617.688990	11462.986469
618.037063	11595.112591
618.385082	11571.517471
618.733048	11609.673964
619.080961	11598.621234
619.428821	11574.521998
619.776628	11580.374778
620.124382	11535.485823
620.472083	11550.440406
620.819731	11577.942421
621.167326	11502.846873
621.514868	11484.098822
621.862357	11379.706608
622.209793	11372.853159
622.557176	11294.511108
622.904506	11229.626417
623.251783	11149.877883
623.599007	11092.375962
623.946179	11050.322657
624.293297	11018.613799
624.640363	10882.905938
624.987376	10868.309277
625.334336	10805.133537
625.681243	10719.499456
626.028097	10694.754952
626.374899	10655.426391
626.721647	10629.746753
627.068343	10585.097253
627.414987	10521.321616
627.761577	10450.730339
628.108115	10500.713379
628.454600	10376.169153
628.801032	10395.234797
629.147412	10382.120235
629.493739	10356.735505
629.840014	10270.814079
630.186236	10321.092027
630.532405	10213.286952
630.878521	10253.590977
631.224585	10193.691987
631.570597	10126.745463
631.916556	10133.044385
632.262462	10121.205235
632.608316	10097.423592
632.954117	10070.781094
633.299866	10049.426766
633.645562	10035.336741
633.991206	9928.048385
634.336797	9838.199900
634.682336	9825.866717
635.027823	9773.582390
635.373257	9727.415503
635.718639	9659.521243
636.063968	9630.915215
636.409245	9517.085961
636.754470	9505.695474
637.099642	9455.218401
637.444762	9357.273823
637.789829	9358.266930
638.134845	9289.135067
638.479808	9261.091128
638.824719	9230.473680
639.169577	9146.614086
639.514383	9143.183581
639.859137	9074.434845
640.203839	9108.329043
640.548489	9034.493783
640.893086	9038.055358
641.237632	8962.354872
641.582125	8973.906676
641.926566	8961.182803
642.270955	8943.213610
642.615292	8933.791694
642.959576	8915.305783
643.303809	8902.811283
643.647990	8914.814270
643.992118	8896.756857
644.336195	8870.489925
644.680219	8871.929174
645.024192	8904.308506
645.368112	8971.681006
645.711981	8954.069735
646.055797	9086.677287
646.399562	9042.589876
646.743274	9207.458292
647.086935	9275.319785
647.430544	9247.401875
647.774101	9269.635884
648.117606	9293.762846
648.461059	9353.641671
648.804460	9283.650291
649.147810	9168.706943
649.491108	9125.607598
649.834354	9070.709432
650.177548	8927.139891
650.520690	8833.424841
650.863781	8826.200868
651.206820	8799.281106
651.549807	8711.433959
651.892742	8623.390207
652.235626	8579.101150
652.578458	8543.682003
652.921238	8432.423738
653.263967	8466.759037
653.606644	8397.276813
653.949269	8380.041108
654.291843	8304.262484
654.634365	8366.926547
654.976836	8294.946432
655.319255	8278.476982
655.661622	8275.449769
656.003938	8230.724652
656.346203	8197.737862
656.688416	8222.918425
657.030577	8176.502001
657.372687	8144.757856
657.714746	8173.772217
658.056753	8188.368877
658.398708	8087.465142
658.740612	8081.514060
659.082465	8120.895554
659.424266	8077.198832
659.766016	8086.023372
660.107715	8060.237870
660.449362	8075.547854
660.790958	8070.867143
661.132503	8055.955410
661.473996	8054.916932
661.815438	8073.952329
662.156829	8096.503931
662.498168	8047.284625
662.839456	8039.551495
663.180693	8058.763333
663.521879	8075.321002
663.863013	8059.625370
664.204097	8051.158752
664.545129	8124.479814
664.886110	8112.766693
665.227040	8115.188968
665.567918	8126.042572
665.908746	8134.093295
666.249522	8147.603587
666.590248	8137.145713
666.930922	8155.354361
667.271545	8137.891804
667.612118	8157.254876
667.952639	8114.374821
668.293109	8114.964636
668.633528	8094.159794
668.973896	8077.423164
669.314213	8077.652536
669.654480	8033.953294
669.994695	8034.162502
670.334859	8009.768358
670.674973	7981.409347
671.015035	8007.522524
671.355047	7989.588620
671.695008	7977.865416
672.034918	7957.635266
672.374777	7953.773742
672.714585	7921.767456
673.054342	7951.689225
673.394049	7917.321159
673.733705	7955.384391
674.073310	7901.875063
674.412864	7910.419819
674.752368	7839.299221
675.091820	7897.637973
675.431223	7819.812640
675.770574	7777.668594
676.109875	7746.539469
676.449125	7699.228240
676.788324	7688.724996
677.127473	7605.301462
677.466571	7588.844615
677.805619	7527.274483
678.144616	7525.560490
678.483562	7496.767940
678.822458	7444.534025
679.161303	7437.269722
679.500098	7406.639671
679.838842	7385.721403
680.177535	7398.528455
680.516179	7429.176149
680.854771	7439.669311
681.193314	7540.167234
681.531805	7684.888678
681.870247	7791.400697
682.208638	7939.194725
682.546978	8003.792071
682.885268	8030.263169
683.223508	7959.500493
683.561697	7908.204232
683.899836	7872.301134
684.237925	7788.040768
684.575963	7755.956345
684.913951	7670.597007
685.251889	7687.857918
685.589776	7674.143459
685.927614	7657.905902
686.265401	7663.506624
686.603137	7660.779360
686.940824	7723.347641
687.278460	7767.261132
687.616046	7766.008405
687.953582	7863.370730
688.291068	7837.393664
688.628504	7885.884523
688.965889	7892.959783
689.303224	7841.570260
689.640510	7802.672717
689.977745	7697.857047
690.314930	7582.775066
690.652065	7507.387131
690.989150	7400.910400
691.326185	7267.707992
691.663170	7164.709657
692.000105	7054.676392
692.336990	6948.925587
692.673825	6880.968313
693.010610	6788.130423
693.347345	6697.941661
693.684030	6596.352328
694.020665	6550.561007
694.357251	6441.014214
694.693786	6430.558861
695.030272	6386.012705
695.366707	6294.666997
695.703093	6239.632720
696.039429	6233.031329
696.375716	6185.629360
696.711952	6169.104458
697.048139	6142.346013
697.384276	6115.237208
697.720363	6126.053004
698.056400	6097.053766
698.392388	6064.848355
698.728326	6054.037600
699.064214	6025.822262
699.400053	6025.668507
699.735842	5969.905784
700.071581	5926.259474
700.407270	5874.325507
700.742910	5849.366754
701.078501	5814.529861
701.414042	5764.902222
701.749533	5714.878852
702.084974	5657.686962
702.420366	5691.361869
702.755709	5630.668897
703.091002	5581.563018
703.426246	5577.772070
703.761440	5562.285646
704.096584	5523.670407
704.431679	5510.853273
704.766725	5492.753011
705.101721	5477.097707
705.436668	5490.575232
705.771565	5438.933652
706.106413	5484.384695
706.441212	5473.946986
706.775961	5491.717053
707.110661	5486.907793
707.445311	5540.722110
707.779913	5508.471328
708.114465	5540.530546
708.448967	5569.413837
708.783421	5663.000338
709.117825	5696.352612
709.452180	5719.196600
709.786485	5770.024034
710.120742	5875.356423
710.454949	5869.352409
710.789107	5927.416419
711.123216	6021.139030
711.457275	6039.211567
711.791286	6128.321523
712.125247	6139.858203
712.459159	6107.662874
712.793023	6217.292847
713.126837	6064.009003
713.460602	6108.227484
713.794318	6068.009158
714.127985	6027.503487
714.461602	5897.098919
714.795171	5904.395990
715.128691	5761.300317
715.462162	5679.515158
715.795584	5614.501917
716.128957	5575.180917
716.462281	5520.497001
716.795556	5479.824972
717.128782	5407.091204
717.461960	5322.871167
717.795088	5309.045803
718.128167	5251.422894
718.461198	5179.904044
718.794180	5156.412267
719.127113	5102.590388
719.459997	5073.795317
719.792833	5011.055637
720.125619	5005.795193
720.458357	4949.566163
720.791046	4924.068007
721.123686	4899.356271
721.456278	4857.592832
721.788821	4844.720245
722.121315	4807.559380
722.453761	4812.083815
722.786158	4794.906084
723.118506	4793.141680
723.450805	4769.561683
723.783056	4787.009116
724.115259	4773.602167
724.447412	4756.376545
724.779518	4792.042708
725.111574	4787.876195
725.443582	4816.336029
725.775542	4805.767250
726.107453	4872.928022
726.439315	4846.910627
726.771129	4897.675046
727.102895	4944.469557
727.434612	4974.035924
727.766281	4990.712061
728.097901	5025.105333
728.429473	5041.264752
728.760996	5048.733221
729.092471	5065.401796
729.423897	5052.095671
729.755276	5023.235065
730.086606	5033.917270
730.417887	5097.110654
730.749120	5164.677239
731.080305	5194.967012
731.411442	5246.127162
731.742530	5257.472278
732.073570	5276.578251
732.404562	5319.443182
732.735506	5311.168128
733.066401	5292.654491
733.397249	5239.006532
733.728048	5160.629192
734.058798	5042.552766
734.389501	4941.281027
734.720156	4874.112693
735.050762	4783.744969
735.381320	4722.263057
735.711831	4680.055996
736.042293	4617.165081
736.372707	4609.739462
736.703073	4569.591712
737.033391	4589.537038
737.363661	4573.453236
737.693883	4574.516920
738.024056	4594.303449
738.354182	4605.724183
738.684260	4642.403618
739.014290	4666.220549
739.344272	4694.715672
739.674207	4731.740426
740.004093	4752.837655
740.333931	4752.482253
740.663722	4765.266620
740.993464	4765.811064
741.323159	4749.220627
741.652806	4716.069999
741.982405	4685.150082
742.311956	4645.937467
742.641460	4627.325527
742.970915	4591.656843
743.300323	4540.345458
743.629683	4509.256663
743.958996	4471.843739
744.288260	4429.135084
744.617477	4380.969380
744.946647	4370.418245
745.275768	4326.209846
745.604842	4299.123726
745.933869	4264.163324
746.262847	4262.270371
746.591778	4251.870471
746.920662	4230.236359
747.249498	4221.527766
747.578286	4230.223756
747.907027	4244.139861
748.235720	4272.864356
748.564365	4277.736631
748.892963	4264.352368
749.221514	4272.335035
749.550017	4253.513887
749.878473	4250.307713
750.206881	4221.406778
750.535242	4207.382288
750.863555	4194.880227
751.191821	4179.025798
751.520039	4175.459181
751.848210	4160.862520
752.176334	4158.067201
752.504411	4146.162516
752.832440	4121.942292
753.160421	4128.168117
753.488356	4108.699181
753.816243	4097.734671
754.144082	4068.679981
754.471875	4059.646233
754.799620	4048.868247
755.127318	4042.476063
755.454969	4035.602450
755.782572	4024.489227
756.110129	4024.552241
756.437638	4011.432638
756.765100	4006.527595
757.092515	4006.421731
757.419882	4007.961804
757.747203	4003.306298
758.074477	4006.714118
758.401703	3999.711955
758.728882	4018.049152
759.056014	4025.789844
759.383099	4036.832492
759.710138	4054.184143
760.037129	4066.666040
760.364073	4077.945622
760.690970	4067.013880
761.017820	4070.545208
761.344623	4089.724278
761.671379	4128.470586
761.998088	4179.870191
762.324751	4332.256710
762.651366	4640.576200
762.977935	5113.832161
763.304456	5499.966902
763.630931	5716.106373
763.957359	5667.829763
764.283740	5460.892918
764.610074	5238.058795
764.936362	4960.606290
765.262602	4738.422475
765.588796	4503.461856
765.914943	4325.867048
766.241044	4168.686391
766.567097	4053.937127
766.893104	3950.288483
767.219064	3879.210734
767.544978	3809.773881
767.870845	3757.333278
768.196665	3719.310376
768.522438	3688.357691
768.848165	3659.499606
769.173846	3628.035244
769.499479	3605.788632
769.825066	3579.098243
770.150607	3550.265364
770.476101	3541.866801
770.801548	3523.015407
771.126949	3501.454392
771.452303	3485.352946
771.777611	3461.296560
772.102872	3457.818164
772.428087	3441.613375
772.753256	3420.826177
773.078378	3404.097108
773.403453	3383.078017
773.728482	3365.267620
774.053465	3358.026003
774.378401	3343.578056
774.703291	3325.402176
775.028135	3309.230154
775.352932	3301.930563
775.677683	3286.333233
776.002388	3275.731687
776.327046	3272.747324
776.651658	3259.917587
776.976224	3247.753283
777.300743	3244.037953
777.625216	3233.869945
777.949643	3228.420458
778.274024	3226.784604
778.598359	3212.341698
778.922647	3212.026626
779.246889	3203.698640
779.571086	3202.556818
779.895236	3204.096891
780.219339	3206.539330
780.543397	3205.803321
780.867409	3209.233827
781.191374	3210.438662
781.515294	3207.008157
781.839167	3211.648539
782.162995	3210.310113
782.486776	3203.297868
782.810511	3196.000798
783.134201	3188.101310
783.457844	3187.864375
783.781441	3179.092768
784.104993	3172.811490
784.428498	3167.175480
784.751958	3166.121879
785.075372	3160.964778
785.398739	3152.946823
785.722061	3157.549397
786.045337	3154.653254
786.368568	3168.095491
786.691752	3162.099038
787.014891	3189.301104
787.337983	3221.763614
787.661030	3272.570883
787.984031	3334.264524
788.306987	3383.317472
788.629897	3407.361255
788.952760	3410.259918
789.275579	3394.599574
789.598351	3363.972044
789.921078	3327.025427
790.243759	3286.950775
790.566395	3256.582864
790.888984	3225.118502
791.211529	3200.724359
791.534027	3174.288548
791.856480	3151.195022
792.178888	3137.135244
792.501249	3125.104531
792.823566	3106.059051
793.145836	3101.716097
793.468062	3093.458687
793.790241	3085.944847
794.112375	3089.667740
794.434464	3099.755088
794.756507	3097.400870
795.078505	3108.814042
795.400457	3135.138947
795.722364	3164.055006
796.044226	3191.650282
796.366042	3214.194322
796.687812	3215.585680
797.009538	3229.665623
797.331218	3222.925600
797.652852	3211.167109
797.974442	3199.942980
798.295986	3194.057433
798.617484	3173.938188
798.938938	3157.380518
799.260346	3149.889363
799.581709	3127.539408
799.903026	3119.463479
800.224299	3104.977724
800.545526	3089.846701
800.866708	3076.706933
801.187845	3067.365675
801.508936	3058.488203
801.829983	3048.141235
802.150984	3034.325953
802.471940	3027.293543
802.792851	3019.978829
803.113717	3020.165352
803.434538	3012.533045
803.755314	3010.259484
804.076045	3003.277486
804.396731	2998.468225
804.717372	2996.902947
805.037967	2996.088801
805.358518	2999.201713
805.679024	3007.592714
805.999485	3007.643125
806.319901	3010.302334
806.640272	3008.827797
806.960598	3018.181658
807.280879	3012.583456
807.601115	3019.005886
807.921306	3013.760566
808.241453	3019.197450
808.561554	3016.659229
808.881611	3014.904908
809.201623	3014.463807
809.521590	3009.573887
809.841513	3005.034328
810.161390	3006.453413
810.481223	2997.258348
810.801011	2997.192813
811.120755	2992.358347
811.440453	2985.749394
811.760107	2980.221769
812.079716	2972.470995
812.399281	2964.155612
812.718801	2963.475056
813.038276	2958.708645
813.357707	2954.842080
813.677093	2958.703604
813.996434	2948.820422
814.315731	2952.974333
814.634983	2947.759259
814.954191	2948.404527
815.273354	2955.366360
815.592473	2957.687811
815.911547	2964.379943
816.230577	2975.026860
816.549562	2988.312821
816.868502	2994.521002
817.187399	3005.041890
817.506250	3015.547655
817.825058	3017.596884
818.143821	3036.110521
818.462539	3057.631207
818.781213	3083.736822
819.099843	3122.878861
819.418429	3202.965152
819.736970	3277.057510
820.055466	3367.929350
820.373919	3480.354642
820.692327	3638.682161
821.010691	3900.020617
821.329011	4492.633458
821.647286	5529.520666
821.965517	6884.691205
822.283704	7915.778566
822.601847	8493.696443
822.919945	8169.583018
823.237999	7665.356728
823.556010	7077.437202
823.873976	6493.490105
824.191897	5944.523574
824.509775	5505.008056
824.827609	5066.407506
825.145398	4751.978138
825.463144	4543.102970
825.780845	4460.750680
826.098502	4502.345241
826.416116	4717.988158
826.733685	4993.673739
827.051210	5144.381553
827.368692	5089.579170
827.686129	4835.804965
828.003522	4536.315056
828.320872	4239.948142
828.638177	4007.971886
828.955439	3823.261488
829.272656	3655.416271
829.589830	3512.708767
829.906960	3381.270763
830.224046	3274.715894
830.541088	3194.173379
830.858086	3133.828247
831.175041	3089.067842
831.491952	3064.025911
831.808819	3054.276319
832.125642	3068.207548
832.442421	3116.216976
832.759157	3218.254971
833.075849	3412.714960
833.392497	3654.839059
833.709101	3850.692927
834.025662	3905.850712
834.342179	3831.738189
834.658653	3685.179243
834.975083	3545.713202
835.291469	3425.161569
835.607811	3317.361535
835.924110	3242.230699
836.240366	3166.625994
836.556578	3091.331320
836.872746	3023.424457
837.188871	2967.452526
837.504952	2926.777977
837.820990	2891.925959
838.136984	2868.192207
838.452935	2851.543797
838.768842	2846.953826
839.084706	2863.556866
839.400526	2929.127154
839.716303	3044.564536
840.032037	3142.211686
840.347727	3174.081861
840.663373	3123.347688
840.978977	3046.545710
841.294537	2984.358036
841.610054	2936.096549
841.925527	2900.717732
842.240957	2873.601365
842.556344	2844.042560
842.871687	2815.081131
843.186987	2788.095834
843.502244	2766.192021
843.817458	2747.322982
844.132629	2730.614077
844.447756	2722.011348
844.762840	2713.517004
845.077881	2709.055583
845.392879	2701.408153
845.707833	2697.415559
846.022745	2691.035979
846.337613	2688.971626
846.652438	2687.285360
846.967221	2684.651357
847.281960	2679.907632
847.596656	2679.857220
847.911309	2677.815553
848.225919	2675.728515
848.540485	2676.179698
848.855009	2673.659121
849.169490	2669.338852
849.483928	2671.309944
849.798323	2667.065292
850.112675	2663.798624
850.426984	2667.405570
850.741251	2666.982113
851.055474	2667.181239
851.369654	2664.804335
851.683792	2660.766370
851.997887	2663.924653
852.311938	2663.801145
852.625947	2664.955569
852.939914	2661.691422
853.253837	2664.980775
853.567718	2664.660662
853.881555	2661.767039
854.195350	2665.041269
854.509103	2666.142761
854.822812	2666.523368
855.136479	2662.671927
855.450103	2661.560352
855.763685	2661.565393
856.077224	2660.239570
856.390720	2660.136226
856.704173	2663.780980
857.017584	2664.582524
857.330953	2664.635456
857.644278	2665.986485
857.957561	2668.786846
858.270802	2665.202586
858.584000	2666.452792
858.897155	2666.180570
859.210268	2664.486742
859.523339	2661.971206
859.836367	2661.225115
860.149352	2662.394663
860.462295	2659.997594
860.775195	2658.371822
861.088054	2655.326965
861.400869	2655.493323
861.713642	2651.437715
862.026373	2653.502068
862.339062	2656.728406
862.651708	2658.883499
862.964312	2661.015907
863.276873	2662.377019
863.589392	2664.605209
863.901869	2665.436999
864.214303	2669.530416
864.526696	2675.368072
864.839045	2673.525531
865.151353	2681.185564
865.463619	2679.874864
865.775842	2679.000224
866.088023	2682.216480
866.400162	2679.015347
866.712258	2681.692200
867.024313	2681.238496
867.336325	2679.955522
867.648296	2681.601459
867.960224	2678.138187
868.272110	2680.116839
868.583954	2680.671366
868.895755	2679.801767
869.207515	2679.917714
869.519233	2682.897036
869.830909	2683.701100
870.142542	2683.081038
870.454134	2684.227900
870.765684	2684.878209
871.077191	2687.398786
871.388657	2693.226360
871.700081	2691.771987
872.011463	2696.119982
872.322803	2695.136957
872.634101	2697.491176
872.945357	2700.624253
873.256571	2707.802856
873.567744	2709.085830
873.878874	2709.786550
874.189963	2711.689586
874.501010	2714.066490
874.812015	2713.053218
875.122979	2715.664536
875.433900	2713.650595
875.744780	2717.469269
876.055618	2715.712427
876.366415	2716.201419
876.677169	2714.477344
876.987882	2716.473641
877.298554	2715.846017
877.609183	2719.427757
877.919771	2724.090824
878.230317	2731.513923
878.540822	2743.216962
878.851285	2755.046030
879.161707	2779.838424
879.472087	2815.018116
879.782425	2869.281096
880.092722	2982.092037
880.402977	3178.714681
880.713191	3479.643839
881.023363	3836.101307
881.333494	4111.207155
881.643583	4257.950102
881.953631	4259.570833
882.263637	4181.821118
882.573602	4068.367430
882.883526	3960.464052
883.193408	3851.350798
883.503248	3729.952251
883.813048	3628.183958
884.122806	3528.724513
884.432522	3418.250147
884.742197	3309.255360
885.051831	3211.325905
885.361424	3119.748305
885.670975	3044.728374
885.980485	2979.261429
886.289954	2933.402053
886.599382	2885.730381
886.908768	2857.908253
887.218113	2826.128819
887.527417	2801.485139
887.836680	2779.921603
888.145901	2763.288316
888.455082	2751.983529
888.764221	2737.525499
889.073319	2728.320352
889.382376	2723.190978
889.691392	2717.071018
890.000366	2715.641851
890.309300	2712.833928
890.618193	2711.835779
890.927044	2710.429297
891.235855	2709.773947
891.544625	2709.373176
891.853353	2715.959443
892.162041	2717.161758
892.470687	2728.360682
892.779293	2739.166395
893.087858	2754.879672
893.396381	2784.985442
893.704864	2825.044971
894.013306	2888.235835
894.321707	2967.896148
894.630068	3026.592823
894.938387	3052.249775
895.246665	3047.012016
895.554903	3019.424302
895.863100	2982.117243
896.171256	2950.413426
896.479371	2921.981319
896.787446	2892.598953
897.095480	2867.103318
897.403473	2848.093127
897.711425	2825.002122
898.019336	2809.298927
898.327207	2791.642286
898.635038	2771.666714
898.942827	2752.790113
899.250576	2738.463154
899.558284	2726.717266
899.865952	2715.543548
900.173579	2706.421580
900.481165	2698.698532
900.788711	2691.499765
901.096216	2686.524146
901.403681	2682.990297
901.711105	2679.418640
902.018489	2676.081396
902.325832	2679.958043
902.633135	2679.015347
902.940397	2694.713500
903.247619	2723.445557
903.554800	2794.480456
903.861941	2908.720563
904.169041	3020.982018
904.476101	3085.342430
904.783121	3084.901329
905.090100	3047.926986
905.397039	3002.985099
905.703938	2958.438943
906.010796	2917.451842
906.317614	2887.973695
906.624391	2856.869776
906.931129	2830.965807
907.237826	2810.166006
907.544483	2785.461831
907.851099	2757.828747
908.157675	2732.280179
908.464211	2705.781354
908.770707	2681.210770
909.077163	2667.760971
909.383578	2653.804537
909.689954	2643.727270
909.996289	2636.793163
910.302584	2637.080509
910.608839	2632.344345
910.915054	2630.637914
911.221229	2630.264869
911.527363	2629.725466
911.833458	2629.193624
912.139513	2631.467184
912.445527	2629.919550
912.751502	2634.461630
913.057436	2638.229892
913.363331	2643.873464
913.669186	2655.372336
913.975000	2663.783501
914.280775	2683.340657
914.586510	2715.931717
914.892205	2755.348499
915.197859	2811.023002
915.503475	2880.648898
915.809050	2950.872171
916.114585	2999.680623
916.420081	3023.984026
916.725536	3032.233874
917.030952	3012.565812
917.336328	2994.016887
917.641665	2972.783547
917.946961	2949.407716
918.252218	2926.009201
918.557435	2902.043555
918.862612	2875.441386
919.167750	2854.132429
919.472848	2831.167453
919.777906	2801.885911
920.082925	2778.119391
920.387904	2753.831112
920.692843	2734.589027
920.997743	2717.610421
921.302603	2699.749613
921.607423	2691.600588
921.912204	2680.825122
922.216946	2668.733914
922.521647	2662.871052
922.826310	2654.038951
923.130932	2650.023672
923.435516	2643.351704
923.740059	2640.420273
924.044564	2635.542957
924.349028	2630.327883
924.653454	2623.938221
924.957840	2621.946965
925.262186	2616.598301
925.566493	2613.145111
925.870761	2609.316354
926.174989	2614.228959
926.479178	2605.923658
926.783328	2608.582866
927.087438	2603.367793
927.391509	2601.893255
927.695541	2598.946701
927.999533	2599.581886
928.303486	2597.472163
928.607400	2596.622729
928.911275	2595.485949
929.215110	2594.455033
929.518906	2592.642738
929.822663	2592.325145
930.126381	2593.890423
930.430060	2594.205496
930.733699	2593.005701
931.037299	2592.138622
931.340861	2592.310022
931.644383	2594.253387
931.947866	2591.952100
932.251309	2592.746082
932.554714	2592.466297
932.858080	2594.460074
933.161407	2595.264138
933.464694	2591.266503
933.767943	2592.310022
934.071153	2588.463621
934.374323	2589.698704
934.677455	2591.405135
934.980548	2592.262131
935.283602	2590.885896
935.586617	2587.712489
935.889593	2587.213415
936.192530	2591.155597
936.495428	2588.788776
936.798287	2590.220463
937.101108	2590.815320
937.403890	2595.201123
937.706632	2596.085846
938.009336	2600.736310
938.312002	2603.178749
938.614628	2605.928699
938.917216	2609.964142
939.219765	2610.160747
939.522275	2614.702827
939.824747	2617.097375
940.127179	2612.698968
940.429573	2612.010851
940.731929	2612.371293
941.034246	2608.877774
941.336524	2611.441201
941.638763	2611.794081
941.940964	2613.215687
942.243126	2611.733587
942.545250	2609.908690
942.847335	2608.729060
943.149381	2608.184615
943.451389	2604.907865
943.753359	2603.939964
944.055290	2600.529623
944.357182	2600.436362
944.659036	2600.937957
944.960851	2598.283789
945.262628	2597.678851
945.564367	2597.033583
945.866067	2597.424272
946.167729	2596.983171
946.469352	2595.619539
946.770937	2597.013418
947.072484	2595.685074
947.373992	2594.296236
947.675462	2594.702049
947.976893	2595.443099
948.278286	2592.612491
948.579641	2593.792121
948.880958	2592.262131
949.182236	2592.841863
949.483476	2591.662233
949.784678	2592.473859
950.085841	2590.568303
950.386967	2591.531163
950.688054	2592.219281
950.989103	2592.645258
951.290114	2592.158787
951.591087	2594.407142
951.892021	2598.755137
952.192917	2599.110538
952.493776	2596.952924
952.794596	2600.706063
953.095378	2603.208996
953.396122	2603.445931
953.696828	2601.459716
953.997496	2600.925354
954.298126	2600.194386
954.598718	2601.295878
954.899272	2597.797318
955.199788	2595.264138
955.500266	2596.542070
955.800706	2593.414034
956.101108	2590.006214
956.401472	2586.172417
956.701798	2586.575709
957.002087	2584.468507
957.302337	2587.379773
957.602550	2586.353898
957.902724	2581.910121
958.202861	2582.144535
958.502960	2577.012640
958.803022	2580.929617
959.103045	2578.041036
959.403031	2576.246385
959.702979	2574.063565
960.002889	2576.044739
960.302762	2574.721436
960.602596	2573.493915
960.902393	2571.951322
961.202153	2573.728329
961.501875	2569.524006
961.801559	2573.206569
962.101205	2572.979717
962.400814	2571.212793
962.700385	2569.098029
962.999918	2571.074161
963.299414	2567.804973
963.598873	2571.016188
963.898293	2565.360013
964.197677	2569.229099
964.497022	2568.051989
964.796331	2567.578121
965.095601	2568.407391
965.394835	2569.377813
965.694030	2568.417473
965.993189	2570.645663
966.292309	2569.007288
966.591393	2569.314798
966.890439	2565.047462
967.189447	2568.523337
967.488419	2565.871690
967.787353	2567.948646
968.086249	2566.771536
968.385108	2569.516445
968.683930	2567.386557
968.982714	2567.716753
969.281462	2570.590210
969.580172	2569.460992
969.878844	2570.933009
970.177480	2567.366392
970.476078	2567.946125
970.774639	2568.223389
971.073162	2571.890828
971.371649	2569.017370
971.670098	2567.167267
971.968510	2565.619633
972.266885	2566.090981
972.565223	2570.509552
972.863524	2571.611044
973.161788	2568.553584
973.460014	2572.266394
973.758204	2570.015519
974.056356	2568.427555
974.354471	2572.316806
974.652550	2573.446024
974.950591	2571.593400
975.248595	2573.178843
975.546563	2570.360838
975.844493	2571.709347
976.142386	2572.805797
976.440243	2570.141548
976.738062	2572.417629
977.035845	2568.697257
977.333590	2568.919068
977.631299	2567.265569
977.928971	2572.604151
978.226606	2570.789336
978.524204	2569.138358
978.821765	2568.213306
979.119290	2566.501835
979.416777	2568.576269
979.714228	2569.297154
980.011642	2569.478636
980.309020	2571.883266
980.606360	2568.714901
980.903664	2570.680951
981.200931	2572.941909
981.498162	2571.280848
981.795356	2576.180850
982.092513	2582.487333
982.389633	2585.678384
982.686717	2592.468818
982.983764	2599.236567
983.280775	2602.150354
983.577749	2606.326950
983.874686	2609.187805
984.171587	2606.145468
984.468451	2604.008019
984.765279	2600.403594
985.062070	2600.280086
985.358824	2600.398553
985.655543	2593.252717
985.952224	2589.300453
986.248869	2585.910277
986.545478	2579.949113
986.842050	2576.301838
987.138586	2573.677917
987.435086	2567.895714
987.731549	2564.374468
988.027975	2568.992165
988.324366	2567.172308
988.620719	2566.348079
988.917037	2564.071998
989.213318	2564.293809
989.509563	2562.602502
989.805772	2562.607543
990.101944	2562.423541
990.398080	2565.453275
990.694180	2564.155177
990.990244	2565.176011
991.286271	2562.718449
991.582262	2562.078222
991.878217	2561.571586
992.174136	2565.233984
992.470019	2563.366237
992.765865	2566.169118
993.061676	2563.744323
993.357450	2564.422359
993.653188	2566.973183
993.948890	2564.021587
994.244556	2566.214489
994.540186	2568.268759
994.835780	2571.308575
995.131337	2572.694892
995.426859	2572.621795
995.722345	2574.789492
996.017795	2577.940213
996.313208	2582.071438
996.608586	2581.892477
996.903928	2584.536562
997.199234	2585.154104
997.494504	2586.308528
997.789738	2583.921542
998.084936	2581.131263
998.380099	2581.247210
998.675225	2580.843917
998.970316	2576.364852
999.265371	2573.584656
999.560390	2571.792526
999.855373	2572.306723
1000.150320	2568.999726
1000.445232	2570.222206
1000.740108	2569.382854
1001.034948	2567.812535
1001.329752	2564.089642
1001.624521	2563.590568
1001.919254	2561.584189
1002.213951	2560.833057
1002.508613	2559.235011
1002.803239	2561.503531
1003.097829	2558.834240
1003.392384	2561.175856
1003.686903	2563.767009
1003.981386	2562.317677
1004.275834	2560.356668
1004.570246	2561.017059
1004.864623	2561.687533
1005.158964	2561.790876
1005.453270	2560.510423
1005.747540	2558.899775
1006.041775	2558.045299
1006.335974	2559.575289
1006.630138	2557.626883
1006.924266	2557.667212
1007.218359	2559.424055
1007.512416	2561.145609
1007.806438	2557.657130
1008.100425	2559.514795
1008.394376	2558.357851
1008.688292	2561.435475
1008.982172	2558.834240
1009.276017	2555.804506
1009.569827	2558.993036
1009.863602	2561.465722
1010.157341	2556.767367
1010.451045	2561.087635
1010.744714	2558.075546
1011.038347	2558.302398
1011.331945	2560.689384
1011.625508	2557.566389
1011.919036	2559.008159
1012.212528	2557.059753
1012.505986	2558.254507
1012.799408	2558.584703
1013.092795	2560.853222
1013.386147	2558.309960
1013.679464	2553.707386
1013.972745	2557.730227
1014.265992	2559.524878
1014.559204	2558.032696
1014.852380	2559.242573
1015.145521	2559.860114
1015.438628	2557.664692
1015.731699	2558.241904
1016.024736	2559.235011
1016.317737	2559.721483
1016.610703	2558.733417
1016.903635	2556.175031
1017.196531	2554.728220
1017.489393	2557.203426
1017.782219	2553.430123
1018.075011	2556.283416
1018.367768	2557.568910
1018.660490	2559.469425
1018.953177	2559.469425
1019.245829	2559.469425
