Dividing Wavelength (nm)	Counts (n)	Blue Motor Position (mm): 0.000000	Red Motor Position (mm): 39.000000	
326.493990	2138.583490
326.888308	2138.583490
327.282561	2138.583490
327.676750	2113.113061
328.070874	2116.283946
328.464933	2120.218567
328.858929	2128.415483
329.252859	2141.756897
329.646726	2156.996305
330.040528	2166.534168
330.434265	2190.283044
330.827938	2207.576722
331.221547	2227.511965
331.615091	2246.804461
332.008571	2267.304313
332.401986	2287.917591
332.795338	2306.668163
333.188625	2328.138437
333.581847	2348.073680
333.975006	2365.816021
334.368100	2383.502909
334.761129	2401.391443
335.154095	2417.939031
335.546996	2438.431321
335.939833	2459.795731
336.332606	2468.111114
336.725315	2484.842704
337.117960	2490.108189
337.510540	2499.416680
337.903056	2511.341529
338.295508	2513.708351
338.687896	2524.083046
339.080220	2531.097811
339.472480	2539.186342
339.864676	2540.323123
340.256807	2539.456044
340.648875	2544.774462
341.040879	2547.509288
341.432818	2548.257899
341.824694	2550.438198
342.216506	2548.827549
342.608253	2548.943496
342.999937	2548.729247
343.391557	2549.792930
343.783113	2545.392003
344.174605	2545.344112
344.566033	2543.148689
344.957397	2538.354552
345.348697	2539.811446
345.739934	2534.167874
346.131106	2539.088040
346.522215	2534.624098
346.913260	2533.802390
347.304241	2531.133099
347.695159	2529.131761
348.086012	2529.666123
348.476802	2525.277799
348.867528	2525.613036
349.258191	2522.303518
349.648789	2523.573889
350.039324	2521.081038
350.429796	2522.600946
350.820203	2520.912160
351.210548	2520.803775
351.600828	2520.536594
351.991045	2520.206398
352.381198	2518.840246
352.771288	2517.186747
353.161314	2516.987622
353.551276	2518.867972
353.941175	2517.222035
354.331010	2518.613394
354.720782	2518.890657
355.110490	2520.113137
355.500135	2519.414937
355.889717	2519.316635
356.279235	2517.494258
356.668689	2517.025430
357.058080	2521.532222
357.447408	2515.389576
357.836672	2516.440656
358.225873	2516.034843
358.615010	2518.197498
359.004084	2520.314783
359.393095	2523.752850
359.782043	2522.568179
360.170927	2522.994156
360.559748	2524.826616
360.948505	2524.083046
361.337199	2524.330062
361.725830	2524.390556
362.114398	2527.344672
362.502903	2526.283509
362.891344	2527.344672
363.279722	2528.433561
363.668037	2528.509179
364.056289	2527.644621
364.444478	2529.043541
364.832603	2530.470188
365.220665	2528.284847
365.608665	2526.170083
365.996601	2530.076977
366.384474	2531.309540
366.772284	2531.755682
367.160031	2531.294416
367.547715	2531.554036
367.935336	2531.541433
368.322893	2535.327339
368.710388	2534.125024
369.097820	2536.804397
369.485189	2533.641073
369.872495	2535.155940
370.259738	2534.886238
370.646918	2532.050589
371.034035	2533.716691
371.421090	2537.268183
371.808081	2535.554191
372.195010	2537.724408
372.581875	2535.455889
372.968678	2538.563760
373.355418	2534.525796
373.742096	2538.594007
374.128710	2540.413863
374.515262	2541.684234
374.901751	2543.514173
375.288177	2542.601724
375.674540	2546.128011
376.060841	2548.240255
376.447079	2548.880481
376.833254	2550.133208
377.219367	2549.069525
377.605417	2551.640513
377.991404	2552.268137
378.377329	2557.460525
378.763191	2559.330793
379.148991	2565.838923
379.534727	2568.324212
379.920402	2572.936867
380.306013	2574.240006
380.691563	2579.800398
381.077049	2583.493044
381.462474	2587.105030
381.847835	2590.454877
382.233134	2599.720518
382.618371	2601.532813
383.003545	2609.926334
383.388657	2616.086624
383.773706	2623.794548
384.158693	2630.622791
384.543618	2633.168574
384.928480	2642.091416
385.313280	2648.846562
385.698017	2656.746050
386.082692	2666.062103
386.467305	2671.007474
386.851856	2680.555420
387.236344	2691.721576
387.620770	2696.830785
388.005133	2706.872763
388.389435	2718.921121
388.773674	2723.526215
389.157851	2731.511403
389.541965	2742.347363
389.926018	2748.598394
390.310008	2758.789086
390.693936	2768.480705
391.077802	2778.709206
391.461606	2788.647841
391.845348	2796.663275
392.229027	2806.985038
392.612645	2820.376863
392.996200	2828.412462
393.379694	2842.200018
393.763125	2860.229705
394.146494	2869.339070
394.529801	2877.001623
394.913047	2895.396794
395.296230	2898.159346
395.679351	2901.894841
396.062410	2918.588622
396.445408	2915.780699
396.828343	2925.631114
397.211217	2935.143771
397.594028	2927.990374
397.976778	2943.312961
398.359466	2957.491206
398.742092	2954.625310
399.124656	2968.962352
399.507158	2983.057418
399.889598	2987.670074
400.271977	3004.192456
400.654294	3011.212262
401.036549	3022.569982
401.418742	3027.157432
401.800874	3050.001421
402.182944	3055.783624
402.564952	3087.956268
402.946898	3076.240626
403.328783	3088.538521
403.710606	3102.189966
404.092367	3126.382463
404.474067	3151.414313
404.855705	3141.170688
405.237282	3141.417704
405.618797	3171.697395
406.000250	3192.356043
406.381642	3227.097155
406.762972	3227.487845
407.144240	3219.157338
407.525447	3242.475195
407.906593	3241.277921
408.287677	3263.224584
408.668700	3284.520939
409.049661	3280.485495
409.430560	3297.635500
409.811399	3302.800163
410.192176	3322.027123
410.572891	3329.724965
410.953545	3368.622508
411.334138	3336.820389
411.714669	3388.474572
412.095139	3333.505831
412.475547	3385.560785
412.855894	3373.462016
413.236180	3403.466964
413.616405	3384.129098
413.996568	3410.484250
414.376670	3409.304620
414.756711	3407.169691
415.136691	3436.967952
415.516609	3456.257927
415.896466	3463.320583
416.276262	3488.183554
416.655997	3518.974922
417.035670	3525.946838
417.415283	3594.274637
417.794834	3614.194756
418.174324	3599.852673
418.553753	3600.954166
418.933121	3640.693581
419.312428	3628.849390
419.691674	3629.487096
420.070859	3667.036131
420.449983	3645.228099
420.829045	3697.003270
421.208047	3680.047349
421.586988	3727.328331
421.965867	3755.715068
422.344686	3767.274434
422.723444	3802.945638
423.102141	3709.636401
423.480777	3807.989313
423.859352	3778.722894
424.237866	3877.532030
424.616319	3860.674412
424.994712	3921.190943
425.373044	3910.029828
425.751314	3971.123572
426.129524	3906.952204
426.507673	4006.968696
426.885762	3981.508349
427.263789	4007.407277
427.641756	4012.697968
428.019662	4043.106208
428.397508	4041.616547
428.775292	4081.655911
429.153016	4087.024740
429.530679	4100.696349
429.908282	4109.906537
430.285824	4087.173454
430.663305	4161.291018
431.040726	4117.160758
431.418086	4109.425107
431.795385	4182.022764
432.172624	4217.918300
432.549802	4184.747507
432.926920	4204.287020
433.303977	4197.874672
433.680974	4237.404880
434.057910	4260.594188
434.434786	4264.874127
434.811601	4263.321452
435.188355	4365.266185
435.565050	4337.539839
435.941683	4332.501206
436.318257	4421.535545
436.694770	4427.675670
437.071222	4486.838652
437.447614	4420.224845
437.823946	4422.057304
438.200218	4442.083288
438.576429	4423.831790
438.952580	4451.016212
439.328670	4456.894198
439.704700	4496.174868
440.080670	4460.607008
440.456580	4520.876522
440.832429	4559.479158
441.208218	4461.368222
441.583947	4509.443185
441.959616	4526.636041
442.335224	4551.756110
442.710773	4569.173297
443.086261	4625.445177
443.461689	4583.399433
443.837057	4594.101803
444.212365	4665.451773
444.587612	4668.970499
444.962800	4641.879338
445.337927	4676.438968
445.712995	4567.774377
446.088002	4758.277060
446.462949	4780.339670
446.837837	4799.735509
447.212664	4786.804949
447.587431	5010.241491
447.962139	5304.702849
448.336786	5641.073839
448.711374	5635.515967
449.085901	5282.496566
449.460369	5220.810487
449.834776	5151.424045
450.209124	5383.639756
450.583412	5394.447990
450.957640	5516.955590
451.331808	5381.162029
451.705917	5228.417588
452.079965	5219.731680
452.453954	5258.170478
452.827883	5220.571032
453.201752	5229.367846
453.575562	5257.643678
453.949311	5397.361777
454.323001	5402.012241
454.696632	5395.730964
455.070202	5546.884921
455.443713	5576.705866
455.817164	5668.202808
456.190556	5739.842646
456.563888	5717.560746
456.937160	5791.196880
457.310373	5633.534793
457.683526	5695.790523
458.056619	5684.546229
458.429653	5667.202139
458.802628	5711.213933
459.175542	5743.026134
459.548398	5883.049224
459.921194	6064.699641
460.293930	6125.589217
460.666607	6376.941148
461.039224	6587.333704
461.411782	6721.549384
461.784280	6639.035778
462.156719	6645.024669
462.529099	6607.485717
462.901419	6459.553057
463.273680	6328.656977
463.645882	6318.231871
464.018024	6327.195042
464.390106	6383.928187
464.762130	6642.914946
465.134094	7025.846033
465.505999	7654.336765
465.877845	8359.793314
466.249631	8719.209939
466.621358	8649.856265
466.993026	8460.056823
467.364634	8245.545644
467.736184	7965.809497
468.107674	7808.596073
468.479105	7726.581541
468.850477	7652.526991
469.221790	7482.708162
469.593043	7257.718945
469.964238	7158.937536
470.335373	7138.813250
470.706449	7293.997609
471.077467	7473.986966
471.448425	8125.583827
471.819324	8708.575625
472.190164	8757.505064
472.560945	8275.734594
472.931667	7804.590876
473.302330	7612.432174
473.672934	7487.623287
474.043479	7565.962818
474.413965	7463.161088
474.784393	7420.223060
475.154761	7571.006492
475.525070	7579.825991
475.895321	7533.533075
476.265513	7635.137531
476.635645	7796.157026
477.005719	7784.746374
477.375734	7865.523303
477.745691	7975.659912
478.115588	8179.609873
478.485427	8412.770800
478.855207	8887.899550
479.224928	9320.864089
479.594591	9700.929280
479.964194	9710.668790
480.333739	9804.524992
480.703226	9798.440319
481.072653	9900.569055
481.442022	10012.840592
481.811333	10166.512606
482.180584	10011.545016
482.549777	9948.286097
482.918912	9888.172858
483.287988	9878.198935
483.657005	9776.680179
484.025964	9698.257469
484.394864	9758.940358
484.763706	9715.674655
485.132489	9633.304722
485.501213	9624.404565
485.869879	9685.092496
486.238487	9624.560841
486.607036	9690.957878
486.975527	9632.840936
487.343959	9696.177993
487.712333	9747.950643
488.080648	9787.528742
488.448905	9887.020954
488.817104	9889.135718
489.185244	10053.260564
489.553326	10262.997770
489.921350	10729.392721
490.289315	11363.471572
490.657222	11652.957311
491.025070	11829.493478
491.392861	11744.766805
491.760593	11588.886766
492.128267	11340.917450
492.495883	11094.379821
492.863440	10871.018897
493.230939	10642.750409
493.598380	10460.149735
493.965763	10438.266086
494.333088	10304.483945
494.700354	10239.702598
495.067563	10205.523575
495.434713	10206.730931
495.801805	10253.543086
496.168839	10221.287263
496.535815	10189.895998
496.902733	10227.228263
497.269593	10187.408188
497.636395	10195.433705
498.003139	10300.471187
498.369825	10225.758766
498.736453	10316.275204
499.103023	10260.073900
499.469535	10272.906157
499.835989	10316.295369
500.202385	10289.819229
500.568723	10308.642897
500.935003	10374.036745
501.301226	10341.692702
501.667390	10501.472073
502.033497	10604.717424
502.399546	10533.531291
502.765537	10441.623494
503.131470	10546.741634
503.497345	10635.327310
503.863163	10407.283154
504.228923	10538.970696
504.594625	10656.084261
504.960269	10564.922556
505.325856	10711.733559
505.691385	10590.866854
506.056856	10655.496967
506.422270	10757.436659
506.787625	10697.620848
507.152924	10751.926678
507.518164	10817.386061
507.883347	10686.389158
508.248472	10747.460216
508.613540	10863.888185
508.978550	10939.565986
509.343503	10918.640157
509.708398	10966.248813
510.073236	11091.992834
510.438016	11104.641089
510.802738	11018.943995
511.167403	11151.584314
511.532010	11211.954652
511.896561	11298.773403
512.261053	11504.631441
512.625488	11411.188614
512.989866	11405.290464
513.354186	11383.921013
513.718449	11391.752445
514.082655	11526.850327
514.446803	11476.272430
514.810894	11591.883732
515.174927	11589.907600
515.538904	11572.397152
515.902822	11730.901111
516.266684	11603.158273
516.630488	11708.218439
516.994235	11695.214783
517.357925	11806.324334
517.721558	11865.268026
518.085133	11925.517376
518.448651	11961.576749
518.812112	11912.574213
519.175516	11938.268975
519.538863	12019.096315
519.902152	12016.643793
520.265385	12128.834672
520.628560	12143.985860
520.991678	12094.285124
521.354739	12150.068012
521.717743	12225.612223
522.080690	12194.866226
522.443580	12317.754433
522.806413	12334.289418
523.169189	12333.114829
523.531908	12392.809652
523.894569	12352.966893
524.257174	12367.550951
524.619722	12464.850261
524.982213	12446.669340
525.344647	12434.759614
525.707025	12444.988115
526.069345	12551.522819
526.431608	12535.484388
526.793815	12622.126700
527.155964	12504.670336
527.518057	12538.171323
527.880093	12494.101557
528.242072	12608.545831
528.603995	12527.690765
528.965860	12550.958210
529.327669	12580.496851
529.689421	12524.540043
530.051117	12535.348277
530.412755	12569.403792
530.774337	12579.160945
531.135862	12544.109803
531.497331	12599.186929
531.858743	12560.266701
532.220098	12637.184626
532.581396	12565.683421
532.942638	12493.292451
533.303824	12555.714539
533.664953	12551.192624
534.026025	12494.421670
534.387040	12596.721805
534.747999	12574.475193
535.108902	12614.524640
535.469748	12497.958039
535.830537	12520.436544
536.191270	12563.591342
536.551947	12481.251655
536.912567	12552.132799
537.273131	12581.076584
537.633638	12463.229530
537.994089	12519.647604
538.354483	12431.261053
538.714821	12562.066393
539.075103	12632.556847
539.435328	12575.627097
539.795497	12561.511866
540.155609	12557.015157
540.515665	12655.020228
540.875665	12518.568797
541.235609	12610.209412
541.595496	12569.968401
541.955328	12745.539187
542.315102	12599.207094
542.674821	12524.870239
543.034483	12540.195347
543.394090	12541.052343
543.753640	12512.524453
544.113134	12756.591917
544.472571	12523.909899
544.831953	12789.797997
545.191278	12612.460287
545.550548	12548.873693
545.909761	12664.623627
546.268918	12704.380686
546.628019	12761.262546
546.987064	12656.232626
547.346053	12513.930935
547.704986	12706.858413
548.063863	12591.531937
548.422684	12642.014052
548.781449	12597.150303
549.140158	12694.240405
549.498811	12637.842497
549.857408	12518.866225
550.215949	12715.138509
550.574434	12679.968899
550.932864	12621.796504
551.291237	12815.041575
551.649555	12708.809340
552.007817	12771.657405
552.366022	12685.476359
552.724173	12725.319119
553.082267	12813.095690
553.440305	12898.724729
553.798288	12725.850961
554.156215	12789.558542
554.514086	12841.507633
554.871902	12790.418059
555.229661	12805.690235
555.587365	12750.908016
555.945014	12766.764965
556.302606	12746.166811
556.660143	12811.167448
557.017625	12848.857635
557.375050	12796.265798
557.732421	12899.979976
558.089735	12881.925084
558.446994	12862.244419
558.804197	12977.316317
559.161345	12964.549595
559.518437	12778.130247
559.875474	12868.777754
560.232455	12904.448959
560.589381	12941.110750
560.946251	12891.969583
561.303065	13059.066189
561.659825	13013.625228
562.016528	12919.005291
562.373177	12853.631608
562.729770	12974.629382
563.086307	12855.804345
563.442789	12963.322074
563.799216	13001.715502
564.155587	12935.915841
564.511904	12964.025315
564.868164	12964.968011
565.224370	13024.199048
565.580520	12973.119557
565.936615	13037.419474
566.292654	12959.763020
566.648638	13037.623641
567.004567	13030.621478
567.360441	13024.483873
567.716260	12994.247032
568.072023	13071.616141
568.427732	13044.565310
568.783385	12942.444136
569.138982	13053.180642
569.494525	13049.281309
569.850013	12990.750992
570.205445	12989.609171
570.560823	12997.770799
570.916145	12948.022172
571.271412	12944.190895
571.626625	12909.492633
571.981782	12896.902352
572.336884	12835.677538
572.691931	12911.899784
573.046923	12801.881643
573.401860	12782.984878
573.756743	12771.516253
574.111570	12787.854632
574.466342	12752.150660
574.821059	12812.286584
575.175722	12679.396728
575.530330	12697.973380
575.884882	12618.522275
576.239380	12611.300822
576.593823	12589.812903
576.948211	12574.018968
577.302544	12450.815689
577.656823	12459.788943
578.011047	12510.775173
578.365216	12444.027775
578.719330	12379.183413
579.073389	12346.720903
579.427394	12355.885721
579.781344	12327.695589
580.135239	12254.316553
580.489080	12265.891042
580.842866	12144.421920
581.196597	12222.300185
581.550273	12216.296171
581.903895	12170.315807
582.257463	12255.894434
582.610975	12114.908485
582.964434	12159.084116
583.317837	12084.820358
583.671186	12031.114426
584.024481	12056.030328
584.377721	11952.618619
584.730906	12009.097186
585.084037	12011.678257
585.437113	11916.014801
585.790135	11931.813777
586.143103	11841.919922
586.496016	11845.337824
586.848874	11852.211437
587.201679	11827.729074
587.554428	11695.791995
587.907124	11717.068185
588.259765	11657.229689
588.612352	11707.084180
588.964884	11567.406410
589.317362	11607.549118
589.669786	11584.362331
590.022155	11521.179029
590.374470	11603.516195
590.726731	11488.688792
591.078937	11362.349915
591.431090	11376.951617
591.783188	11299.794237
592.135232	11210.283509
592.487222	11253.400498
592.839157	11249.032338
593.191038	11169.896305
593.542866	11115.454364
593.894639	10961.038781
594.246358	11005.453867
594.598022	10995.026240
594.949633	10892.693338
595.301190	10869.080573
595.652692	10816.138375
596.004141	10884.035156
596.355535	10662.564665
596.706876	10636.834615
597.058162	10594.584705
597.409395	10659.620631
597.760573	10658.072997
598.111698	10557.023068
598.462768	10535.273009
598.813785	10530.307473
599.164748	10396.527853
599.515657	10439.632239
599.866511	10318.279063
600.217312	10413.256922
600.568060	10182.941726
600.918753	10313.981479
601.269392	10285.849320
601.619978	10184.822076
601.970510	10196.021000
602.320988	10227.326565
602.671412	10260.298232
603.021783	10170.134675
603.372100	10099.717317
603.722363	10085.218959
604.072572	10065.535773
604.422728	10063.892357
604.772830	9989.825204
605.122878	9975.732659
605.472872	9921.625955
605.822813	9947.673597
606.172701	9893.851718
606.522534	9907.442668
606.872314	9930.836143
607.222041	9853.525007
607.571714	9886.663032
607.921333	9752.724616
608.270899	9775.210682
608.620411	9797.318662
608.969870	9728.194361
609.319276	9690.811685
609.668627	9678.186115
610.017926	9717.328154
610.367171	9717.116425
610.716362	9685.054687
611.065500	9637.624991
611.414585	9624.696952
611.763616	9647.936671
612.112594	9588.902239
612.461518	9587.694883
612.810389	9595.251572
613.159207	9516.342391
613.507971	9486.395417
613.856682	9534.689671
614.205340	9475.239343
614.553945	9551.590139
614.902496	9430.100852
615.250994	9444.818500
615.599439	9414.135517
615.947830	9404.196883
616.296169	9351.698307
616.644454	9328.140995
616.992686	9307.568046
617.340864	9341.691616
617.688990	9229.352023
618.037063	9285.815467
618.385082	9239.479701
618.733048	9229.548628
619.080961	9198.437147
619.428821	9155.431064
619.776628	9131.445254
620.124382	9058.892968
620.472083	9045.831338
620.819731	9027.317701
621.167326	8950.868602
621.514868	8909.153054
621.862357	8806.762179
622.209793	8771.766489
622.557176	8681.159310
622.904506	8617.764280
623.251783	8533.350159
623.599007	8467.744583
623.946179	8404.692351
624.293297	8360.191565
624.640363	8242.921724
624.987376	8206.327988
625.334336	8131.287892
625.681243	8047.687918
626.028097	7999.728901
626.374899	7944.394675
626.721647	7898.600834
627.068343	7842.127308
627.414987	7770.800022
627.761577	7695.371758
628.108115	7700.372582
628.454600	7588.133813
628.801032	7568.871564
629.147412	7530.125255
629.493739	7486.098338
629.840014	7408.736791
630.186236	7407.715957
630.532405	7315.122564
630.878521	7309.889847
631.224585	7254.157370
631.570597	7171.638723
631.916556	7155.519633
632.262462	7116.412882
632.608316	7077.432160
632.954117	7034.753752
633.299866	6996.446024
633.645562	6956.825075
633.991206	6875.758280
634.336797	6792.354910
634.682336	6756.169508
635.027823	6697.613986
635.373257	6652.785525
635.718639	6587.555515
636.063968	6548.438682
636.409245	6453.934691
636.754470	6427.942502
637.099642	6369.863368
637.444762	6294.941740
637.789829	6270.913080
638.134845	6207.374377
638.479808	6171.793913
638.824719	6134.096165
639.169577	6059.671090
639.514383	6036.025558
639.859137	5977.119675
640.203839	5970.114992
640.548489	5905.348768
640.893086	5883.971755
641.237632	5825.645605
641.582125	5807.104241
641.926566	5772.161483
642.270955	5742.083439
642.615292	5718.316919
642.959576	5680.583882
643.303809	5653.172608
643.647990	5641.381349
643.992118	5606.930104
644.336195	5574.815433
644.680219	5554.466816
645.024192	5548.268717
645.368112	5552.289037
645.711981	5525.197877
646.055797	5562.648609
646.399562	5525.638978
646.743274	5576.683181
647.086935	5586.778092
647.430544	5554.388678
647.774101	5542.098345
648.117606	5533.387231
648.461059	5534.302201
648.804460	5482.874870
649.147810	5405.178086
649.491108	5367.833218
649.834354	5319.123069
650.177548	5241.033076
650.520690	5175.309032
650.863781	5149.639477
651.206820	5123.427998
651.549807	5062.026744
651.892742	5007.395759
652.235626	4970.542404
652.578458	4932.559831
652.921238	4872.202096
653.263967	4863.322103
653.606644	4823.650743
653.949269	4794.301145
654.291843	4748.469495
654.634365	4756.638685
654.976836	4708.069688
655.319255	4683.405843
655.661622	4663.132843
656.003938	4628.820229
656.346203	4599.901650
656.688416	4590.704065
657.030577	4559.017892
657.372687	4526.512532
657.714746	4523.079507
658.056753	4510.998381
658.398708	4457.872182
658.740612	4435.560035
659.082465	4434.645065
659.424266	4403.026948
659.766016	4390.222418
660.107715	4363.935321
660.449362	4357.885936
660.790958	4338.936239
661.132503	4318.519566
661.473996	4303.033141
661.815438	4290.510915
662.156829	4281.895583
662.498168	4252.805605
662.839456	4233.321545
663.180693	4222.447776
663.521879	4215.677507
663.863013	4194.781924
664.204097	4179.013195
664.545129	4180.258360
664.886110	4163.816637
665.227040	4150.006396
665.567918	4135.195486
665.908746	4126.537304
666.249522	4118.849544
666.590248	4102.778346
666.930922	4093.434567
667.271545	4076.985282
667.612118	4066.897933
667.952639	4041.117472
668.293109	4029.043909
668.633528	4004.319570
668.973896	3989.145697
669.314213	3973.865960
669.654480	3951.820994
669.994695	3930.786779
670.334859	3913.299017
670.674973	3892.448804
671.015035	3883.488153
671.355047	3866.968292
671.695008	3850.317361
672.034918	3832.239783
672.374777	3821.066066
672.714585	3805.899755
673.054342	3799.482366
673.394049	3778.344808
673.733705	3778.251546
674.073310	3754.981580
674.412864	3744.158223
674.752368	3714.435580
675.091820	3712.807287
675.431223	3683.596321
675.770574	3660.951458
676.109875	3639.685351
676.449125	3618.325982
676.788324	3602.400977
677.127473	3573.643715
677.466571	3557.877506
677.805619	3537.183569
678.144616	3522.377701
678.483562	3512.567615
678.822458	3488.707834
679.161303	3476.200731
679.500098	3462.314873
679.838842	3447.718212
680.177535	3437.935853
680.516179	3437.320832
680.854771	3428.440840
681.193314	3440.060699
681.531805	3460.734471
681.870247	3476.104949
682.208638	3496.075480
682.546978	3502.381964
682.885268	3495.009276
683.223508	3472.066985
683.561697	3457.193061
683.899836	3440.932819
684.237925	3416.316865
684.575963	3402.897313
684.913951	3387.146228
685.251889	3380.900238
685.589776	3373.416646
685.927614	3363.553628
686.265401	3359.792927
686.603137	3357.166486
686.940824	3362.426930
687.278460	3366.180069
687.616046	3366.721993
687.953582	3382.629354
688.291068	3373.600648
688.628504	3380.464179
688.965889	3373.613251
689.303224	3355.704552
689.640510	3340.765092
689.977745	3313.310968
690.314930	3289.277267
690.652065	3264.003442
690.989150	3234.863053
691.326185	3208.891028
691.663170	3177.605627
692.000105	3154.796927
692.336990	3129.500417
692.673825	3113.590535
693.010610	3096.135540
693.347345	3071.887590
693.684030	3052.297666
694.020665	3037.968186
694.357251	3019.527646
694.693786	3015.562778
695.030272	3004.873011
695.366707	2989.250476
695.703093	2979.009372
696.039429	2975.404947
696.375716	2962.970941
696.711952	2961.083028
697.048139	2952.820577
697.384276	2947.088785
697.720363	2944.391768
698.056400	2940.126952
698.392388	2933.046651
698.728326	2927.458532
699.064214	2921.663726
699.400053	2916.128539
699.735842	2904.518762
700.071581	2896.871331
700.407270	2883.381204
700.742910	2879.010523
701.078501	2866.810931
701.414042	2861.507637
701.749533	2853.124198
702.084974	2842.676407
702.420366	2839.404698
702.755709	2834.141733
703.091002	2823.872903
703.426246	2822.307625
703.761440	2813.508291
704.096584	2807.408495
704.431679	2803.703247
704.766725	2800.827268
705.101721	2797.860549
705.436668	2794.482976
705.771565	2789.353602
706.106413	2790.560958
706.441212	2787.644651
706.775961	2786.528035
707.110661	2783.722633
707.445311	2789.401493
707.779913	2782.510236
708.114465	2785.378652
708.448967	2781.416305
708.783421	2789.527522
709.117825	2791.276802
709.452180	2791.319652
709.786485	2796.189407
710.120742	2805.974286
710.454949	2804.958494
710.789107	2809.563588
711.123216	2816.956440
711.457275	2820.097079
711.791286	2827.096721
712.125247	2831.618636
712.459159	2831.162412
712.793023	2835.795232
713.126837	2823.368788
713.460602	2821.952223
713.794318	2816.399392
714.127985	2809.659370
714.461602	2794.561114
714.795171	2789.293108
715.128691	2773.254677
715.462162	2764.057092
715.795584	2756.039137
716.128957	2749.495719
716.462281	2744.464648
716.795556	2738.921899
717.128782	2730.044427
717.461960	2724.746174
717.795088	2720.935062
718.128167	2719.440360
718.461198	2712.496171
718.794180	2710.809905
719.127113	2705.098277
719.459997	2699.832792
719.792833	2697.037472
720.125619	2692.981864
720.458357	2690.431040
720.791046	2687.000535
721.123686	2685.470545
721.456278	2683.040709
721.788821	2680.994000
722.121315	2679.685821
722.453761	2679.925276
722.786158	2678.475944
723.118506	2676.683814
723.450805	2676.278001
723.783056	2674.586694
724.115259	2674.495953
724.447412	2672.691220
724.779518	2673.013854
725.111574	2674.755572
725.443582	2672.343380
725.775542	2673.732218
726.107453	2679.002744
726.439315	2673.318843
726.771129	2680.447035
727.102895	2679.126253
727.434612	2680.646161
727.766281	2680.144566
728.097901	2678.894360
728.429473	2678.949812
728.760996	2678.329750
729.092471	2676.769513
729.423897	2680.464679
729.755276	2678.672549
730.086606	2676.683814
730.417887	2680.036181
730.749120	2681.523321
731.080305	2681.462827
731.411442	2681.147755
731.742530	2679.779082
732.073570	2680.023578
732.404562	2682.279494
732.735506	2682.418126
733.066401	2680.096675
733.397249	2675.126097
733.728048	2675.277332
734.058798	2665.893224
734.389501	2661.545229
734.720156	2656.307470
735.050762	2653.320586
735.381320	2649.509474
735.711831	2647.984525
736.042293	2644.609472
736.372707	2644.667446
736.703073	2640.115284
737.033391	2643.873464
737.363661	2639.452372
737.693883	2643.384472
738.024056	2646.472179
738.354182	2644.276756
738.684260	2644.299441
739.014290	2645.718526
739.344272	2645.247178
739.674207	2648.276912
740.004093	2650.172386
740.333931	2649.859834
740.663722	2651.611635
740.993464	2650.595842
741.323159	2648.932262
741.652806	2645.421098
741.982405	2645.169040
742.311956	2641.761220
742.641460	2643.346663
742.970915	2639.079327
743.300323	2638.509676
743.629683	2636.828451
743.958996	2634.189407
744.288260	2632.162863
744.617477	2628.087091
744.946647	2626.181534
745.275768	2625.047275
745.604842	2623.063581
745.933869	2620.671553
746.262847	2619.476800
746.591778	2623.963427
746.920662	2618.713065
747.249498	2624.134826
747.578286	2622.670371
747.907027	2623.580299
748.235720	2623.008128
748.564365	2625.014507
748.892963	2624.303705
749.221514	2623.529887
749.550017	2623.071143
749.878473	2622.355299
750.206881	2621.485700
750.535242	2617.775410
750.863555	2619.287757
751.191821	2618.949999
751.520039	2618.062756
751.848210	2616.348764
752.176334	2616.941099
752.504411	2617.016717
752.832440	2618.297170
753.160421	2615.975718
753.488356	2615.769031
753.816243	2615.247272
754.144082	2613.906325
754.471875	2614.544031
754.799620	2614.037395
755.127318	2610.281735
755.454969	2613.054370
755.782572	2612.058742
756.110129	2610.831221
756.437638	2612.862806
756.765100	2609.581015
757.092515	2613.261057
757.419882	2611.839452
757.747203	2611.557147
758.074477	2612.953547
758.401703	2612.346088
758.728882	2610.682507
759.056014	2614.155862
759.383099	2612.817436
759.710138	2611.305089
760.037129	2614.365070
760.364073	2613.165275
760.690970	2614.102930
761.017820	2614.685183
761.344623	2613.356839
761.671379	2612.678804
761.998088	2613.631582
762.324751	2617.911522
762.651366	2626.867131
762.977935	2642.640902
763.304456	2651.021820
763.630931	2658.437357
763.957359	2658.949034
764.283740	2655.518529
764.610074	2645.380769
764.936362	2639.134779
765.262602	2631.124386
765.588796	2625.868983
765.914943	2618.357664
766.241044	2613.694596
766.567097	2611.204266
766.893104	2609.460027
767.219064	2605.427104
767.544978	2604.149172
767.870845	2602.052052
768.196665	2602.170519
768.522438	2600.998450
768.848165	2599.377719
769.173846	2598.341762
769.499479	2595.334714
769.825066	2595.354879
770.150607	2596.121134
770.476101	2596.405959
770.801548	2593.267841
771.126949	2593.280444
771.452303	2593.063674
771.777611	2593.482090
772.102872	2594.230701
772.428087	2592.786411
772.753256	2593.429158
773.078378	2590.681729
773.403453	2590.626276
773.728482	2592.766246
774.053465	2589.721389
774.378401	2589.066039
774.703291	2588.297263
775.028135	2591.241297
775.352932	2587.941862
775.677683	2590.094435
776.002388	2588.786255
776.327046	2591.362285
776.651658	2587.374732
776.976224	2587.422623
777.300743	2588.055288
777.625216	2586.915987
777.949643	2586.580750
778.274024	2586.482448
778.598359	2580.037333
778.922647	2581.370718
779.246889	2584.143352
779.571086	2582.038671
779.895236	2584.995307
780.219339	2585.219639
780.543397	2586.991604
780.867409	2587.833477
781.191374	2585.504464
781.515294	2588.337592
781.839167	2584.486151
782.162995	2582.000862
782.486776	2587.901533
782.810511	2585.650657
783.134201	2585.325503
783.457844	2586.023703
783.781441	2585.000349
784.104993	2584.072776
784.428498	2586.358940
784.751958	2585.138980
785.075372	2586.837849
785.398739	2587.145360
785.722061	2585.963209
786.045337	2585.665781
786.368568	2582.809967
786.691752	2586.540421
787.014891	2588.052767
787.337983	2586.366501
787.661030	2588.367839
787.984031	2592.075608
788.306987	2589.371029
788.629897	2591.127871
788.952760	2594.097111
789.275579	2591.057295
789.598351	2591.453026
789.921078	2592.257090
790.243759	2588.776173
790.566395	2587.450349
790.888984	2586.237952
791.211529	2584.728126
791.534027	2586.724423
791.856480	2586.633682
792.178888	2583.477920
792.501249	2581.630337
792.823566	2582.530183
793.145836	2583.356932
793.468062	2583.172930
793.790241	2582.958681
794.112375	2583.356932
794.434464	2583.467838
794.756507	2582.988928
795.078505	2585.123857
795.400457	2580.722930
795.722364	2582.484813
796.044226	2582.709144
796.366042	2582.867941
796.687812	2581.970615
797.009538	2590.250710
797.331218	2588.836667
797.652852	2587.810792
797.974442	2586.217787
798.295986	2584.932293
798.617484	2585.653178
798.938938	2586.225349
799.260346	2587.478076
799.581709	2583.004052
799.903026	2584.130750
800.224299	2584.821388
800.545526	2584.786100
800.866708	2583.893815
801.187845	2583.278795
801.508936	2583.674525
801.829983	2583.102354
802.150984	2582.434401
802.471940	2584.440781
802.792851	2581.161510
803.113717	2584.145873
803.434538	2578.371231
803.755314	2579.775193
804.076045	2579.744946
804.396731	2583.747622
804.717372	2581.113619
805.037967	2582.749473
805.358518	2579.601273
805.679024	2583.631675
805.999485	2581.668146
806.319901	2582.441963
806.640272	2582.550348
806.960598	2583.135122
807.280879	2581.761407
807.601115	2582.303331
807.921306	2582.351222
808.241453	2580.123032
808.561554	2581.511870
808.881611	2581.262333
809.201623	2582.318455
809.521590	2581.035481
809.841513	2580.934658
810.161390	2582.535224
810.481223	2581.358115
810.801011	2583.293918
811.120755	2581.035481
811.440453	2582.192426
811.760107	2580.816191
812.079716	2580.047415
812.399281	2576.853844
812.718801	2576.344687
813.038276	2575.749831
813.357707	2579.858372
813.677093	2579.933989
813.996434	2578.212435
814.315731	2579.578588
814.634983	2583.762745
814.954191	2578.603124
815.273354	2581.600090
815.592473	2579.467682
815.911547	2580.702765
816.230577	2583.301480
816.549562	2582.686459
816.868502	2580.581777
817.187399	2584.034968
817.506250	2582.804926
817.825058	2586.610997
818.143821	2584.163517
818.462539	2587.440267
818.781213	2587.445308
819.099843	2587.967068
819.418429	2591.687439
819.736970	2594.127358
820.055466	2597.673809
820.373919	2601.855447
820.692327	2604.542382
821.010691	2616.457149
821.329011	2635.573204
821.647286	2678.155831
821.965517	2722.991853
822.283704	2758.988212
822.601847	2780.055194
822.919945	2766.718821
823.237999	2752.054105
823.556010	2735.640108
823.873976	2713.073383
824.191897	2694.010259
824.509775	2679.012827
824.827609	2663.029848
825.145398	2649.612817
825.463144	2642.903042
825.780845	2640.432876
826.098502	2642.635861
826.416116	2647.490492
826.733685	2658.303767
827.051210	2665.920950
827.368692	2662.591268
827.686129	2652.609783
828.003522	2644.916983
828.320872	2628.066926
828.638177	2620.374125
828.955439	2613.893722
829.272656	2606.823504
829.589830	2603.274531
829.906960	2600.403594
830.224046	2596.327821
830.541088	2591.856318
830.858086	2590.606112
831.175041	2590.059147
831.491952	2586.142170
831.808819	2585.940524
832.125642	2588.415730
832.442421	2588.088055
832.759157	2594.709611
833.075849	2599.476022
833.392497	2611.322733
833.709101	2618.340020
834.025662	2619.630555
834.342179	2617.248610
834.658653	2613.533279
834.975083	2606.445417
835.291469	2604.000457
835.607811	2599.171032
835.924110	2594.893613
836.240366	2592.947728
836.556578	2588.042685
836.872746	2584.347519
837.188871	2583.651840
837.504952	2581.988259
837.820990	2580.911973
838.136984	2579.974318
838.452935	2579.807960
838.768842	2579.364339
839.084706	2579.583629
839.400526	2580.647312
839.716303	2584.763414
840.032037	2590.704414
840.347727	2591.042172
840.663373	2591.044692
840.978977	2586.197623
841.294537	2585.595205
841.610054	2581.784092
841.925527	2582.646130
842.240957	2580.112950
842.556344	2577.506673
842.871687	2577.821746
843.186987	2577.267219
843.502244	2575.553226
843.817458	2572.117680
844.132629	2574.582804
844.447756	2575.676735
844.762840	2566.348079
845.077881	2569.125755
845.392879	2567.351269
845.707833	2570.877556
846.022745	2566.837071
846.337613	2572.750345
846.652438	2569.551733
846.967221	2572.551219
847.281960	2570.166753
847.596656	2571.996692
847.911309	2571.522824
848.225919	2571.081723
848.540485	2566.441341
848.855009	2572.820921
849.169490	2569.715570
849.483928	2573.163719
849.798323	2567.968810
850.112675	2570.935529
850.426984	2571.923596
850.741251	2570.658266
851.055474	2570.189439
851.369654	2570.108780
851.683792	2571.732032
851.997887	2569.282031
852.311938	2571.505180
852.625947	2570.023081
852.939914	2568.704819
853.253837	2573.614903
853.567718	2571.416960
853.881555	2573.319995
854.195350	2571.721949
854.509103	2572.127762
854.822812	2571.205231
855.136479	2571.732032
855.450103	2570.615416
855.763685	2572.432752
856.077224	2570.776733
856.390720	2570.864953
856.704173	2570.965776
857.017584	2570.504511
857.330953	2573.115828
857.644278	2567.613409
857.957561	2574.623133
858.270802	2571.578277
858.584000	2573.337639
858.897155	2572.682289
859.210268	2572.364697
859.523339	2573.695561
859.836367	2570.421332
860.149352	2570.592731
860.462295	2573.733370
860.775195	2567.381516
861.088054	2568.939233
861.400869	2566.244736
861.713642	2564.714746
862.026373	2566.280024
862.339062	2568.997206
862.651708	2569.977710
862.964312	2570.194480
863.276873	2571.868143
863.589392	2572.989800
863.901869	2570.580128
864.214303	2570.355797
864.526696	2571.986610
864.839045	2573.922413
865.151353	2572.359655
865.463619	2572.689851
865.775842	2571.613565
866.088023	2572.011816
866.400162	2572.253791
866.712258	2572.820921
867.024313	2570.738924
867.336325	2572.316806
867.648296	2570.726322
867.960224	2572.299162
868.272110	2573.199007
868.583954	2572.223544
868.895755	2572.815880
869.207515	2572.616754
869.519233	2575.081878
869.830909	2573.894687
870.142542	2574.464337
870.454134	2573.844275
870.765684	2573.365366
871.077191	2573.166240
871.388657	2575.601117
871.700081	2571.558112
872.011463	2572.352094
872.322803	2571.878225
872.634101	2574.900397
872.945357	2572.475602
873.256571	2575.275963
873.567744	2575.028946
873.878874	2578.028433
874.189963	2575.583473
874.501010	2577.352918
874.812015	2575.563309
875.122979	2576.377455
875.433900	2575.540623
875.744780	2574.812177
876.055618	2576.274111
876.366415	2577.032805
876.677169	2575.137331
876.987882	2573.995510
877.298554	2569.856723
877.609183	2573.766137
877.919771	2573.385530
878.230317	2572.352094
878.540822	2582.031109
878.851285	2579.858372
879.161707	2580.705286
879.472087	2586.021182
879.782425	2588.856831
880.092722	2598.961824
880.402977	2608.174533
880.713191	2624.240690
881.023363	2642.517393
881.333494	2653.502068
881.643583	2661.618325
881.953631	2668.290293
882.263637	2661.363747
882.573602	2659.632111
882.883526	2653.454177
883.193408	2648.647437
883.503248	2644.037301
883.813048	2637.088071
884.122806	2629.226391
884.432522	2623.910495
884.742197	2617.659464
885.051831	2611.499174
885.361424	2606.374841
885.670975	2599.526433
885.980485	2599.314705
886.289954	2593.484611
886.599382	2589.232397
886.908768	2589.860021
887.218113	2584.748291
887.527417	2586.127047
887.836680	2580.712847
888.145901	2581.436253
888.455082	2580.332240
888.764221	2579.787796
889.073319	2578.043556
889.382376	2577.844431
889.691392	2578.474575
890.000366	2577.988104
890.309300	2577.831828
890.618193	2578.245202
890.927044	2575.714543
891.235855	2577.645305
891.544625	2577.501632
891.853353	2577.055490
892.162041	2578.295614
892.470687	2579.684452
892.779293	2580.218814
893.087858	2576.684965
893.396381	2579.064390
893.704864	2582.147056
894.013306	2587.145360
894.321707	2595.765733
894.630068	2601.313522
894.938387	2600.388471
895.246665	2604.111363
895.554903	2600.839654
895.863100	2599.788573
896.171256	2596.685743
896.479371	2594.271031
896.787446	2593.719024
897.095480	2588.897161
897.403473	2590.958993
897.711425	2587.336923
898.019336	2586.101841
898.327207	2584.793661
898.635038	2581.574885
898.942827	2581.695872
899.250576	2580.889288
899.558284	2579.308886
899.865952	2578.719071
900.173579	2577.390727
900.481165	2576.954667
900.788711	2575.253278
901.096216	2574.507187
901.403681	2576.185891
901.711105	2576.785788
902.018489	2574.812177
902.325832	2578.338464
902.633135	2575.172619
902.940397	2574.905438
903.247619	2578.091447
903.554800	2582.694021
903.861941	2592.236925
904.169041	2603.498863
904.476101	2609.467589
904.783121	2607.685541
905.090100	2606.402567
905.397039	2604.123966
905.703938	2596.587441
906.010796	2594.850763
906.317614	2595.349837
906.624391	2593.247676
906.931129	2585.532190
907.237826	2584.564289
907.544483	2585.796851
907.851099	2583.480441
908.157675	2582.147056
908.464211	2577.274780
908.770707	2572.437793
909.077163	2571.149778
909.383578	2569.249263
909.689954	2566.060734
909.996289	2568.956877
910.302584	2572.057186
910.608839	2572.314285
910.915054	2571.482495
911.221229	2568.997206
911.527363	2571.520303
911.833458	2569.793708
912.139513	2573.176322
912.445527	2573.904769
912.751502	2569.327401
913.057436	2573.113308
913.363331	2572.654563
913.669186	2572.094995
913.975000	2575.482650
914.280775	2575.757393
914.586510	2580.591860
914.892205	2581.819381
915.197859	2588.876996
915.503475	2593.645927
915.809050	2599.564242
916.114585	2606.367279
916.420081	2606.412650
916.725536	2609.477671
917.030952	2608.802157
917.336328	2604.681013
917.641665	2604.703698
917.946961	2602.515838
918.252218	2600.466609
918.557435	2596.642893
918.862612	2596.617688
919.167750	2593.875300
919.472848	2588.574527
919.777906	2588.811461
920.082925	2586.353898
920.387904	2581.700913
920.692843	2581.458938
920.997743	2578.320820
921.302603	2577.892322
921.607423	2575.933833
921.912204	2577.141190
922.216946	2578.618248
922.521647	2576.629513
922.826310	2575.336457
923.130932	2574.590366
923.435516	2571.117011
923.740059	2573.503997
924.044564	2573.990469
924.349028	2571.457289
924.653454	2566.738769
924.957840	2567.131979
925.262186	2568.840930
925.566493	2566.869839
925.870761	2566.852195
926.174989	2567.245405
926.479178	2571.137176
926.783328	2569.834037
927.087438	2568.122566
927.391509	2568.364541
927.695541	2567.971331
927.999533	2567.638615
928.303486	2565.881773
928.607400	2567.126938
928.911275	2567.918399
929.215110	2567.434448
929.518906	2568.956877
929.822663	2568.336815
930.126381	2565.349931
930.430060	2566.428738
930.733699	2568.321691
931.037299	2568.863615
931.340861	2568.830848
931.644383	2567.522668
931.947866	2568.407391
932.251309	2566.244736
932.554714	2566.050651
932.858080	2567.764644
933.161407	2565.843964
933.464694	2567.452092
933.767943	2567.121897
934.071153	2564.107287
934.374323	2565.793552
934.677455	2565.886814
934.980548	2566.025446
935.283602	2565.470919
935.586617	2566.963100
935.889593	2566.955538
936.192530	2567.701629
936.495428	2565.745662
936.798287	2566.060734
937.101108	2567.840261
937.403890	2569.042576
937.706632	2566.355641
938.009336	2568.208265
938.312002	2568.183059
938.614628	2566.166598
938.917216	2566.879921
939.219765	2570.297823
939.522275	2571.364027
939.824747	2572.412587
940.127179	2564.182904
940.429573	2565.370096
940.731929	2565.884293
941.034246	2562.448747
941.336524	2565.851526
941.638763	2569.796229
941.940964	2567.252967
942.243126	2570.305385
942.545250	2568.389747
942.847335	2569.221537
943.149381	2570.154151
943.451389	2569.075344
943.753359	2569.080385
944.055290	2569.345045
944.357182	2569.100549
944.659036	2568.165415
944.960851	2568.929150
945.262628	2565.697771
945.564367	2565.259190
945.866067	2564.629046
946.167729	2569.798749
946.469352	2569.322360
946.770937	2566.758933
947.072484	2566.642987
947.373992	2565.150805
947.675462	2567.484860
947.976893	2570.628019
948.278286	2567.409242
948.579641	2565.176011
948.880958	2565.712894
949.182236	2566.501835
949.483476	2566.368244
949.784678	2566.935374
950.085841	2565.564180
950.386967	2568.493090
950.688054	2568.596434
950.989103	2566.653069
951.290114	2566.116186
951.591087	2566.544684
951.892021	2564.505538
952.192917	2566.998388
952.493776	2564.485373
952.794596	2568.939233
953.095378	2565.357493
953.396122	2569.231619
953.696828	2568.735066
953.997496	2569.145920
954.298126	2566.708522
954.598718	2565.062585
954.899272	2566.824468
955.199788	2567.878070
955.500266	2567.626012
955.800706	2565.841443
956.101108	2561.634601
956.401472	2562.239539
956.701798	2562.005125
957.002087	2563.419169
957.302337	2565.722976
957.602550	2566.537123
957.902724	2564.699622
958.202861	2566.446382
958.502960	2567.701629
958.803022	2564.450085
959.103045	2563.741803
959.403031	2562.647873
959.702979	2560.626370
960.002889	2565.481001
960.302762	2564.558470
960.602596	2564.351782
960.902393	2562.098387
961.202153	2562.915054
961.501875	2562.783984
961.801559	2563.507389
962.101205	2563.328428
962.400814	2563.966134
962.700385	2562.899930
962.999918	2563.333469
963.299414	2561.808520
963.598873	2561.001936
963.898293	2564.208110
964.197677	2563.456978
964.497022	2558.410783
964.796331	2564.508058
965.095601	2561.344734
965.394835	2562.047975
965.694030	2561.775753
965.993189	2563.338511
966.292309	2563.414128
966.591393	2562.368088
966.890439	2559.887841
967.189447	2562.554611
967.488419	2561.334652
967.787353	2560.079405
968.086249	2563.386402
968.385108	2561.553942
968.683930	2560.361709
968.982714	2563.741803
969.281462	2563.736762
969.580172	2560.724672
969.878844	2564.414797
970.177480	2562.693243
970.476078	2559.668551
970.774639	2562.322718
971.073162	2560.966648
971.371649	2557.586554
971.670098	2557.654610
971.968510	2560.238201
972.266885	2556.575803
972.565223	2561.175856
972.863524	2560.528067
973.161788	2560.394477
973.460014	2564.089642
973.758204	2562.058058
974.056356	2562.231977
974.354471	2563.058727
974.652550	2562.352965
974.950591	2560.480176
975.248595	2563.315825
975.546563	2560.515464
975.844493	2561.374981
976.142386	2560.487738
976.440243	2559.688715
976.738062	2562.337842
977.035845	2561.160732
977.333590	2561.793397
977.631299	2563.303222
977.928971	2561.536298
978.226606	2560.880948
978.524204	2562.007646
978.821765	2559.340876
979.119290	2561.695094
979.416777	2558.856925
979.714228	2563.827503
980.011642	2561.813562
980.309020	2563.525033
980.606360	2560.974209
980.903664	2562.163922
981.200931	2564.926474
981.498162	2562.078222
981.795356	2561.995043
982.092513	2564.689540
982.389633	2563.550239
982.686717	2566.890003
982.983764	2566.819427
983.280775	2568.004098
983.577749	2566.680796
983.874686	2569.060220
984.171587	2567.230281
984.468451	2565.188614
984.765279	2565.750703
985.062070	2565.120558
985.358824	2564.739951
985.655543	2564.392112
985.952224	2562.841957
986.248869	2562.705846
986.545478	2558.312480
986.842050	2561.722821
987.138586	2560.608726
987.435086	2556.104455
987.731549	2555.048333
988.027975	2561.349775
988.324366	2559.502193
988.620719	2562.473953
988.917037	2558.390618
989.213318	2560.709549
989.509563	2559.880279
989.805772	2559.532439
990.101944	2562.355486
990.398080	2559.325752
990.694180	2561.075032
990.990244	2561.611915
991.286271	2559.371123
991.582262	2560.782646
991.878217	2560.200392
992.174136	2563.499828
992.470019	2557.982285
992.765865	2561.427913
993.061676	2558.158725
993.357450	2561.107800
993.653188	2558.688046
993.948890	2556.595967
994.244556	2559.303067
994.540186	2561.838767
994.835780	2560.850701
995.131337	2563.315825
995.426859	2560.865825
995.722345	2560.112172
996.017795	2562.239539
996.313208	2563.767009
996.608586	2561.735424
996.903928	2559.439178
997.199234	2562.156360
997.494504	2563.726679
997.789738	2564.525702
998.084936	2564.979406
998.380099	2564.137533
998.675225	2562.801628
998.970316	2562.466391
999.265371	2561.024621
999.560390	2560.167625
999.855373	2561.178376
1000.150320	2561.347255
1000.445232	2560.891030
1000.740108	2558.677964
1001.034948	2560.845660
1001.329752	2560.482697
1001.624521	2561.198541
1001.919254	2554.478683
1002.213951	2555.050854
1002.508613	2554.738302
1002.803239	2557.631924
1003.097829	2552.981460
1003.392384	2558.982954
1003.686903	2556.911039
1003.981386	2561.858932
1004.275834	2559.303067
1004.570246	2557.205947
1004.864623	2558.337686
1005.158964	2558.899775
1005.453270	2559.613098
1005.747540	2559.003118
1006.041775	2557.485731
1006.335974	2558.372974
1006.630138	2558.355330
1006.924266	2559.708880
1007.218359	2558.662840
1007.512416	2554.541697
1007.806438	2557.110165
1008.100425	2558.748540
1008.394376	2559.045968
1008.688292	2560.596123
1008.982172	2555.393652
1009.276017	2556.820299
1009.569827	2556.013714
1009.863602	2559.776935
1010.157341	2557.110165
1010.451045	2557.216029
1010.744714	2557.092521
1011.038347	2558.786349
1011.331945	2556.976574
1011.625508	2558.748540
1011.919036	2557.082439
1012.212528	2555.844835
1012.505986	2556.578323
1012.799408	2557.150494
1013.092795	2558.831719
1013.386147	2556.984136
1013.679464	2556.709393
1013.972745	2557.324414
1014.265992	2557.843653
1014.559204	2556.777449
1014.852380	2558.801472
1015.145521	2555.686039
1015.438628	2556.563200
1015.731699	2557.586554
1016.024736	2555.895247
1016.317737	2558.418344
1016.610703	2558.231822
1016.903635	2554.551779
1017.196531	2555.020607
1017.489393	2553.906512
1017.782219	2554.662685
1018.075011	2554.728220
1018.367768	2554.680329
1018.660490	2557.747871
1018.953177	2557.747871
1019.245829	2557.747871
