Dividing Wavelength (nm)	Counts (n)	Blue Motor Position (mm): 0.000000	Red Motor Position (mm): 2.500000	
326.493990	2148.799389
326.888308	2148.799389
327.282561	2148.799389
327.676750	2123.979268
328.070874	2126.577983
328.464933	2130.774743
328.858929	2140.554582
329.252859	2151.070428
329.646726	2165.021822
330.040528	2182.859945
330.434265	2199.891483
330.827938	2216.842363
331.221547	2238.670559
331.615091	2257.421131
332.008571	2278.881323
332.401986	2298.652728
332.795338	2318.698876
333.188625	2339.160920
333.581847	2356.197499
333.975006	2376.392361
334.368100	2394.268293
334.761129	2411.745973
335.154095	2430.960331
335.546996	2444.636982
335.939833	2459.031996
336.332606	2472.910293
336.725315	2483.025368
337.117960	2490.995432
337.510540	2499.888028
337.903056	2510.018226
338.295508	2517.277488
338.687896	2519.452746
339.080220	2534.462781
339.472480	2537.638708
339.864676	2539.934954
340.256807	2545.439894
340.648875	2546.768238
341.040879	2545.714637
341.432818	2549.792930
341.824694	2550.493651
342.216506	2549.210677
342.608253	2549.722354
342.999937	2548.396531
343.391557	2547.476520
343.783113	2544.298073
344.174605	2545.462579
344.566033	2540.267670
344.957397	2544.393854
345.348697	2537.913451
345.739934	2537.815149
346.131106	2537.074099
346.522215	2532.723583
346.913260	2531.760723
347.304241	2531.440610
347.695159	2532.191742
348.086012	2529.963552
348.476802	2526.182686
348.867528	2526.407018
349.258191	2523.268899
349.648789	2522.116996
350.039324	2522.268230
350.429796	2525.270237
350.820203	2518.991480
351.210548	2517.496778
351.600828	2517.950482
351.991045	2519.140194
352.381198	2517.345543
352.771288	2518.358815
353.161314	2520.823940
353.551276	2516.821263
353.941175	2517.312776
354.331010	2516.430574
354.720782	2518.373939
355.110490	2518.905781
355.500135	2518.691532
355.889717	2515.815553
356.279235	2519.520801
356.668689	2517.887468
357.058080	2519.926614
357.447408	2517.625327
357.836672	2514.456962
358.225873	2517.186747
358.615010	2515.540810
359.004084	2521.514578
359.393095	2521.675895
359.782043	2520.776049
360.170927	2523.258817
360.559748	2521.018024
360.948505	2527.866432
361.337199	2522.013652
361.725830	2524.090607
362.114398	2524.428365
362.502903	2524.753519
362.891344	2526.230577
363.279722	2523.546163
363.668037	2525.340813
364.056289	2525.469363
364.444478	2527.258973
364.832603	2528.647810
365.220665	2530.606299
365.608665	2527.546318
365.996601	2528.703263
366.384474	2527.011956
366.772284	2529.955990
367.160031	2527.642100
367.547715	2530.704601
367.935336	2531.972451
368.322893	2532.486649
368.710388	2530.749972
369.097820	2534.573687
369.485189	2531.604447
369.872495	2533.285672
370.259738	2530.913809
370.646918	2532.302647
371.034035	2532.300126
371.421090	2531.135620
371.808081	2534.233409
372.195010	2534.861033
372.581875	2534.268697
372.968678	2533.777184
373.355418	2535.670138
373.742096	2536.668286
374.128710	2532.221988
374.515262	2536.733821
374.901751	2533.976310
375.288177	2537.570653
375.674540	2536.872453
376.060841	2539.045190
376.447079	2538.084850
376.833254	2540.565098
377.219367	2535.110570
377.605417	2540.252547
377.991404	2538.457896
378.377329	2536.839685
378.763191	2538.352032
379.148991	2545.412168
379.534727	2541.142310
379.920402	2544.824873
380.306013	2544.603062
380.691563	2546.191026
381.077049	2545.810419
381.462474	2548.603218
381.847835	2548.300749
382.233134	2549.220759
382.618371	2549.858465
383.003545	2549.578681
383.388657	2550.652447
383.773706	2553.692263
384.158693	2551.809392
384.543618	2554.355174
384.928480	2556.716955
385.313280	2557.626883
385.698017	2556.386759
386.082692	2558.370453
386.467305	2557.331976
386.851856	2558.254507
387.236344	2558.320042
387.620770	2560.056719
388.005133	2558.438509
388.389435	2559.040927
388.773674	2559.930691
389.157851	2558.352809
389.541965	2558.670402
389.926018	2559.098900
390.310008	2560.051678
390.693936	2557.611760
391.077802	2557.982285
391.461606	2553.967006
391.845348	2557.367264
392.229027	2559.794579
392.612645	2557.808365
392.996200	2558.161246
393.379694	2555.360885
393.763125	2555.164280
394.146494	2556.767367
394.529801	2556.162428
394.913047	2553.311656
395.296230	2553.029351
395.679351	2550.818805
396.062410	2551.708569
396.445408	2550.967519
396.828343	2551.378373
397.211217	2548.056253
397.594028	2546.937117
397.976778	2548.764535
398.359466	2547.083310
398.742092	2546.160779
399.124656	2549.588763
399.507158	2548.507436
399.889598	2551.660678
400.271977	2551.118754
400.654294	2549.208156
401.036549	2549.225800
401.418742	2551.078424
401.800874	2550.670091
402.182944	2551.234700
402.564952	2549.399720
402.946898	2552.285781
403.328783	2545.845707
403.710606	2549.752601
404.092367	2550.208825
404.474067	2549.860986
404.855705	2550.833928
405.237282	2548.394010
405.618797	2551.108671
406.000250	2549.419885
406.381642	2551.587581
406.762972	2548.439380
407.144240	2552.069011
407.525447	2551.385935
407.906593	2551.285112
408.287677	2551.887530
408.668700	2551.330482
409.049661	2553.974567
409.430560	2553.198230
409.811399	2554.448436
410.192176	2552.779814
410.572891	2552.605894
410.953545	2552.189999
411.334138	2554.839125
411.714669	2552.114382
412.095139	2552.074052
412.475547	2553.031872
412.855894	2553.185627
413.236180	2551.769063
413.616405	2553.530946
413.996568	2553.856100
414.376670	2555.071018
414.756711	2553.982129
415.136691	2553.220915
415.516609	2554.627397
415.896466	2557.019424
416.276262	2556.190154
416.655997	2553.687222
417.035670	2553.566234
417.415283	2554.491286
417.794834	2548.101623
418.174324	2552.353836
418.553753	2557.357182
418.933121	2553.145298
419.312428	2556.132181
419.691674	2555.963303
420.070859	2555.312994
420.449983	2556.444733
420.829045	2556.381718
421.208047	2554.899619
421.586988	2558.499003
421.965867	2556.525391
422.344686	2555.915412
422.723444	2556.500185
423.102141	2557.677295
423.480777	2557.180741
423.859352	2555.285267
424.237866	2558.977912
424.616319	2560.437327
424.994712	2558.867007
425.373044	2558.128478
425.751314	2558.289795
426.129524	2555.451625
426.507673	2556.900957
426.885762	2561.407749
427.263789	2560.092007
427.641756	2560.298695
428.019662	2559.144271
428.397508	2557.614280
428.775292	2559.494631
429.153016	2558.451112
429.530679	2561.450598
429.908282	2560.107131
430.285824	2561.770712
430.663305	2559.366081
431.040726	2561.800959
431.418086	2559.340876
431.795385	2561.364899
432.172624	2559.565207
432.549802	2559.681153
432.926920	2561.556463
433.303977	2560.218036
433.680974	2558.453632
434.057910	2561.869014
434.434786	2559.300546
434.811601	2561.044786
435.188355	2560.777604
435.565050	2560.001267
435.941683	2562.393294
436.318257	2559.968499
436.694770	2558.206616
437.071222	2557.087480
437.447614	2558.660320
437.823946	2556.580844
438.200218	2560.903633
438.576429	2564.271124
438.952580	2561.695094
439.328670	2560.523026
439.704700	2563.320867
440.080670	2562.985630
440.456580	2562.763819
440.832429	2562.098387
441.208218	2558.738458
441.583947	2562.113510
441.959616	2561.664848
442.335224	2562.342883
442.710773	2563.482183
443.086261	2561.869014
443.461689	2564.382029
443.837057	2564.641649
444.212365	2563.414128
444.587612	2564.387071
444.962800	2565.579303
445.337927	2565.617112
445.712995	2565.289437
446.088002	2565.133161
446.462949	2565.241546
446.837837	2564.984447
447.212664	2564.936556
447.587431	2564.775239
447.962139	2563.882955
448.336786	2564.651731
448.711374	2561.332131
449.085901	2568.223389
449.460369	2563.177194
449.834776	2564.823130
450.209124	2565.191135
450.583412	2564.384550
450.957640	2565.027297
451.331808	2564.714746
451.705917	2562.955383
452.079965	2564.702143
452.453954	2567.028635
452.827883	2565.710373
453.201752	2567.106773
453.575562	2566.592575
453.949311	2565.498645
454.323001	2565.748182
454.696632	2566.645508
455.070202	2566.716084
455.443713	2568.972000
455.817164	2562.224416
456.190556	2561.937070
456.563888	2564.129972
456.937160	2563.149467
457.310373	2568.004098
457.683526	2563.625856
458.056619	2568.097360
458.429653	2566.242215
458.802628	2565.581824
459.175542	2568.021742
459.548398	2565.687688
459.921194	2569.135837
460.293930	2567.477298
460.666607	2566.663152
461.039224	2565.954869
461.411782	2565.347410
461.784280	2566.015363
462.156719	2564.182904
462.529099	2567.290775
462.901419	2567.946125
463.273680	2565.823799
463.645882	2568.566187
464.018024	2568.921588
464.390106	2565.503686
464.762130	2568.818245
465.134094	2570.749007
465.505999	2567.578121
465.877845	2568.039387
466.249631	2568.046948
466.621358	2568.147771
466.993026	2572.747824
467.364634	2573.367886
467.736184	2569.304716
468.107674	2568.533420
468.479105	2570.247412
468.850477	2568.450241
469.221790	2569.224058
469.593043	2568.414953
469.964238	2568.596434
470.335373	2570.950653
470.706449	2570.007957
471.077467	2570.575087
471.448425	2570.562484
471.819324	2569.279510
472.190164	2570.436455
472.560945	2567.240364
472.931667	2568.780436
473.302330	2570.905282
473.672934	2570.754048
474.043479	2569.650035
474.413965	2568.578790
474.784393	2568.745148
475.154761	2566.769016
475.525070	2565.198696
475.895321	2567.351269
476.265513	2565.629715
476.635645	2569.713050
477.005719	2568.314129
477.375734	2573.241857
477.745691	2572.009295
478.115588	2572.243709
478.485427	2570.290262
478.855207	2570.655745
479.224928	2571.525344
479.594591	2569.662638
479.964194	2569.841599
480.333739	2569.735735
480.703226	2570.832186
481.072653	2570.252453
481.442022	2570.549881
481.811333	2569.077864
482.180584	2571.404357
482.549777	2571.505180
482.918912	2569.665159
483.287988	2572.402505
483.657005	2570.849830
484.025964	2570.522155
484.394864	2572.616754
484.763706	2569.423183
485.132489	2572.546178
485.501213	2571.366548
485.869879	2571.369069
486.238487	2570.915365
486.607036	2572.231106
486.975527	2574.217321
487.343959	2568.364541
487.712333	2571.167423
488.080648	2571.096846
488.448905	2572.465520
488.817104	2570.383523
489.185244	2571.046435
489.553326	2570.068451
489.921350	2569.758420
490.289315	2574.681107
490.657222	2573.118349
491.025070	2570.895200
491.392861	2569.440827
491.760593	2574.159347
492.128267	2572.500808
492.495883	2572.447876
492.863440	2571.951322
493.230939	2571.429562
493.598380	2573.781261
493.965763	2568.024263
494.333088	2569.821434
494.700354	2568.661969
495.067563	2568.225909
495.434713	2568.331773
495.801805	2573.151117
496.168839	2573.256981
496.535815	2572.911662
496.902733	2569.599624
497.269593	2571.517783
497.636395	2576.011971
498.003139	2572.178174
498.369825	2572.016857
498.736453	2571.825293
499.103023	2571.656414
499.469535	2573.284707
499.835989	2570.854871
500.202385	2574.494584
500.568723	2571.046435
500.935003	2573.509038
501.301226	2570.743966
501.667390	2572.251271
502.033497	2574.537434
502.399546	2573.236816
502.765537	2573.078020
503.131470	2573.398133
503.497345	2572.362176
503.863163	2578.688824
504.228923	2571.674058
504.594625	2572.039542
504.960269	2572.614234
505.325856	2572.717577
505.691385	2575.313772
506.056856	2572.634398
506.422270	2573.226734
506.787625	2573.178843
507.152924	2573.435942
507.518164	2571.500139
507.883347	2572.785633
508.248472	2571.885787
508.613540	2574.749162
508.978550	2575.311251
509.343503	2571.895869
509.708398	2573.408215
510.073236	2572.868812
510.438016	2573.491394
510.802738	2574.527352
511.167403	2574.557598
511.532010	2571.631209
511.896561	2574.275294
512.261053	2575.953998
512.625488	2568.689695
512.989866	2567.973852
513.354186	2570.847309
513.718449	2571.237999
514.082655	2571.144737
514.446803	2572.344532
514.810894	2572.694892
515.174927	2573.020047
515.538904	2574.983576
515.902822	2574.018195
516.266684	2570.451579
516.630488	2572.710016
516.994235	2574.618092
517.357925	2574.492063
517.721558	2574.512228
518.085133	2574.741601
518.448651	2576.637074
518.812112	2573.408215
519.175516	2571.255643
519.538863	2575.006261
519.902152	2574.986097
520.265385	2572.485684
520.628560	2575.099523
520.991678	2572.904100
521.354739	2575.313772
521.717743	2572.538616
522.080690	2577.199163
522.443580	2574.350911
522.806413	2573.272104
523.169189	2572.561302
523.531908	2574.378637
523.894569	2574.983576
524.257174	2573.254460
524.619722	2575.243195
524.982213	2574.965932
525.344647	2577.156313
525.707025	2576.006930
526.069345	2574.897876
526.431608	2576.319482
526.793815	2572.621795
527.155964	2576.132959
527.518057	2572.992320
527.880093	2576.311920
528.242072	2573.120870
528.603995	2575.971642
528.965860	2573.856878
529.327669	2575.646488
529.689421	2576.074986
530.051117	2575.071796
530.412755	2573.251940
530.774337	2578.053639
531.135862	2574.315623
531.497331	2573.834193
531.858743	2573.078020
532.220098	2573.466189
532.581396	2570.834706
532.942638	2569.549212
533.303824	2575.278483
533.664953	2576.430387
534.026025	2574.887794
534.387040	2573.816549
534.747999	2573.935016
535.108902	2573.135993
535.469748	2574.290417
535.830537	2577.501632
536.191270	2576.132959
536.551947	2575.903587
536.912567	2574.663463
537.273131	2576.982393
537.633638	2574.534913
537.994089	2576.069945
538.354483	2574.320664
538.714821	2575.628844
539.075103	2577.047928
539.435328	2574.681107
539.795497	2574.557598
540.155609	2576.001889
540.515665	2577.032805
540.875665	2576.488360
541.235609	2573.410736
541.595496	2576.886612
541.955328	2576.563978
542.315102	2578.172106
542.674821	2573.176322
543.034483	2575.396951
543.394090	2574.900397
543.753640	2576.914338
544.113134	2575.865778
544.472571	2574.411405
544.831953	2574.159347
545.191278	2576.037177
545.550548	2572.931826
545.909761	2576.851323
546.268918	2573.942578
546.628019	2576.337126
546.987064	2573.781261
547.346053	2576.591704
547.704986	2573.647670
548.063863	2575.185222
548.422684	2575.916189
548.781449	2577.189081
549.140158	2576.589183
549.498811	2576.266550
549.857408	2575.596076
550.215949	2571.192628
550.574434	2573.685479
550.932864	2572.347052
551.291237	2570.030642
551.649555	2577.620099
552.007817	2576.851323
552.366022	2576.846282
552.724173	2575.149934
553.082267	2574.497105
553.440305	2574.847465
553.798288	2577.718402
554.156215	2573.985428
554.514086	2578.925758
554.871902	2576.745459
555.229661	2575.739749
555.587365	2576.621951
555.945014	2576.284194
556.302606	2574.093812
556.660143	2577.418453
557.017625	2575.840572
557.375050	2575.356621
557.732421	2575.822928
558.089735	2575.825449
558.446994	2577.209245
558.804197	2575.679255
559.161345	2577.131107
559.518437	2574.635736
559.875474	2575.427197
560.232455	2577.360480
560.589381	2574.487022
560.946251	2577.229410
561.303065	2575.991807
561.659825	2575.643967
562.016528	2578.028433
562.373177	2574.290417
562.729770	2577.385686
563.086307	2576.967270
563.442789	2576.180850
563.799216	2574.202197
564.155587	2574.237485
564.511904	2574.426528
564.868164	2573.524162
565.224370	2577.196642
565.580520	2575.593556
565.936615	2576.810994
566.292654	2577.156313
566.648638	2574.020716
567.004567	2575.752352
567.360441	2573.496436
567.716260	2575.328895
568.072023	2574.237485
568.427732	2572.533575
568.783385	2574.605489
569.138982	2573.597259
569.494525	2573.168761
569.850013	2569.428224
570.205445	2576.511046
570.560823	2574.902917
570.916145	2576.485840
571.271412	2576.533731
571.626625	2574.534913
571.981782	2577.534400
572.336884	2575.228072
572.691931	2575.926272
573.046923	2576.931982
573.401860	2575.623802
573.756743	2573.720767
574.111570	2575.848134
574.466342	2577.108422
574.821059	2575.495253
575.175722	2574.769327
575.530330	2574.207238
575.884882	2574.726477
576.239380	2575.485171
576.593823	2580.503639
576.948211	2576.190932
577.302544	2575.646488
577.656823	2577.113463
578.011047	2576.140521
578.365216	2578.111612
578.719330	2576.513566
579.073389	2575.039029
579.427394	2572.636919
579.781344	2577.788978
580.135239	2576.160685
580.489080	2576.392578
580.842866	2576.228741
581.196597	2576.773186
581.550273	2575.094481
581.903895	2576.372414
582.257463	2577.363001
582.610975	2575.782599
582.964434	2576.266550
583.317837	2575.452403
583.671186	2576.657239
584.024481	2575.545665
584.377721	2576.493402
584.730906	2576.334605
585.084037	2579.301324
585.437113	2576.334605
585.790135	2579.795357
586.143103	2577.456262
586.496016	2575.782599
586.848874	2571.328739
587.201679	2571.089285
587.554428	2574.159347
587.907124	2574.822259
588.259765	2571.220355
588.612352	2576.758062
588.964884	2578.099009
589.317362	2575.835531
589.669786	2577.236972
590.022155	2577.965418
590.374470	2577.085737
590.726731	2576.437949
591.078937	2576.891653
591.431090	2578.179668
591.783188	2575.621282
592.135232	2578.346026
592.487222	2574.350911
592.839157	2578.524987
593.191038	2578.819894
593.542866	2575.956519
593.894639	2575.177660
594.246358	2575.830490
594.598022	2576.022054
594.949633	2575.752352
595.301190	2575.802763
595.652692	2575.268401
596.004141	2574.063565
596.355535	2577.710840
596.706876	2575.399471
597.058162	2576.148083
597.409395	2576.609348
597.760573	2577.388206
598.111698	2575.243195
598.462768	2577.040367
598.813785	2575.843093
599.164748	2574.461817
599.515657	2577.441138
599.866511	2575.391909
600.217312	2577.796540
600.568060	2575.938875
600.918753	2578.343505
601.269392	2576.258988
601.619978	2575.384348
601.970510	2577.259657
602.320988	2576.049780
602.671412	2575.137331
603.021783	2574.282856
603.372100	2577.821746
603.722363	2574.113977
604.072572	2581.078331
604.422728	2577.541962
604.772830	2572.150448
605.122878	2573.224213
605.472872	2574.061045
605.822813	2572.745304
606.172701	2573.879563
606.522534	2579.384503
606.872314	2575.197825
607.222041	2576.475757
607.571714	2578.346026
607.921333	2576.248906
608.270899	2576.629513
608.620411	2575.144893
608.969870	2573.745973
609.319276	2577.088258
609.668627	2577.718402
610.017926	2575.437280
610.367171	2578.913155
610.716362	2576.173288
611.065500	2575.669173
611.414585	2575.848134
611.763616	2578.661098
612.112594	2575.729667
612.461518	2577.972980
612.810389	2574.139183
613.159207	2575.160016
613.507971	2574.799574
613.856682	2576.624472
614.205340	2575.439800
614.553945	2576.742939
614.902496	2577.486509
615.250994	2578.666139
615.599439	2575.921231
615.947830	2578.068762
616.296169	2578.020871
616.644454	2578.814853
616.992686	2576.987435
617.340864	2575.714543
617.688990	2573.980386
618.037063	2575.822928
618.385082	2573.834193
618.733048	2578.141859
619.080961	2573.957701
619.428821	2577.383165
619.776628	2574.648339
620.124382	2576.299317
620.472083	2577.168916
620.819731	2575.056673
621.167326	2574.323185
621.514868	2576.579101
621.862357	2575.911148
622.209793	2576.379976
622.557176	2576.221179
622.904506	2575.177660
623.251783	2572.793195
623.599007	2570.567525
623.946179	2573.287228
624.293297	2573.549368
624.640363	2579.641602
624.987376	2576.349729
625.334336	2577.168916
625.681243	2574.376117
626.028097	2574.275294
626.374899	2575.291086
626.721647	2576.377455
627.068343	2573.841755
627.414987	2576.916858
627.761577	2576.934502
628.108115	2576.354770
628.454600	2575.686817
628.801032	2577.128587
629.147412	2577.294945
629.493739	2577.181519
629.840014	2577.380645
630.186236	2577.950295
630.532405	2575.946436
630.878521	2576.465675
631.224585	2577.151272
631.570597	2576.397620
631.916556	2577.657908
632.262462	2576.992476
632.608316	2575.134811
632.954117	2572.425190
633.299866	2576.148082
633.645562	2575.512897
633.991206	2576.067424
634.336797	2573.680438
634.682336	2576.332085
635.027823	2580.276787
635.373257	2573.209090
635.718639	2575.054152
636.063968	2576.916858
636.409245	2575.044070
636.754470	2573.456106
637.099642	2577.231931
637.444762	2576.523648
637.789829	2575.283525
638.134845	2573.690520
638.479808	2576.299317
638.824719	2575.684296
639.169577	2578.845100
639.514383	2575.165057
639.859137	2575.704461
640.203839	2575.759914
640.548489	2574.572722
640.893086	2573.531724
641.237632	2575.444842
641.582125	2573.032649
641.926566	2572.231106
642.270955	2573.637588
642.615292	2577.768813
642.959576	2575.170099
643.303809	2574.343349
643.647990	2576.122877
643.992118	2572.687330
644.336195	2578.459452
644.680219	2575.538103
645.024192	2576.934502
645.368112	2577.715881
645.711981	2576.637074
646.055797	2573.783781
646.399562	2575.507856
646.743274	2576.400140
647.086935	2577.052970
647.430544	2577.718402
647.774101	2576.715212
648.117606	2576.480799
648.461059	2577.375603
648.804460	2576.894173
649.147810	2574.061045
649.491108	2573.554409
649.834354	2577.766293
650.177548	2576.425346
650.520690	2575.162537
650.863781	2577.516756
651.206820	2582.772159
651.549807	2574.227403
651.892742	2577.579770
652.235626	2576.080027
652.578458	2577.226889
652.921238	2575.210428
653.263967	2575.903587
653.606644	2576.659760
653.949269	2575.555747
654.291843	2577.990624
654.634365	2575.487691
654.976836	2575.099522
655.319255	2577.236972
655.661622	2576.737898
656.003938	2576.684965
656.346203	2577.297466
656.688416	2574.960891
657.030577	2573.892166
657.372687	2571.532906
657.714746	2574.502146
658.056753	2575.812846
658.398708	2572.362176
658.740612	2573.085582
659.082465	2573.244378
659.424266	2571.117011
659.766016	2569.473595
660.107715	2576.785788
660.449362	2576.291755
660.790958	2572.616754
661.132503	2575.442321
661.473996	2574.580284
661.815438	2574.139183
662.156829	2575.089440
662.498168	2575.699420
662.839456	2574.575242
663.180693	2574.421487
663.521879	2577.589852
663.863013	2578.252764
664.204097	2575.039029
664.545129	2576.871488
664.886110	2574.257650
665.227040	2574.436611
665.567918	2573.942578
665.908746	2573.491394
666.249522	2575.868298
666.590248	2575.084399
666.930922	2574.739080
667.271545	2577.383165
667.612118	2577.872157
667.952639	2577.816704
668.293109	2575.870819
668.633528	2574.136662
668.973896	2571.323698
669.314213	2576.362332
669.654480	2573.887125
669.994695	2575.646488
670.334859	2575.114646
670.674973	2575.049111
671.015035	2576.558937
671.355047	2576.803432
671.695008	2574.691189
672.034918	2572.841086
672.374777	2574.328226
672.714585	2576.017012
673.054342	2574.804615
673.394049	2575.238154
673.733705	2574.416446
674.073310	2575.462486
674.412864	2574.882753
674.752368	2575.522979
675.091820	2574.093812
675.431223	2576.611869
675.770574	2573.947619
676.109875	2571.548030
676.449125	2570.368400
676.788324	2574.635736
677.127473	2573.168761
677.466571	2570.466702
677.805619	2576.440469
678.144616	2574.333267
678.483562	2574.950808
678.822458	2574.996179
679.161303	2576.180850
679.500098	2575.538103
679.838842	2573.967783
680.177535	2572.742783
680.516179	2576.047259
680.854771	2573.083061
681.193314	2576.420305
681.531805	2576.727815
681.870247	2576.299317
682.208638	2573.672876
682.546978	2573.808987
682.885268	2573.614903
683.223508	2577.287383
683.561697	2572.838565
683.899836	2574.368555
684.237925	2574.544996
684.575963	2573.541806
684.913951	2574.333267
685.251889	2573.882084
685.589776	2577.128587
685.927614	2575.089440
686.265401	2572.775551
686.603137	2575.089440
686.940824	2574.766806
687.278460	2574.507187
687.616046	2572.979717
687.953582	2575.510377
688.291068	2573.652711
688.628504	2574.071127
688.965889	2574.159347
689.303224	2573.806467
689.640510	2575.217990
689.977745	2574.184553
690.314930	2573.274625
690.652065	2574.905438
690.989150	2573.143555
691.326185	2574.978535
691.663170	2573.125911
692.000105	2575.739749
692.336990	2573.337639
692.673825	2574.131621
693.010610	2574.544996
693.347345	2571.905952
693.684030	2569.962587
694.020665	2570.149109
694.357251	2571.326219
694.693786	2571.747155
695.030272	2574.701271
695.366707	2573.632547
695.703093	2575.714543
696.039429	2574.469378
696.375716	2575.026426
696.711952	2574.943247
697.048139	2574.429049
697.384276	2575.903587
697.720363	2575.941395
698.056400	2575.646488
698.392388	2572.886456
698.728326	2574.300500
699.064214	2576.679924
699.400053	2575.026426
699.735842	2577.065572
700.071581	2577.408371
700.407270	2573.166240
700.742910	2571.986610
701.078501	2576.039698
701.414042	2574.214800
701.749533	2574.184553
702.084974	2575.409553
702.420366	2575.626323
702.755709	2575.739749
703.091002	2574.834862
703.426246	2576.881570
703.761440	2573.718246
704.096584	2575.197825
704.431679	2572.626837
704.766725	2574.814697
705.101721	2573.524162
705.436668	2573.173802
705.771565	2573.037691
706.106413	2574.842424
706.441212	2571.321178
706.775961	2572.039542
707.110661	2574.892835
707.445311	2575.593556
707.779913	2573.866960
708.114465	2575.326374
708.448967	2574.212279
708.783421	2575.827969
709.117825	2573.987948
709.452180	2575.434759
709.786485	2573.196487
710.120742	2574.439131
710.454949	2574.608010
710.789107	2569.844120
711.123216	2570.302865
711.457275	2569.834037
711.791286	2572.218503
712.125247	2569.503842
712.459159	2573.211610
712.793023	2575.956519
713.126837	2572.962073
713.460602	2573.350242
713.794318	2573.209090
714.127985	2574.890315
714.461602	2573.872002
714.795171	2576.127918
715.128691	2576.586663
715.462162	2578.232600
715.795584	2576.377455
716.128957	2575.712023
716.462281	2574.292938
716.795556	2574.923082
717.128782	2572.152968
717.461960	2576.349729
717.795088	2572.228585
718.128167	2573.065417
718.461198	2572.825962
718.794180	2573.705643
719.127113	2574.784450
719.459997	2576.788309
719.792833	2573.917372
720.125619	2573.042732
720.458357	2574.481981
720.791046	2573.229254
721.123686	2573.549368
721.456278	2574.600448
721.788821	2574.741601
722.121315	2571.694223
722.453761	2570.607854
722.786158	2571.749676
723.118506	2570.703636
723.450805	2575.870819
723.783056	2574.454255
724.115259	2572.664645
724.447412	2573.030129
724.779518	2573.201528
725.111574	2573.587176
725.443582	2574.270253
725.775542	2571.815211
726.107453	2572.142886
726.439315	2573.070458
726.771129	2576.221179
727.102895	2572.001733
727.434612	2574.665983
727.766281	2573.556929
728.097901	2569.221537
728.429473	2570.517114
728.760996	2570.275138
729.092471	2570.600293
729.423897	2575.938875
729.755276	2573.574573
730.086606	2573.682958
730.417887	2571.031311
730.749120	2573.619944
731.080305	2572.175653
731.411442	2576.266550
731.742530	2573.864440
732.073570	2576.017012
732.404562	2572.037022
732.735506	2574.038360
733.066401	2572.218503
733.397249	2571.187587
733.728048	2572.994841
734.058798	2573.337639
734.389501	2573.443503
734.720156	2574.030798
735.050762	2574.408884
735.381320	2573.657753
735.711831	2574.613051
736.042293	2570.665828
736.372707	2573.879563
736.703073	2573.849316
737.033391	2574.101374
737.363661	2573.143555
737.693883	2573.183884
738.024056	2574.708833
738.354182	2571.457289
738.684260	2573.072979
739.014290	2572.392423
739.344272	2576.281673
739.674207	2572.546178
740.004093	2573.803946
740.333931	2573.435942
740.663722	2572.382341
740.993464	2573.614903
741.323159	2574.562640
741.652806	2574.061045
741.982405	2570.532237
742.311956	2573.637588
742.641460	2573.148596
742.970915	2574.479461
743.300323	2575.059193
743.629683	2572.687330
743.958996	2575.255798
744.288260	2573.350242
744.617477	2571.931157
744.946647	2567.283213
745.275768	2571.318657
745.604842	2568.591393
745.933869	2569.708008
746.262847	2570.002916
746.591778	2575.288566
746.920662	2571.056517
747.249498	2574.265212
747.578286	2572.931826
747.907027	2572.609192
748.235720	2573.204049
748.564365	2572.412587
748.892963	2570.524675
749.221514	2573.909810
749.550017	2573.758576
749.878473	2571.527865
750.206881	2574.098853
750.535242	2573.534244
750.863555	2573.012485
751.191821	2571.870663
751.520039	2572.168092
751.848210	2572.389902
752.176334	2572.563822
752.504411	2574.759245
752.832440	2571.847978
753.160421	2573.020047
753.488356	2570.449058
753.816243	2574.464337
754.144082	2571.399316
754.471875	2574.081209
754.799620	2572.750345
755.127318	2568.775395
755.454969	2571.459809
755.782572	2573.443503
756.110129	2571.515262
756.437638	2574.618092
756.765100	2573.745973
757.092515	2570.872515
757.419882	2570.436455
757.747203	2572.478122
758.074477	2571.348904
758.401703	2570.922927
758.728882	2572.092474
759.056014	2572.936867
759.383099	2572.780592
759.710138	2571.986610
760.037129	2574.786971
760.364073	2573.965263
760.690970	2574.154306
761.017820	2572.989800
761.344623	2569.498801
761.671379	2574.025757
761.998088	2566.506876
762.324751	2567.966290
762.651366	2571.482495
762.977935	2570.285221
763.304456	2568.651887
763.630931	2572.639439
763.957359	2573.660273
764.283740	2571.772361
764.610074	2571.364027
764.936362	2573.355283
765.262602	2569.886969
765.588796	2572.715057
765.914943	2572.916703
766.241044	2569.455951
766.567097	2572.231106
766.893104	2570.091136
767.219064	2573.463668
767.544978	2571.099367
767.870845	2571.991651
768.196665	2572.195818
768.522438	2571.633729
768.848165	2573.405695
769.173846	2570.746486
769.499479	2573.186405
769.825066	2572.417629
770.150607	2571.984089
770.476101	2571.270766
770.801548	2572.780592
771.126949	2572.609192
771.452303	2573.277145
771.777611	2569.934860
772.102872	2573.390571
772.428087	2571.371589
772.753256	2571.018708
773.078378	2573.483833
773.403453	2573.496436
773.728482	2574.360993
774.053465	2571.898390
774.378401	2573.156158
774.703291	2571.606003
775.028135	2571.477453
775.352932	2571.661456
775.677683	2570.842268
776.002388	2573.612382
776.327046	2571.762279
776.651658	2572.868812
776.976224	2569.975190
777.300743	2572.422670
777.625216	2573.262022
777.949643	2572.657083
778.274024	2569.652556
778.598359	2566.496793
778.922647	2569.912175
779.246889	2568.220868
779.571086	2564.424879
779.895236	2568.951835
780.219339	2572.513411
780.543397	2572.931826
780.867409	2573.176322
781.191374	2572.256312
781.515294	2572.326888
781.839167	2570.633060
782.162995	2576.153124
782.486776	2570.698595
782.810511	2572.775551
783.134201	2573.496436
783.457844	2570.993503
783.781441	2575.601117
784.104993	2570.012998
784.428498	2572.697413
784.751958	2572.243709
785.075372	2572.294120
785.398739	2573.178843
785.722061	2571.048955
786.045337	2570.849830
786.368568	2572.828483
786.691752	2570.665828
787.014891	2572.583987
787.337983	2572.911662
787.661030	2572.100036
787.984031	2569.632391
788.306987	2572.369738
788.629897	2570.983420
788.952760	2574.968452
789.275579	2570.887638
789.598351	2571.563153
789.921078	2569.929819
790.243759	2573.483833
790.566395	2572.825962
790.888984	2572.084912
791.211529	2571.371589
791.534027	2571.820252
791.856480	2571.784964
792.178888	2572.029460
792.501249	2570.209603
792.823566	2569.067782
793.145836	2573.148596
793.468062	2573.143555
793.790241	2569.027453
794.112375	2570.852350
794.434464	2573.698082
794.756507	2570.194480
795.078505	2571.681620
795.400457	2567.179870
795.722364	2567.346228
796.044226	2569.453430
796.366042	2568.714901
796.687812	2567.439489
797.009538	2570.189439
797.331218	2571.825293
797.652852	2571.641291
797.974442	2569.483677
798.295986	2570.519634
798.617484	2573.188925
798.938938	2571.278328
799.260346	2573.748493
799.581709	2569.796229
799.903026	2571.618606
800.224299	2569.929819
800.545526	2570.948132
800.866708	2571.386713
801.187845	2571.550550
801.508936	2570.484346
801.829983	2571.202711
802.150984	2568.974521
802.471940	2570.267577
802.792851	2571.406877
803.113717	2571.900910
803.434538	2571.137176
803.755314	2570.708678
804.076045	2570.665828
804.396731	2570.373441
804.717372	2571.111970
805.037967	2570.917885
805.358518	2567.520148
805.679024	2573.791343
805.999485	2567.585683
806.319901	2571.898390
806.640272	2569.002247
806.960598	2571.681620
807.280879	2570.018039
807.601115	2570.265056
807.921306	2568.624160
808.241453	2569.211455
808.561554	2568.170457
808.881611	2570.028122
809.201623	2569.632391
809.521590	2571.996692
809.841513	2573.430901
810.161390	2571.263204
810.481223	2570.002916
810.801011	2571.147258
811.120755	2571.467371
811.440453	2571.222875
811.760107	2570.867474
812.079716	2567.026115
812.399281	2565.831361
812.718801	2566.857236
813.038276	2563.008315
813.357707	2573.405695
813.677093	2571.447207
813.996434	2572.498287
814.315731	2569.471074
814.634983	2570.068451
814.954191	2572.775551
815.273354	2573.866960
815.592473	2570.794377
815.911547	2571.933678
816.230577	2572.377299
816.549562	2572.198338
816.868502	2569.914696
817.187399	2570.305385
817.506250	2571.989131
817.825058	2572.828483
818.143821	2568.062072
818.462539	2571.235478
818.781213	2571.106929
819.099843	2572.737742
819.418429	2571.338822
819.736970	2572.079871
820.055466	2566.980744
820.373919	2572.795715
820.692327	2571.898390
821.010691	2570.950653
821.329011	2573.138514
821.647286	2573.703123
821.965517	2569.965107
822.283704	2572.727660
822.601847	2571.285890
822.919945	2570.968297
823.237999	2572.825962
823.556010	2572.916703
823.873976	2571.948801
824.191897	2572.188256
824.509775	2568.167936
824.827609	2571.850499
825.145398	2570.580128
825.463144	2573.738411
825.780845	2571.137176
826.098502	2571.243040
826.416116	2571.600962
826.733685	2568.548543
827.051210	2570.993503
827.368692	2569.390416
827.686129	2569.955025
828.003522	2572.074830
828.320872	2566.204407
828.638177	2568.397308
828.955439	2566.469067
829.272656	2566.579972
829.589830	2567.094170
829.906960	2568.982082
830.224046	2570.426373
830.541088	2571.565674
830.858086	2571.217834
831.175041	2572.815880
831.491952	2570.832186
831.808819	2571.172464
832.125642	2570.302865
832.442421	2570.000395
832.759157	2567.623491
833.075849	2570.970817
833.392497	2569.960066
833.709101	2571.439645
834.025662	2567.588203
834.342179	2569.735735
834.658653	2568.624160
834.975083	2570.391085
835.291469	2571.174984
835.607811	2571.356466
835.924110	2570.912844
836.240366	2568.717422
836.556578	2567.557956
836.872746	2570.698595
837.188871	2569.692885
837.504952	2571.008626
837.820990	2571.187587
838.136984	2570.413770
838.452935	2570.678431
838.768842	2569.072823
839.084706	2572.165571
839.400526	2569.400498
839.716303	2570.262535
840.032037	2571.893349
840.347727	2570.791857
840.663373	2571.568194
840.978977	2569.823955
841.294537	2566.504355
841.610054	2566.801783
841.925527	2572.284038
842.240957	2568.631722
842.556344	2569.632391
842.871687	2570.849830
843.186987	2567.507545
843.502244	2572.967114
843.817458	2568.989644
844.132629	2568.067113
844.447756	2571.918554
844.762840	2566.592575
845.077881	2566.078378
845.392879	2566.101063
845.707833	2568.591393
846.022745	2563.767009
846.337613	2570.718760
846.652438	2570.600293
846.967221	2571.210272
847.281960	2570.721280
847.596656	2572.026939
847.911309	2569.599624
848.225919	2571.333781
848.540485	2569.156002
848.855009	2569.435786
849.169490	2567.434448
849.483928	2569.700447
849.798323	2567.910837
850.112675	2570.938050
850.426984	2571.243040
850.741251	2568.125086
851.055474	2569.813873
851.369654	2569.057700
851.683792	2568.767833
851.997887	2572.100036
852.311938	2571.371589
852.625947	2567.694068
852.939914	2569.554253
853.253837	2571.976528
853.567718	2571.147258
853.881555	2569.796229
854.195350	2571.147258
854.509103	2571.492577
854.822812	2571.207752
855.136479	2571.913513
855.450103	2569.776064
855.763685	2572.074830
856.077224	2568.480487
856.390720	2567.862946
856.704173	2570.113821
857.017584	2570.459140
857.330953	2568.346897
857.644278	2569.342525
857.957561	2569.173646
858.270802	2569.100549
858.584000	2569.166084
858.897155	2570.673389
859.210268	2569.229099
859.523339	2571.139696
859.836367	2569.113152
860.149352	2569.592062
860.462295	2570.832186
860.775195	2567.026115
861.088054	2565.143244
861.400869	2563.877914
861.713642	2565.624674
862.026373	2567.308419
862.339062	2569.382854
862.651708	2568.871177
862.964312	2566.683316
863.276873	2571.701785
863.589392	2567.626012
863.901869	2568.757751
864.214303	2567.525189
864.526696	2571.900910
864.839045	2569.743297
865.151353	2570.305385
865.463619	2567.752041
865.775842	2569.161043
866.088023	2568.989644
866.400162	2572.342011
866.712258	2567.351269
867.024313	2570.968297
867.336325	2569.980231
867.648296	2570.222206
867.960224	2566.479149
868.272110	2567.764644
868.583954	2568.614078
868.895755	2567.371434
869.207515	2569.385375
869.519233	2570.388564
869.830909	2569.017370
870.142542	2570.454099
870.454134	2568.654407
870.765684	2568.440158
871.077191	2568.021743
871.388657	2568.780436
871.700081	2565.465877
872.011463	2567.976372
872.322803	2566.799263
872.634101	2570.673389
872.945357	2568.417473
873.256571	2571.258163
873.567744	2567.656259
873.878874	2568.772874
874.189963	2570.219686
874.501010	2568.324212
874.812015	2571.137176
875.122979	2566.574931
875.433900	2569.007288
875.744780	2571.467371
876.055618	2570.658266
876.366415	2569.098029
876.677169	2571.243040
876.987882	2565.458316
877.298554	2563.814900
877.609183	2563.368757
877.919771	2567.804973
878.230317	2564.409756
878.540822	2569.919737
878.851285	2568.724983
879.161707	2569.274469
879.472087	2570.257494
879.782425	2570.713719
880.092722	2566.947977
880.402977	2570.214644
880.713191	2568.188101
881.023363	2567.550395
881.333494	2567.784808
881.643583	2568.815724
881.953631	2567.157185
882.263637	2569.952504
882.573602	2569.266908
882.883526	2569.692885
883.193408	2567.505024
883.503248	2568.712381
883.813048	2568.954356
884.122806	2572.243709
884.432522	2568.931671
884.742197	2569.856722
885.051831	2569.017370
885.361424	2570.169274
885.670975	2570.960735
885.980485	2568.684654
886.289954	2568.785477
886.599382	2566.837071
886.908768	2571.681620
887.218113	2568.651887
887.527417	2571.008626
887.836680	2568.041907
888.145901	2569.047617
888.455082	2567.991496
888.764221	2566.854715
889.073319	2567.474777
889.382376	2567.699109
889.691392	2568.084757
890.000366	2568.046948
890.309300	2570.060889
890.618193	2567.668862
890.927044	2569.103070
891.235855	2568.782957
891.544625	2570.958215
891.853353	2565.997719
892.162041	2566.635425
892.470687	2568.024263
892.779293	2569.818914
893.087858	2565.601989
893.396381	2566.637946
893.704864	2566.050651
894.013306	2563.061247
894.321707	2569.050138
894.630068	2569.904613
894.938387	2566.479149
895.246665	2567.265569
895.554903	2569.730694
895.863100	2567.323543
896.171256	2567.878070
896.479371	2569.062741
896.787446	2567.749520
897.095480	2566.700960
897.403473	2569.024932
897.711425	2565.874211
898.019336	2567.976372
898.327207	2567.729356
898.635038	2569.889490
898.942827	2569.702967
899.250576	2566.501835
899.558284	2567.232802
899.865952	2568.815724
900.173579	2566.990827
900.481165	2569.760941
900.788711	2567.641135
901.096216	2567.880590
901.403681	2565.178532
901.711105	2569.234140
902.018489	2568.447720
902.325832	2568.853533
902.633135	2567.920919
902.940397	2569.080385
903.247619	2567.951166
903.554800	2567.689026
903.861941	2568.299006
904.169041	2567.850343
904.476101	2567.172308
904.783121	2569.219017
905.090100	2566.375806
905.397039	2568.193142
905.703938	2568.041907
906.010796	2568.934191
906.317614	2568.951835
906.624391	2569.143399
906.931129	2567.782288
907.237826	2568.122566
907.544483	2570.010478
907.851099	2567.421845
908.157675	2569.879408
908.464211	2565.770867
908.770707	2565.778429
909.077163	2565.125600
909.383578	2564.850857
909.689954	2567.104253
909.996289	2562.857080
910.302584	2568.694737
910.608839	2564.586196
910.915054	2569.108111
911.221229	2564.039231
911.527363	2565.254149
911.833458	2568.198183
912.139513	2567.174829
912.445527	2566.640466
912.751502	2569.463512
913.057436	2567.754561
913.363331	2568.556105
913.669186	2565.813717
913.975000	2568.263718
914.280775	2566.451423
914.586510	2565.919581
914.892205	2568.324212
915.197859	2568.220868
915.503475	2568.321691
915.809050	2568.069633
916.114585	2566.751372
916.420081	2567.898234
916.725536	2570.076013
917.030952	2567.452092
917.336328	2566.862277
917.641665	2569.798749
917.946961	2563.943449
918.252218	2566.327915
918.557435	2567.462174
918.862612	2568.125086
919.167750	2567.575600
919.472848	2567.973852
919.777906	2567.525189
920.082925	2568.493090
920.387904	2567.958728
920.692843	2568.084757
920.997743	2566.257339
921.302603	2568.346897
921.607423	2567.575600
921.912204	2568.770354
922.216946	2567.023594
922.521647	2566.842113
922.826310	2566.237174
923.130932	2568.528378
923.435516	2566.179201
923.740059	2568.019222
924.044564	2569.075344
924.349028	2567.182390
924.653454	2563.855229
924.957840	2564.596278
925.262186	2567.008471
925.566493	2565.501166
925.870761	2565.455795
926.174989	2567.991496
926.479178	2566.804304
926.783328	2564.707184
927.087438	2567.389078
927.391509	2565.780950
927.695541	2563.756926
927.999533	2567.389078
928.303486	2567.182390
928.607400	2567.099211
928.911275	2567.996537
929.215110	2568.853533
929.518906	2567.028635
929.822663	2568.798080
930.126381	2565.939746
930.430060	2567.356310
930.733699	2567.789849
931.037299	2566.335477
931.340861	2565.917061
931.644383	2570.421332
931.947866	2568.188101
932.251309	2567.336146
932.554714	2566.544684
932.858080	2567.641135
933.161407	2565.556618
933.464694	2566.101063
933.767943	2567.961249
934.071153	2565.191135
934.374323	2567.830179
934.677455	2567.162226
934.980548	2566.995868
935.283602	2567.363872
935.586617	2563.792214
935.889593	2566.161557
936.192530	2562.267265
936.495428	2567.021073
936.798287	2566.612740
937.101108	2565.165929
937.403890	2567.671382
937.706632	2566.282544
938.009336	2566.262380
938.312002	2566.532082
938.614628	2566.630384
938.917216	2566.297668
939.219765	2568.306568
939.522275	2564.523182
939.824747	2569.395457
940.127179	2564.319015
940.429573	2563.767009
940.731929	2562.284909
941.034246	2561.042265
941.336524	2565.425548
941.638763	2566.708522
941.940964	2567.885631
942.243126	2567.326063
942.545250	2568.515776
942.847335	2565.785991
943.149381	2566.721125
943.451389	2567.870508
943.753359	2564.823130
944.055290	2568.241033
944.357182	2567.371434
944.659036	2565.949828
944.960851	2568.820765
945.262628	2563.507389
945.564367	2568.155333
945.866067	2566.859757
946.167729	2566.169118
946.469352	2567.315981
946.770937	2565.186093
947.072484	2564.480332
947.373992	2567.542833
947.675462	2567.958728
947.976893	2569.788667
948.278286	2565.753223
948.579641	2569.004767
948.880958	2565.680127
949.182236	2567.426886
949.483476	2565.536454
949.784678	2564.601320
950.085841	2565.912020
950.386967	2567.056362
950.688054	2564.528223
950.989103	2564.944118
951.290114	2565.944787
951.591087	2565.211299
951.892021	2566.867318
952.192917	2567.068964
952.493776	2567.026115
952.794596	2566.385888
953.095378	2565.627194
953.396122	2565.836402
953.696828	2564.399673
953.997496	2566.063254
954.298126	2567.550395
954.598718	2565.715415
954.899272	2566.078378
955.199788	2564.462688
955.500266	2566.486711
955.800706	2564.636608
956.101108	2563.658624
956.401472	2561.465722
956.701798	2562.209292
957.002087	2562.400856
957.302337	2565.990158
957.602550	2567.469736
957.902724	2564.008984
958.202861	2569.140879
958.502960	2566.690878
958.803022	2565.639797
959.103045	2567.943605
959.403031	2566.010322
959.702979	2566.153995
960.002889	2565.352452
960.302762	2566.970662
960.602596	2567.860426
960.902393	2565.675085
961.202153	2568.205745
961.501875	2566.829510
961.801559	2565.309602
962.101205	2566.567370
962.400814	2564.288768
962.700385	2566.171639
962.999918	2565.725497
963.299414	2564.497976
963.598873	2564.734910
963.898293	2563.943449
964.197677	2566.872359
964.497022	2564.989488
964.796331	2564.792883
965.095601	2565.733059
965.394835	2567.885631
965.694030	2565.768347
965.993189	2565.942267
966.292309	2565.891855
966.591393	2566.249777
966.890439	2566.574931
967.189447	2564.008984
967.488419	2564.394632
967.787353	2566.809345
968.086249	2565.168449
968.385108	2563.751885
968.683930	2563.693912
968.982714	2567.747000
969.281462	2564.016546
969.580172	2564.934036
969.878844	2563.918243
970.177480	2564.777760
970.476078	2566.716084
970.774639	2566.698440
971.073162	2566.741289
971.371649	2562.970506
971.670098	2561.929508
971.968510	2559.971020
972.266885	2562.849519
972.565223	2564.245918
972.863524	2565.400343
973.161788	2567.285734
973.460014	2566.746331
973.758204	2566.816907
974.056356	2565.019735
974.354471	2565.687688
974.652550	2566.794222
974.950591	2566.922771
975.248595	2565.745662
975.546563	2565.924622
975.844493	2565.375137
976.142386	2566.123748
976.440243	2565.012174
976.738062	2565.533933
977.035845	2566.942936
977.333590	2566.766495
977.631299	2566.665672
977.928971	2566.975703
978.226606	2566.229612
978.524204	2567.147102
978.821765	2567.479818
979.119290	2567.124417
979.416777	2567.797411
979.714228	2565.034859
980.011642	2566.905127
980.309020	2566.027966
980.606360	2562.703325
980.903664	2564.717266
981.200931	2564.724828
981.498162	2563.751885
981.795356	2566.090981
982.092513	2565.682647
982.389633	2564.923953
982.686717	2565.276834
982.983764	2563.487225
983.280775	2563.550239
983.577749	2564.785322
983.874686	2564.540826
984.171587	2566.348079
984.468451	2563.625856
984.765279	2565.102914
985.062070	2566.141392
985.358824	2565.266752
985.655543	2564.366906
985.952224	2566.088460
986.248869	2565.281875
986.545478	2561.790876
986.842050	2564.666855
987.138586	2563.136864
987.435086	2563.341031
987.731549	2559.547563
988.027975	2566.930333
988.324366	2565.274314
988.620719	2566.809345
988.917037	2567.280693
989.213318	2565.153326
989.509563	2567.714232
989.805772	2565.556618
990.101944	2565.975034
990.398080	2566.093501
990.694180	2564.596278
990.990244	2567.525189
991.286271	2564.573593
991.582262	2566.012843
991.878217	2566.857236
992.174136	2564.505538
992.470019	2564.639128
992.765865	2565.307081
993.061676	2562.786504
993.357450	2565.453275
993.653188	2566.262380
993.948890	2563.373799
994.244556	2565.949828
994.540186	2566.030487
994.835780	2562.007646
995.131337	2567.134499
995.426859	2567.734397
995.722345	2564.167780
996.017795	2566.428738
996.313208	2564.782801
996.608586	2567.681465
996.903928	2564.160219
997.199234	2565.627194
997.494504	2564.860939
997.789738	2566.196845
998.084936	2565.150805
998.380099	2563.787173
998.675225	2565.319684
998.970316	2565.808676
999.265371	2563.676268
999.560390	2563.668706
999.855373	2565.975034
1000.150320	2562.884807
1000.445232	2564.563511
1000.740108	2566.504355
1001.034948	2566.743810
1001.329752	2567.459654
1001.624521	2563.819941
1001.919254	2561.662327
1002.213951	2561.821123
1002.508613	2564.248439
1002.803239	2563.802297
1003.097829	2559.968499
1003.392384	2565.120558
1003.686903	2563.172152
1003.981386	2565.697771
1004.275834	2564.737431
1004.570246	2564.997050
1004.864623	2566.128789
1005.158964	2565.710373
1005.453270	2564.694581
1005.747540	2566.940415
1006.041775	2563.393963
1006.335974	2566.774057
1006.630138	2563.139385
1006.924266	2564.800445
1007.218359	2562.433623
1007.512416	2566.227092
1007.806438	2565.768347
1008.100425	2565.208779
1008.394376	2564.071998
1008.688292	2562.138716
1008.982172	2567.474777
1009.276017	2564.155177
1009.569827	2562.678119
1009.863602	2564.858418
1010.157341	2565.322205
1010.451045	2562.567214
1010.744714	2566.436300
1011.038347	2563.003274
1011.331945	2564.593758
1011.625508	2566.022925
1011.919036	2563.053685
1012.212528	2566.431258
1012.505986	2564.245918
1012.799408	2564.054354
1013.092795	2561.712738
1013.386147	2564.132492
1013.679464	2562.373130
1013.972745	2565.319684
1014.265992	2563.991340
1014.559204	2565.919581
1014.852380	2564.477811
1015.145521	2567.091650
1015.438628	2565.188614
1015.731699	2564.573593
1016.024736	2562.700805
1016.317737	2566.854715
1016.610703	2567.230281
1016.903635	2559.061092
1017.196531	2560.790207
1017.489393	2560.245763
1017.782219	2563.593089
1018.075011	2559.640824
1018.367768	2560.144940
1018.660490	2564.765157
1018.953177	2564.765157
1019.245829	2564.765157
