Dividing Wavelength (nm)	Counts (n)	Blue Motor Position (mm): 0.000000	Red Motor Position (mm): 49.000000	
326.493990	2134.394292
326.888308	2134.394292
327.282561	2134.394292
327.676750	2111.714140
328.070874	2112.611466
328.464933	2117.713113
328.858929	2127.064454
329.252859	2140.249592
329.646726	2154.097641
330.040528	2166.282110
330.434265	2186.187106
330.827938	2204.090764
331.221547	2224.625904
331.615091	2245.425705
332.008571	2263.629312
332.401986	2286.183434
332.795338	2305.969963
333.188625	2325.360761
333.581847	2343.788699
333.975006	2363.106400
334.368100	2381.688093
334.761129	2399.493449
335.154095	2417.102199
335.546996	2437.244129
335.939833	2472.196970
336.332606	2485.954278
336.725315	2496.702018
337.117960	2506.126456
337.510540	2513.846983
337.903056	2518.658764
338.295508	2529.340969
338.687896	2535.042514
339.080220	2546.465769
339.472480	2550.218908
339.864676	2552.298384
340.256807	2554.614794
340.648875	2557.667212
341.040879	2559.630742
341.432818	2562.121072
341.824694	2561.609395
342.216506	2562.569735
342.608253	2561.279199
342.999937	2564.286247
343.391557	2556.535473
343.783113	2558.360371
344.174605	2556.981616
344.566033	2556.500185
344.957397	2553.924156
345.348697	2553.165462
345.739934	2550.523897
346.131106	2549.039278
346.522215	2547.201777
346.913260	2543.327650
347.304241	2545.392003
347.695159	2540.605427
348.086012	2540.854964
348.476802	2537.434542
348.867528	2540.623071
349.258191	2535.864222
349.648789	2535.289531
350.039324	2536.043183
350.429796	2532.877338
350.820203	2532.786598
351.210548	2532.408511
351.600828	2530.346679
351.991045	2529.923222
352.381198	2527.911802
352.771288	2530.084539
353.161314	2529.242667
353.551276	2531.390198
353.941175	2530.412214
354.331010	2531.090249
354.720782	2531.002029
355.110490	2531.848943
355.500135	2531.801052
355.889717	2529.391381
356.279235	2529.779549
356.668689	2531.639735
357.058080	2534.467822
357.447408	2528.080681
357.836672	2531.007070
358.225873	2531.856505
358.615010	2531.044879
359.004084	2531.801052
359.393095	2534.936650
359.782043	2534.828265
360.170927	2536.738862
360.559748	2538.841023
360.948505	2537.046373
361.337199	2536.300282
361.725830	2538.543595
362.114398	2539.345139
362.502903	2540.474357
362.891344	2538.934285
363.279722	2541.235572
363.668037	2540.383617
364.056289	2541.906045
364.444478	2540.446631
364.832603	2542.130376
365.220665	2538.911600
365.608665	2540.454193
365.996601	2541.911086
366.384474	2541.631302
366.772284	2546.135573
367.160031	2542.989893
367.547715	2543.078113
367.935336	2543.579708
368.322893	2545.487785
368.710388	2543.068031
369.097820	2549.056922
369.485189	2548.943496
369.872495	2542.773123
370.259738	2547.577343
370.646918	2546.024668
371.034035	2546.962322
371.421090	2548.336037
371.808081	2548.459545
372.195010	2548.641027
372.581875	2550.866696
372.968678	2550.745708
373.355418	2548.507436
373.742096	2554.166131
374.128710	2551.728733
374.515262	2555.887685
374.901751	2556.245607
375.288177	2556.202757
375.674540	2554.917263
376.060841	2556.429609
376.447079	2561.848850
376.833254	2564.901268
377.219367	2560.991853
377.605417	2564.543346
377.991404	2568.112483
378.377329	2566.695919
378.763191	2568.787998
379.148991	2576.357290
379.534727	2580.077662
379.920402	2585.756522
380.306013	2585.385997
380.691563	2593.230032
381.077049	2595.543922
381.462474	2603.047679
381.847835	2606.198401
382.233134	2611.058073
382.618371	2614.241562
383.003545	2622.493930
383.388657	2630.153964
383.773706	2636.621764
384.158693	2639.076806
384.543618	2649.164155
384.928480	2652.514002
385.313280	2663.511279
385.698017	2671.055365
386.082692	2679.562312
386.467305	2685.841070
386.851856	2694.474046
387.236344	2702.698688
387.620770	2710.913248
388.005133	2714.668908
388.389435	2730.616598
388.773674	2737.855695
389.157851	2743.295100
389.541965	2757.286822
389.926018	2754.680546
390.310008	2770.378699
390.693936	2778.101747
391.077802	2788.415947
391.461606	2795.660086
391.845348	2809.682055
392.229027	2818.178920
392.612645	2832.273986
392.996200	2839.324040
393.379694	2854.888602
393.763125	2871.910058
394.146494	2876.232848
394.529801	2889.506206
394.913047	2904.599420
395.296230	2907.992117
395.679351	2914.016296
396.062410	2934.886673
396.445408	2930.165632
396.828343	2938.523865
397.211217	2946.047787
397.594028	2940.593259
397.976778	2952.939044
398.359466	2971.429997
398.742092	2967.961683
399.124656	2982.623879
399.507158	2995.377998
399.889598	2999.864625
400.271977	3015.111595
400.654294	3020.785413
401.036549	3033.952907
401.418742	3038.046324
401.800874	3060.711352
402.182944	3067.060685
402.564952	3095.235694
402.946898	3086.839652
403.328783	3098.769543
403.710606	3115.538941
404.092367	3138.254380
404.474067	3160.374963
404.855705	3150.648057
405.237282	3153.919766
405.618797	3181.290711
406.000250	3205.289124
406.381642	3236.564442
406.762972	3238.679206
407.144240	3230.361302
407.525447	3252.922986
407.906593	3253.210332
408.287677	3273.042231
408.668700	3293.272382
409.049661	3288.571506
409.430560	3307.314516
409.811399	3308.915082
410.192176	3329.142712
410.572891	3335.824761
410.953545	3376.214486
411.334138	3343.646112
411.714669	3397.888927
412.095139	3342.358097
412.475547	3392.368863
412.855894	3385.691855
413.236180	3415.580856
413.616405	3392.784759
413.996568	3419.575971
414.376670	3420.644695
414.756711	3416.828542
415.136691	3442.019188
415.516609	3465.705049
415.896466	3471.661172
416.276262	3498.654031
416.655997	3526.032537
417.035670	3536.434958
417.415283	3603.015997
417.794834	3621.396044
418.174324	3607.167388
418.553753	3608.745269
418.933121	3650.791012
419.312428	3640.938077
419.691674	3636.592603
420.070859	3674.297913
420.449983	3653.581291
420.829045	3704.043241
421.208047	3689.350798
421.586988	3732.808065
421.965867	3763.042385
422.344686	3773.895989
422.723444	3814.260508
423.102141	3716.341136
423.480777	3820.120850
423.859352	3788.066673
424.237866	3882.847927
424.616319	3870.509703
424.994712	3929.100513
425.373044	3917.102567
425.751314	3980.212772
426.129524	3911.834562
426.507673	4014.905993
426.885762	3992.742560
427.263789	4013.524717
427.641756	4020.027805
428.019662	4049.286662
428.397508	4050.506622
428.775292	4085.088937
429.153016	4092.393569
429.530679	4104.315898
429.908282	4114.604893
430.285824	4092.955657
430.663305	4163.534332
431.040726	4128.732726
431.418086	4118.436170
431.795385	4187.613403
432.172624	4225.853076
432.549802	4190.950647
432.926920	4208.952608
433.303977	4204.113100
433.680974	4241.450406
434.057910	4266.401597
434.434786	4271.087349
434.811601	4270.381588
435.188355	4374.957804
435.565050	4347.203731
435.941683	4338.689222
436.318257	4430.410496
436.694770	4434.380405
437.071222	4493.130012
437.447614	4424.318262
437.823946	4431.738840
438.200218	4445.985141
438.576429	4426.816153
438.952580	4450.456644
439.328670	4459.780258
439.704700	4503.058564
440.080670	4468.667813
440.456580	4528.390362
440.832429	4563.280188
441.208218	4467.006752
441.583947	4521.035319
441.959616	4532.312380
442.335224	4557.450093
442.710773	4579.411880
443.086261	4631.076145
443.461689	4585.559567
443.837057	4595.198253
444.212365	4673.205068
444.587612	4673.976365
444.962800	4644.757837
445.337927	4681.845606
445.712995	4568.976692
446.088002	4767.842649
446.462949	4784.594403
446.837837	4801.983864
447.212664	4785.385865
447.587431	5014.579404
447.962139	5309.181914
448.336786	5647.682792
448.711374	5634.190143
449.085901	5284.394560
449.460369	5221.422987
449.834776	5158.915200
450.209124	5385.323502
450.583412	5400.638527
450.957640	5521.061610
451.331808	5382.588676
451.705917	5231.739708
452.079965	5225.939861
452.453954	5265.434781
452.827883	5228.089913
453.201752	5235.727261
453.575562	5268.010810
453.949311	5401.477879
454.323001	5404.278240
454.696632	5392.804574
455.070202	5552.785591
455.443713	5579.080250
455.817164	5671.058622
456.190556	5739.855249
456.563888	5718.652156
456.937160	5798.211646
457.310373	5639.266585
457.683526	5696.806315
458.056619	5687.167629
458.429653	5669.427809
458.802628	5714.982196
459.175542	5747.197689
459.548398	5885.635336
459.921194	6065.566719
460.293930	6130.837059
460.666607	6375.358226
461.039224	6590.612975
461.411782	6718.670885
461.784280	6644.124823
462.156719	6643.265306
462.529099	6604.637465
462.901419	6460.389888
463.273680	6338.215004
463.645882	6324.334187
464.018024	6322.335370
464.390106	6389.549074
464.762130	6650.958107
465.134094	7025.674634
465.505999	7654.893813
465.877845	8364.779015
466.249631	8720.976864
466.621358	8650.398189
466.993026	8456.003735
467.364634	8246.505984
467.736184	7961.985782
468.107674	7805.876371
468.479105	7718.014100
468.850477	7652.123699
469.221790	7484.807803
469.593043	7260.027794
469.964238	7163.683782
470.335373	7132.660521
470.706449	7295.494832
471.077467	7466.145451
471.448425	8119.605018
471.819324	8711.723826
472.190164	8755.044981
472.560945	8273.894573
472.931667	7810.670508
473.302330	7606.488654
473.672934	7487.993812
474.043479	7565.486429
474.413965	7464.282745
474.784393	7414.985301
475.154761	7569.857109
475.525070	7583.813544
475.895321	7535.448714
476.265513	7633.673076
476.635645	7794.301881
477.005719	7782.445087
477.375734	7867.247377
477.745691	7979.135787
478.115588	8179.098196
478.485427	8418.966378
478.855207	8887.284529
479.224928	9317.128594
479.594591	9696.752684
479.964194	9709.037976
480.333739	9791.012179
480.703226	9792.335482
481.072653	9894.275174
481.442022	10004.915898
481.811333	10159.855762
482.180584	9997.603705
482.549777	9945.611765
482.918912	9879.968380
483.287988	9870.962358
483.657005	9775.553481
484.025964	9688.018885
484.394864	9755.247713
484.763706	9710.391526
485.132489	9617.886353
485.501213	9621.473134
485.869879	9678.133183
486.238487	9610.521227
486.607036	9689.082569
486.975527	9633.266913
487.343959	9691.885450
487.712333	9739.151309
488.080648	9781.391137
488.448905	9883.978618
488.817104	9887.257888
489.185244	10056.597808
489.553326	10269.352144
489.921350	10716.126924
490.289315	11348.968172
490.657222	11636.888633
491.025070	11818.125676
491.392861	11735.662481
491.760593	11585.937691
492.128267	11336.987870
492.495883	11101.064391
492.863440	10862.572443
493.230939	10637.555500
493.598380	10452.003230
493.965763	10433.051012
494.333088	10299.833481
494.700354	10229.315300
495.067563	10195.713489
495.434713	10205.216064
495.801805	10253.343960
496.168839	10211.305778
496.535815	10182.601448
496.902733	10221.511594
497.269593	10179.889307
497.636395	10190.049753
498.003139	10298.147215
498.369825	10223.218025
498.736453	10319.380555
499.103023	10260.746894
499.469535	10269.947000
499.835989	10318.863837
500.202385	10289.912490
500.568723	10304.191558
500.935003	10365.857473
501.301226	10337.039717
501.667390	10495.049643
502.033497	10607.404359
502.399546	10526.246823
502.765537	10442.659452
503.131470	10541.501355
503.497345	10637.530295
503.863163	10407.459595
504.228923	10538.501868
504.594625	10656.505198
504.960269	10564.642772
505.325856	10720.850485
505.691385	10599.184758
506.056856	10670.297795
506.422270	10761.840107
506.787625	10705.419513
507.152924	10759.465724
507.518164	10821.297996
507.883347	10683.472850
508.248472	10752.118242
508.613540	10867.638803
508.978550	10931.469893
509.343503	10916.323746
509.708398	10974.032355
510.073236	11093.895870
510.438016	11114.804056
510.802738	11025.918431
511.167403	11149.691361
511.532010	11211.289220
511.896561	11301.064608
512.261053	11503.333344
512.625488	11422.236302
512.989866	11411.715414
513.354186	11388.531148
513.718449	11398.419371
514.082655	11541.991433
514.446803	11494.662560
514.810894	11606.321597
515.174927	11596.730802
515.538904	11577.975189
515.902822	11748.225036
516.266684	11619.473967
516.630488	11715.613812
516.994235	11707.764736
517.357925	11825.074906
517.721558	11883.340562
518.085133	11942.750560
518.448651	11973.925056
518.812112	11930.336719
519.175516	11935.713110
519.538863	12024.848271
519.902152	12038.260261
520.265385	12142.712969
520.628560	12166.406392
520.991678	12103.969181
521.354739	12165.715754
521.717743	12234.509860
522.080690	12211.214688
522.443580	12349.168383
522.806413	12356.225999
523.169189	12348.187879
523.531908	12406.629976
523.894569	12366.993903
524.257174	12378.480172
524.619722	12483.847850
524.982213	12473.342085
525.344647	12454.087398
525.707025	12472.351498
526.069345	12569.615521
526.431608	12549.186245
526.793815	12629.222124
527.155964	12521.152388
527.518057	12549.748333
527.880093	12511.617046
528.242072	12629.774130
528.603995	12559.860888
528.965860	12569.050911
529.327669	12600.374121
529.689421	12551.653889
530.051117	12562.313409
530.412755	12597.052000
530.774337	12609.606994
531.135862	12563.598903
531.497331	12623.631484
531.858743	12576.519381
532.220098	12668.202846
532.581396	12587.541864
532.942638	12508.756191
533.303824	12580.103641
533.664953	12566.792474
534.026025	12524.446782
534.387040	12630.890746
534.747999	12600.464862
535.108902	12649.003611
535.469748	12518.261286
535.830537	12545.914536
536.191270	12586.369795
536.551947	12515.455884
536.912567	12579.115575
537.273131	12608.273609
537.633638	12495.886125
537.994089	12542.282384
538.354483	12467.978297
538.714821	12589.036566
539.075103	12676.243486
539.435328	12612.460287
539.795497	12578.850914
540.155609	12577.572982
540.515665	12686.945856
540.875665	12549.397973
541.235609	12640.642858
541.595496	12604.245727
541.955328	12776.368363
542.315102	12618.116462
542.674821	12554.330742
543.034483	12573.736664
543.394090	12570.711972
543.753640	12552.392418
544.113134	12791.184314
544.472571	12559.760065
544.831953	12829.484481
545.191278	12644.050678
545.550548	12592.010847
545.909761	12698.013709
546.268918	12734.272208
546.628019	12813.498982
546.987064	12688.601875
547.346053	12545.337324
547.704986	12744.725041
548.063863	12623.235753
548.422684	12679.255576
548.781449	12629.232206
549.140158	12733.279101
549.498811	12682.716328
549.857408	12552.717573
550.215949	12757.252308
550.574434	12724.716701
550.932864	12657.487873
551.291237	12855.358203
551.649555	12751.989343
552.007817	12814.388746
552.366022	12732.711971
552.724173	12777.681584
553.082267	12856.794932
553.440305	12953.847226
553.798288	12773.625976
554.156215	12852.825023
554.514086	12894.767423
554.871902	12840.494361
555.229661	12860.248122
555.587365	12811.480000
555.945014	12819.470229
556.302606	12806.653095
556.660143	12868.114843
557.017625	12896.249522
557.375050	12862.138555
557.732421	12965.207466
558.089735	12958.480046
558.446994	12924.699274
558.804197	13048.835167
559.161345	13033.444524
559.518437	12852.608253
559.875474	12950.426803
560.232455	12981.752533
560.589381	13032.015357
560.946251	12969.018578
561.303065	13146.578099
561.659825	13097.716715
562.016528	13001.062673
562.373177	12939.621089
562.729770	13072.405082
563.086307	12953.222122
563.442789	13069.879464
563.799216	13103.115791
564.155587	13042.944579
564.511904	13059.560222
564.868164	13077.990680
565.224370	13139.971667
565.580520	13090.696908
565.936615	13143.707162
566.292654	13087.798245
566.648638	13156.877176
567.004567	13156.602433
567.360441	13153.597906
567.716260	13124.744862
568.072023	13216.967730
568.427732	13189.798431
568.783385	13091.745468
569.138982	13205.650340
569.494525	13200.528527
569.850013	13142.456956
570.205445	13145.390907
570.560823	13154.785097
570.916145	13106.541255
571.271412	13124.870890
571.626625	13076.596801
571.981782	13073.632603
572.336884	13013.647913
572.691931	13098.041870
573.046923	12994.854492
573.401860	12972.696100
573.756743	12971.720637
574.111570	13003.754649
574.466342	12984.096669
574.821059	13029.653577
575.175722	12902.866037
575.530330	12930.272270
575.884882	12849.379394
576.239380	12859.570087
576.593823	12848.136750
576.948211	12831.672342
577.302544	12707.450749
577.656823	12729.994789
578.011047	12794.526599
578.365216	12721.356772
578.719330	12660.709171
579.073389	12638.265954
579.427394	12638.429791
579.781344	12634.522897
580.135239	12563.840879
580.489080	12581.192530
580.842866	12466.077782
581.196597	12557.199159
581.550273	12539.603011
581.903895	12515.705421
582.257463	12625.279941
582.610975	12468.003503
582.964434	12545.375132
583.317837	12467.146507
583.671186	12415.068867
584.024481	12464.547792
584.377721	12360.727749
584.730906	12426.693768
585.084037	12450.835854
585.437113	12366.426774
585.790135	12390.508366
586.143103	12301.431177
586.496016	12317.787201
586.848874	12319.733086
587.201679	12319.259218
587.554428	12197.457379
587.907124	12250.021490
588.259765	12181.323166
588.612352	12248.980492
588.964884	12109.958072
589.317362	12168.155672
589.669786	12157.612099
590.022155	12113.943104
590.374470	12211.257538
590.726731	12088.427304
591.078937	11983.742703
591.431090	12011.514419
591.783188	11944.361209
592.135232	11868.015455
592.487222	11933.560537
592.839157	11935.088007
593.191038	11875.806558
593.542866	11822.458547
593.894639	11683.761282
594.246358	11741.606001
594.598022	11748.230078
594.949633	11658.815132
595.301190	11639.295784
595.652692	11596.335071
596.004141	11685.934019
596.355535	11470.679270
596.706876	11451.797628
597.058162	11423.557085
597.409395	11509.450784
597.760573	11536.985567
598.111698	11430.902046
598.462768	11430.891963
598.813785	11435.733992
599.164748	11310.622636
599.515657	11385.420756
599.866511	11265.232086
600.217312	11390.560212
600.568060	11158.944399
600.918753	11318.945581
601.269392	11319.779892
601.619978	11230.430481
601.970510	11262.668660
602.320988	11305.823457
602.671412	11373.037161
603.021783	11299.272478
603.372100	11226.805891
603.722363	11245.869014
604.072572	11258.010633
604.422728	11251.263049
604.772830	11198.646006
605.122878	11209.020700
605.472872	11185.269304
605.822813	11235.995915
606.172701	11196.158196
606.522534	11243.945814
606.872314	11286.258739
607.222041	11219.571835
607.571714	11294.871550
607.921333	11161.659060
608.270899	11217.583100
608.620411	11273.376070
608.969870	11221.419418
609.319276	11199.964267
609.668627	11223.763555
610.017926	11309.009466
610.367171	11336.211533
610.716362	11326.409009
611.065500	11297.656788
611.414585	11324.553864
611.763616	11380.969417
612.112594	11335.606594
612.461518	11374.302491
612.810389	11410.500496
613.159207	11359.226920
613.507971	11360.502332
613.856682	11456.891714
614.205340	11415.508882
614.553945	11552.784543
614.902496	11426.382651
615.250994	11487.872125
615.599439	11469.514764
615.947830	11512.888851
616.296169	11480.083543
616.644454	11487.360448
616.992686	11505.692604
617.340864	11599.072418
617.688990	11493.689617
618.037063	11632.931327
618.385082	11603.548962
618.733048	11639.368881
619.080961	11629.112653
619.428821	11610.074736
619.776628	11617.681837
620.124382	11568.780124
620.472083	11580.891496
620.819731	11598.689290
621.167326	11532.246882
621.514868	11509.990188
621.862357	11412.746330
622.209793	11400.168651
622.557176	11315.429376
622.904506	11256.984759
623.251783	11172.855463
623.599007	11119.832607
623.946179	11075.742675
624.293297	11050.128572
624.640363	10911.620350
624.987376	10900.812116
625.334336	10829.212608
625.681243	10748.849054
626.028097	10722.004910
626.374899	10679.830617
626.721647	10665.037351
627.068343	10626.230548
627.414987	10551.084588
627.761577	10490.510084
628.108115	10530.441063
628.454600	10406.577393
628.801032	10430.601012
629.147412	10407.237784
629.493739	10386.334640
629.840014	10307.576693
630.186236	10356.564106
630.532405	10248.494370
630.878521	10289.541965
631.224585	10236.350230
631.570597	10163.356843
631.916556	10165.819447
632.262462	10156.163117
632.608316	10139.260128
632.954117	10107.394994
633.299866	10097.040464
633.645562	10074.723276
633.991206	9974.449685
634.336797	9876.726918
634.682336	9860.938024
635.027823	9813.538575
635.373257	9768.291699
635.718639	9701.254435
636.063968	9674.264097
636.409245	9560.830574
636.754470	9543.904900
637.099642	9491.623093
637.444762	9402.281244
637.789829	9405.043797
638.134845	9327.984719
638.479808	9302.731059
638.824719	9281.774982
639.169577	9191.417341
639.514383	9199.463022
639.859137	9122.908060
640.203839	9157.513060
640.548489	9083.269467
640.893086	9086.513450
641.237632	9011.279270
641.582125	9023.211681
641.926566	9013.215073
642.270955	8994.220005
642.615292	8985.541659
642.959576	8966.191190
643.303809	8956.537380
643.647990	8972.469947
643.992118	8950.994631
644.336195	8929.662989
644.680219	8927.807844
645.024192	8953.845404
645.368112	9029.999594
645.711981	9014.634158
646.055797	9151.501484
646.399562	9104.875852
646.743274	9274.984548
647.086935	9339.639867
647.430544	9315.951485
647.774101	9342.989713
648.117606	9363.817240
648.461059	9422.685314
648.804460	9348.577832
649.147810	9238.194207
649.491108	9197.660810
649.834354	9141.683837
650.177548	9002.716870
650.520690	8911.187160
650.863781	8896.003205
651.206820	8878.071820
651.549807	8788.069580
651.892742	8702.503555
652.235626	8662.081063
652.578458	8625.613356
652.921238	8507.519286
653.263967	8547.732571
653.606644	8480.730595
653.949269	8461.753171
654.291843	8388.923622
654.634365	8451.985936
654.976836	8375.511632
655.319255	8369.187504
655.661622	8358.485135
656.003938	8323.376019
656.346203	8283.243393
656.688416	8317.336716
657.030577	8265.286803
657.372687	8233.877894
657.714746	8266.937781
658.056753	8282.136860
658.398708	8180.819750
658.740612	8176.915376
659.082465	8217.884833
659.424266	8177.245572
659.766016	8187.431223
660.107715	8161.360896
660.449362	8187.673198
660.790958	8176.711209
661.132503	8173.273142
661.473996	8174.379676
661.815438	8187.148918
662.156829	8212.805871
662.498168	8166.399529
662.839456	8159.898961
663.180693	8185.651696
663.521879	8200.344138
663.863013	8187.975667
664.204097	8183.766304
664.545129	8255.156604
664.886110	8242.944409
665.227040	8254.609639
665.567918	8258.456039
665.908746	8272.004140
666.249522	8288.733209
666.590248	8291.364692
666.930922	8299.443141
667.271545	8294.820403
667.612118	8309.180129
667.952639	8275.293493
668.293109	8277.430943
668.633528	8256.154753
668.973896	8239.382834
669.314213	8244.461796
669.654480	8204.951753
669.994695	8204.225827
670.334859	8177.671549
670.674973	8155.661871
671.015035	8185.838218
671.355047	8167.826176
671.695008	8154.046182
672.034918	8137.571691
672.374777	8138.242164
672.714585	8118.748022
673.054342	8143.386662
673.394049	8114.712579
673.733705	8156.133219
674.073310	8109.845345
674.412864	8114.256354
674.752368	8051.320069
675.091820	8108.983307
675.431223	8029.703601
675.770574	7985.976633
676.109875	7951.061601
676.449125	7912.416116
676.788324	7907.775734
677.127473	7818.517064
677.466571	7808.626320
677.805619	7744.870847
678.144616	7742.826659
678.483562	7721.275727
678.822458	7670.836462
679.161303	7662.153074
679.500098	7632.511090
679.838842	7617.871579
680.177535	7629.821634
680.516179	7665.102149
680.854771	7678.708224
681.193314	7794.531254
681.531805	7951.011190
681.870247	8078.648164
682.208638	8223.621666
682.546978	8302.150240
682.885268	8335.636105
683.223508	8263.918130
683.561697	8216.780821
683.899836	8179.297321
684.237925	8097.663396
684.575963	8071.298162
684.913951	7981.394224
685.251889	7999.091195
685.589776	7996.815114
685.927614	7987.630131
686.265401	8004.454982
686.603137	8006.562185
686.940824	8072.530724
687.278460	8126.670196
687.616046	8137.231413
687.953582	8247.272240
688.291068	8229.824806
688.628504	8291.750340
688.965889	8295.924415
689.303224	8255.201975
689.640510	8214.386272
689.977745	8101.323274
690.314930	7983.887075
690.652065	7905.227431
690.989150	7794.317005
691.326185	7646.313769
691.663170	7529.520317
692.000105	7416.953872
692.336990	7303.424567
692.673825	7226.103349
693.010610	7134.709750
693.347345	7037.818773
693.684030	6926.978924
694.020665	6878.742643
694.357251	6767.549913
694.693786	6759.312668
695.030272	6719.416976
695.366707	6619.781091
695.703093	6570.047588
696.039429	6564.467030
696.375716	6517.062540
696.711952	6506.738257
697.048139	6478.812785
697.384276	6448.520492
697.720363	6465.310055
698.056400	6436.333502
698.392388	6401.100878
698.728326	6404.561630
699.064214	6373.777824
699.400053	6371.789089
699.735842	6321.874104
700.071581	6270.913080
700.407270	6226.828190
700.742910	6193.478436
701.078501	6155.458054
701.414042	6116.177383
701.749533	6056.888373
702.084974	5999.192367
702.420366	6038.309200
702.755709	5966.480320
703.091002	5920.351242
703.426246	5924.590852
703.761440	5907.829015
704.096584	5858.690368
704.431679	5843.271999
704.766725	5833.958468
705.101721	5820.738042
705.436668	5837.946020
705.771565	5779.957628
706.106413	5843.521536
706.441212	5837.409137
706.775961	5857.500656
707.110661	5863.358477
707.445311	5920.744452
707.779913	5890.288321
708.114465	5928.636378
708.448967	5977.061702
708.783421	6086.293423
709.117825	6129.654908
709.452180	6164.771586
709.786485	6229.124435
710.120742	6354.334094
710.454949	6358.495566
710.789107	6430.591628
711.123216	6558.447893
711.457275	6584.989567
711.791286	6690.614343
712.125247	6709.380039
712.459159	6677.938362
712.793023	6808.494164
713.126837	6646.035420
713.460602	6699.534665
713.794318	6651.850391
714.127985	6597.156392
714.461602	6458.736390
714.795171	6464.725281
715.128691	6300.731505
715.462162	6208.826229
715.795584	6136.704962
716.128957	6093.071255
716.462281	6027.180853
716.795556	5985.500593
717.128782	5909.895888
717.461960	5805.856555
717.795088	5795.333147
718.128167	5729.858641
718.461198	5643.695239
718.794180	5625.347960
719.127113	5563.361932
719.459997	5533.165420
719.792833	5463.506757
720.125619	5459.678000
720.458357	5397.374380
720.791046	5372.589547
721.123686	5339.242314
721.456278	5295.283453
721.788821	5292.231034
722.121315	5249.981124
722.453761	5257.948667
722.786158	5239.619032
723.118506	5243.251183
723.450805	5216.681782
723.783056	5241.078446
724.115259	5224.641764
724.447412	5209.508220
724.779518	5260.169296
725.111574	5259.355149
725.443582	5293.778668
725.775542	5288.883708
726.107453	5377.940732
726.439315	5347.628274
726.771129	5414.705867
727.102895	5481.932174
727.434612	5521.487587
727.766281	5548.457761
728.097901	5604.704435
728.429473	5622.502228
728.760996	5633.113857
729.092471	5654.528679
729.423897	5646.130116
729.755276	5614.368327
730.086606	5633.285256
730.417887	5718.271548
730.749120	5807.752029
731.080305	5851.168967
731.411442	5921.064565
731.742530	5944.054747
732.073570	5964.819260
732.404562	6032.224528
732.735506	6023.238671
733.066401	6005.546742
733.397249	5945.559531
733.728048	5845.424572
734.058798	5702.558272
734.389501	5581.341207
734.720156	5492.432897
735.050762	5389.537906
735.381320	5316.703315
735.711831	5259.410602
736.042293	5181.378582
736.372707	5178.391698
736.703073	5129.989059
737.033391	5160.919059
737.363661	5142.360051
737.693883	5152.369262
738.024056	5176.927243
738.354182	5198.190830
738.684260	5253.267956
739.014290	5288.583759
739.344272	5321.187422
739.674207	5381.792173
740.004093	5408.651441
740.333931	5414.834416
740.663722	5439.462973
740.993464	5448.310198
741.323159	5433.935348
741.652806	5387.289552
741.982405	5352.077092
742.311956	5302.215039
742.641460	5288.858502
742.970915	5239.861007
743.300323	5175.379608
743.629683	5143.955576
743.958996	5094.897587
744.288260	5046.757089
744.617477	4983.989682
744.946647	4973.322601
745.275768	4918.338736
745.604842	4886.390423
745.933869	4853.169219
746.262847	4848.949773
746.591778	4832.946631
746.920662	4808.187003
747.249498	4801.041168
747.578286	4820.121935
747.907027	4838.479297
748.235720	4887.862440
748.564365	4892.948964
748.892963	4876.693764
749.221514	4893.425353
749.550017	4871.014904
749.878473	4873.664030
750.206881	4833.110468
750.535242	4824.510260
750.863555	4810.833609
751.191821	4786.202532
751.520039	4792.027585
751.848210	4773.226602
752.176334	4777.362868
752.504411	4754.186163
752.832440	4729.229931
753.160421	4744.615533
753.488356	4725.847317
753.816243	4704.200602
754.144082	4673.820089
754.471875	4660.645033
754.799620	4653.010206
755.127318	4640.427486
755.454969	4636.437412
755.782572	4630.771156
756.110129	4628.255620
756.437638	4617.417139
756.765100	4611.899596
757.092515	4616.466882
757.419882	4615.763641
757.747203	4611.955049
758.074477	4623.063231
758.401703	4611.299699
758.728882	4645.713136
759.056014	4658.726874
759.383099	4675.965100
759.710138	4708.823341
760.037129	4727.359663
760.364073	4739.304677
760.690970	4738.485490
761.017820	4741.623608
761.344623	4772.346920
761.671379	4829.556455
761.998088	4916.196245
762.324751	5139.380729
762.651366	5587.811528
762.977935	6276.324759
763.304456	6837.531211
763.630931	7161.246384
763.957359	7108.503312
764.283740	6819.352810
764.610074	6500.169633
764.936362	6099.896977
765.262602	5782.558863
765.588796	5434.961223
765.914943	5178.714332
766.241044	4948.389054
766.567097	4779.389412
766.893104	4628.842914
767.219064	4527.961864
767.544978	4430.823871
767.870845	4352.002910
768.196665	4304.210251
768.522438	4257.836676
768.848165	4209.940674
769.173846	4173.382226
769.499479	4146.795181
769.825066	4109.760344
770.150607	4070.489755
770.476101	4052.858320
770.801548	4034.662275
771.126949	4000.236235
771.452303	3980.565653
771.777611	3943.729942
772.102872	3940.485959
772.428087	3916.805139
772.753256	3888.698186
773.078378	3875.439951
773.403453	3840.582893
773.728482	3816.339984
774.053465	3801.254331
774.378401	3782.927217
774.703291	3758.674225
775.028135	3732.611460
775.352932	3725.916808
775.677683	3706.437789
776.002388	3689.078576
776.327046	3687.961960
776.651658	3667.595699
776.976224	3650.614572
777.300743	3650.518790
777.625216	3635.972541
777.949643	3622.865541
778.274024	3627.049698
778.598359	3608.611678
778.922647	3610.539920
779.246889	3598.615070
779.571086	3599.419134
779.895236	3597.778239
780.219339	3597.407714
780.543397	3596.575923
780.867409	3611.742235
781.191374	3610.706278
781.515294	3607.061523
781.839167	3624.766056
782.162995	3619.485447
782.486776	3611.966566
782.810511	3604.656893
783.134201	3594.380501
783.457844	3591.257506
783.781441	3584.683842
784.104993	3573.704208
784.428498	3568.574834
784.751958	3564.509144
785.075372	3562.535532
785.398739	3548.989952
785.722061	3555.750139
786.045337	3556.942372
786.368568	3578.480702
786.691752	3573.520206
787.014891	3622.747074
787.337983	3665.571676
787.661030	3751.152824
787.984031	3844.575487
788.306987	3928.697221
788.629897	3976.144561
788.952760	3988.623937
789.275579	3970.022080
789.598351	3922.622631
789.921078	3868.193293
790.243759	3805.239363
790.566395	3760.075666
790.888984	3710.102708
791.211529	3673.980320
791.534027	3629.618166
791.856480	3590.818926
792.178888	3570.576172
792.501249	3549.708316
792.823566	3518.254037
793.145836	3513.923686
793.468062	3505.678878
793.790241	3488.690190
794.112375	3497.847446
794.434464	3520.882998
794.756507	3512.975949
795.078505	3534.426058
795.400457	3575.461051
795.722364	3624.418216
796.044226	3666.942869
796.366042	3714.052452
796.687812	3711.186556
797.009538	3735.799990
797.331218	3726.226839
797.652852	3719.081003
797.974442	3698.135009
798.295986	3693.177034
798.617484	3656.371570
798.938938	3638.377171
799.260346	3621.922845
799.581709	3586.481013
799.903026	3576.000454
800.224299	3552.400292
800.545526	3524.396683
800.866708	3507.944877
801.187845	3493.726303
801.508936	3470.340390
801.829983	3462.145994
802.150984	3435.551387
802.471940	3425.290119
802.792851	3419.553286
803.113717	3416.853748
803.434538	3400.228022
803.755314	3394.244173
804.076045	3389.646640
804.396731	3377.381513
804.717372	3378.329250
805.037967	3376.617778
805.358518	3378.546020
805.679024	3389.749984
805.999485	3387.247051
806.319901	3391.292577
806.640272	3394.410531
806.960598	3405.191038
807.280879	3405.768250
807.601115	3415.117070
807.921306	3411.167326
808.241453	3411.711771
808.561554	3417.917431
808.881611	3410.592635
809.201623	3413.672780
809.521590	3404.686923
809.841513	3407.643560
810.161390	3411.621030
810.481223	3393.692166
810.801011	3392.583113
811.120755	3389.712175
811.440453	3373.847664
811.760107	3368.453630
812.079716	3361.948021
812.399281	3350.028212
812.718801	3348.382276
813.038276	3344.303982
813.357707	3338.975483
813.677093	3344.495546
813.996434	3329.130109
814.315731	3338.748631
814.634983	3336.238136
814.954191	3338.078157
815.273354	3352.740353
815.592473	3362.195037
815.911547	3382.457955
816.230577	3397.621746
816.549562	3419.916249
816.868502	3439.554063
817.187399	3461.785552
817.506250	3488.765807
817.825058	3496.940038
818.143821	3542.776730
818.462539	3588.472269
818.781213	3640.648211
819.099843	3723.817167
819.418429	3876.390209
819.736970	4027.087941
820.055466	4213.814800
820.373919	4449.486222
820.692327	4781.554588
821.010691	5287.731804
821.329011	6351.879052
821.647286	8067.504693
821.965517	10228.551565
822.283704	11867.050074
822.601847	12968.101088
822.919945	12577.499885
823.237999	11911.742423
823.556010	11018.419715
823.873976	10068.298326
824.191897	9098.148433
824.509775	8329.017070
824.827609	7522.014039
825.145398	6970.443752
825.463144	6588.362099
825.780845	6452.540812
826.098502	6504.850345
826.416116	6879.347582
826.733685	7386.343986
827.051210	7683.119233
827.368692	7596.764268
827.686129	7166.799215
828.003522	6615.420493
828.320872	6047.693308
828.638177	5589.943936
828.955439	5217.377461
829.272656	4882.516296
829.589830	4598.963995
829.906960	4330.303263
830.224046	4122.209473
830.541088	3949.875108
830.858086	3838.962162
831.175041	3743.238212
831.491952	3691.069832
831.808819	3672.871266
832.125642	3708.126576
832.442421	3807.215496
832.759157	4017.242568
833.075849	4389.093199
833.392497	4858.391855
833.709101	5255.090333
834.025662	5367.508064
834.342179	5250.119755
834.658653	4976.488445
834.975083	4706.232187
835.291469	4460.407882
835.607811	4237.036876
835.924110	4075.268769
836.240366	3914.163575
836.556578	3755.266405
836.872746	3617.373204
837.188871	3506.606451
837.504952	3407.431831
837.820990	3332.686643
838.136984	3279.348715
838.452935	3252.691093
838.768842	3235.493197
839.084706	3264.802465
839.400526	3395.330541
839.716303	3623.520891
840.032037	3833.144671
840.347727	3901.404414
840.663373	3815.546002
840.978977	3669.856656
841.294537	3538.108621
841.610054	3429.635593
841.925527	3353.443594
842.240957	3286.045888
842.556344	3222.955847
842.871687	3167.006601
843.186987	3102.583176
843.502244	3049.436811
843.817458	3011.366017
844.132629	2977.688589
844.447756	2955.079014
844.762840	2934.523709
845.077881	2917.822367
845.392879	2905.486663
845.707833	2891.101731
846.022745	2878.990359
846.337613	2877.460368
846.652438	2867.877135
846.967221	2863.720704
847.281960	2853.371215
847.596656	2851.833663
847.911309	2846.588342
848.225919	2840.120542
848.540485	2842.061386
848.855009	2836.359841
849.169490	2829.801300
849.483928	2827.379026
849.798323	2824.382060
850.112675	2823.051195
850.426984	2823.638489
850.741251	2819.240083
851.055474	2817.067345
851.369654	2819.202274
851.683792	2819.144301
851.997887	2816.429639
852.311938	2816.550627
852.625947	2817.463076
852.939914	2814.476192
853.253837	2818.259578
853.567718	2814.516522
853.881555	2812.908393
854.195350	2815.285297
854.509103	2812.583239
854.822812	2813.157931
855.136479	2814.821511
855.450103	2815.396203
855.763685	2813.523414
856.077224	2810.372693
856.390720	2814.725729
856.704173	2815.605411
857.017584	2819.658498
857.330953	2822.138746
857.644278	2824.654282
857.957561	2825.536484
858.270802	2824.175372
858.584000	2826.459015
858.897155	2825.065136
859.210268	2821.281750
859.523339	2819.388797
859.836367	2818.793941
860.149352	2819.109013
860.462295	2816.656491
860.775195	2812.121973
861.088054	2810.473516
861.400869	2812.426963
861.713642	2810.304637
862.026373	2808.396561
862.339062	2813.352015
862.651708	2819.701348
862.964312	2824.263592
863.276873	2823.555310
863.589392	2830.013028
863.901869	2835.301199
864.214303	2843.717405
864.526696	2851.518591
864.839045	2856.085876
865.151353	2864.928060
865.463619	2867.796477
865.775842	2870.324615
866.088023	2874.652446
866.400162	2875.713609
866.712258	2873.356869
867.024313	2878.564381
867.336325	2877.651932
867.648296	2879.812067
867.960224	2880.243085
868.272110	2880.268291
868.583954	2882.322561
868.895755	2884.270967
869.207515	2885.770711
869.519233	2892.094838
869.830909	2894.930487
870.142542	2895.129613
870.454134	2898.761764
870.765684	2903.525654
871.077191	2910.835328
871.388657	2914.835483
871.700081	2919.165834
872.011463	2928.176897
872.322803	2934.460695
872.634101	2939.917744
872.945357	2943.862447
873.256571	2959.648820
873.567744	2963.011270
873.878874	2965.352886
874.189963	2974.096767
874.501010	2973.784216
874.812015	2974.744555
875.122979	2985.613283
875.433900	2986.561020
875.744780	2991.743326
876.055618	2995.506548
876.366415	2996.418996
876.677169	3003.365706
876.987882	3007.701099
877.298554	3016.699558
877.609183	3033.403422
877.919771	3050.228273
878.230317	3073.251222
878.540822	3112.506687
878.851285	3158.449243
879.161707	3224.377453
879.472087	3330.662620
879.782425	3488.213801
880.092722	3763.854011
880.402977	4182.221889
880.713191	4727.347060
881.023363	5324.779244
881.333494	5762.144710
881.643583	6058.428445
881.953631	6129.541482
882.263637	6085.043217
882.573602	5951.732424
882.883526	5787.267301
883.193408	5581.860446
883.503248	5361.647722
883.813048	5146.433303
884.122806	4931.014717
884.432522	4684.625802
884.742197	4462.706648
885.051831	4253.206377
885.361424	4054.133732
885.670975	3882.366497
885.980485	3738.779312
886.289954	3610.136627
886.599382	3509.094260
886.908768	3422.426743
887.218113	3341.843899
887.527417	3277.881739
887.836680	3219.701782
888.145901	3173.703774
888.455082	3138.803866
888.764221	3102.605861
889.073319	3074.390523
889.382376	3052.337995
889.691392	3037.264945
890.000366	3029.481404
890.309300	3023.157276
890.618193	3019.008407
890.927044	3015.993797
891.235855	3012.407016
891.544625	3014.267202
891.853353	3021.849097
892.162041	3038.187477
892.470687	3061.016342
892.779293	3096.521188
893.087858	3143.943322
893.396381	3220.026937
893.704864	3324.151970
894.013306	3479.149806
894.321707	3666.249711
894.630068	3820.050273
894.938387	3897.923497
895.246665	3910.062596
895.554903	3850.443390
895.863100	3765.714197
896.171256	3691.924307
896.479371	3618.300776
896.787446	3541.463509
897.095480	3468.669248
897.403473	3417.390631
897.711425	3357.794110
898.019336	3308.289979
898.327207	3253.406937
898.635038	3208.006306
898.942827	3158.464366
899.250576	3115.516256
899.558284	3075.277766
899.865952	3047.742984
900.173579	3017.501102
900.481165	2997.573421
900.788711	2978.318733
901.096216	2961.834160
901.403681	2948.666667
901.711105	2937.752568
902.018489	2931.252001
902.325832	2944.311110
902.633135	2949.004424
902.940397	2985.308293
903.247619	3070.402970
903.554800	3248.166658
903.861941	3520.693955
904.169041	3785.155407
904.476101	3959.206284
904.783121	3985.566478
905.090100	3921.634565
905.397039	3813.935354
905.703938	3708.875187
906.010796	3606.209568
906.317614	3523.534645
906.624391	3438.109773
906.931129	3367.228629
907.237826	3296.874286
907.544483	3232.828947
907.851099	3163.104748
908.157675	3087.799992
908.464211	3016.182840
908.770707	2955.570527
909.077163	2908.251736
909.383578	2869.565922
909.689954	2842.545337
909.996289	2823.971206
910.302584	2810.483598
910.608839	2801.056641
910.915054	2789.908129
911.221229	2786.860752
911.527363	2789.368726
911.833458	2789.250258
912.139513	2792.592543
912.445527	2793.734365
912.751502	2806.072589
913.057436	2817.132880
913.363331	2839.954184
913.669186	2869.263452
913.975000	2904.974986
914.280775	2964.097638
914.586510	3044.919938
914.892205	3155.643841
915.197859	3299.911581
915.503475	3484.102740
915.809050	3656.779903
916.114585	3788.190181
916.420081	3866.668344
916.725536	3899.027510
917.030952	3861.120554
917.336328	3828.479083
917.641665	3777.644087
917.946961	3714.851475
918.252218	3653.704799
918.557435	3583.602514
918.862612	3517.273532
919.167750	3458.720530
919.472848	3386.702607
919.777906	3320.784479
920.082925	3249.500043
920.387904	3177.151923
920.692843	3122.904067
920.997743	3070.410532
921.302603	3019.789786
921.607423	2984.763849
921.912204	2949.969805
922.216946	2924.627924
922.521647	2902.373751
922.826310	2875.602703
923.130932	2858.714838
923.435516	2838.325891
923.740059	2823.484734
924.044564	2808.499904
924.349028	2796.738892
924.653454	2781.975873
924.957840	2770.368617
925.262186	2758.960486
925.566493	2746.370204
925.870761	2737.470047
926.174989	2731.823954
926.479178	2724.032851
926.783328	2714.754607
927.087438	2710.204966
927.391509	2701.851774
927.695541	2697.468491
927.999533	2693.516226
928.303486	2684.537931
928.607400	2682.314782
928.911275	2680.033660
929.215110	2676.139369
929.518906	2673.580983
929.822663	2674.276663
930.126381	2669.905982
930.430060	2671.098215
930.733699	2670.037052
931.037299	2673.497804
931.340861	2671.826662
931.644383	2674.977383
931.947866	2671.035201
932.251309	2673.570901
932.554714	2671.776250
932.858080	2674.306910
933.161407	2671.766168
933.464694	2668.544871
933.767943	2668.058399
934.071153	2666.140240
934.374323	2665.106804
934.677455	2663.576814
934.980548	2663.294509
935.283602	2660.529436
935.586617	2659.352327
935.889593	2659.773263
936.192530	2662.850887
936.495428	2664.118738
936.798287	2665.784839
937.101108	2669.177536
937.403890	2676.514935
937.706632	2686.796368
938.009336	2696.172914
938.312002	2710.235213
938.614628	2719.049671
938.917216	2731.786146
939.219765	2738.788308
939.522275	2745.659401
939.824747	2748.805081
940.127179	2744.963722
940.429573	2747.874988
940.731929	2749.833477
941.034246	2742.891808
941.336524	2748.290883
941.638763	2749.175606
941.940964	2744.999010
942.243126	2742.412898
942.545250	2737.056672
942.847335	2731.314798
943.149381	2722.951524
943.451389	2719.805844
943.753359	2712.644885
944.055290	2709.721015
944.357182	2703.212886
944.659036	2699.563090
944.960851	2698.857329
945.262628	2695.207533
945.564367	2691.141843
945.866067	2692.843232
946.167729	2692.538242
946.469352	2690.327697
946.770937	2691.038499
947.072484	2684.396779
947.373992	2685.407530
947.675462	2687.151770
947.976893	2683.232272
948.278286	2683.711182
948.579641	2678.516273
948.880958	2677.845800
949.182236	2680.472241
949.483476	2678.170954
949.784678	2677.470234
950.085841	2677.704647
950.386967	2677.626509
950.688054	2677.369411
950.989103	2683.912828
951.290114	2682.796213
951.591087	2686.743436
951.892021	2693.322142
952.192917	2696.772812
952.493776	2703.873277
952.794596	2704.379913
953.095378	2706.189687
953.396122	2709.353011
953.696828	2707.563402
953.997496	2705.093236
954.298126	2699.860518
954.598718	2699.719366
954.899272	2697.206351
955.199788	2693.937163
955.500266	2690.642769
955.800706	2677.041736
956.101108	2672.862619
956.401472	2667.367761
956.701798	2660.312667
957.002087	2649.292704
957.302337	2650.673980
957.602550	2646.073927
957.902724	2638.779378
958.202861	2634.731331
958.502960	2631.802421
958.803022	2625.390073
959.103045	2621.641975
959.403031	2617.994701
959.702979	2613.404730
960.002889	2610.939606
960.302762	2607.252002
960.602596	2604.192021
960.902393	2604.491970
961.202153	2603.897114
961.501875	2600.315374
961.801559	2600.060796
962.101205	2598.959304
962.400814	2593.935794
962.700385	2596.045517
962.999918	2592.100814
963.299414	2591.503437
963.598873	2590.505289
963.898293	2590.762388
964.197677	2590.596029
964.497022	2588.060329
964.796331	2588.332551
965.095601	2587.049578
965.394835	2589.106368
965.694030	2586.275761
965.993189	2585.849783
966.292309	2588.468662
966.591393	2585.330544
966.890439	2584.851635
967.189447	2589.814651
967.488419	2585.280133
967.787353	2584.667632
968.086249	2587.473035
968.385108	2587.755339
968.683930	2586.079156
968.982714	2586.179979
969.281462	2588.146029
969.580172	2586.754670
969.878844	2587.460432
970.177480	2591.994950
970.476078	2591.790783
970.774639	2596.259766
971.073162	2596.295054
971.371649	2595.347317
971.670098	2593.726586
971.968510	2595.858994
972.266885	2594.545773
972.565223	2602.404932
972.863524	2601.873091
973.161788	2602.604058
973.460014	2600.353183
973.758204	2602.510797
974.056356	2604.633122
974.354471	2604.151692
974.652550	2606.838627
974.950591	2605.101950
975.248595	2605.091867
975.546563	2604.796960
975.844493	2604.590272
976.142386	2604.396188
976.440243	2601.179932
976.738062	2603.415684
977.035845	2602.288986
977.333590	2600.849736
977.631299	2595.427975
977.928971	2598.445106
978.226606	2595.289344
978.524204	2596.721031
978.821765	2596.577358
979.119290	2593.313211
979.416777	2593.729107
979.714228	2597.668768
980.011642	2595.856473
980.309020	2599.312184
980.606360	2597.956114
980.903664	2603.198914
981.200931	2607.090685
981.498162	2614.286932
981.795356	2627.890486
982.092513	2642.139307
982.389633	2658.273520
982.686717	2677.755059
982.983764	2694.448840
983.280775	2704.982331
983.577749	2714.142107
983.874686	2714.996583
984.171587	2709.562219
984.468451	2703.825386
984.765279	2695.988912
985.062070	2691.207378
985.358824	2681.916531
985.655543	2674.558967
985.952224	2663.541526
986.248869	2652.405617
986.545478	2635.719397
986.842050	2623.650875
987.138586	2614.599483
987.435086	2604.454161
987.731549	2593.870259
988.027975	2594.986874
988.324366	2589.353385
988.620719	2584.581933
988.917037	2581.683269
989.213318	2582.903229
989.509563	2578.930799
989.805772	2575.724626
990.101944	2578.086406
990.398080	2575.782599
990.694180	2575.679255
990.990244	2574.721436
991.286271	2576.158165
991.582262	2576.800912
991.878217	2577.874678
992.174136	2577.189081
992.470019	2577.199163
992.765865	2581.161510
993.061676	2576.359811
993.357450	2582.240317
993.653188	2581.335430
993.948890	2584.392890
994.244556	2586.386666
994.540186	2589.376070
994.835780	2594.094590
995.131337	2604.514655
995.426859	2609.780140
995.722345	2619.345730
996.017795	2631.734365
996.313208	2640.435397
996.608586	2642.257774
996.903928	2649.602735
997.199234	2650.673980
997.494504	2647.631644
997.789738	2650.817653
998.084936	2646.618372
998.380099	2640.548823
998.675225	2634.131434
998.970316	2630.418624
999.265371	2622.705659
999.560390	2615.857251
999.855373	2610.314503
1000.150320	2601.006012
1000.445232	2598.298913
1000.740108	2595.425455
1001.034948	2587.251224
1001.329752	2585.222159
1001.624521	2581.983218
1001.919254	2572.941909
1002.213951	2574.930644
1002.508613	2572.306723
1002.803239	2568.825807
1003.097829	2568.084757
1003.392384	2571.031311
1003.686903	2571.956363
1003.981386	2570.116342
1004.275834	2569.385375
1004.570246	2568.082236
1004.864623	2567.893193
1005.158964	2568.160374
1005.453270	2568.878739
1005.747540	2563.595609
1006.041775	2565.614592
1006.335974	2563.814900
1006.630138	2561.811041
1006.924266	2565.468398
1007.218359	2566.267421
1007.512416	2566.196845
1007.806438	2565.342369
1008.100425	2564.931515
1008.394376	2563.767009
1008.688292	2565.682647
1008.982172	2563.323387
1009.276017	2565.682647
1009.569827	2562.388253
1009.863602	2564.611402
1010.157341	2564.445044
1010.451045	2562.887327
1010.744714	2562.612584
1011.038347	2564.195507
1011.331945	2562.221895
1011.625508	2563.487225
1011.919036	2561.561504
1012.212528	2561.710218
1012.505986	2562.685681
1012.799408	2562.844477
1013.092795	2561.823644
1013.386147	2560.346586
1013.679464	2562.536967
1013.972745	2559.771894
1014.265992	2560.170145
1014.559204	2562.680640
1014.852380	2562.116031
1015.145521	2561.901782
1015.438628	2561.440516
1015.731699	2561.460681
1016.024736	2560.434806
1016.317737	2562.617626
1016.610703	2562.703325
1016.903635	2558.723334
1017.196531	2558.025134
1017.489393	2558.468756
1017.782219	2558.874569
1018.075011	2561.558983
1018.367768	2561.669889
1018.660490	2563.761968
1018.953177	2563.761968
1019.245829	2563.761968
