Dividing Wavelength (nm)	Counts (n)	Blue Motor Position (mm): 0.000000	Red Motor Position (mm): 28.000000	
326.493990	2144.383338
326.888308	2144.383338
327.282561	2144.383338
327.676750	2118.771756
328.070874	2116.712444
328.464933	2126.036058
328.858929	2133.612913
329.252859	2142.964253
329.646726	2161.407314
330.040528	2173.634633
330.434265	2194.711697
330.827938	2211.798688
331.221547	2229.094887
331.615091	2250.577764
332.008571	2272.017792
332.401986	2292.084104
332.795338	2313.574543
333.188625	2330.716987
333.581847	2349.170131
333.975006	2370.705940
334.368100	2388.586913
334.761129	2406.667011
335.154095	2423.438930
335.546996	2439.106836
335.939833	2455.470421
336.332606	2468.065744
336.725315	2479.370532
337.117960	2486.695328
337.510540	2495.693788
337.903056	2504.104953
338.295508	2513.234483
338.687896	2518.878054
339.080220	2527.916843
339.472480	2533.225178
339.864676	2537.542926
340.256807	2540.121477
340.648875	2543.133566
341.040879	2542.667259
341.432818	2543.466282
341.824694	2544.814791
342.216506	2545.636499
342.608253	2542.430325
342.999937	2544.842517
343.391557	2541.505273
343.783113	2544.000644
344.174605	2541.797660
344.566033	2537.701723
344.957397	2537.366486
345.348697	2534.833306
345.739934	2533.144520
346.131106	2530.727286
346.522215	2533.706608
346.913260	2528.640249
347.304241	2527.195958
347.695159	2524.819054
348.086012	2524.108251
348.476802	2522.358971
348.867528	2522.084228
349.258191	2518.840246
349.648789	2521.139012
350.039324	2520.292098
350.429796	2519.732530
350.820203	2517.264885
351.210548	2515.477796
351.600828	2516.032323
351.991045	2512.755573
352.381198	2514.020903
352.771288	2513.675583
353.161314	2513.521828
353.551276	2516.271778
353.941175	2515.266067
354.331010	2515.611387
354.720782	2513.357991
355.110490	2512.760614
355.500135	2512.790861
355.889717	2513.819256
356.279235	2515.762621
356.668689	2516.982580
357.058080	2517.458969
357.447408	2514.550224
357.836672	2512.233813
358.225873	2514.320851
358.615010	2514.998886
359.004084	2517.491737
359.393095	2518.068949
359.782043	2519.543487
360.170927	2518.142046
360.559748	2523.442819
360.948505	2522.366533
361.337199	2521.532222
361.725830	2521.222191
362.114398	2521.265041
362.502903	2523.936852
362.891344	2520.917201
363.279722	2522.074146
363.668037	2523.919208
364.056289	2523.442819
364.444478	2526.936339
364.832603	2527.359796
365.220665	2528.604961
365.608665	2526.565814
365.996601	2528.287368
366.384474	2526.737213
366.772284	2525.045906
367.160031	2526.182686
367.547715	2527.080012
367.935336	2529.290558
368.322893	2528.877183
368.710388	2528.829292
369.097820	2531.370033
369.485189	2530.568490
369.872495	2529.819879
370.259738	2526.628828
370.646918	2529.784591
371.034035	2531.314581
371.421090	2534.820703
371.808081	2530.933974
372.195010	2529.900537
372.581875	2531.647297
372.968678	2534.044366
373.355418	2532.113604
373.742096	2535.962525
374.128710	2539.312371
374.515262	2537.787422
374.901751	2535.561753
375.288177	2540.113915
375.674540	2541.071734
376.060841	2544.088865
376.447079	2542.889070
376.833254	2544.686241
377.219367	2542.284132
377.605417	2548.492313
377.991404	2549.006510
378.377329	2549.934082
378.763191	2554.178734
379.148991	2561.226267
379.534727	2564.951680
379.920402	2569.723132
380.306013	2570.963256
380.691563	2576.420305
381.077049	2578.809812
381.462474	2585.900195
381.847835	2591.153077
382.233134	2594.994436
382.618371	2600.942998
383.003545	2606.808380
383.388657	2610.942126
383.773706	2616.883126
384.158693	2624.649024
384.543618	2632.951804
384.928480	2639.081847
385.313280	2646.031078
385.698017	2654.510298
386.082692	2663.743172
386.467305	2668.101249
386.851856	2677.878567
387.236344	2687.998683
387.620770	2693.039837
388.005133	2699.210210
388.389435	2714.200081
388.773674	2722.190309
389.157851	2728.847153
389.541965	2738.553895
389.926018	2740.431725
390.310008	2753.944537
390.693936	2763.144643
391.077802	2772.105294
391.461606	2783.803292
391.845348	2790.266051
392.229027	2800.592855
392.612645	2814.950061
392.996200	2824.256031
393.379694	2836.069975
393.763125	2855.488499
394.146494	2862.420086
394.529801	2871.229502
394.913047	2889.942265
395.296230	2893.297153
395.679351	2898.766805
396.062410	2914.185174
396.445408	2909.393558
396.828343	2925.348809
397.211217	2932.678647
397.594028	2924.338058
397.976778	2939.824483
398.359466	2950.786472
398.742092	2949.662294
399.124656	2964.057309
399.507158	2978.681697
399.889598	2984.665546
400.271977	2996.693739
400.654294	3003.393433
401.036549	3018.821884
401.418742	3019.588139
401.800874	3044.642674
402.182944	3050.712223
402.564952	3083.469641
402.946898	3073.810790
403.328783	3078.463775
403.710606	3095.873400
404.092367	3122.004221
404.474067	3146.703354
404.855705	3134.004688
405.237282	3139.323105
405.618797	3168.261849
406.000250	3189.827905
406.381642	3219.600959
406.762972	3226.928277
407.144240	3214.267419
407.525447	3235.730131
407.906593	3237.416397
408.287677	3258.150663
408.668700	3277.546502
409.049661	3274.955349
409.430560	3290.550159
409.811399	3293.761374
410.192176	3315.650064
410.572891	3322.407730
410.953545	3359.823174
411.334138	3331.517095
411.714669	3386.062380
412.095139	3329.916529
412.475547	3376.816904
412.855894	3369.746686
413.236180	3400.207858
413.616405	3378.946791
413.996568	3404.540729
414.376670	3407.772109
414.756711	3403.088877
415.136691	3428.975202
415.516609	3452.711475
415.896466	3455.728606
416.276262	3483.838079
416.655997	3513.038963
417.035670	3522.027340
417.415283	3587.469079
417.794834	3609.163685
418.174324	3592.641303
418.553753	3592.928649
418.933121	3638.173004
419.312428	3625.746560
419.691674	3619.959316
420.070859	3658.723268
420.449983	3640.093684
420.829045	3687.825849
421.208047	3676.359745
421.586988	3715.801733
421.965867	3748.659973
422.344686	3756.914863
422.723444	3793.758136
423.102141	3700.751368
423.480777	3801.398004
423.859352	3767.902058
424.237866	3869.095659
424.616319	3850.912217
424.994712	3914.723143
425.373044	3901.285947
425.751314	3964.585195
426.129524	3900.980957
426.507673	4002.230012
426.885762	3975.766475
427.263789	3998.983509
427.641756	4003.018952
428.019662	4034.405176
428.397508	4036.696381
428.775292	4074.825148
429.153016	4077.938060
429.530679	4093.001028
429.908282	4102.238942
430.285824	4077.862443
430.663305	4154.044360
431.040726	4105.601392
431.418086	4101.006380
431.795385	4174.947504
432.172624	4208.481260
432.549802	4178.304913
432.926920	4194.330741
433.303977	4186.610214
433.680974	4228.436667
434.057910	4250.443824
434.434786	4257.219135
434.811601	4249.183536
435.188355	4357.185216
435.565050	4327.384435
435.941683	4322.539886
436.318257	4414.634205
436.694770	4418.561264
437.071222	4476.519410
437.447614	4410.034152
437.823946	4414.835851
438.200218	4434.980302
438.576429	4410.954163
438.952580	4435.867545
439.328670	4443.953556
439.704700	4488.386286
440.080670	4446.738793
440.456580	4509.533926
440.832429	4546.205800
441.208218	4445.561684
441.583947	4495.128829
441.959616	4515.001057
442.335224	4540.894944
442.710773	4558.012182
443.086261	4613.636274
443.461689	4566.584664
443.837057	4576.926591
444.212365	4653.925175
444.587612	4660.924817
444.962800	4625.835866
445.337927	4666.301208
445.712995	4553.807860
446.088002	4745.112087
446.462949	4765.624542
446.837837	4785.040546
447.212664	4770.630407
447.587431	4989.597966
447.962139	5294.618020
448.336786	5625.683196
448.711374	5611.943532
449.085901	5261.585860
449.460369	5198.097568
449.834776	5129.603411
450.209124	5368.596953
450.583412	5377.066092
450.957640	5499.193085
451.331808	5356.014233
451.705917	5211.675916
452.079965	5202.097724
452.453954	5239.437550
452.827883	5205.712231
453.201752	5214.972831
453.575562	5247.125310
453.949311	5376.297316
454.323001	5374.341348
454.696632	5374.840422
455.070202	5528.764493
455.443713	5557.438576
455.817164	5642.790352
456.190556	5717.795159
456.563888	5692.216345
456.937160	5772.106030
457.310373	5614.653152
457.683526	5670.622562
458.056619	5658.727960
458.429653	5638.200381
458.802628	5680.248646
459.175542	5712.648141
459.548398	5849.366754
459.921194	6036.328027
460.293930	6092.657880
460.666607	6336.685014
461.039224	6549.976233
461.411782	6676.715882
461.784280	6592.392502
462.156719	6601.358194
462.529099	6555.060237
462.901419	6409.058339
463.273680	6282.490090
463.645882	6268.344612
464.018024	6267.538027
464.390106	6329.327450
464.762130	6580.916315
465.134094	6952.104035
465.505999	7565.804022
465.877845	8259.242459
466.249631	8607.233309
466.621358	8523.048561
466.993026	8334.829520
467.364634	8117.366746
467.736184	7838.966504
468.107674	7680.175199
468.479105	7579.805826
468.850477	7518.366764
469.221790	7341.921338
469.593043	7116.480938
469.964238	7011.438415
470.335373	6981.607388
470.706449	7120.486135
471.077467	7285.639376
471.448425	7898.903303
471.819324	8452.986605
472.190164	8483.631779
472.560945	8006.743666
472.931667	7541.606483
473.302330	7344.126843
473.672934	7222.040179
474.043479	7277.818026
474.413965	7167.575553
474.784393	7112.977336
475.154761	7239.061635
475.525070	7234.184319
475.895321	7169.491191
476.265513	7240.261430
476.635645	7373.819239
477.005719	7341.112233
477.375734	7403.027684
477.745691	7479.784293
478.115588	7644.718244
478.485427	7831.828231
478.855207	8222.981440
479.224928	8569.873318
479.594591	8881.562819
479.964194	8867.210654
480.333739	8911.003158
480.703226	8872.758444
481.072653	8922.383563
481.442022	8976.855751
481.811333	9074.376872
482.180584	8895.806600
482.549777	8801.431158
482.918912	8708.333650
483.287988	8655.938417
483.657005	8535.974079
484.025964	8428.736134
484.394864	8436.093698
484.763706	8362.906227
485.132489	8240.265036
485.501213	8187.653034
485.869879	8192.626132
486.238487	8092.561749
486.607036	8105.635981
486.975527	8015.974019
487.343959	8002.481371
487.712333	7987.783887
488.080648	7963.051986
488.448905	7985.258268
488.817104	7934.950074
489.185244	7997.777974
489.553326	8087.079494
489.921350	8348.470883
490.289315	8713.180719
490.657222	8844.590997
491.025070	8892.842401
491.392861	8775.716233
491.760593	8601.836754
492.128267	8366.803038
492.495883	8142.587639
492.863440	7915.282012
493.230939	7708.466155
493.598380	7517.482041
493.965763	7431.270749
494.333088	7281.974457
494.700354	7174.784403
495.067563	7094.859429
495.434713	7027.131527
495.801805	6983.339024
496.168839	6896.469861
496.535815	6808.831922
496.902733	6764.792402
497.269593	6679.092786
497.636395	6617.104238
498.003139	6598.910714
498.369825	6499.103429
498.736453	6475.168031
499.103023	6378.740840
499.469535	6317.574000
499.835989	6268.581546
500.202385	6189.226223
500.568723	6134.958202
500.935003	6089.033290
501.301226	6007.757288
501.667390	6005.897102
502.033497	5982.261652
502.399546	5882.764398
502.765537	5780.983502
503.131470	5756.483495
503.497345	5724.000820
503.863163	5571.369805
504.228923	5556.642074
504.594625	5531.080903
504.960269	5432.848979
505.325856	5422.469244
505.691385	5314.079395
506.056856	5270.644813
506.422270	5241.186831
506.787625	5155.030991
507.152924	5104.669864
507.518164	5064.653185
507.883347	4962.884892
508.248472	4921.640691
508.613540	4895.847628
508.978550	4855.994786
509.343503	4786.230258
509.708398	4742.059668
510.073236	4715.102098
510.438016	4666.250796
510.802738	4583.464968
511.167403	4561.674580
511.532010	4516.059700
511.896561	4483.171212
512.261053	4468.125888
512.625488	4390.729053
512.989866	4336.672761
513.354186	4282.855923
513.718449	4228.852562
514.082655	4206.116958
514.446803	4150.092095
514.810894	4117.367445
515.174927	4070.177204
515.538904	4019.616951
515.902822	3996.125174
516.266684	3936.450516
516.630488	3899.052716
516.994235	3856.984287
517.357925	3829.986388
517.721558	3796.591264
518.085133	3764.680760
518.448651	3724.812795
518.812112	3680.511135
519.175516	3640.141575
519.538863	3617.763893
519.902152	3579.683017
520.265385	3548.826114
520.628560	3519.741177
520.991678	3482.406392
521.354739	3452.280456
521.717743	3427.228442
522.080690	3395.585120
522.443580	3373.686347
522.806413	3347.462265
523.169189	3313.646205
523.531908	3290.532515
523.894569	3259.582351
524.257174	3237.444123
524.619722	3215.192470
524.982213	3189.764890
525.344647	3165.446364
525.707025	3144.384423
526.069345	3122.732668
526.431608	3105.139041
526.793815	3084.089703
527.155964	3062.120354
527.518057	3040.335008
527.880093	3024.561238
528.242072	3007.617920
528.603995	2988.837101
528.965860	2974.792446
529.327669	2956.558593
529.689421	2941.142744
530.051117	2929.865683
530.412755	2915.962181
530.774337	2899.858215
531.135862	2885.637120
531.497331	2873.906355
531.858743	2859.813809
532.220098	2850.424660
532.581396	2835.694409
532.942638	2826.895075
533.303824	2819.230000
533.664953	2811.678352
534.026025	2800.955818
534.387040	2794.140178
534.747999	2786.167593
535.108902	2780.667694
535.469748	2770.860129
535.830537	2762.600199
536.191270	2758.335382
536.551947	2749.856162
536.912567	2744.522621
537.273131	2742.566653
537.633638	2732.718759
537.994089	2727.793552
538.354483	2720.539332
538.714821	2717.880123
539.075103	2717.340719
539.435328	2713.277549
539.795497	2706.784543
540.155609	2702.653318
540.515665	2699.477391
540.875665	2696.246011
541.235609	2693.977492
541.595496	2689.944569
541.955328	2689.372398
542.315102	2682.650019
542.674821	2679.274967
543.034483	2680.580626
543.394090	2676.701458
543.753640	2673.399502
544.113134	2672.986127
544.472571	2667.917247
544.831953	2669.880777
545.191278	2664.764005
545.550548	2663.682678
545.909761	2663.491114
546.268918	2662.719818
546.628019	2663.833912
546.987064	2656.957779
547.346053	2655.783190
547.704986	2659.309477
548.063863	2655.536173
548.422684	2653.197078
548.781449	2651.064670
549.140158	2651.793117
549.498811	2650.255565
549.857408	2650.868065
550.215949	2647.291366
550.574434	2646.386479
550.932864	2647.412354
551.291237	2645.552168
551.649555	2646.895636
552.007817	2645.020326
552.366022	2643.457569
552.724173	2642.351035
553.082267	2642.799698
553.440305	2641.937661
553.798288	2641.148720
554.156215	2638.905407
554.514086	2641.221817
554.871902	2639.835500
555.229661	2640.455562
555.587365	2638.204686
555.945014	2636.195787
556.302606	2636.266363
556.660143	2638.678555
557.017625	2636.485653
557.375050	2637.599748
557.732421	2638.640746
558.089735	2636.755355
558.446994	2634.534726
558.804197	2635.200159
559.161345	2635.520272
559.518437	2633.307205
559.875474	2634.554891
560.232455	2633.425672
560.589381	2634.252422
560.946251	2634.973307
561.303065	2631.152112
561.659825	2633.929788
562.016528	2631.636063
562.373177	2631.184880
562.729770	2633.491207
563.086307	2630.214457
563.442789	2630.733696
563.799216	2632.329222
564.155587	2630.741258
564.511904	2629.027266
564.868164	2629.428037
565.224370	2630.506844
565.580520	2628.082049
565.936615	2629.957359
566.292654	2627.303191
566.648638	2626.756226
567.004567	2628.563480
567.360441	2630.441309
567.716260	2629.042389
568.072023	2629.634725
568.427732	2626.055506
568.783385	2626.279837
569.138982	2624.999384
569.494525	2624.878396
569.850013	2623.512243
570.205445	2629.478449
570.560823	2628.639097
570.916145	2628.452574
571.271412	2626.942749
571.626625	2629.397791
571.981782	2627.497276
572.336884	2624.931328
572.691931	2628.762605
573.046923	2623.802110
573.401860	2624.835546
573.756743	2623.910495
574.111570	2624.840587
574.466342	2625.150618
574.821059	2626.247069
575.175722	2624.265896
575.530330	2625.732872
575.884882	2624.996863
576.239380	2623.507202
576.593823	2623.996194
576.948211	2623.237501
577.302544	2623.837398
577.656823	2622.730865
578.011047	2626.312604
578.365216	2624.833026
578.719330	2620.381687
579.073389	2623.597943
579.427394	2619.950668
579.781344	2622.108282
580.135239	2620.301028
580.489080	2621.888992
580.842866	2620.895885
581.196597	2621.420165
581.550273	2619.013014
581.903895	2619.686008
582.257463	2621.972171
582.610975	2619.542335
582.964434	2622.196502
583.317837	2620.651389
583.671186	2619.847325
584.024481	2620.515277
584.377721	2619.456635
584.730906	2619.559979
585.084037	2619.517129
585.437113	2618.410596
585.790135	2619.600308
586.143103	2620.474948
586.496016	2620.568210
586.848874	2616.381531
587.201679	2615.670729
587.554428	2613.775255
587.907124	2615.189298
588.259765	2615.408589
588.612352	2617.299021
588.964884	2617.649382
589.317362	2620.641306
589.669786	2619.993518
590.022155	2619.426388
590.374470	2618.894547
590.726731	2617.150307
591.078937	2615.839607
591.431090	2617.470421
591.783188	2615.902622
592.135232	2616.837756
592.487222	2616.873044
592.839157	2618.370267
593.191038	2615.816922
593.542866	2617.311624
593.894639	2615.814402
594.246358	2614.881788
594.598022	2617.178034
594.949633	2614.871706
595.301190	2614.758280
595.652692	2617.107457
596.004141	2613.208125
596.355535	2614.725512
596.706876	2612.245265
597.058162	2613.298866
597.409395	2612.535131
597.760573	2613.936572
598.111698	2612.383896
598.462768	2614.181068
598.813785	2614.551592
599.164748	2613.135028
599.515657	2614.143259
599.866511	2612.305758
600.217312	2614.042436
600.568060	2613.044287
600.918753	2615.574947
601.269392	2610.495984
601.619978	2612.991355
601.970510	2612.146962
602.320988	2611.889863
602.671412	2613.858434
603.021783	2611.557147
603.372100	2613.152672
603.722363	2613.480347
604.072572	2613.397168
604.422728	2613.326592
604.772830	2609.765017
605.122878	2608.164451
605.472872	2609.535644
605.822813	2606.561364
606.172701	2609.323916
606.522534	2612.653598
606.872314	2613.722323
607.222041	2612.031016
607.571714	2610.790892
607.921333	2610.067486
608.270899	2613.223248
608.620411	2610.564040
608.969870	2615.993362
609.319276	2611.753752
609.668627	2613.752570
610.017926	2611.955398
610.367171	2612.764503
610.716362	2613.021602
611.065500	2611.295007
611.414585	2612.018413
611.763616	2613.324072
612.112594	2613.109822
612.461518	2612.658639
612.810389	2613.233331
613.159207	2613.092178
613.507971	2610.700151
613.856682	2611.620162
614.205340	2613.951695
614.553945	2613.145111
614.902496	2612.557816
615.250994	2613.099740
615.599439	2616.247941
615.947830	2610.826180
616.296169	2612.628392
616.644454	2612.509925
616.992686	2613.538321
617.340864	2614.773403
617.688990	2610.682507
618.037063	2611.995727
618.385082	2614.397837
618.733048	2615.164093
619.080961	2613.661829
619.428821	2614.826335
619.776628	2613.808022
620.124382	2613.757611
620.472083	2614.871706
620.819731	2613.976901
621.167326	2613.457662
621.514868	2614.206273
621.862357	2611.708382
622.209793	2611.126128
622.557176	2611.116046
622.904506	2609.104626
623.251783	2609.021447
623.599007	2608.613113
623.946179	2604.106322
624.293297	2608.587907
624.640363	2611.111005
624.987376	2612.388937
625.334336	2611.400871
625.681243	2609.462548
626.028097	2609.147476
626.374899	2607.057917
626.721647	2609.137393
627.068343	2607.612444
627.414987	2613.228290
627.761577	2608.686210
628.108115	2606.105139
628.454600	2608.093874
628.801032	2607.287290
629.147412	2608.242588
629.493739	2606.644543
629.840014	2605.543051
630.186236	2609.185284
630.532405	2607.599841
630.878521	2605.250664
631.224585	2608.517331
631.570597	2609.626385
631.916556	2606.311827
632.262462	2609.641509
632.608316	2606.694954
632.954117	2608.827362
633.299866	2608.368617
633.645562	2605.802670
633.991206	2607.695623
634.336797	2605.916096
634.682336	2605.311157
635.027823	2606.684872
635.373257	2601.726897
635.718639	2603.297217
636.063968	2603.793770
636.409245	2602.437700
636.754470	2603.685385
637.099642	2601.968872
637.444762	2603.650097
637.789829	2602.132710
638.134845	2605.185129
638.479808	2602.591455
638.824719	2601.989037
639.169577	2603.352669
639.514383	2603.476177
639.859137	2604.426435
640.203839	2604.368462
640.548489	2602.999788
640.893086	2598.172884
641.237632	2596.118613
641.582125	2598.797987
641.926566	2598.359406
642.270955	2601.409304
642.615292	2601.444592
642.959576	2602.898965
643.303809	2600.511979
643.647990	2601.061465
643.992118	2601.492483
644.336195	2600.327977
644.680219	2600.292689
645.024192	2600.764037
645.368112	2602.162957
645.711981	2600.857298
646.055797	2602.092381
646.399562	2601.918461
646.743274	2602.936774
647.086935	2602.024325
647.430544	2602.472988
647.774101	2603.032556
648.117606	2603.844182
648.461059	2603.208996
648.804460	2605.669079
649.147810	2605.230499
649.491108	2601.114397
649.834354	2602.599017
650.177548	2600.348142
650.520690	2602.614140
650.863781	2601.159767
651.206820	2603.191352
651.549807	2600.398553
651.892742	2598.218254
652.235626	2599.443254
652.578458	2599.443254
652.921238	2599.158429
653.263967	2600.887545
653.606644	2600.053234
653.949269	2599.100456
654.291843	2599.488625
654.634365	2600.401074
654.976836	2600.136413
655.319255	2596.380753
655.661622	2600.237236
656.003938	2595.417893
656.346203	2600.181783
656.688416	2597.600713
657.030577	2596.715990
657.372687	2598.961824
657.714746	2596.474015
658.056753	2598.757657
658.398708	2593.035948
658.740612	2594.817996
659.082465	2595.662389
659.424266	2596.095928
659.766016	2593.776997
660.107715	2597.099118
660.449362	2598.283789
660.790958	2600.385950
661.132503	2597.706577
661.473996	2599.680189
661.815438	2597.487287
662.156829	2596.224478
662.498168	2597.220106
662.839456	2596.438727
663.180693	2596.715990
663.521879	2599.687750
663.863013	2598.145157
664.204097	2597.202462
664.545129	2598.349324
664.886110	2597.686412
665.227040	2598.324118
665.567918	2595.029724
665.908746	2597.023501
666.249522	2597.522575
666.590248	2599.455857
666.930922	2597.237750
667.271545	2595.697677
667.612118	2598.820672
667.952639	2596.915116
668.293109	2598.881166
668.633528	2597.487287
668.973896	2592.201637
669.314213	2596.562235
669.654480	2597.313367
669.994695	2599.163470
670.334859	2597.157091
670.674973	2596.564756
671.015035	2600.698502
671.355047	2595.243973
671.695008	2597.129365
672.034918	2598.263624
672.374777	2599.244129
672.714585	2599.317226
673.054342	2596.968048
673.394049	2595.974941
673.733705	2597.439396
674.073310	2597.883017
674.412864	2597.961155
674.752368	2597.469643
675.091820	2598.876125
675.431223	2597.247832
675.770574	2593.887903
676.109875	2593.832450
676.449125	2595.241453
676.788324	2593.325814
677.127473	2594.351689
677.466571	2591.334558
677.805619	2593.719024
678.144616	2596.811772
678.483562	2594.160125
678.822458	2596.595002
679.161303	2595.866556
679.500098	2592.045361
679.838842	2592.864549
680.177535	2592.302460
680.516179	2595.554004
680.854771	2594.739858
681.193314	2596.529467
681.531805	2596.554673
681.870247	2597.923347
682.208638	2597.399067
682.546978	2596.562235
682.885268	2596.544591
683.223508	2597.174735
683.561697	2600.219592
683.899836	2597.182297
684.237925	2599.060127
684.575963	2597.610795
684.913951	2595.780856
685.251889	2596.234560
685.589776	2598.230857
685.927614	2597.300764
686.265401	2597.537698
686.603137	2596.075764
686.940824	2598.258583
687.278460	2598.800507
687.616046	2597.681371
687.953582	2595.977461
688.291068	2597.696495
688.628504	2600.133892
688.965889	2596.796649
689.303224	2599.256732
689.640510	2597.063830
689.977745	2597.870414
690.314930	2600.406115
690.652065	2599.181114
690.989150	2598.127513
691.326185	2595.077615
691.663170	2594.752461
692.000105	2595.591813
692.336990	2591.127871
692.673825	2595.117944
693.010610	2596.945363
693.347345	2589.970926
693.684030	2589.512181
694.020665	2587.541090
694.357251	2586.716862
694.693786	2586.633682
695.030272	2589.799527
695.366707	2590.545618
695.703093	2588.415730
696.039429	2590.016297
696.375716	2589.189547
696.711952	2587.606625
697.048139	2589.418920
697.384276	2589.131574
697.720363	2586.353898
698.056400	2590.326328
698.392388	2586.071594
698.728326	2591.773139
699.064214	2587.868765
699.400053	2588.405648
699.735842	2587.173086
700.071581	2588.413210
700.407270	2589.275247
700.742910	2588.725761
701.078501	2587.039495
701.414042	2587.899012
701.749533	2589.239959
702.084974	2587.941862
702.420366	2586.605956
702.755709	2588.201481
703.091002	2585.131419
703.426246	2585.441450
703.761440	2589.237438
704.096584	2585.922880
704.431679	2584.859196
704.766725	2585.796851
705.101721	2585.953127
705.436668	2588.435895
705.771565	2584.171079
706.106413	2587.856162
706.441212	2587.228539
706.775961	2585.638055
707.110661	2585.373394
707.445311	2587.795668
707.779913	2585.161666
708.114465	2586.439598
708.448967	2587.707448
708.783421	2587.972109
709.117825	2586.510174
709.452180	2587.251224
709.786485	2587.289032
710.120742	2589.181986
710.454949	2588.080494
710.789107	2585.017993
711.123216	2586.764752
711.457275	2587.846080
711.791286	2586.845411
712.125247	2586.265678
712.459159	2588.783735
712.793023	2593.187182
713.126837	2590.666606
713.460602	2589.688622
713.794318	2590.076791
714.127985	2589.640731
714.461602	2587.173086
714.795171	2588.947572
715.128691	2586.129567
715.462162	2590.288519
715.795584	2586.759711
716.128957	2588.922366
716.462281	2585.935483
716.795556	2586.447160
717.128782	2585.489341
717.461960	2588.516553
717.795088	2587.218456
718.128167	2585.358271
718.461198	2583.785431
718.794180	2585.610328
719.127113	2586.109402
719.459997	2585.300297
719.792833	2580.990111
720.125619	2584.750812
720.458357	2581.660584
720.791046	2584.465986
721.123686	2583.304000
721.456278	2581.935327
721.788821	2584.095462
722.121315	2582.487333
722.453761	2582.232755
722.786158	2584.276943
723.118506	2583.611511
723.450805	2583.329206
723.783056	2583.815677
724.115259	2583.450194
724.447412	2583.682087
724.779518	2582.084041
725.111574	2581.342992
725.443582	2584.171079
725.775542	2582.323496
726.107453	2582.401634
726.439315	2583.777869
726.771129	2586.376584
727.102895	2585.721234
727.434612	2583.901377
727.766281	2587.210895
728.097901	2580.332240
728.429473	2581.111098
728.760996	2582.434401
729.092471	2578.688824
729.423897	2585.880030
729.755276	2583.591346
730.086606	2585.748960
730.417887	2586.333734
730.749120	2585.680904
731.080305	2586.724423
731.411442	2586.918508
731.742530	2584.135791
732.073570	2586.159814
732.404562	2586.091758
732.735506	2586.293405
733.066401	2586.255596
733.397249	2585.265009
733.728048	2585.315421
734.058798	2586.187540
734.389501	2587.848601
734.720156	2581.915162
735.050762	2584.334916
735.381320	2583.868610
735.711831	2579.843248
736.042293	2582.515060
736.372707	2581.968095
736.703073	2581.408527
737.033391	2583.669484
737.363661	2581.874833
737.693883	2583.893815
738.024056	2585.610328
738.354182	2581.572364
738.684260	2584.055132
739.014290	2583.992118
739.344272	2584.841552
739.674207	2585.401120
740.004093	2588.022520
740.333931	2586.318610
740.663722	2584.513877
740.993464	2586.530339
741.323159	2586.220308
741.652806	2580.876685
741.982405	2586.174937
742.311956	2582.101685
742.641460	2583.034299
742.970915	2582.270564
743.300323	2583.419947
743.629683	2580.344843
743.958996	2583.926583
744.288260	2581.222004
744.617477	2580.594380
744.946647	2578.877867
745.275768	2579.140007
745.604842	2578.651015
745.933869	2578.469534
746.262847	2574.270253
746.591778	2576.838721
746.920662	2580.485995
747.249498	2581.118660
747.578286	2578.877867
747.907027	2579.669328
748.235720	2578.887950
748.564365	2581.209401
748.892963	2580.140676
749.221514	2580.095306
749.550017	2580.102868
749.878473	2580.329720
750.206881	2580.428022
750.535242	2581.532035
750.863555	2580.896849
751.191821	2581.491706
751.520039	2579.820563
751.848210	2579.162692
752.176334	2580.070100
752.504411	2578.524987
752.832440	2579.974318
753.160421	2578.086406
753.488356	2579.613876
753.816243	2582.691500
754.144082	2580.859041
754.471875	2578.824935
754.799620	2579.036664
755.127318	2578.530028
755.454969	2579.601273
755.782572	2578.461972
756.110129	2579.107240
756.437638	2580.266705
756.765100	2578.880388
757.092515	2576.258988
757.419882	2580.193608
757.747203	2581.143866
758.074477	2578.366190
758.401703	2582.033630
758.728882	2581.224524
759.056014	2579.215625
759.383099	2580.203691
759.710138	2579.991962
760.037129	2580.375090
760.364073	2581.224524
760.690970	2579.598752
761.017820	2580.007086
761.344623	2581.287539
761.671379	2579.369380
761.998088	2578.081365
762.324751	2580.828794
762.651366	2581.947930
762.977935	2588.854311
763.304456	2589.245000
763.630931	2597.474684
763.957359	2593.098962
764.283740	2595.246494
764.610074	2590.651482
764.936362	2590.840525
765.262602	2588.214084
765.588796	2585.849783
765.914943	2584.357602
766.241044	2582.716706
766.567097	2581.912642
766.893104	2581.542117
767.219064	2577.294945
767.544978	2580.932137
767.870845	2577.511715
768.196665	2576.090109
768.522438	2578.124215
768.848165	2578.729153
769.173846	2575.207907
769.499479	2578.237641
769.825066	2575.553226
770.150607	2573.781261
770.476101	2576.450552
770.801548	2577.168916
771.126949	2574.728998
771.452303	2575.109605
771.777611	2576.001889
772.102872	2574.618092
772.428087	2573.534244
772.753256	2572.518452
773.078378	2571.548030
773.403453	2572.669686
773.728482	2575.147413
774.053465	2572.785633
774.378401	2575.185222
774.703291	2574.378637
775.028135	2573.430901
775.352932	2573.952660
775.677683	2572.919223
776.002388	2573.924934
776.327046	2571.734552
776.651658	2573.768658
776.976224	2572.158009
777.300743	2571.406877
777.625216	2572.064748
777.949643	2576.339646
778.274024	2575.394430
778.598359	2568.528378
778.922647	2567.104252
779.246889	2568.351938
779.571086	2570.728842
779.895236	2567.535271
780.219339	2572.722618
780.543397	2571.979048
780.867409	2573.617423
781.191374	2572.125242
781.515294	2574.396282
781.839167	2571.409398
782.162995	2573.887125
782.486776	2572.301682
782.810511	2573.234296
783.134201	2572.979717
783.457844	2571.709347
783.781441	2573.491394
784.104993	2569.433266
784.428498	2573.690520
784.751958	2571.759758
785.075372	2574.056004
785.398739	2570.827145
785.722061	2572.140365
786.045337	2574.950808
786.368568	2571.996692
786.691752	2572.039542
787.014891	2573.204049
787.337983	2572.420149
787.661030	2573.372927
787.984031	2574.106415
788.306987	2573.430901
788.629897	2575.623803
788.952760	2573.922413
789.275579	2576.420305
789.598351	2575.976683
789.921078	2575.177660
790.243759	2573.277145
790.566395	2570.880077
790.888984	2575.868298
791.211529	2570.204562
791.534027	2574.285376
791.856480	2572.982238
792.178888	2572.037022
792.501249	2572.435273
792.823566	2570.315467
793.145836	2570.370920
793.468062	2572.173133
793.790241	2572.031980
794.112375	2572.820921
794.434464	2573.735890
794.756507	2574.847465
795.078505	2574.839903
795.400457	2569.135838
795.722364	2570.270097
796.044226	2572.876374
796.366042	2569.949984
796.687812	2569.864284
797.009538	2573.801425
797.331218	2572.417629
797.652852	2571.800087
797.974442	2573.256981
798.295986	2570.587690
798.617484	2572.246229
798.938938	2572.715057
799.260346	2572.825962
799.581709	2569.566856
799.903026	2573.872002
800.224299	2573.687999
800.545526	2574.169430
800.866708	2571.590879
801.187845	2570.469223
801.508936	2571.835375
801.829983	2570.960735
802.150984	2571.207752
802.471940	2575.664132
802.792851	2571.548030
803.113717	2569.327401
803.434538	2572.352094
803.755314	2570.154151
804.076045	2572.977197
804.396731	2571.545509
804.717372	2572.883935
805.037967	2570.872515
805.358518	2571.900910
805.679024	2569.937381
805.999485	2570.602813
806.319901	2571.174984
806.640272	2571.847978
806.960598	2570.461661
807.280879	2571.885787
807.601115	2570.615416
807.921306	2571.298492
808.241453	2570.885118
808.561554	2571.220355
808.881611	2573.806467
809.201623	2573.385530
809.521590	2572.130283
809.841513	2570.083574
810.161390	2574.159347
810.481223	2572.289079
810.801011	2570.965776
811.120755	2570.791857
811.440453	2573.745973
811.760107	2572.367217
812.079716	2569.287072
812.399281	2565.672565
812.718801	2567.658779
813.038276	2563.565363
813.357707	2569.188770
813.677093	2572.263873
813.996434	2570.963256
814.315731	2572.052145
814.634983	2569.337484
814.954191	2571.482495
815.273354	2569.786146
815.592473	2570.691033
815.911547	2572.256312
816.230577	2573.609862
816.549562	2569.569377
816.868502	2572.543657
817.187399	2574.187074
817.506250	2572.634398
817.825058	2571.144737
818.143821	2573.287228
818.462539	2574.159347
818.781213	2571.658935
819.099843	2572.659604
819.418429	2572.437793
819.736970	2575.848134
820.055466	2578.656057
820.373919	2578.189750
820.692327	2584.753332
821.010691	2588.418251
821.329011	2597.252873
821.647286	2614.929679
821.965517	2638.524800
822.283704	2656.579692
822.601847	2665.169818
822.919945	2661.051196
823.237999	2652.667757
823.556010	2644.238947
823.873976	2633.155971
824.191897	2626.862090
824.509775	2617.109978
824.827609	2609.470109
825.145398	2602.160436
825.463144	2600.078440
825.780845	2598.366968
826.098502	2599.125662
826.416116	2603.652618
826.733685	2607.062958
827.051210	2608.441714
827.368692	2609.250819
827.686129	2606.440376
828.003522	2599.292020
828.320872	2591.271544
828.638177	2588.425813
828.955439	2585.706110
829.272656	2583.583784
829.589830	2579.301324
829.906960	2580.186047
830.224046	2579.891139
830.541088	2577.723443
830.858086	2575.306210
831.175041	2575.177660
831.491952	2575.275963
831.808819	2575.210428
832.125642	2573.498956
832.442421	2576.243864
832.759157	2577.363001
833.075849	2580.531366
833.392497	2581.842066
833.709101	2590.064188
834.025662	2591.561410
834.342179	2590.258272
834.658653	2585.922880
834.975083	2582.714185
835.291469	2586.739547
835.607811	2579.460121
835.924110	2578.121694
836.240366	2576.276632
836.556578	2574.144224
836.872746	2576.508525
837.188871	2573.572053
837.504952	2571.124573
837.820990	2570.927968
838.136984	2568.881259
838.452935	2569.140879
838.768842	2567.963769
839.084706	2569.632391
839.400526	2569.632391
839.716303	2572.566343
840.032037	2576.644636
840.347727	2575.754872
840.663373	2575.200346
840.978977	2575.313772
841.294537	2572.906621
841.610054	2572.795715
841.925527	2569.521486
842.240957	2569.828996
842.556344	2569.748338
842.871687	2568.518296
843.186987	2568.777916
843.502244	2569.609706
843.817458	2570.307906
844.132629	2568.450241
844.447756	2567.903275
844.762840	2565.407904
845.077881	2563.157029
845.392879	2561.871535
845.707833	2563.330949
846.022745	2563.215002
846.337613	2568.722463
846.652438	2567.126938
846.967221	2570.338153
847.281960	2565.264231
847.596656	2568.006619
847.911309	2565.609550
848.225919	2564.203068
848.540485	2565.281875
848.855009	2565.478480
849.169490	2565.092832
849.483928	2566.090981
849.798323	2565.831361
850.112675	2562.360527
850.426984	2565.702812
850.741251	2564.429920
851.055474	2565.407904
851.369654	2565.329766
851.683792	2563.809858
851.997887	2567.086608
852.311938	2566.257339
852.625947	2566.824468
852.939914	2564.674416
853.253837	2567.031156
853.567718	2563.179714
853.881555	2564.288768
854.195350	2566.078378
854.509103	2567.129458
854.822812	2565.962431
855.136479	2566.872359
855.450103	2565.627194
855.763685	2565.236505
856.077224	2564.931515
856.390720	2565.269273
856.704173	2564.833213
857.017584	2565.685168
857.330953	2568.261197
857.644278	2565.428069
857.957561	2566.232133
858.270802	2564.702143
858.584000	2568.286403
858.897155	2566.718604
859.210268	2565.443192
859.523339	2566.007802
859.836367	2564.795404
860.149352	2564.906309
860.462295	2567.076526
860.775195	2565.118038
861.088054	2564.026628
861.400869	2559.582851
861.713642	2563.250290
862.026373	2563.948490
862.339062	2566.224571
862.651708	2566.678275
862.964312	2563.930846
863.276873	2565.977555
863.589392	2566.133830
863.901869	2564.810527
864.214303	2565.158367
864.526696	2563.814900
864.839045	2565.793553
865.151353	2567.610888
865.463619	2564.903789
865.775842	2565.067626
866.088023	2567.192473
866.400162	2566.446382
866.712258	2566.665672
867.024313	2566.353121
867.336325	2565.483522
867.648296	2566.940415
867.960224	2566.595096
868.272110	2567.396639
868.583954	2565.148285
868.895755	2564.795404
869.207515	2565.909499
869.519233	2567.787329
869.830909	2568.465364
870.142542	2567.812535
870.454134	2564.989488
870.765684	2567.336146
871.077191	2565.022256
871.388657	2565.428069
871.700081	2564.797925
872.011463	2567.532751
872.322803	2563.351113
872.634101	2566.708522
872.945357	2566.607699
873.256571	2567.394119
873.567744	2564.666855
873.878874	2567.487380
874.189963	2567.167267
874.501010	2566.222051
874.812015	2567.283213
875.122979	2569.276990
875.433900	2567.532751
875.744780	2568.256156
876.055618	2569.163564
876.366415	2568.631722
876.677169	2568.669531
876.987882	2565.516289
877.298554	2562.297512
877.609183	2564.687019
877.919771	2564.921433
878.230317	2563.235167
878.540822	2567.719273
878.851285	2570.015519
879.161707	2565.826320
879.472087	2575.575912
879.782425	2573.667835
880.092722	2577.541962
880.402977	2583.888774
880.713191	2590.162490
881.023363	2601.956270
881.333494	2611.340377
881.643583	2616.008486
881.953631	2616.245420
882.263637	2613.369442
882.573602	2611.655450
882.883526	2611.113526
883.193408	2606.755448
883.503248	2602.228492
883.813048	2599.488625
884.122806	2595.858994
884.432522	2596.829416
884.742197	2588.057808
885.051831	2584.327355
885.361424	2583.513208
885.670975	2580.372569
885.980485	2576.614389
886.289954	2575.543144
886.599382	2573.637588
886.908768	2573.135993
887.218113	2571.926116
887.527417	2572.601631
887.836680	2569.239181
888.145901	2572.266394
888.455082	2569.062741
888.764221	2569.579459
889.073319	2570.501990
889.382376	2567.709191
889.691392	2570.227247
890.000366	2566.552246
890.309300	2566.769016
890.618193	2566.390929
890.927044	2569.644994
891.235855	2568.881259
891.544625	2568.364541
891.853353	2569.100549
892.162041	2565.027297
892.470687	2570.002916
892.779293	2571.074161
893.087858	2569.587021
893.396381	2568.387226
893.704864	2569.637432
894.013306	2569.650035
894.321707	2576.011971
894.630068	2577.748649
894.938387	2581.763928
895.246665	2583.162848
895.554903	2580.932137
895.863100	2579.003896
896.171256	2576.032136
896.479371	2576.017012
896.787446	2575.633885
897.095480	2573.254460
897.403473	2573.262022
897.711425	2573.582135
898.019336	2574.597928
898.327207	2572.120201
898.635038	2571.245560
898.942827	2566.464026
899.250576	2569.113152
899.558284	2568.183059
899.865952	2568.591393
900.173579	2568.929150
900.481165	2567.273131
900.788711	2567.285734
901.096216	2566.348079
901.403681	2567.293296
901.711105	2567.530230
902.018489	2565.763306
902.325832	2570.375961
902.633135	2564.916392
902.940397	2567.613409
903.247619	2566.189283
903.554800	2571.449727
903.861941	2575.359142
904.169041	2581.955492
904.476101	2583.162848
904.783121	2584.692838
905.090100	2581.158989
905.397039	2579.344174
905.703938	2578.714030
906.010796	2581.083372
906.317614	2577.226889
906.624391	2575.379307
906.931129	2575.447362
907.237826	2574.454255
907.544483	2571.658935
907.851099	2571.235478
908.157675	2570.136507
908.464211	2568.586352
908.770707	2561.969837
909.077163	2564.266083
909.383578	2561.629559
909.689954	2561.062430
909.996289	2559.915567
910.302584	2566.718604
910.608839	2563.731721
910.915054	2563.575445
911.221229	2564.553429
911.527363	2564.513099
911.833458	2564.122410
912.139513	2565.052503
912.445527	2565.004612
912.751502	2565.801114
913.057436	2566.164077
913.363331	2563.761968
913.669186	2564.737431
913.975000	2565.443192
914.280775	2566.012843
914.586510	2569.695406
914.892205	2569.090467
915.197859	2575.033987
915.503475	2576.942064
915.809050	2582.878023
916.114585	2582.694021
916.420081	2582.033630
916.725536	2584.539083
917.030952	2585.035637
917.336328	2583.805595
917.641665	2580.213773
917.946961	2583.271233
918.252218	2578.086406
918.557435	2580.150759
918.862612	2577.824266
919.167750	2575.931313
919.472848	2572.868812
919.777906	2574.237485
920.082925	2572.442834
920.387904	2568.916547
920.692843	2572.455437
920.997743	2570.285221
921.302603	2571.046435
921.607423	2565.097873
921.912204	2565.627194
922.216946	2564.881104
922.521647	2563.794735
922.826310	2567.159705
923.130932	2565.730538
923.435516	2564.755075
923.740059	2564.699622
924.044564	2565.228943
924.349028	2563.986299
924.653454	2561.798438
924.957840	2562.073181
925.262186	2562.773901
925.566493	2562.012687
925.870761	2558.846842
926.174989	2565.213820
926.479178	2565.521330
926.783328	2563.557801
927.087438	2561.158212
927.391509	2563.010836
927.695541	2562.781463
927.999533	2564.099725
928.303486	2565.349931
928.607400	2560.291133
928.911275	2560.477656
929.215110	2561.407749
929.518906	2560.185269
929.822663	2560.792728
930.126381	2560.570917
930.430060	2561.294323
930.733699	2562.481514
931.037299	2561.891699
931.340861	2560.570917
931.644383	2561.112841
931.947866	2561.362378
932.251309	2564.008984
932.554714	2562.741134
932.858080	2564.127451
933.161407	2563.008315
933.464694	2559.371122
933.767943	2560.016390
934.071153	2560.391956
934.374323	2562.085784
934.677455	2562.839436
934.980548	2561.314487
935.283602	2563.966134
935.586617	2562.289951
935.889593	2564.061916
936.192530	2562.045455
936.495428	2562.264745
936.798287	2560.291133
937.101108	2561.737944
937.403890	2563.799776
937.706632	2562.181566
938.009336	2566.312791
938.312002	2562.955383
938.614628	2562.443706
938.917216	2563.588048
939.219765	2562.484035
939.522275	2565.360013
939.824747	2564.044272
940.127179	2560.696946
940.429573	2560.162584
940.731929	2558.829198
941.034246	2558.564538
941.336524	2559.963458
941.638763	2563.945970
941.940964	2560.790207
942.243126	2564.319015
942.545250	2562.252142
942.847335	2562.312636
943.149381	2563.472101
943.451389	2561.032183
943.753359	2562.468912
944.055290	2561.422872
944.357182	2562.867163
944.659036	2564.225754
944.960851	2564.160219
945.262628	2560.724672
945.564367	2563.363716
945.866067	2563.036041
946.167729	2564.109807
946.469352	2565.964952
946.770937	2563.550239
947.072484	2563.099056
947.373992	2561.871535
947.675462	2561.485887
947.976893	2563.393963
948.278286	2562.040413
948.579641	2561.125444
948.880958	2562.277348
949.182236	2563.416648
949.483476	2561.995043
949.784678	2562.993192
950.085841	2560.533108
950.386967	2564.989488
950.688054	2563.222564
950.989103	2564.329097
951.290114	2561.695094
951.591087	2562.594940
951.892021	2559.338355
952.192917	2565.165929
952.493776	2561.737944
952.794596	2563.656103
953.095378	2561.006977
953.396122	2563.088973
953.696828	2564.059396
953.997496	2561.259035
954.298126	2561.564024
954.598718	2563.540157
954.899272	2563.711556
955.199788	2563.842626
955.500266	2564.613922
955.800706	2558.662840
956.101108	2558.806513
956.401472	2558.461194
956.701798	2554.831563
957.002087	2557.231153
957.302337	2562.310115
957.602550	2560.018911
957.902724	2559.764332
958.202861	2561.206102
958.502960	2562.615105
958.803022	2560.908674
959.103045	2558.889692
959.403031	2560.928839
959.702979	2557.352140
960.002889	2559.408931
960.302762	2558.461194
960.602596	2563.209961
960.902393	2557.757953
961.202153	2560.452450
961.501875	2558.811554
961.801559	2559.454302
962.101205	2558.400700
962.400814	2560.782646
962.700385	2557.276523
962.999918	2561.639642
963.299414	2560.306257
963.598873	2560.807851
963.898293	2559.734086
964.197677	2557.553787
964.497022	2561.044786
964.796331	2559.540001
965.095601	2559.918088
965.394835	2560.407080
965.694030	2558.690567
965.993189	2560.722152
966.292309	2559.270299
966.591393	2558.995557
966.890439	2559.991184
967.189447	2562.418500
967.488419	2560.641493
967.787353	2561.264076
968.086249	2558.559497
968.385108	2560.212995
968.683930	2559.872717
968.982714	2559.943293
969.281462	2558.405742
969.580172	2558.509085
969.878844	2557.455484
970.177480	2557.384908
970.476078	2558.819116
970.774639	2559.832388
971.073162	2559.424055
971.371649	2556.905998
971.670098	2556.711914
971.968510	2557.803324
972.266885	2555.585216
972.565223	2558.473797
972.863524	2560.646534
973.161788	2559.003118
973.460014	2561.067471
973.758204	2562.073181
974.056356	2561.115362
974.354471	2560.187789
974.652550	2560.268448
974.950591	2560.437327
975.248595	2558.088149
975.546563	2559.411452
975.844493	2559.098900
976.142386	2561.775753
976.440243	2560.510423
976.738062	2560.409600
977.035845	2561.967317
977.333590	2562.854560
977.631299	2559.784497
977.928971	2559.799621
978.226606	2560.195351
978.524204	2559.713921
978.821765	2558.748540
979.119290	2558.761143
979.416777	2559.681153
979.714228	2557.725186
980.011642	2557.682336
980.309020	2560.684343
980.606360	2558.935063
980.903664	2558.156204
981.200931	2560.770043
981.498162	2561.624518
981.795356	2561.649724
982.092513	2562.443706
982.389633	2560.515464
982.686717	2561.140568
982.983764	2560.618808
983.280775	2562.841957
983.577749	2564.389591
983.874686	2562.872204
984.171587	2563.245249
984.468451	2561.344734
984.765279	2561.120403
985.062070	2562.146278
985.358824	2557.899106
985.655543	2561.256514
985.952224	2562.300033
986.248869	2559.731565
986.545478	2556.601008
986.842050	2556.550597
987.138586	2557.936914
987.435086	2557.084959
987.731549	2557.034548
988.027975	2560.717111
988.324366	2561.289282
988.620719	2559.025803
988.917037	2559.182079
989.213318	2558.224260
989.509563	2559.408931
989.805772	2559.759291
990.101944	2560.147460
990.398080	2558.642676
990.694180	2560.795248
990.990244	2561.097718
991.286271	2557.047151
991.582262	2559.484548
991.878217	2560.908674
992.174136	2559.560166
992.470019	2558.831719
992.765865	2560.460012
993.061676	2560.797769
993.357450	2559.386246
993.653188	2560.976730
993.948890	2561.516133
994.244556	2557.372305
994.540186	2558.967830
994.835780	2559.434137
995.131337	2558.945145
995.426859	2559.149312
995.722345	2556.132181
996.017795	2557.034548
996.313208	2560.903633
996.608586	2561.538819
996.903928	2559.040927
997.199234	2560.218036
997.494504	2561.185938
997.789738	2559.018242
998.084936	2561.838767
998.380099	2561.251473
998.675225	2559.789538
998.970316	2559.623180
999.265371	2556.238045
999.560390	2559.713921
999.855373	2559.091338
1000.150320	2559.592933
1000.445232	2561.881617
1000.740108	2558.403221
1001.034948	2561.236349
1001.329752	2558.854404
1001.624521	2559.479507
1001.919254	2555.527243
1002.213951	2556.646379
1002.508613	2555.043292
1002.803239	2555.678477
1003.097829	2552.535318
1003.392384	2555.512119
1003.686903	2556.545556
1003.981386	2559.620660
1004.275834	2558.619991
1004.570246	2560.394477
1004.864623	2558.556976
1005.158964	2558.466235
1005.453270	2556.512788
1005.747540	2559.290464
1006.041775	2558.375495
1006.335974	2556.195196
1006.630138	2557.994887
1006.924266	2559.550083
1007.218359	2557.934394
1007.512416	2561.032183
1007.806438	2555.877603
1008.100425	2559.043447
1008.394376	2557.878941
1008.688292	2559.267779
1008.982172	2553.878785
1009.276017	2556.500185
1009.569827	2556.185113
1009.863602	2559.378684
1010.157341	2558.330124
1010.451045	2557.480690
1010.744714	2556.674105
1011.038347	2558.342727
1011.331945	2558.809034
1011.625508	2558.146122
1011.919036	2556.283416
1012.212528	2557.455484
1012.505986	2558.672923
1012.799408	2558.783828
1013.092795	2555.678477
1013.386147	2556.409445
1013.679464	2555.108827
1013.972745	2555.504557
1014.265992	2555.665874
1014.559204	2558.990515
1014.852380	2560.565876
1015.145521	2559.668551
1015.438628	2555.625545
1015.731699	2556.790052
1016.024736	2557.384908
1016.317737	2559.424055
1016.610703	2555.426420
1016.903635	2553.082283
1017.196531	2555.922973
1017.489393	2556.134702
1017.782219	2552.742005
1018.075011	2556.399362
1018.367768	2557.873900
1018.660490	2557.379867
1018.953177	2557.379867
1019.245829	2557.379867
