Dividing Wavelength (nm)	Counts (n)	Blue Motor Position (mm): 0.000000	Red Motor Position (mm): 12.500000	
326.493990	2145.487351
326.888308	2145.487351
327.282561	2145.487351
327.676750	2120.752929
328.070874	2120.747888
328.464933	2128.962448
328.858929	2137.325723
329.252859	2145.953657
329.646726	2162.410504
330.040528	2175.474654
330.434265	2196.216482
330.827938	2213.815150
331.221547	2233.705022
331.615091	2255.155132
332.008571	2272.784047
332.401986	2293.515792
332.795338	2315.245686
333.188625	2333.156905
333.581847	2355.002746
333.975006	2373.173585
334.368100	2392.418189
334.761129	2408.701116
335.154095	2422.597057
335.546996	2442.738987
335.939833	2456.261882
336.332606	2465.857719
336.725315	2479.511684
337.117960	2486.949906
337.510540	2497.974910
337.903056	2505.917248
338.295508	2509.788854
338.687896	2518.295801
339.080220	2528.655372
339.472480	2535.770961
339.864676	2535.140817
340.256807	2539.907228
340.648875	2545.523073
341.040879	2542.674821
341.432818	2543.831766
341.824694	2545.853268
342.216506	2547.209339
342.608253	2543.090716
342.999937	2542.982331
343.391557	2544.804708
343.783113	2541.074255
344.174605	2541.522917
344.566033	2536.569984
344.957397	2538.843544
345.348697	2535.491177
345.739934	2532.975641
346.131106	2533.714170
346.522215	2531.526309
346.913260	2527.929446
347.304241	2527.246370
347.695159	2525.076153
348.086012	2526.026410
348.476802	2522.671523
348.867528	2522.865607
349.258191	2521.275123
349.648789	2519.399814
350.039324	2513.607528
350.429796	2521.229752
350.820203	2515.805471
351.210548	2516.604494
351.600828	2516.390245
351.991045	2514.320851
352.381198	2512.682476
352.771288	2515.871006
353.161314	2514.832528
353.551276	2514.933351
353.941175	2512.952178
354.331010	2513.675583
354.720782	2515.341685
355.110490	2513.673063
355.500135	2516.412930
355.889717	2516.100378
356.279235	2516.445698
356.668689	2516.944772
357.058080	2515.029133
357.447408	2512.216169
357.836672	2513.627692
358.225873	2515.187930
358.615010	2516.425533
359.004084	2518.096675
359.393095	2519.351923
359.782043	2519.606501
360.170927	2521.872500
360.559748	2522.177489
360.948505	2521.070956
361.337199	2520.738240
361.725830	2521.769156
362.114398	2520.322345
362.502903	2522.522808
362.891344	2522.832839
363.279722	2522.265710
363.668037	2521.564989
364.056289	2523.601615
364.444478	2525.262676
364.832603	2524.816533
365.220665	2525.030782
365.608665	2525.303005
365.996601	2527.483304
366.384474	2527.236287
366.772284	2528.206709
367.160031	2528.531864
367.547715	2526.321318
367.935336	2526.228057
368.322893	2528.068078
368.710388	2527.412728
369.097820	2531.060002
369.485189	2526.275947
369.872495	2528.627646
370.259738	2528.274765
370.646918	2528.499096
371.034035	2528.375588
371.421090	2528.899868
371.808081	2532.164015
372.195010	2531.007070
372.581875	2532.718542
372.968678	2531.559077
373.355418	2533.421783
373.742096	2535.092926
374.128710	2536.658204
374.515262	2534.132586
374.901751	2540.436549
375.288177	2537.348842
375.674540	2540.413863
376.060841	2540.340767
376.447079	2541.706919
376.833254	2545.661705
377.219367	2543.748587
377.605417	2547.589946
377.991404	2546.203629
378.377329	2549.891233
378.763191	2554.304763
379.148991	2558.153684
379.534727	2562.952862
379.920402	2566.774057
380.306013	2570.070972
380.691563	2573.130952
381.077049	2579.490367
381.462474	2584.292067
381.847835	2586.984043
382.233134	2595.952255
382.618371	2595.919488
383.003545	2604.310488
383.388657	2610.042280
383.773706	2614.649895
384.158693	2620.759773
384.543618	2628.976854
384.928480	2636.551188
385.313280	2641.574698
385.698017	2651.304125
386.082692	2659.430465
386.467305	2665.981444
386.851856	2674.238854
387.236344	2686.234280
387.620770	2692.739889
388.005133	2699.653831
388.389435	2711.558516
388.773674	2715.785523
389.157851	2723.690053
389.541965	2736.355952
389.926018	2740.673700
390.310008	2750.514032
390.693936	2762.882503
391.077802	2768.029521
391.461606	2777.529576
391.845348	2789.588016
392.229027	2796.839716
392.612645	2810.171047
392.996200	2819.582881
393.379694	2833.655262
393.763125	2850.560772
394.146494	2854.064373
394.529801	2867.345293
394.913047	2883.159393
395.296230	2885.135525
395.679351	2890.315311
396.062410	2907.369534
396.445408	2900.127917
396.828343	2909.227199
397.211217	2914.681728
397.594028	2906.991448
397.976778	2920.471493
398.359466	2931.592278
398.742092	2924.443922
399.124656	2939.592590
399.507158	2949.188426
399.889598	2949.931996
400.271977	2957.672688
400.654294	2960.750312
401.036549	2966.976137
401.418742	2965.655355
401.800874	2985.169662
402.182944	2983.062459
402.564952	3004.457116
402.946898	2988.920280
403.328783	2991.392966
403.710606	2996.509737
404.092367	3008.865605
404.474067	3021.806247
404.855705	3009.105060
405.237282	3000.013339
405.618797	3013.609331
406.000250	3021.065198
406.381642	3032.932074
406.762972	3027.396887
407.144240	3007.829648
407.525447	3015.507325
407.906593	3006.612209
408.287677	3006.065244
408.668700	3009.924248
409.049661	2995.430930
409.430560	2993.593430
409.811399	2981.436687
410.192176	2982.497850
410.572891	2970.625933
410.953545	2982.331492
411.334138	2950.506688
411.714669	2964.397587
412.095139	2923.665064
412.475547	2937.830706
412.855894	2917.482089
413.236180	2916.597366
413.616405	2895.845457
413.996568	2890.325393
414.376670	2879.943137
414.756711	2861.817668
415.136691	2861.636187
415.516609	2852.332737
415.896466	2844.836541
416.276262	2836.314471
416.655997	2830.396156
417.035670	2817.962150
417.415283	2826.005311
417.794834	2817.238745
418.174324	2799.453554
418.553753	2785.880247
418.933121	2784.022582
419.312428	2769.577156
419.691674	2755.323293
420.070859	2751.000504
420.449983	2735.604820
420.829045	2731.914695
421.208047	2718.338868
421.586988	2712.518856
421.965867	2707.828062
422.344686	2700.994778
422.723444	2694.960517
423.102141	2673.454955
423.480777	2673.540654
423.859352	2664.441372
424.237866	2665.255518
424.616319	2654.611122
424.994712	2654.744712
425.373044	2643.021509
425.751314	2636.352062
426.129524	2627.898047
426.507673	2629.498614
426.885762	2623.232459
427.263789	2620.396810
427.641756	2611.340377
428.019662	2608.653443
428.397508	2602.155395
428.775292	2600.605240
429.153016	2595.596854
429.530679	2595.831268
429.908282	2590.596029
430.285824	2586.389187
430.663305	2584.718044
431.040726	2581.504308
431.418086	2578.966087
431.795385	2577.461303
432.172624	2573.821590
432.549802	2575.986766
432.926920	2574.129100
433.303977	2576.374934
433.680974	2573.294789
434.057910	2572.284038
434.434786	2569.231619
434.811601	2571.787484
435.188355	2570.990982
435.565050	2566.179201
435.941683	2568.926630
436.318257	2568.815724
436.694770	2562.889848
437.071222	2567.431927
437.447614	2562.967986
437.823946	2562.814231
438.200218	2567.552915
438.576429	2567.210117
438.952580	2568.863615
439.328670	2566.897565
439.704700	2565.707853
440.080670	2566.010322
440.456580	2567.822617
440.832429	2567.157185
441.208218	2566.108625
441.583947	2568.445199
441.959616	2567.454613
442.335224	2568.462843
442.710773	2567.394119
443.086261	2567.580642
443.461689	2567.467216
443.837057	2568.828327
444.212365	2567.885631
444.587612	2566.660631
444.962800	2567.295816
445.337927	2571.459809
445.712995	2567.051320
446.088002	2567.152143
446.462949	2570.176836
446.837837	2570.295303
447.212664	2568.740107
447.587431	2571.734552
447.962139	2568.593913
448.336786	2570.933009
448.711374	2569.735735
449.085901	2572.226065
449.460369	2569.655076
449.834776	2571.953843
450.209124	2571.653894
450.583412	2571.154820
450.957640	2568.853533
451.331808	2573.130952
451.705917	2570.481826
452.079965	2572.226065
452.453954	2570.829665
452.827883	2570.076013
453.201752	2569.632391
453.575562	2570.877556
453.949311	2572.563822
454.323001	2572.039542
454.696632	2571.444686
455.070202	2573.657752
455.443713	2571.981569
455.817164	2571.472412
456.190556	2570.355797
456.563888	2570.217165
456.937160	2567.905796
457.310373	2572.180694
457.683526	2574.323185
458.056619	2570.307906
458.429653	2573.783781
458.802628	2572.331929
459.175542	2571.613565
459.548398	2573.191446
459.921194	2571.248081
460.293930	2573.256981
460.666607	2574.892835
461.039224	2576.208576
461.411782	2574.424008
461.784280	2576.974832
462.156719	2574.499625
462.529099	2576.828638
462.901419	2573.929975
463.273680	2575.263360
463.645882	2575.936354
464.018024	2573.995510
464.390106	2577.098340
464.762130	2576.841241
465.134094	2578.703947
465.505999	2580.778382
465.877845	2578.804771
466.249631	2582.177303
466.621358	2582.653692
466.993026	2583.646799
467.364634	2585.627972
467.736184	2582.903229
468.107674	2580.077662
468.479105	2578.741756
468.850477	2578.774524
469.221790	2581.227045
469.593043	2580.004565
469.964238	2582.295770
470.335373	2578.630851
470.706449	2580.128073
471.077467	2580.596901
471.448425	2584.501274
471.819324	2584.700400
472.190164	2585.320462
472.560945	2582.094123
472.931667	2582.126891
473.302330	2583.883733
473.672934	2581.544638
474.043479	2580.160841
474.413965	2579.155131
474.784393	2576.080027
475.154761	2575.709502
475.525070	2577.236972
475.895321	2576.979873
476.265513	2577.854513
476.635645	2580.924576
477.005719	2581.519432
477.375734	2579.387024
477.745691	2581.108578
478.115588	2581.340471
478.485427	2583.485482
478.855207	2584.839032
479.224928	2583.399782
479.594591	2583.427509
479.964194	2585.869948
480.333739	2587.493199
480.703226	2585.827098
481.072653	2585.847263
481.442022	2586.837849
481.811333	2588.158632
482.180584	2583.651840
482.549777	2583.530852
482.918912	2584.781058
483.287988	2582.134453
483.657005	2583.548496
484.025964	2585.489341
484.394864	2583.593867
484.763706	2582.762076
485.132489	2585.544793
485.501213	2583.440112
485.869879	2583.185533
486.238487	2582.419278
486.607036	2581.912642
486.975527	2582.673856
487.343959	2585.721234
487.712333	2585.065884
488.080648	2583.866089
488.448905	2581.171592
488.817104	2584.332396
489.185244	2581.481623
489.553326	2584.781058
489.921350	2586.205184
490.289315	2586.815164
490.657222	2585.154104
491.025070	2584.725606
491.392861	2587.190730
491.760593	2587.183168
492.128267	2584.818867
492.495883	2585.121336
492.863440	2582.517580
493.230939	2583.848445
493.598380	2584.430698
493.965763	2579.341653
494.333088	2579.870975
494.700354	2580.733012
495.067563	2580.533886
495.434713	2581.176633
495.801805	2581.592529
496.168839	2582.746953
496.535815	2582.797364
496.902733	2585.827098
497.269593	2581.867272
497.636395	2583.500605
498.003139	2584.234093
498.369825	2585.315421
498.736453	2582.910790
499.103023	2581.365677
499.469535	2583.089751
499.835989	2583.331727
500.202385	2583.240986
500.568723	2582.933476
500.935003	2581.894998
501.301226	2581.955492
501.667390	2584.357602
502.033497	2582.895667
502.399546	2579.876016
502.765537	2582.857858
503.131470	2583.044381
503.497345	2581.877354
503.863163	2584.274422
504.228923	2583.490523
504.594625	2582.353743
504.960269	2580.833835
505.325856	2581.784092
505.691385	2582.651171
506.056856	2583.571182
506.422270	2581.857189
506.787625	2584.372725
507.152924	2583.253589
507.518164	2581.688311
507.883347	2580.049936
508.248472	2581.020358
508.613540	2581.509350
508.978550	2581.519432
509.343503	2581.292580
509.708398	2582.525142
510.073236	2581.431212
510.438016	2583.861048
510.802738	2581.930286
511.167403	2583.729978
511.532010	2581.710996
511.896561	2583.924062
512.261053	2582.530183
512.625488	2580.493557
512.989866	2580.201170
513.354186	2578.053639
513.718449	2578.202353
514.082655	2579.240830
514.446803	2582.394072
514.810894	2582.298290
515.174927	2588.516553
515.538904	2581.088413
515.902822	2581.521952
516.266684	2581.378280
516.630488	2581.395924
516.994235	2582.328537
517.357925	2583.510688
517.721558	2583.422467
518.085133	2584.662591
518.448651	2585.519587
518.812112	2583.097313
519.175516	2584.614700
519.538863	2583.447673
519.902152	2585.348188
520.265385	2582.260482
520.628560	2582.746953
520.991678	2581.834504
521.354739	2583.440112
521.717743	2583.830801
522.080690	2582.751994
522.443580	2583.127560
522.806413	2582.913311
523.169189	2584.342478
523.531908	2582.905749
523.894569	2583.485482
524.257174	2582.033630
524.619722	2582.915832
524.982213	2583.092272
525.344647	2586.237952
525.707025	2581.247210
526.069345	2582.235276
526.431608	2580.997672
526.793815	2581.698393
527.155964	2583.886254
527.518057	2582.754515
527.880093	2584.692838
528.242072	2581.922724
528.603995	2582.946078
528.965860	2580.788465
529.327669	2582.835173
529.689421	2579.392065
530.051117	2583.979515
530.412755	2583.424988
530.774337	2583.016655
531.135862	2582.757035
531.497331	2581.332909
531.858743	2580.105388
532.220098	2579.029102
532.581396	2577.305027
532.942638	2579.266036
533.303824	2583.747622
533.664953	2581.872313
534.026025	2583.485482
534.387040	2585.862386
534.747999	2581.143866
535.108902	2582.641089
535.469748	2582.298290
535.830537	2584.176120
536.191270	2582.515060
536.551947	2582.976325
536.912567	2580.826273
537.273131	2581.756366
537.633638	2582.618403
537.994089	2583.248548
538.354483	2583.082190
538.714821	2580.561613
539.075103	2583.679566
539.435328	2583.157807
539.795497	2584.632344
540.155609	2581.310224
540.515665	2583.258630
540.875665	2582.822570
541.235609	2582.426840
541.595496	2582.845255
541.955328	2581.973136
542.315102	2584.874320
542.674821	2585.469176
543.034483	2580.967426
543.394090	2579.654205
543.753640	2584.148394
544.113134	2582.739391
544.472571	2581.642940
544.831953	2584.113106
545.191278	2580.866603
545.550548	2581.090934
545.909761	2582.031109
546.268918	2583.823239
546.628019	2582.477251
546.987064	2586.079156
547.346053	2583.364494
547.704986	2583.301480
548.063863	2582.320975
548.422684	2583.893815
548.781449	2580.596901
549.140158	2581.905080
549.498811	2582.356263
549.857408	2583.054463
550.215949	2579.107240
550.574434	2577.695717
550.932864	2579.349215
551.291237	2579.626479
551.649555	2582.331058
552.007817	2584.077818
552.366022	2582.625965
552.724173	2583.394741
553.082267	2583.573702
553.440305	2584.148394
553.798288	2582.688980
554.156215	2580.710327
554.514086	2583.641758
554.871902	2581.564802
555.229661	2582.159658
555.587365	2583.397262
555.945014	2582.363825
556.302606	2584.402972
556.660143	2583.467838
557.017625	2583.220821
557.375050	2583.893815
557.732421	2579.082034
558.089735	2583.329206
558.446994	2582.736871
558.804197	2582.578074
559.161345	2584.846593
559.518437	2581.688311
559.875474	2586.046388
560.232455	2583.929103
560.589381	2580.667477
560.946251	2585.375915
561.303065	2580.339802
561.659825	2582.436922
562.016528	2582.089082
562.373177	2579.571026
562.729770	2583.435070
563.086307	2583.276274
563.442789	2580.034812
563.799216	2580.891808
564.155587	2582.598239
564.511904	2582.774679
564.868164	2581.141345
565.224370	2582.875502
565.580520	2583.036819
565.936615	2584.839032
566.292654	2585.272571
566.648638	2581.234607
567.004567	2583.283836
567.360441	2581.761407
567.716260	2581.171592
568.072023	2580.733012
568.427732	2577.257136
568.783385	2581.524473
569.138982	2578.207394
569.494525	2581.897518
569.850013	2576.901735
570.205445	2580.065059
570.560823	2584.196285
570.916145	2581.713516
571.271412	2579.558423
571.626625	2582.862899
571.981782	2582.968764
572.336884	2582.434401
572.691931	2580.932137
573.046923	2582.058835
573.401860	2582.416757
573.756743	2583.019175
574.111570	2581.426171
574.466342	2584.617221
574.821059	2581.844586
575.175722	2581.002714
575.530330	2580.851479
575.884882	2581.947930
576.239380	2582.394072
576.593823	2584.473548
576.948211	2580.470872
577.302544	2580.841397
577.656823	2579.356777
578.011047	2584.803744
578.365216	2581.479103
578.719330	2581.869792
579.073389	2581.053125
579.427394	2580.100347
579.781344	2580.909452
580.135239	2580.095306
580.489080	2581.499267
580.842866	2583.049422
581.196597	2585.544793
581.550273	2581.947930
581.903895	2582.051274
582.257463	2581.204360
582.610975	2582.709144
582.964434	2581.519432
583.317837	2582.194947
583.671186	2581.703434
584.024481	2582.164700
584.377721	2581.789134
584.730906	2583.172930
585.084037	2581.121181
585.437113	2579.805440
585.790135	2582.116809
586.143103	2580.871644
586.496016	2583.306521
586.848874	2578.076324
587.201679	2577.872157
587.554428	2579.318968
587.907124	2578.817373
588.259765	2578.870306
588.612352	2584.380287
588.964884	2582.648650
589.317362	2582.527663
589.669786	2581.171592
590.022155	2582.578074
590.374470	2581.176633
590.726731	2581.970615
591.078937	2581.093454
591.431090	2579.671849
591.783188	2579.150090
592.135232	2579.434915
592.487222	2584.284505
592.839157	2584.357602
593.191038	2580.725450
593.542866	2581.456418
593.894639	2581.007755
594.246358	2580.629668
594.598022	2580.594380
594.949633	2581.781572
595.301190	2580.571695
595.652692	2581.640420
596.004141	2582.411716
596.355535	2582.361305
596.706876	2582.915832
597.058162	2579.752508
597.409395	2581.627817
597.760573	2580.980028
598.111698	2579.296283
598.462768	2581.421129
598.813785	2579.213104
599.164748	2580.538928
599.515657	2581.683269
599.866511	2581.090934
600.217312	2579.387024
600.568060	2578.837538
600.918753	2582.063877
601.269392	2579.689493
601.619978	2582.494895
601.970510	2579.790316
602.320988	2583.727457
602.671412	2581.027919
603.021783	2581.496747
603.372100	2580.881726
603.722363	2580.717888
604.072572	2581.837025
604.422728	2585.325503
604.772830	2575.855696
605.122878	2576.556416
605.472872	2576.901735
605.822813	2575.028946
606.172701	2579.245872
606.522534	2578.935841
606.872314	2581.612693
607.222041	2577.642785
607.571714	2582.202508
607.921333	2579.586149
608.270899	2578.467013
608.620411	2580.536407
608.969870	2582.295770
609.319276	2579.374421
609.668627	2582.447004
610.017926	2579.432394
610.367171	2580.803588
610.716362	2581.098496
611.065500	2581.012796
611.414585	2580.967426
611.763616	2580.372569
612.112594	2583.150245
612.461518	2578.789647
612.810389	2579.823084
613.159207	2582.043712
613.507971	2581.332909
613.856682	2580.775862
614.205340	2581.118660
614.553945	2581.403485
614.902496	2581.010275
615.250994	2581.398444
615.599439	2582.799885
615.947830	2581.718557
616.296169	2579.046746
616.644454	2582.021027
616.992686	2579.487847
617.340864	2582.230235
617.688990	2578.958526
618.037063	2581.854669
618.385082	2578.567836
618.733048	2582.227714
619.080961	2579.913824
619.428821	2580.410378
619.776628	2581.332909
620.124382	2580.480954
620.472083	2580.511201
620.819731	2577.695717
621.167326	2581.103537
621.514868	2577.552044
621.862357	2580.695203
622.209793	2578.731674
622.557176	2581.723599
622.904506	2579.248392
623.251783	2576.543813
623.599007	2577.539441
623.946179	2578.840059
624.293297	2578.633371
624.640363	2579.848289
624.987376	2578.351067
625.334336	2580.528845
625.681243	2581.194277
626.028097	2579.117322
626.374899	2582.056315
626.721647	2579.457600
627.068343	2580.130594
627.414987	2579.974318
627.761577	2580.231417
628.108115	2579.805440
628.454600	2580.422981
628.801032	2579.137487
629.147412	2580.697724
629.493739	2578.958526
629.840014	2578.527507
630.186236	2579.777713
630.532405	2580.596901
630.878521	2579.250913
631.224585	2579.331571
631.570597	2579.195460
631.916556	2581.118660
632.262462	2581.080852
632.608316	2579.548341
632.954117	2578.111612
633.299866	2579.397106
633.645562	2579.729822
633.991206	2581.055646
634.336797	2579.676890
634.682336	2579.296283
635.027823	2575.157496
635.373257	2578.698906
635.718639	2575.376786
636.063968	2577.748649
636.409245	2578.555233
636.754470	2579.548341
637.099642	2578.401478
637.444762	2579.084555
637.789829	2579.888619
638.134845	2578.973649
638.479808	2580.004565
638.824719	2579.828125
639.169577	2579.840728
639.514383	2577.564647
639.859137	2580.430543
640.203839	2578.272929
640.548489	2578.421643
640.893086	2572.934347
641.237632	2576.679924
641.582125	2575.046590
641.926566	2571.706826
642.270955	2577.582291
642.615292	2575.646488
642.959576	2580.087744
643.303809	2579.434915
643.647990	2575.964080
643.992118	2576.385017
644.336195	2579.560944
644.680219	2578.275449
645.024192	2576.851323
645.368112	2579.717219
645.711981	2580.584298
646.055797	2577.539441
646.399562	2580.254102
646.743274	2578.293093
647.086935	2580.501119
647.430544	2575.926272
647.774101	2580.082703
648.117606	2577.859554
648.461059	2579.114802
648.804460	2581.030440
649.147810	2579.933989
649.491108	2578.562795
649.834354	2578.530028
650.177548	2578.514904
650.520690	2576.485840
650.863781	2577.171437
651.206820	2578.948443
651.549807	2577.262177
651.892742	2579.134966
652.235626	2579.303845
652.578458	2578.829976
652.921238	2579.281160
653.263967	2578.550192
653.606644	2578.451890
653.949269	2576.395099
654.291843	2577.791499
654.634365	2577.947774
654.976836	2579.026581
655.319255	2578.393917
655.661622	2577.965418
656.003938	2580.911973
656.346203	2577.995665
656.688416	2576.914338
657.030577	2576.843762
657.372687	2578.126735
657.714746	2576.939544
658.056753	2579.341653
658.398708	2575.180181
658.740612	2570.892680
659.082465	2573.811508
659.424266	2576.168247
659.766016	2572.563822
660.107715	2577.184040
660.449362	2574.103895
660.790958	2576.934502
661.132503	2577.511715
661.473996	2576.022054
661.815438	2578.174626
662.156829	2577.340315
662.498168	2575.712023
662.839456	2576.253947
663.180693	2577.146231
663.521879	2577.915007
663.863013	2574.955850
664.204097	2578.396437
664.545129	2573.529203
664.886110	2576.780747
665.227040	2575.384348
665.567918	2575.780078
665.908746	2576.349729
666.249522	2580.846438
666.590248	2576.679924
666.930922	2576.896694
667.271545	2576.450552
667.612118	2578.277970
667.952639	2577.715881
668.293109	2578.202353
668.633528	2577.305027
668.973896	2575.603638
669.314213	2579.024061
669.654480	2577.168916
669.994695	2576.213617
670.334859	2577.007599
670.674973	2576.168247
671.015035	2575.999368
671.355047	2576.349729
671.695008	2575.449883
672.034918	2576.301838
672.374777	2578.787127
672.714585	2577.176478
673.054342	2575.533062
673.394049	2576.763103
673.733705	2578.860223
674.073310	2579.218145
674.412864	2577.685634
674.752368	2576.034657
675.091820	2578.192270
675.431223	2577.342836
675.770574	2580.412899
676.109875	2572.853688
676.449125	2575.510377
676.788324	2574.965932
677.127473	2573.216652
677.466571	2572.193297
677.805619	2574.804615
678.144616	2574.373596
678.483562	2576.485840
678.822458	2577.690676
679.161303	2577.383165
679.500098	2578.267888
679.838842	2577.100861
680.177535	2578.371231
680.516179	2577.176478
680.854771	2575.139852
681.193314	2576.705130
681.531805	2574.602969
681.870247	2574.890315
682.208638	2578.300655
682.546978	2577.791499
682.885268	2575.984245
683.223508	2575.008782
683.561697	2576.679924
683.899836	2578.391396
684.237925	2574.973494
684.575963	2576.135480
684.913951	2576.251426
685.251889	2576.054821
685.589776	2577.413412
685.927614	2575.553226
686.265401	2578.582960
686.603137	2576.352249
686.940824	2575.956519
687.278460	2575.802763
687.616046	2575.913669
687.953582	2579.666808
688.291068	2574.497105
688.628504	2577.756211
688.965889	2577.156313
689.303224	2576.672363
689.640510	2577.428536
689.977745	2575.154975
690.314930	2575.243195
690.652065	2575.787640
690.989150	2577.252095
691.326185	2579.505491
691.663170	2574.366035
692.000105	2578.797209
692.336990	2574.348391
692.673825	2576.500963
693.010610	2574.877712
693.347345	2569.135837
693.684030	2572.074830
694.020665	2571.298492
694.357251	2570.852350
694.693786	2573.501477
695.030272	2575.016343
695.366707	2574.522310
695.703093	2576.609348
696.039429	2575.286045
696.375716	2575.848134
696.711952	2575.114646
697.048139	2574.653380
697.384276	2576.105233
697.720363	2574.812177
698.056400	2575.003741
698.392388	2573.398133
698.728326	2577.196643
699.064214	2574.905438
699.400053	2576.027095
699.735842	2573.483833
700.071581	2574.040880
700.407270	2574.413926
700.742910	2572.899059
701.078501	2573.872002
701.414042	2576.508525
701.749533	2573.617423
702.084974	2575.253278
702.420366	2574.706312
702.755709	2572.445355
703.091002	2571.933678
703.426246	2574.756724
703.761440	2574.008113
704.096584	2572.911662
704.431679	2573.254460
704.766725	2574.164388
705.101721	2573.609862
705.436668	2571.338822
705.771565	2573.524162
706.106413	2574.048442
706.441212	2570.759089
706.775961	2578.290573
707.110661	2575.790161
707.445311	2573.496436
707.779913	2571.931157
708.114465	2574.234965
708.448967	2575.795202
708.783421	2572.805797
709.117825	2575.719584
709.452180	2574.844944
709.786485	2575.286045
710.120742	2573.904769
710.454949	2574.136662
710.789107	2571.235478
711.123216	2572.107598
711.457275	2570.449058
711.791286	2570.297823
712.125247	2574.073648
712.459159	2574.519790
712.793023	2577.904925
713.126837	2574.098853
713.460602	2574.542475
713.794318	2574.814697
714.127985	2577.483988
714.461602	2573.405695
714.795171	2575.555747
715.128691	2576.662280
715.462162	2572.906621
715.795584	2576.105233
716.128957	2575.371745
716.462281	2572.397464
716.795556	2575.729667
717.128782	2575.475088
717.461960	2574.350911
717.795088	2574.015674
718.128167	2574.313102
718.461198	2573.551888
718.794180	2572.609192
719.127113	2572.596590
719.459997	2573.700602
719.792833	2573.264542
720.125619	2572.203380
720.458357	2572.203380
720.791046	2573.536765
721.123686	2574.063565
721.456278	2575.875860
721.788821	2571.389233
722.121315	2577.562126
722.453761	2572.092474
722.786158	2573.075499
723.118506	2572.526013
723.450805	2571.810170
723.783056	2573.514080
724.115259	2572.306723
724.447412	2572.447876
724.779518	2574.222362
725.111574	2576.422825
725.443582	2573.607341
725.775542	2574.015674
726.107453	2573.604820
726.439315	2573.052814
726.771129	2574.988617
727.102895	2576.861406
727.434612	2573.781261
727.766281	2572.808318
728.097901	2570.267577
728.429473	2569.667679
728.760996	2569.524006
729.092471	2568.896383
729.423897	2571.729511
729.755276	2574.020716
730.086606	2573.602300
730.417887	2573.670355
730.749120	2573.095664
731.080305	2572.052145
731.411442	2577.539441
731.742530	2573.829152
732.073570	2574.272773
732.404562	2575.578432
732.735506	2571.648853
733.066401	2573.367886
733.397249	2575.273442
733.728048	2574.250088
734.058798	2572.329408
734.389501	2571.623647
734.720156	2574.197156
735.050762	2576.017012
735.381320	2575.016343
735.711831	2572.324367
736.042293	2574.464337
736.372707	2573.196487
736.703073	2572.173133
737.033391	2573.998030
737.363661	2575.870819
737.693883	2571.628688
738.024056	2575.301169
738.354182	2572.347052
738.684260	2571.974007
739.014290	2571.540468
739.344272	2575.109605
739.674207	2573.781261
740.004093	2575.533062
740.333931	2574.151786
740.663722	2575.044070
740.993464	2572.808318
741.323159	2574.562640
741.652806	2572.954512
741.982405	2573.133472
742.311956	2570.905282
742.641460	2574.376117
742.970915	2570.668348
743.300323	2573.125911
743.629683	2574.991138
743.958996	2571.890828
744.288260	2569.902093
744.617477	2571.651373
744.946647	2568.004098
745.275768	2569.987792
745.604842	2568.745148
745.933869	2569.952504
746.262847	2570.312947
746.591778	2571.679100
746.920662	2570.507031
747.249498	2572.026939
747.578286	2570.070972
747.907027	2572.785633
748.235720	2571.041394
748.564365	2571.898390
748.892963	2573.390571
749.221514	2571.913513
749.550017	2569.876887
749.878473	2574.255129
750.206881	2572.258832
750.535242	2572.614234
750.863555	2573.135993
751.191821	2572.321847
751.520039	2573.506518
751.848210	2572.478122
752.176334	2571.502659
752.504411	2571.825293
752.832440	2572.170612
753.160421	2571.394274
753.488356	2571.369069
753.816243	2572.662125
754.144082	2568.840930
754.471875	2572.712536
754.799620	2574.018195
755.127318	2569.662638
755.454969	2569.796229
755.782572	2573.410736
756.110129	2573.599779
756.437638	2571.386713
756.765100	2570.812021
757.092515	2571.918554
757.419882	2572.699933
757.747203	2573.226734
758.074477	2570.247412
758.401703	2572.513411
758.728882	2571.593400
759.056014	2570.864953
759.383099	2570.537278
759.710138	2570.990982
760.037129	2571.699264
760.364073	2572.831003
760.690970	2570.834706
761.017820	2574.847465
761.344623	2569.796229
761.671379	2570.935529
761.998088	2568.972000
762.324751	2570.262535
762.651366	2571.636250
762.977935	2571.671538
763.304456	2571.255643
763.630931	2572.120201
763.957359	2573.803946
764.283740	2574.242526
764.610074	2573.773699
764.936362	2573.080540
765.262602	2573.314954
765.588796	2573.776220
765.914943	2573.372927
766.241044	2571.847978
766.567097	2572.228585
766.893104	2572.810839
767.219064	2571.374110
767.544978	2572.687330
767.870845	2569.092988
768.196665	2570.965776
768.522438	2572.067268
768.848165	2571.653894
769.173846	2568.767833
769.499479	2571.414439
769.825066	2571.734552
770.150607	2572.427711
770.476101	2572.158009
770.801548	2571.043914
771.126949	2570.358317
771.452303	2570.572566
771.777611	2571.477453
772.102872	2570.043245
772.428087	2572.672207
772.753256	2572.306723
773.078378	2567.787329
773.403453	2569.738255
773.728482	2570.252453
774.053465	2570.693554
774.378401	2569.823955
774.703291	2567.938563
775.028135	2570.018039
775.352932	2571.084243
775.677683	2568.795560
776.002388	2569.234140
776.327046	2566.612740
776.651658	2570.617937
776.976224	2569.743297
777.300743	2570.892680
777.625216	2567.139541
777.949643	2570.398647
778.274024	2570.481826
778.598359	2568.314129
778.922647	2566.038048
779.246889	2566.337997
779.571086	2565.022256
779.895236	2566.327915
780.219339	2567.804973
780.543397	2569.748338
780.867409	2567.744479
781.191374	2567.235323
781.515294	2568.669531
781.839167	2569.975190
782.162995	2572.415108
782.486776	2569.405539
782.810511	2570.600293
783.134201	2570.960735
783.457844	2567.419325
783.781441	2569.987792
784.104993	2567.449572
784.428498	2567.862946
784.751958	2568.382185
785.075372	2569.783626
785.398739	2567.946125
785.722061	2569.158523
786.045337	2568.089798
786.368568	2570.156671
786.691752	2567.323543
787.014891	2569.256825
787.337983	2569.072823
787.661030	2571.227916
787.984031	2570.585169
788.306987	2568.442679
788.629897	2570.887638
788.952760	2572.115159
789.275579	2570.335632
789.598351	2572.349573
789.921078	2573.383010
790.243759	2571.878225
790.566395	2569.763461
790.888984	2567.794891
791.211529	2568.656928
791.534027	2570.595252
791.856480	2568.823286
792.178888	2569.007288
792.501249	2569.740776
792.823566	2570.897721
793.145836	2567.983934
793.468062	2570.229768
793.790241	2570.489387
794.112375	2568.581311
794.434464	2570.691033
794.756507	2568.919068
795.078505	2570.244891
795.400457	2565.775908
795.722364	2566.403532
796.044226	2568.470405
796.366042	2563.383881
796.687812	2564.550908
797.009538	2571.757237
797.331218	2570.171795
797.652852	2568.382185
797.974442	2569.836558
798.295986	2570.630540
798.617484	2569.420663
798.938938	2568.452761
799.260346	2570.869994
799.581709	2566.615261
799.903026	2568.208265
800.224299	2568.523337
800.545526	2572.349573
800.866708	2567.232802
801.187845	2569.508883
801.508936	2568.293965
801.829983	2570.905282
802.150984	2566.804304
802.471940	2567.288255
802.792851	2569.229099
803.113717	2568.331773
803.434538	2567.704150
803.755314	2568.394788
804.076045	2567.807493
804.396731	2569.196331
804.717372	2569.556774
805.037967	2570.978379
805.358518	2566.350600
805.679024	2568.079716
805.999485	2566.574931
806.319901	2568.777916
806.640272	2567.941084
806.960598	2570.083574
807.280879	2570.214644
807.601115	2567.326063
807.921306	2568.394788
808.241453	2568.414952
808.561554	2568.520817
808.881611	2569.100549
809.201623	2570.345714
809.521590	2570.108780
809.841513	2570.381002
810.161390	2570.015519
810.481223	2568.677092
810.801011	2569.599624
811.120755	2568.845971
811.440453	2570.055848
811.760107	2569.897052
812.079716	2564.102245
812.399281	2563.151988
812.718801	2565.347410
813.038276	2564.482852
813.357707	2566.655590
813.677093	2568.692216
813.996434	2570.444017
814.315731	2565.861608
814.634983	2568.059551
814.954191	2569.884449
815.273354	2569.188770
815.592473	2565.256670
815.911547	2572.364697
816.230577	2566.451423
816.549562	2567.328584
816.868502	2568.578790
817.187399	2566.761454
817.506250	2569.123235
817.825058	2566.648028
818.143821	2566.718604
818.462539	2569.458471
818.781213	2571.376630
819.099843	2569.587021
819.418429	2569.589541
819.736970	2570.597772
820.055466	2569.534089
820.373919	2571.386713
820.692327	2572.508369
821.010691	2575.800243
821.329011	2574.862588
821.647286	2586.200143
821.965517	2586.873137
822.283704	2590.371698
822.601847	2595.473346
822.919945	2593.497213
823.237999	2591.047213
823.556010	2590.921184
823.873976	2585.315421
824.191897	2583.306521
824.509775	2580.521283
824.827609	2580.097827
825.145398	2577.171437
825.463144	2576.364852
825.780845	2576.195973
826.098502	2578.252764
826.416116	2579.639082
826.733685	2579.394586
827.051210	2578.668659
827.368692	2580.090265
827.686129	2578.585480
828.003522	2574.819738
828.320872	2568.359500
828.638177	2570.973338
828.955439	2569.150961
829.272656	2569.040056
829.589830	2568.147771
829.906960	2571.028791
830.224046	2570.035683
830.541088	2568.997206
830.858086	2566.703481
831.175041	2568.576269
831.491952	2569.748338
831.808819	2568.034345
832.125642	2570.726322
832.442421	2570.628019
832.759157	2568.931671
833.075849	2569.665159
833.392497	2574.429049
833.709101	2573.874522
834.025662	2572.210941
834.342179	2573.289748
834.658653	2571.580797
834.975083	2572.644481
835.291469	2575.530541
835.607811	2572.450396
835.924110	2568.409911
836.240366	2570.726322
836.556578	2568.172977
836.872746	2571.101888
837.188871	2568.505693
837.504952	2570.194480
837.820990	2569.103070
838.136984	2566.060734
838.452935	2568.422514
838.768842	2566.879921
839.084706	2567.462174
839.400526	2567.542833
839.716303	2569.904613
840.032037	2569.095508
840.347727	2568.593913
840.663373	2566.973183
840.978977	2567.232802
841.294537	2568.402350
841.610054	2567.258008
841.925527	2567.610888
842.240957	2568.571228
842.556344	2567.668862
842.871687	2567.389078
843.186987	2568.916547
843.502244	2569.307237
843.817458	2566.572411
844.132629	2567.396639
844.447756	2565.922102
844.762840	2565.027297
845.077881	2562.801628
845.392879	2563.726679
845.707833	2565.337328
846.022745	2560.906154
846.337613	2567.714232
846.652438	2566.486711
846.967221	2567.081567
847.281960	2565.803635
847.596656	2568.601475
847.911309	2564.850857
848.225919	2565.705332
848.540485	2568.989644
848.855009	2566.784139
849.169490	2566.015363
849.483928	2564.477811
849.798323	2564.808007
850.112675	2566.806824
850.426984	2566.658110
850.741251	2566.648028
851.055474	2569.261866
851.369654	2564.513099
851.683792	2565.183573
851.997887	2567.447051
852.311938	2565.264231
852.625947	2567.568039
852.939914	2566.683316
853.253837	2565.856567
853.567718	2568.518296
853.881555	2566.466547
854.195350	2564.863460
854.509103	2564.618964
854.822812	2565.123079
855.136479	2569.382854
855.450103	2566.340518
855.763685	2565.980075
856.077224	2565.702812
856.390720	2565.811197
856.704173	2566.194324
857.017584	2566.774057
857.330953	2562.915054
857.644278	2564.026628
857.957561	2568.598955
858.270802	2565.869170
858.584000	2565.017215
858.897155	2564.298850
859.210268	2564.581155
859.523339	2564.313974
859.836367	2566.217009
860.149352	2564.644169
860.462295	2568.566187
860.775195	2561.475804
861.088054	2562.307595
861.400869	2560.182748
861.713642	2561.327090
862.026373	2566.388409
862.339062	2564.513099
862.651708	2567.550395
862.964312	2566.073337
863.276873	2563.850188
863.589392	2565.017215
863.901869	2565.702812
864.214303	2562.940259
864.526696	2567.293296
864.839045	2563.890517
865.151353	2565.216340
865.463619	2566.141392
865.775842	2568.019222
866.088023	2565.284396
866.400162	2565.793552
866.712258	2565.445713
867.024313	2567.759602
867.336325	2566.852195
867.648296	2568.309088
867.960224	2566.297668
868.272110	2567.308419
868.583954	2567.290775
868.895755	2567.648697
869.207515	2566.723645
869.519233	2565.667524
869.830909	2569.534089
870.142542	2568.319171
870.454134	2562.849519
870.765684	2568.490570
871.077191	2567.391598
871.388657	2565.198696
871.700081	2566.040569
872.011463	2567.426886
872.322803	2568.203224
872.634101	2566.849674
872.945357	2565.395301
873.256571	2566.683316
873.567744	2566.554767
873.878874	2568.034345
874.189963	2566.436300
874.501010	2568.155333
874.812015	2568.089798
875.122979	2570.754048
875.433900	2566.935374
875.744780	2566.859757
876.055618	2567.938563
876.366415	2565.458316
876.677169	2569.879408
876.987882	2563.837585
877.298554	2563.300702
877.609183	2561.390105
877.919771	2562.090825
878.230317	2564.727348
878.540822	2567.671382
878.851285	2568.230950
879.161707	2566.552246
879.472087	2568.546023
879.782425	2568.009140
880.092722	2569.569377
880.402977	2573.617423
880.713191	2575.008782
881.023363	2578.928279
881.333494	2576.858885
881.643583	2581.257292
881.953631	2581.693352
882.263637	2579.755028
882.573602	2580.929617
882.883526	2578.164544
883.193408	2577.264698
883.503248	2574.406364
883.813048	2574.721436
884.122806	2574.608010
884.432522	2572.258832
884.742197	2571.772361
885.051831	2571.079202
885.361424	2571.411918
885.670975	2569.032494
885.980485	2570.217165
886.289954	2569.655076
886.599382	2566.985785
886.908768	2570.638101
887.218113	2565.538974
887.527417	2569.524006
887.836680	2567.482339
888.145901	2566.506876
888.455082	2566.534602
888.764221	2565.712894
889.073319	2567.063923
889.382376	2563.467060
889.691392	2565.624674
890.000366	2564.460167
890.309300	2565.906978
890.618193	2567.131979
890.927044	2564.858418
891.235855	2566.093501
891.544625	2566.965621
891.853353	2566.229612
892.162041	2565.942267
892.470687	2565.682647
892.779293	2566.728687
893.087858	2564.674416
893.396381	2564.102245
893.704864	2561.367419
894.013306	2561.140567
894.321707	2569.463512
894.630068	2569.874367
894.938387	2568.009140
895.246665	2569.914696
895.554903	2570.559963
895.863100	2571.414439
896.171256	2569.897052
896.479371	2567.179870
896.787446	2568.046948
897.095480	2568.820765
897.403473	2565.730538
897.711425	2565.513768
898.019336	2566.769016
898.327207	2567.384037
898.635038	2568.024263
898.942827	2567.394119
899.250576	2567.447051
899.558284	2564.772719
899.865952	2566.569890
900.173579	2565.763306
900.481165	2565.707853
900.788711	2566.516958
901.096216	2562.627708
901.403681	2564.810527
901.711105	2568.001578
902.018489	2565.591906
902.325832	2568.251115
902.633135	2563.656103
902.940397	2566.438820
903.247619	2565.319684
903.554800	2564.495455
903.861941	2568.914027
904.169041	2570.713719
904.476101	2570.915365
904.783121	2567.842782
905.090100	2570.514593
905.397039	2569.854202
905.703938	2568.835889
906.010796	2567.749520
906.317614	2566.975703
906.624391	2569.035014
906.931129	2565.044941
907.237826	2568.944274
907.544483	2566.156516
907.851099	2568.719942
908.157675	2563.824982
908.464211	2564.654252
908.770707	2559.968499
909.077163	2562.859601
909.383578	2562.509241
909.689954	2559.449260
909.996289	2559.492110
910.302584	2562.239539
910.608839	2565.634756
910.915054	2565.942267
911.221229	2566.383368
911.527363	2563.867832
911.833458	2566.181721
912.139513	2565.596947
912.445527	2566.325394
912.751502	2561.508572
913.057436	2564.959242
913.363331	2564.518141
913.669186	2565.728017
913.975000	2563.746844
914.280775	2564.671896
914.586510	2565.549057
914.892205	2566.196845
915.197859	2567.560477
915.503475	2565.261711
915.809050	2571.812690
916.114585	2568.767833
916.420081	2568.603996
916.725536	2572.606672
917.030952	2572.145406
917.336328	2569.077864
917.641665	2572.820921
917.946961	2567.741958
918.252218	2568.223389
918.557435	2568.404870
918.862612	2569.123235
919.167750	2565.783470
919.472848	2569.924778
919.777906	2567.628532
920.082925	2566.403532
920.387904	2568.185580
920.692843	2566.090981
920.997743	2565.939746
921.302603	2566.211968
921.607423	2567.615930
921.912204	2565.201217
922.216946	2566.320353
922.521647	2566.486711
922.826310	2565.612071
923.130932	2566.143913
923.435516	2565.980075
923.740059	2562.610064
924.044564	2562.458829
924.349028	2563.353634
924.653454	2562.637790
924.957840	2563.661144
925.262186	2559.837429
925.566493	2564.253480
925.870761	2559.872717
926.174989	2563.308264
926.479178	2563.086453
926.783328	2560.986812
927.087438	2562.534447
927.391509	2564.324056
927.695541	2563.356155
927.999533	2562.637790
928.303486	2563.620815
928.607400	2566.166598
928.911275	2562.632749
929.215110	2563.910682
929.518906	2563.071329
929.822663	2562.826833
930.126381	2564.936556
930.430060	2564.225754
930.733699	2561.470763
931.037299	2562.937739
931.340861	2564.170301
931.644383	2564.618964
931.947866	2561.932029
932.251309	2563.141906
932.554714	2564.250959
932.858080	2564.114848
933.161407	2564.669375
933.464694	2563.204920
933.767943	2563.187276
934.071153	2565.954869
934.374323	2565.221382
934.677455	2566.065775
934.980548	2563.424210
935.283602	2564.402194
935.586617	2564.213151
935.889593	2564.896227
936.192530	2563.507389
936.495428	2560.389436
936.798287	2563.126782
937.101108	2563.542677
937.403890	2564.923953
937.706632	2561.387584
938.009336	2563.759447
938.312002	2562.607543
938.614628	2563.348593
938.917216	2566.975703
939.219765	2564.434962
939.522275	2564.671896
939.824747	2564.208110
940.127179	2561.705177
940.429573	2564.787842
940.731929	2561.259035
941.034246	2558.037737
941.336524	2560.563355
941.638763	2562.166442
941.940964	2566.025446
942.243126	2562.163922
942.545250	2565.483522
942.847335	2562.355486
943.149381	2562.501679
943.451389	2563.048644
943.753359	2563.845147
944.055290	2563.767009
944.357182	2564.802966
944.659036	2562.332800
944.960851	2565.939746
945.262628	2561.692574
945.564367	2563.467060
945.866067	2565.012174
946.167729	2564.563511
946.469352	2562.665517
946.770937	2562.582337
947.072484	2563.588048
947.373992	2562.156360
947.675462	2565.773388
947.976893	2563.240208
948.278286	2562.312636
948.579641	2563.459498
948.880958	2563.136864
949.182236	2562.181566
949.483476	2563.028480
949.784678	2565.760785
950.085841	2565.412945
950.386967	2565.254149
950.688054	2561.173335
950.989103	2563.522513
951.290114	2561.853891
951.591087	2564.359344
951.892021	2565.317163
952.192917	2564.848336
952.493776	2564.036710
952.794596	2563.449416
953.095378	2562.312636
953.396122	2564.646690
953.696828	2559.895402
953.997496	2564.858418
954.298126	2562.191648
954.598718	2564.500497
954.899272	2564.898748
955.199788	2562.932698
955.500266	2563.948490
955.800706	2561.173335
956.101108	2558.821637
956.401472	2560.555794
956.701798	2560.467573
957.002087	2558.902295
957.302337	2560.200392
957.602550	2563.945970
957.902724	2562.743654
958.202861	2563.189797
958.502960	2560.064281
958.803022	2564.077040
959.103045	2563.174673
959.403031	2559.925649
959.702979	2561.173335
960.002889	2563.693912
960.302762	2560.190310
960.602596	2562.383212
960.902393	2562.882286
961.202153	2562.174004
961.501875	2564.878583
961.801559	2563.860270
962.101205	2561.599313
962.400814	2562.206772
962.700385	2561.740465
962.999918	2563.542677
963.299414	2559.787018
963.598873	2563.335990
963.898293	2562.506720
964.197677	2560.996895
964.497022	2561.979920
964.796331	2561.198541
965.095601	2562.478994
965.394835	2563.328428
965.694030	2565.276834
965.993189	2561.226267
966.292309	2561.415310
966.591393	2561.959755
966.890439	2559.673592
967.189447	2564.011505
967.488419	2561.616957
967.787353	2561.811041
968.086249	2562.625187
968.385108	2565.055023
968.683930	2561.879097
968.982714	2561.995043
969.281462	2560.621329
969.580172	2561.906823
969.878844	2562.080743
970.177480	2560.223077
970.476078	2563.126782
970.774639	2563.673747
971.073162	2562.791545
971.371649	2558.302398
971.670098	2560.578479
971.968510	2561.039744
972.266885	2558.809034
972.565223	2562.153839
972.863524	2563.262893
973.161788	2562.383212
973.460014	2562.993192
973.758204	2558.597305
974.056356	2561.485887
974.354471	2562.786504
974.652550	2563.567883
974.950591	2564.828172
975.248595	2565.077709
975.546563	2563.643500
975.844493	2562.753737
976.142386	2561.755588
976.440243	2563.477142
976.738062	2563.472101
977.035845	2564.293809
977.333590	2562.902451
977.631299	2561.483366
977.928971	2563.482183
978.226606	2560.749878
978.524204	2563.545198
978.821765	2562.431103
979.119290	2564.432441
979.416777	2561.853891
979.714228	2564.757595
980.011642	2562.713407
980.309020	2561.029662
980.606360	2563.789694
980.903664	2563.366237
981.200931	2560.689384
981.498162	2561.344734
981.795356	2560.212995
982.092513	2563.961093
982.389633	2560.333983
982.686717	2562.494117
982.983764	2560.447409
983.280775	2564.145095
983.577749	2563.610733
983.874686	2562.136195
984.171587	2563.227605
984.468451	2561.138047
984.765279	2560.558314
985.062070	2562.363047
985.358824	2563.288099
985.655543	2562.012687
985.952224	2562.773901
986.248869	2560.757440
986.545478	2558.587223
986.842050	2563.399004
987.138586	2559.413972
987.435086	2559.456822
987.731549	2557.465566
988.027975	2563.824982
988.324366	2561.523695
988.620719	2560.603685
988.917037	2562.325239
989.213318	2563.968655
989.509563	2560.311298
989.805772	2560.805331
990.101944	2560.248283
990.398080	2562.599982
990.694180	2559.313149
990.990244	2562.365568
991.286271	2559.948335
991.582262	2561.120403
991.878217	2559.965979
992.174136	2562.042934
992.470019	2562.990671
992.765865	2560.618808
993.061676	2560.651576
993.357450	2560.311298
993.653188	2560.344065
993.948890	2560.268448
994.244556	2560.729713
994.540186	2560.790207
994.835780	2562.327759
995.131337	2560.767522
995.426859	2561.261555
995.722345	2560.840619
996.017795	2558.844322
996.313208	2562.879766
996.608586	2560.533108
996.903928	2562.494117
997.199234	2562.186607
997.494504	2562.216854
997.789738	2562.821792
998.084936	2562.098387
998.380099	2560.991853
998.675225	2564.215671
998.970316	2561.460681
999.265371	2561.508572
999.560390	2562.020249
999.855373	2564.089642
1000.150320	2561.190979
1000.445232	2563.703994
1000.740108	2563.577965
1001.034948	2561.387584
1001.329752	2561.614436
1001.624521	2562.042934
1001.919254	2559.411452
1002.213951	2557.352140
1002.508613	2558.428427
1002.803239	2560.286092
1003.097829	2556.530432
1003.392384	2559.978582
1003.686903	2561.795917
1003.981386	2560.361709
1004.275834	2560.986812
1004.570246	2560.923798
1004.864623	2562.267265
1005.158964	2560.389436
1005.453270	2563.535116
1005.747540	2564.069478
1006.041775	2562.163922
1006.335974	2561.700136
1006.630138	2560.991853
1006.924266	2560.548232
1007.218359	2562.421021
1007.512416	2560.911195
1007.806438	2560.923798
1008.100425	2560.288612
1008.394376	2559.781977
1008.688292	2559.028324
1008.982172	2560.437327
1009.276017	2560.923798
1009.569827	2560.911195
1009.863602	2565.803635
1010.157341	2562.904971
1010.451045	2562.484035
1010.744714	2559.832388
1011.038347	2561.087635
1011.331945	2560.578479
1011.625508	2563.187276
1011.919036	2563.456978
1012.212528	2561.432954
1012.505986	2560.623849
1012.799408	2560.966648
1013.092795	2561.034703
1013.386147	2559.613098
1013.679464	2561.929508
1013.972745	2561.571586
1014.265992	2562.274827
1014.559204	2560.104610
1014.852380	2562.358006
1015.145521	2560.971689
1015.438628	2560.782646
1015.731699	2561.851370
1016.024736	2560.344065
1016.317737	2563.353634
1016.610703	2562.942780
1016.903635	2558.148643
1017.196531	2557.601677
1017.489393	2556.593447
1017.782219	2558.839281
1018.075011	2557.485731
1018.367768	2560.139898
1018.660490	2561.014539
1018.953177	2561.014539
1019.245829	2561.014539
