Dividing Wavelength (nm)	Counts (n)	Blue Motor Position (mm): 0.000000	Red Motor Position (mm): 33.000000	
326.493990	2142.024078
326.888308	2142.024078
327.282561	2142.024078
327.676750	2116.727568
328.070874	2116.432660
328.464933	2123.679319
328.858929	2133.023098
329.252859	2144.136321
329.646726	2157.873466
330.040528	2172.026505
330.434265	2192.304546
330.827938	2212.522094
331.221547	2230.261914
331.615091	2251.066756
332.008571	2273.361259
332.401986	2289.039248
332.795338	2310.123873
333.188625	2331.306802
333.581847	2348.940758
333.975006	2370.050590
334.368100	2387.356871
334.761129	2406.200704
335.154095	2421.152766
335.546996	2440.989707
335.939833	2456.057716
336.332606	2468.501804
336.725315	2484.913280
337.117960	2489.525936
337.510540	2500.087153
337.903056	2508.163082
338.295508	2513.070645
338.687896	2518.731861
339.080220	2528.420958
339.472480	2534.674510
339.864676	2538.160468
340.256807	2540.945705
340.648875	2545.623896
341.040879	2548.895605
341.432818	2547.456355
341.824694	2549.082127
342.216506	2543.617517
342.608253	2546.652291
342.999937	2545.901159
343.391557	2545.170192
343.783113	2544.033412
344.174605	2544.255223
344.566033	2540.948226
344.957397	2539.892104
345.348697	2538.064686
345.739934	2539.209028
346.131106	2532.158974
346.522215	2534.702236
346.913260	2532.053110
347.304241	2530.369364
347.695159	2526.054137
348.086012	2526.522964
348.476802	2522.926101
348.867528	2523.316790
349.258191	2524.418282
349.648789	2524.461132
350.039324	2521.708662
350.429796	2520.203878
350.820203	2519.840915
351.210548	2520.120699
351.600828	2515.006448
351.991045	2516.896881
352.381198	2515.079545
352.771288	2516.319669
353.161314	2517.216994
353.551276	2519.324196
353.941175	2517.728671
354.331010	2518.525173
354.720782	2515.984432
355.110490	2517.007786
355.500135	2516.153311
355.889717	2517.315297
356.279235	2516.254134
356.668689	2517.990811
357.058080	2517.610204
357.447408	2514.804802
357.836672	2517.101047
358.225873	2516.601973
358.615010	2513.736077
359.004084	2520.304701
359.393095	2521.663292
359.782043	2522.048940
360.170927	2522.270751
360.559748	2523.707480
360.948505	2523.848632
361.337199	2523.377284
361.725830	2524.471214
362.114398	2523.349558
362.502903	2524.924918
362.891344	2523.810823
363.279722	2523.205885
363.668037	2525.865093
364.056289	2527.284178
364.444478	2526.167563
364.832603	2527.359796
365.220665	2527.006915
365.608665	2529.466998
365.996601	2527.919364
366.384474	2527.480783
366.772284	2529.046062
367.160031	2530.134951
367.547715	2528.831813
367.935336	2530.346679
368.322893	2530.129910
368.710388	2531.753161
369.097820	2531.916999
369.485189	2531.107893
369.872495	2532.552184
370.259738	2532.048069
370.646918	2531.758202
371.034035	2532.312729
371.421090	2533.341125
371.808081	2532.859694
372.195010	2534.926568
372.581875	2534.470343
372.968678	2536.348173
373.355418	2535.486136
373.742096	2537.369007
374.128710	2536.635519
374.515262	2540.413863
374.901751	2538.311702
375.288177	2541.006199
375.674540	2542.246323
376.060841	2543.080634
376.447079	2543.594832
376.833254	2548.212528
377.219367	2546.445604
377.605417	2549.455173
377.991404	2552.074052
378.377329	2553.719989
378.763191	2557.649568
379.148991	2564.984447
379.534727	2568.934191
379.920402	2570.149109
380.306013	2574.630695
380.691563	2579.470203
381.077049	2582.981367
381.462474	2587.624269
381.847835	2593.053592
382.233134	2595.765733
382.618371	2602.858636
383.003545	2608.018257
383.388657	2615.577467
383.773706	2621.369753
384.158693	2623.580299
384.543618	2633.604633
384.928480	2639.127217
385.313280	2648.160965
385.698017	2656.045330
386.082692	2664.917761
386.467305	2667.697957
386.851856	2676.630882
387.236344	2690.047912
387.620770	2697.254242
388.005133	2705.254553
388.389435	2717.532283
388.773674	2719.377346
389.157851	2729.668861
389.541965	2740.111611
389.926018	2744.089082
390.310008	2758.531987
390.693936	2764.825868
391.077802	2772.201076
391.461606	2786.404527
391.845348	2791.533901
392.229027	2798.899027
392.612645	2816.094403
392.996200	2824.810558
393.379694	2841.302693
393.763125	2854.996987
394.146494	2862.939325
394.529801	2874.425594
394.913047	2891.608367
395.296230	2893.655075
395.679351	2898.970972
396.062410	2919.312028
396.445408	2916.247006
396.828343	2924.438881
397.211217	2936.353648
397.594028	2928.683533
397.976778	2942.133331
398.359466	2955.184878
398.742092	2951.693879
399.124656	2967.749954
399.507158	2982.374342
399.889598	2985.830053
400.271977	3001.417300
400.654294	3010.980369
401.036549	3019.441946
401.418742	3023.996628
401.800874	3047.536296
402.182944	3055.710527
402.564952	3088.218408
402.946898	3074.803897
403.328783	3082.799168
403.710606	3098.172166
404.092367	3120.630507
404.474067	3151.404230
404.855705	3139.870070
405.237282	3140.432159
405.618797	3170.868125
406.000250	3193.359233
406.381642	3224.906774
406.762972	3227.137484
407.144240	3218.522152
407.525447	3242.286152
407.906593	3240.985534
408.287677	3258.589243
408.668700	3280.039353
409.049661	3278.395937
409.430560	3297.118782
409.811399	3297.459060
410.192176	3319.874551
410.572891	3326.987619
410.953545	3364.433309
411.334138	3336.472550
411.714669	3381.522821
412.095139	3328.968792
412.475547	3384.028274
412.855894	3372.456306
413.236180	3401.233732
413.616405	3381.353942
413.996568	3408.787902
414.376670	3413.907193
414.756711	3407.593148
415.136691	3432.183897
415.516609	3451.569654
415.896466	3463.456694
416.276262	3486.668687
416.655997	3515.141124
417.035670	3524.290818
417.415283	3591.433947
417.794834	3613.322637
418.174324	3593.291612
418.553753	3594.216663
418.933121	3637.232829
419.312428	3628.221767
419.691674	3622.409316
420.070859	3663.038496
420.449983	3644.774395
420.829045	3691.563865
421.208047	3673.501411
421.586988	3721.611662
421.965867	3752.224069
422.344686	3762.273609
422.723444	3801.438333
423.102141	3704.950649
423.480777	3803.737100
423.859352	3775.370527
424.237866	3870.000546
424.616319	3857.828680
424.994712	3914.579470
425.373044	3905.575969
425.751314	3968.819765
426.129524	3906.944642
426.507673	4005.360568
426.885762	3981.478102
427.263789	4002.514837
427.641756	4005.771422
428.019662	4037.034138
428.397508	4039.063202
428.775292	4076.697936
429.153016	4083.158175
429.530679	4098.001853
429.908282	4104.517544
430.285824	4081.918051
430.663305	4154.397241
431.040726	4112.205303
431.418086	4107.454016
431.795385	4178.738452
432.172624	4215.760686
432.549802	4182.466385
432.926920	4198.711503
433.303977	4191.404351
433.680974	4235.612750
434.057910	4255.096809
434.434786	4260.357253
434.811601	4255.535390
435.188355	4362.841390
435.565050	4328.798478
435.941683	4331.679498
436.318257	4424.542593
436.694770	4423.017644
437.071222	4480.529648
437.447614	4414.102363
437.823946	4419.133435
438.200218	4434.690436
438.576429	4416.433897
438.952580	4441.559008
439.328670	4447.058907
439.704700	4488.948374
440.080670	4454.381183
440.456580	4514.917878
440.832429	4551.798960
441.208218	4458.416626
441.583947	4507.081405
441.959616	4517.798898
442.335224	4544.368299
442.710773	4566.282195
443.086261	4621.180360
443.461689	4572.876024
443.837057	4586.923199
444.212365	4660.382893
444.587612	4668.695756
444.962800	4633.390035
445.337927	4675.796221
445.712995	4560.550403
446.088002	4752.066358
446.462949	4774.607878
446.837837	4792.687976
447.212664	4779.404536
447.587431	5003.347713
447.962139	5297.136077
448.336786	5638.512933
448.711374	5623.785202
449.085901	5272.031131
449.460369	5207.867324
449.834776	5142.488600
450.209124	5381.504827
450.583412	5384.985744
450.957640	5509.746740
451.331808	5373.615422
451.705917	5224.198142
452.079965	5212.217840
452.453954	5256.262401
452.827883	5217.440476
453.201752	5222.768975
453.575562	5255.682669
453.949311	5391.319954
454.323001	5392.570160
454.696632	5389.240478
455.070202	5542.428541
455.443713	5570.354012
455.817164	5665.220966
456.190556	5735.199743
456.563888	5711.879365
456.937160	5785.941477
457.310373	5632.380369
457.683526	5683.855591
458.056619	5679.084139
458.429653	5659.703423
458.802628	5704.874682
459.175542	5736.112192
459.548398	5874.365836
459.921194	6063.020937
460.293930	6120.767354
460.666607	6372.235231
461.039224	6585.423107
461.411782	6708.873403
461.784280	6632.439428
462.156719	6633.891280
462.529099	6592.992399
462.901419	6449.886644
463.273680	6320.966697
463.645882	6308.502444
464.018024	6315.802034
464.390106	6375.675819
464.762130	6634.617207
465.134094	7016.938314
465.505999	7652.103534
465.877845	8352.471038
466.249631	8712.666522
466.621358	8635.909913
466.993026	8444.600645
467.364634	8231.657266
467.736184	7951.779966
468.107674	7792.703836
468.479105	7705.927934
468.850477	7642.671535
469.221790	7465.361552
469.593043	7246.411637
469.964238	7144.913046
470.335373	7122.689119
470.706449	7273.104547
471.077467	7453.605581
471.448425	8104.920137
471.819324	8693.492493
472.190164	8735.502948
472.560945	8253.878672
472.931667	7787.899616
473.302330	7597.107066
473.672934	7472.646019
474.043479	7551.310704
474.413965	7449.887730
474.784393	7403.383086
475.154761	7550.299953
475.525070	7565.413332
475.895321	7520.857094
476.265513	7613.553831
476.635645	7777.363604
477.005719	7765.892459
477.375734	7855.619956
477.745691	7959.311450
478.115588	8163.881473
478.485427	8402.665807
478.855207	8866.371302
479.224928	9293.561200
479.594591	9679.945477
479.964194	9699.631183
480.333739	9773.126165
480.703226	9770.605588
481.072653	9871.411021
481.442022	9986.084668
481.811333	10139.282813
482.180584	9979.974790
482.549777	9919.294421
482.918912	9857.278146
483.287988	9849.671045
483.657005	9747.915355
484.025964	9672.850053
484.394864	9727.841480
484.763706	9692.107261
485.132489	9597.625956
485.501213	9591.274102
485.869879	9656.287342
486.238487	9586.822763
486.607036	9667.279578
486.975527	9605.974107
487.343959	9661.515019
487.712333	9709.824396
488.080648	9744.774716
488.448905	9849.547537
488.817104	9856.206901
489.185244	10018.176654
489.553326	10220.556295
489.921350	10690.666577
490.289315	11316.056999
490.657222	11606.167842
491.025070	11775.830395
491.392861	11696.863240
491.760593	11541.202492
492.128267	11295.221911
492.495883	11051.388861
492.863440	10815.793056
493.230939	10595.038409
493.598380	10415.379247
493.965763	10386.826152
494.333088	10255.733467
494.700354	10178.351755
495.067563	10151.484926
495.434713	10161.799127
495.801805	10202.203975
496.168839	10158.688735
496.535815	10124.620617
496.902733	10171.095014
497.269593	10119.274473
497.636395	10130.667481
498.003139	10232.934849
498.369825	10157.420885
498.736453	10253.228013
499.103023	10195.214415
499.469535	10202.682884
499.835989	10249.497560
500.202385	10210.721004
500.568723	10232.685312
500.935003	10289.602459
501.301226	10256.608107
501.667390	10413.120811
502.033497	10510.165543
502.399546	10438.419841
502.765537	10343.411735
503.131470	10445.295975
503.497345	10530.539366
503.863163	10302.598554
504.228923	10430.636300
504.594625	10543.800121
504.960269	10442.704822
505.325856	10587.907697
505.691385	10465.135436
506.056856	10517.898673
506.422270	10615.697057
506.787625	10548.155678
507.152924	10596.331465
507.518164	10647.887345
507.883347	10516.275421
508.248472	10573.603423
508.613540	10675.265852
508.978550	10741.617519
509.343503	10715.373272
509.708398	10751.810732
510.073236	10863.951199
510.438016	10870.403876
510.802738	10782.060175
511.167403	10895.445808
511.532010	10941.262334
511.896561	11025.976404
512.261053	11210.286030
512.625488	11109.238622
512.989866	11094.473082
513.354186	11047.121524
513.718449	11053.433049
514.082655	11169.130050
514.446803	11117.092739
514.810894	11202.404186
515.174927	11182.819303
515.538904	11159.045222
515.902822	11283.070209
516.266684	11152.779068
516.630488	11223.876981
516.994235	11189.483709
517.357925	11288.905345
517.721558	11320.561270
518.085133	11363.653053
518.448651	11372.560772
518.812112	11315.063892
519.175516	11304.447222
519.538863	11358.526200
519.902152	11350.641835
520.265385	11424.988772
520.628560	11416.706157
520.991678	11343.213695
521.354739	11374.539425
521.717743	11405.625700
522.080690	11360.373783
522.443580	11445.793614
522.806413	11435.257603
523.169189	11395.913918
523.531908	11420.567680
523.894569	11365.046932
524.257174	11336.178765
524.619722	11395.394679
524.982213	11345.633449
525.344647	11305.800772
525.707025	11279.490990
526.069345	11329.743732
526.431608	11282.195569
526.793815	11312.442492
527.155964	11187.058914
527.518057	11177.100114
527.880093	11097.966602
528.242072	11152.360652
528.603995	11049.306864
528.965860	11018.265959
529.327669	11000.894143
529.689421	10923.630899
530.051117	10887.395085
530.412755	10876.901923
530.774337	10835.284678
531.135862	10754.177553
531.497331	10755.458007
531.858743	10682.424290
532.220098	10704.610408
532.581396	10602.113668
532.942638	10493.262554
533.303824	10485.352983
533.664953	10430.875754
534.026025	10339.078863
534.387040	10362.351350
534.747999	10290.540114
535.108902	10272.278534
535.469748	10137.793152
535.830537	10098.590619
536.191270	10073.833513
536.551947	9977.239964
536.912567	9963.412079
537.273131	9932.600547
537.633638	9795.077870
537.994089	9781.963308
538.354483	9662.893775
538.714821	9690.846973
539.075103	9685.800778
539.435328	9584.047608
539.795497	9509.766206
540.155609	9451.556002
540.515665	9461.683681
540.875665	9313.761103
541.235609	9308.160381
541.595496	9230.745902
541.955328	9266.664123
542.315102	9124.632134
542.674821	9023.851907
543.034483	8976.586049
543.394090	8912.981811
543.753640	8830.909306
544.113134	8911.267818
544.472571	8714.015030
544.831953	8810.066655
545.191278	8646.844176
545.550548	8544.836428
545.909761	8539.132362
546.268918	8504.935695
546.628019	8470.247515
546.987064	8348.077673
547.346053	8208.014254
547.704986	8253.404803
548.063863	8127.723797
548.422684	8089.746264
548.781449	8003.482040
549.140158	7982.858679
549.498811	7900.609734
549.857408	7765.637881
550.215949	7800.928478
550.574434	7715.667443
550.932864	7624.593958
551.291237	7657.424472
551.649555	7543.191926
552.007817	7501.398240
552.366022	7404.232520
552.724173	7346.092893
553.082267	7333.542940
553.440305	7305.355329
553.798288	7173.191398
554.156215	7134.871067
554.514086	7093.634429
554.871902	7007.929772
555.229661	6955.080836
555.587365	6870.545727
555.945014	6815.760988
556.302606	6751.201451
556.660143	6704.646395
557.017625	6662.391444
557.375050	6585.760864
557.732421	6559.491411
558.089735	6499.720971
558.446994	6433.265960
558.804197	6414.205357
559.161345	6347.052147
559.518437	6224.678137
559.875474	6198.350712
560.232455	6155.006871
560.589381	6107.690601
560.946251	6022.117014
561.303065	6021.804463
561.659825	5949.615140
562.016528	5866.184043
562.373177	5792.147137
562.729770	5774.785404
563.086307	5686.913051
563.442789	5658.299462
563.799216	5615.447133
564.155587	5546.055651
564.511904	5500.629813
564.868164	5452.917813
565.224370	5417.465898
565.580520	5349.223799
565.936615	5317.416639
566.292654	5247.609261
566.648638	5214.125917
567.004567	5165.204039
567.360441	5113.696050
567.716260	5054.691865
568.072023	5030.403586
568.427732	4976.851408
568.783385	4909.882200
569.138982	4884.152151
569.494525	4839.109441
569.850013	4783.747490
570.205445	4740.083536
570.560823	4699.598029
570.916145	4651.817973
571.271412	4611.067806
571.626625	4556.388931
571.981782	4513.549205
572.336884	4466.031289
572.691931	4439.812248
573.046923	4385.662694
573.401860	4348.282538
573.756743	4305.810817
574.111570	4266.091566
574.466342	4228.398858
574.821059	4197.708314
575.175722	4147.165705
575.530330	4111.673462
575.884882	4067.883479
576.239380	4034.044734
576.593823	3997.980319
576.948211	3965.681646
577.302544	3917.084923
577.656823	3891.624576
578.011047	3868.316801
578.365216	3828.269875
578.719330	3792.739823
579.073389	3765.013476
579.427394	3737.627408
579.781344	3707.390567
580.135239	3670.572500
580.489080	3649.039212
580.842866	3614.519911
581.196597	3603.031121
581.550273	3572.390988
581.903895	3546.809653
582.257463	3535.109135
582.610975	3497.734020
582.964434	3481.279694
583.317837	3454.281794
583.671186	3433.025769
584.024481	3416.523552
584.377721	3384.988614
584.730906	3369.348434
585.084037	3351.555682
585.437113	3324.794717
585.790135	3306.422232
586.143103	3283.520270
586.496016	3265.455295
586.848874	3248.554827
587.201679	3228.901888
587.554428	3206.826676
587.907124	3190.989891
588.259765	3173.542457
588.612352	3168.725635
588.964884	3144.838127
589.317362	3133.321611
589.669786	3121.187554
590.022155	3105.590224
590.374470	3095.341558
590.726731	3074.917323
591.078937	3058.848646
591.431090	3046.288611
591.783188	3030.850077
592.135232	3014.632685
592.487222	3003.774040
592.839157	2995.108296
593.191038	2981.754280
593.542866	2968.914461
593.894639	2951.489713
594.246358	2941.972014
594.598022	2933.558328
594.949633	2922.878644
595.301190	2908.841551
595.652692	2899.081877
596.004141	2895.631208
596.355535	2878.473640
596.706876	2873.523227
597.058162	2862.596526
597.409395	2855.364991
597.760573	2848.879547
598.111698	2838.759430
598.462768	2832.677278
598.813785	2825.481031
599.164748	2816.611121
599.515657	2811.116263
599.866511	2802.367341
600.217312	2801.321301
600.568060	2787.632048
600.918753	2788.836884
601.269392	2783.140380
601.619978	2775.374482
601.970510	2771.991868
602.320988	2765.478697
602.671412	2765.634973
603.021783	2761.549118
603.372100	2755.257758
603.722363	2750.382962
604.072572	2746.511356
604.422728	2742.917013
604.772830	2736.509707
605.122878	2732.582648
605.472872	2728.093501
605.822813	2726.747512
606.172701	2721.287943
606.522534	2723.380022
606.872314	2722.054198
607.222041	2714.802498
607.571714	2715.316696
607.921333	2710.542723
608.270899	2707.404605
608.620411	2708.914431
608.969870	2704.137937
609.319276	2703.321271
609.668627	2700.437731
610.017926	2699.066537
610.367171	2698.847247
610.716362	2695.598223
611.065500	2695.406659
611.414585	2691.948427
611.763616	2693.876669
612.112594	2688.885927
612.461518	2689.626976
612.810389	2687.716379
613.159207	2687.149249
613.507971	2683.600277
613.856682	2684.048939
614.205340	2681.868640
614.553945	2683.955678
614.902496	2680.116839
615.250994	2677.399657
615.599439	2674.380006
615.947830	2676.421674
616.296169	2674.987465
616.644454	2677.828156
616.992686	2675.108453
617.340864	2672.897907
617.688990	2670.621826
618.037063	2671.113339
618.385082	2670.228616
618.733048	2670.042093
619.080961	2670.190807
619.428821	2669.328770
619.776628	2668.764161
620.124382	2667.745848
620.472083	2668.287772
620.819731	2664.166629
621.167326	2661.056237
621.514868	2664.332987
621.862357	2661.414159
622.209793	2662.815599
622.557176	2660.438695
622.904506	2655.319404
623.251783	2652.657674
623.599007	2653.920483
623.946179	2649.315389
624.293297	2648.324803
624.640363	2650.081645
624.987376	2649.627941
625.334336	2648.433187
625.681243	2647.964360
626.028097	2646.290697
626.374899	2647.840852
626.721647	2644.775830
627.068343	2645.151396
627.414987	2645.842034
627.761577	2643.051756
628.108115	2643.734832
628.454600	2643.636530
628.801032	2639.865747
629.147412	2641.592342
629.493739	2641.594862
629.840014	2639.028915
630.186236	2640.785757
630.532405	2638.892804
630.878521	2636.357103
631.224585	2638.640746
631.570597	2635.787453
631.916556	2638.587814
632.262462	2636.949439
632.608316	2637.224182
632.954117	2635.351393
633.299866	2634.300313
633.645562	2635.515231
633.991206	2632.392236
634.336797	2633.128244
634.682336	2633.902062
635.027823	2630.673202
635.373257	2630.211937
635.718639	2629.788480
636.063968	2629.231432
636.409245	2625.891668
636.754470	2627.519961
637.099642	2627.721607
637.444762	2627.262862
637.789829	2625.916874
638.134845	2624.182717
638.479808	2625.236318
638.824719	2625.374950
639.169577	2623.784466
639.514383	2625.374950
639.859137	2625.359826
640.203839	2623.068622
640.548489	2621.001749
640.893086	2618.145935
641.237632	2618.455966
641.582125	2620.366563
641.926566	2616.598301
642.270955	2621.934362
642.615292	2619.696090
642.959576	2619.633076
643.303809	2621.606687
643.647990	2623.124075
643.992118	2619.398662
644.336195	2617.926645
644.680219	2621.589043
645.024192	2622.453601
645.368112	2617.236007
645.711981	2619.328086
646.055797	2621.405041
646.399562	2620.222891
646.743274	2619.943107
647.086935	2623.691204
647.430544	2621.263889
647.774101	2621.677263
648.117606	2626.731020
648.461059	2620.936214
648.804460	2628.402163
649.147810	2620.321193
649.491108	2621.284053
649.834354	2619.665843
650.177548	2616.716768
650.520690	2618.818929
650.863781	2617.901439
651.206820	2619.686008
651.549807	2615.559823
651.892742	2617.966974
652.235626	2614.738115
652.578458	2615.718620
652.921238	2616.908332
653.263967	2617.026799
653.606644	2613.989504
653.949269	2615.736264
654.291843	2611.473968
654.634365	2615.605194
654.976836	2612.938423
655.319255	2612.300717
655.661622	2610.642178
656.003938	2612.951026
656.346203	2612.633433
656.688416	2612.051180
657.030577	2612.149483
657.372687	2613.717282
657.714746	2613.147631
658.056753	2611.771396
658.398708	2606.957094
658.740612	2608.716457
659.082465	2608.582866
659.424266	2609.371807
659.766016	2608.184615
660.107715	2612.459514
660.449362	2611.897425
660.790958	2610.682507
661.132503	2609.785182
661.473996	2612.787189
661.815438	2613.593773
662.156829	2613.387086
662.498168	2610.702672
662.839456	2609.417177
663.180693	2612.464555
663.521879	2612.857765
663.863013	2611.897425
664.204097	2610.362394
664.545129	2612.739298
664.886110	2610.596807
665.227040	2612.162086
665.567918	2610.516149
665.908746	2609.860799
666.249522	2612.951026
666.590248	2613.114864
666.930922	2611.347939
667.271545	2612.550254
667.612118	2613.117384
667.952639	2613.545882
668.293109	2611.814246
668.633528	2611.728546
668.973896	2610.851386
669.314213	2614.793568
669.654480	2611.022785
669.994695	2609.081941
670.334859	2609.696961
670.674973	2611.146293
671.015035	2609.364245
671.355047	2611.937754
671.695008	2611.337857
672.034918	2610.674945
672.374777	2609.326437
672.714585	2610.082610
673.054342	2612.683845
673.394049	2611.927672
673.733705	2609.888525
674.073310	2613.855913
674.412864	2612.063783
674.752368	2609.505397
675.091820	2607.892228
675.431223	2607.798967
675.770574	2610.102774
676.109875	2606.818462
676.449125	2603.234202
676.788324	2603.826538
677.127473	2605.732094
677.466571	2603.256887
677.805619	2605.505242
678.144616	2607.065479
678.483562	2607.219234
678.822458	2608.305603
679.161303	2608.792074
679.500098	2605.812752
679.838842	2607.234358
680.177535	2603.478698
680.516179	2608.845006
680.854771	2603.715632
681.193314	2609.838114
681.531805	2604.444079
681.870247	2608.363576
682.208638	2610.077568
682.546978	2609.966663
682.885268	2611.826849
683.223508	2610.982456
683.561697	2611.675614
683.899836	2610.463217
684.237925	2610.879112
684.575963	2608.935747
684.913951	2610.342229
685.251889	2609.376848
685.589776	2608.451796
685.927614	2609.155037
686.265401	2608.320726
686.603137	2607.408278
686.940824	2608.867692
687.278460	2608.103957
687.616046	2609.018926
687.953582	2609.822990
688.291068	2612.774586
688.628504	2611.824328
688.965889	2611.509256
689.303224	2610.112857
689.640510	2611.809205
689.977745	2609.611262
690.314930	2607.546909
690.652065	2609.001282
690.989150	2607.430963
691.326185	2607.483895
691.663170	2604.847371
692.000105	2605.422063
692.336990	2599.939808
692.673825	2608.121601
693.010610	2606.689913
693.347345	2596.968048
693.684030	2596.932760
694.020665	2599.057606
694.357251	2596.869745
694.693786	2597.454519
695.030272	2599.826382
695.366707	2598.873604
695.703093	2598.772781
696.039429	2600.859819
696.375716	2598.137596
696.711952	2597.978799
697.048139	2595.866556
697.384276	2598.011567
697.720363	2596.542070
698.056400	2596.521906
698.392388	2595.133068
698.728326	2598.072061
699.064214	2598.518203
699.400053	2599.533995
699.735842	2597.451999
700.071581	2598.873604
700.407270	2595.586772
700.742910	2598.601382
701.078501	2595.758171
701.414042	2595.649786
701.749533	2596.262286
702.084974	2597.890579
702.420366	2594.870928
702.755709	2593.086359
703.091002	2593.398911
703.426246	2593.865218
703.761440	2595.856473
704.096584	2593.640886
704.431679	2594.734817
704.766725	2593.522419
705.101721	2594.626432
705.436668	2591.168200
705.771565	2593.043510
706.106413	2593.383788
706.441212	2595.967379
706.775961	2595.201123
707.110661	2595.458222
707.445311	2594.805393
707.779913	2596.053078
708.114465	2593.119127
708.448967	2595.523757
708.783421	2596.257245
709.117825	2597.651124
709.452180	2596.753799
709.786485	2594.936463
710.120742	2597.308326
710.454949	2599.254211
710.789107	2594.870928
711.123216	2593.524940
711.457275	2596.365630
711.791286	2595.773294
712.125247	2599.581886
712.459159	2597.436875
712.793023	2600.239757
713.126837	2600.075919
713.460602	2597.336052
713.794318	2599.677668
714.127985	2597.726742
714.461602	2598.046855
714.795171	2598.117431
715.128691	2596.763881
715.462162	2594.555856
715.795584	2594.518047
716.128957	2594.084508
716.462281	2596.032914
716.795556	2593.320773
717.128782	2593.880341
717.461960	2595.735486
717.795088	2592.191555
718.128167	2591.430340
718.461198	2595.012080
718.794180	2594.954107
719.127113	2592.751123
719.459997	2590.096955
719.792833	2590.233066
720.125619	2591.657192
720.458357	2591.077460
720.791046	2592.231884
721.123686	2588.342634
721.456278	2591.707604
721.788821	2589.625607
722.121315	2591.639548
722.453761	2589.232397
722.786158	2587.475555
723.118506	2587.962027
723.450805	2590.580906
723.783056	2590.326328
724.115259	2588.539239
724.447412	2587.843559
724.779518	2589.504620
725.111574	2591.077460
725.443582	2590.033941
725.775542	2591.059816
726.107453	2590.069229
726.439315	2590.669126
726.771129	2596.113572
727.102895	2592.108376
727.434612	2592.282295
727.766281	2592.768767
728.097901	2591.942017
728.429473	2590.792634
728.760996	2591.465628
729.092471	2589.066039
729.423897	2590.059147
729.755276	2591.596698
730.086606	2593.449322
730.417887	2591.831112
730.749120	2595.067533
731.080305	2591.957141
731.411442	2595.637183
731.742530	2595.206165
732.073570	2593.855135
732.404562	2595.541401
732.735506	2597.038624
733.066401	2592.395721
733.397249	2598.780343
733.728048	2593.940835
734.058798	2591.442943
734.389501	2591.095104
734.720156	2590.895978
735.050762	2587.808271
735.381320	2590.306163
735.711831	2591.493355
736.042293	2587.525967
736.372707	2585.600246
736.703073	2588.256934
737.033391	2588.632500
737.363661	2589.900350
737.693883	2587.999835
738.024056	2592.148705
738.354182	2590.880855
738.684260	2591.198447
739.014290	2590.696852
739.344272	2590.802717
739.674207	2591.571493
740.004093	2592.355392
740.333931	2591.473190
740.663722	2590.888416
740.993464	2593.323294
741.323159	2590.265834
741.652806	2591.538725
741.982405	2591.243818
742.311956	2590.638879
742.641460	2589.668457
742.970915	2589.139136
743.300323	2588.965216
743.629683	2587.767942
743.958996	2587.815833
744.288260	2588.912284
744.617477	2589.741554
744.946647	2582.215111
745.275768	2582.913311
745.604842	2585.146542
745.933869	2584.425657
746.262847	2582.189905
746.591778	2586.013621
746.920662	2585.774166
747.249498	2585.995977
747.578286	2585.905236
747.907027	2588.317428
748.235720	2587.377253
748.564365	2586.139649
748.892963	2586.182499
749.221514	2586.794999
749.550017	2585.088569
749.878473	2588.486307
750.206881	2585.166707
750.535242	2584.352560
750.863555	2588.178796
751.191821	2585.943044
751.520039	2584.360122
751.848210	2585.721234
752.176334	2587.861203
752.504411	2588.491348
752.832440	2586.684094
753.160421	2585.635534
753.488356	2584.713003
753.816243	2583.067066
754.144082	2583.024216
754.471875	2584.367684
754.799620	2584.481110
755.127318	2582.731829
755.454969	2587.291553
755.782572	2587.203333
756.110129	2585.070925
756.437638	2585.620411
756.765100	2586.401789
757.092515	2585.411203
757.419882	2584.513877
757.747203	2586.192582
758.074477	2583.873651
758.401703	2585.890112
758.728882	2585.660740
759.056014	2584.334916
759.383099	2587.808271
759.710138	2586.658888
760.037129	2586.948755
760.364073	2585.343147
760.690970	2584.264340
761.017820	2586.714341
761.344623	2588.188878
761.671379	2586.794999
761.998088	2585.564958
762.324751	2586.742067
762.651366	2589.958323
762.977935	2597.262955
763.304456	2600.368306
763.630931	2605.568256
763.957359	2604.426435
764.283740	2605.109511
764.610074	2603.350149
764.936362	2599.266814
765.262602	2592.120978
765.588796	2593.794642
765.914943	2587.410020
766.241044	2587.314238
766.567097	2586.048909
766.893104	2586.212746
767.219064	2582.328537
767.544978	2584.695359
767.870845	2581.433732
768.196665	2582.615883
768.522438	2580.937179
768.848165	2582.275605
769.173846	2579.951633
769.499479	2579.805440
769.825066	2580.296952
770.150607	2580.155800
770.476101	2578.272929
770.801548	2579.182857
771.126949	2580.516242
771.452303	2577.504153
771.777611	2578.711509
772.102872	2580.523804
772.428087	2578.104050
772.753256	2581.365677
773.078378	2578.857703
773.403453	2577.509194
773.728482	2579.117322
774.053465	2576.581622
774.378401	2574.633216
774.703291	2578.477096
775.028135	2577.380645
775.352932	2576.594225
775.677683	2574.756724
776.002388	2575.570870
776.327046	2576.067424
776.651658	2578.325861
776.976224	2575.704461
777.300743	2576.863926
777.625216	2577.279822
777.949643	2578.197312
778.274024	2576.974832
778.598359	2570.900241
778.922647	2571.308575
779.246889	2575.044070
779.571086	2571.457289
779.895236	2574.519790
780.219339	2575.306210
780.543397	2576.216138
780.867409	2575.923751
781.191374	2579.137487
781.515294	2575.487691
781.839167	2572.445355
782.162995	2575.739749
782.486776	2575.979204
782.810511	2577.032805
783.134201	2574.577763
783.457844	2578.421643
783.781441	2574.154306
784.104993	2577.771334
784.428498	2575.827969
784.751958	2574.469378
785.075372	2575.986766
785.398739	2576.105233
785.722061	2575.825449
786.045337	2575.502815
786.368568	2575.636405
786.691752	2575.114646
787.014891	2575.434759
787.337983	2575.696899
787.661030	2576.367373
787.984031	2581.088413
788.306987	2579.220666
788.629897	2579.061869
788.952760	2577.718402
789.275579	2578.237641
789.598351	2578.638413
789.921078	2579.896180
790.243759	2578.673701
790.566395	2577.050449
790.888984	2574.350911
791.211529	2575.124728
791.534027	2576.284194
791.856480	2575.386868
792.178888	2575.182702
792.501249	2576.634554
792.823566	2578.096488
793.145836	2575.661611
793.468062	2577.289904
793.790241	2574.451734
794.112375	2574.373596
794.434464	2575.515418
794.756507	2574.277814
795.078505	2574.368555
795.400457	2571.119532
795.722364	2572.402505
796.044226	2574.797053
796.366042	2575.172619
796.687812	2572.546178
797.009538	2577.622620
797.331218	2575.225551
797.652852	2574.779409
797.974442	2577.184040
798.295986	2577.990624
798.617484	2576.251426
798.938938	2575.205387
799.260346	2578.053639
799.581709	2573.677917
799.903026	2576.274111
800.224299	2575.414595
800.545526	2576.135480
800.866708	2574.965932
801.187845	2573.143555
801.508936	2573.226734
801.829983	2573.224213
802.150984	2575.817887
802.471940	2574.849985
802.792851	2573.236816
803.113717	2575.172619
803.434538	2572.631878
803.755314	2577.171437
804.076045	2571.913513
804.396731	2574.696230
804.717372	2574.880232
805.037967	2572.894018
805.358518	2574.751683
805.679024	2576.160685
805.999485	2574.560119
806.319901	2574.479461
806.640272	2573.914851
806.960598	2573.231775
807.280879	2574.030798
807.601115	2577.549523
807.921306	2573.919893
808.241453	2574.882753
808.561554	2573.715726
808.881611	2573.284707
809.201623	2577.141190
809.521590	2573.473750
809.841513	2574.086251
810.161390	2573.640108
810.481223	2574.159347
810.801011	2572.064748
811.120755	2572.195818
811.440453	2571.913513
811.760107	2571.061558
812.079716	2571.132134
812.399281	2571.669017
812.718801	2570.585169
813.038276	2572.185736
813.357707	2574.945767
813.677093	2573.173802
813.996434	2575.215469
814.315731	2573.372927
814.634983	2577.819225
814.954191	2573.153637
815.273354	2572.394943
815.592473	2571.636250
815.911547	2576.543813
816.230577	2574.587845
816.549562	2575.585994
816.868502	2573.725808
817.187399	2575.018864
817.506250	2574.935685
817.825058	2577.063052
818.143821	2575.482650
818.462539	2578.804771
818.781213	2576.453072
819.099843	2579.997003
819.418429	2580.165882
819.736970	2583.452714
820.055466	2583.641758
820.373919	2585.068404
820.692327	2586.855493
821.010691	2596.567276
821.329011	2610.753083
821.647286	2637.624954
821.965517	2663.816268
822.283704	2687.610515
822.601847	2699.913451
822.919945	2695.573017
823.237999	2687.812161
823.556010	2673.901097
823.873976	2662.480363
824.191897	2648.670122
824.509775	2636.226033
824.827609	2627.162039
825.145398	2619.418827
825.463144	2617.470421
825.780845	2611.710902
826.098502	2612.262909
826.416116	2616.812550
826.733685	2624.896040
827.051210	2628.795373
827.368692	2628.142543
827.686129	2623.587861
828.003522	2613.016561
828.320872	2604.184460
828.638177	2600.625405
828.955439	2592.846905
829.272656	2591.400093
829.589830	2584.670153
829.906960	2583.488003
830.224046	2581.937848
830.541088	2582.729309
830.858086	2580.801067
831.175041	2576.863926
831.491952	2577.645305
831.808819	2577.894842
832.125642	2578.280491
832.442421	2579.243351
832.759157	2582.951120
833.075849	2590.349013
833.392497	2594.664241
833.709101	2598.419900
834.025662	2598.767740
834.342179	2598.238419
834.658653	2593.469487
834.975083	2591.238777
835.291469	2593.071236
835.607811	2585.370873
835.924110	2582.199988
836.240366	2581.418609
836.556578	2581.917683
836.872746	2578.935841
837.188871	2576.256467
837.504952	2575.399471
837.820990	2572.349573
838.136984	2573.884604
838.452935	2571.984089
838.768842	2572.730180
839.084706	2574.623133
839.400526	2574.567681
839.716303	2578.822415
840.032037	2578.509863
840.347727	2584.745770
840.663373	2582.661253
840.978977	2577.441138
841.294537	2578.308217
841.610054	2574.668504
841.925527	2575.033987
842.240957	2574.250088
842.556344	2575.144893
842.871687	2574.426528
843.186987	2571.948801
843.502244	2571.169943
843.817458	2571.550550
844.132629	2568.568708
844.447756	2569.531568
844.762840	2563.565363
845.077881	2566.700960
845.392879	2565.632236
845.707833	2565.823799
846.022745	2563.187276
846.337613	2567.774726
846.652438	2567.492421
846.967221	2569.032494
847.281960	2566.113666
847.596656	2567.270611
847.911309	2566.839592
848.225919	2567.121897
848.540485	2566.403532
848.855009	2566.937894
849.169490	2568.830848
849.483928	2568.334294
849.798323	2568.450241
850.112675	2565.425548
850.426984	2564.321536
850.741251	2569.569377
851.055474	2568.964438
851.369654	2565.493604
851.683792	2567.903275
851.997887	2568.954356
852.311938	2567.245405
852.625947	2564.434962
852.939914	2563.870352
853.253837	2569.556774
853.567718	2567.096691
853.881555	2566.907647
854.195350	2567.149623
854.509103	2565.821279
854.822812	2566.748851
855.136479	2566.219530
855.450103	2565.665003
855.763685	2565.652400
856.077224	2564.843295
856.390720	2566.476629
856.704173	2567.378995
857.017584	2567.724314
857.330953	2567.893193
857.644278	2564.687019
857.957561	2570.761610
858.270802	2570.154151
858.584000	2566.161557
858.897155	2566.799263
859.210268	2567.714232
859.523339	2567.010991
859.836367	2566.947977
860.149352	2564.876062
860.462295	2566.960580
860.775195	2564.487894
861.088054	2563.610733
861.400869	2564.182904
861.713642	2563.187276
862.026373	2563.419169
862.339062	2565.382698
862.651708	2565.753223
862.964312	2562.342883
863.276873	2565.775908
863.589392	2566.398491
863.901869	2566.554767
864.214303	2569.279510
864.526696	2567.565518
864.839045	2567.124417
865.151353	2569.589541
865.463619	2567.094170
865.775842	2567.878070
866.088023	2570.877556
866.400162	2566.529561
866.712258	2569.700447
867.024313	2568.750189
867.336325	2567.686506
867.648296	2568.709860
867.960224	2567.298337
868.272110	2568.437638
868.583954	2568.568708
868.895755	2569.526527
869.207515	2568.518296
869.519233	2570.519634
869.830909	2567.099211
870.142542	2567.994016
870.454134	2567.026115
870.765684	2570.305385
871.077191	2566.905127
871.388657	2568.535940
871.700081	2569.960066
872.011463	2567.719273
872.322803	2566.635425
872.634101	2569.443348
872.945357	2570.133986
873.256571	2570.438976
873.567744	2570.123904
873.878874	2568.573749
874.189963	2569.055179
874.501010	2567.820096
874.812015	2567.358831
875.122979	2570.549881
875.433900	2569.612227
875.744780	2572.591548
876.055618	2571.704305
876.366415	2569.818914
876.677169	2570.456620
876.987882	2568.094839
877.298554	2566.446382
877.609183	2569.642473
877.919771	2565.574262
878.230317	2569.216496
878.540822	2572.503328
878.851285	2574.504666
879.161707	2573.998030
879.472087	2579.162693
879.782425	2578.283011
880.092722	2584.193764
880.402977	2594.051740
880.713191	2603.214037
881.023363	2617.001593
881.333494	2630.544653
881.643583	2632.067082
881.953631	2632.382154
882.263637	2632.049437
882.573602	2629.985085
882.883526	2625.911833
883.193408	2623.134157
883.503248	2617.399844
883.813048	2611.594956
884.122806	2609.502877
884.432522	2603.824017
884.742197	2597.399067
885.051831	2593.756833
885.361424	2592.289857
885.670975	2588.997984
885.980485	2588.206522
886.289954	2580.788465
886.599382	2579.883577
886.908768	2580.145717
887.218113	2577.136149
887.527417	2577.473906
887.836680	2573.675397
888.145901	2574.028277
888.455082	2572.861250
888.764221	2572.631878
889.073319	2575.170099
889.382376	2571.800087
889.691392	2568.414952
890.000366	2571.681620
890.309300	2568.934191
890.618193	2572.087433
890.927044	2571.003585
891.235855	2571.588359
891.544625	2569.118193
891.853353	2569.987792
892.162041	2570.660787
892.470687	2572.004254
892.779293	2572.112639
893.087858	2571.883266
893.396381	2573.055335
893.704864	2573.937537
894.013306	2574.771847
894.321707	2584.216449
894.630068	2588.191399
894.938387	2588.221646
895.246665	2589.020669
895.554903	2590.084352
895.863100	2586.598394
896.171256	2584.032447
896.479371	2583.987077
896.787446	2584.186202
897.095480	2579.505491
897.403473	2581.179154
897.711425	2579.011458
898.019336	2579.994483
898.327207	2575.328895
898.635038	2576.420305
898.942827	2575.066755
899.250576	2573.526682
899.558284	2570.532237
899.865952	2572.074830
900.173579	2567.053841
900.481165	2570.423852
900.788711	2570.882597
901.096216	2569.203893
901.403681	2569.554253
901.711105	2571.124573
902.018489	2567.116855
902.325832	2573.738411
902.633135	2570.978379
902.940397	2571.182546
903.247619	2571.268246
903.554800	2574.681107
903.861941	2581.746284
904.169041	2589.948241
904.476101	2590.722058
904.783121	2595.140630
905.090100	2591.074939
905.397039	2589.917994
905.703938	2588.377922
906.010796	2586.840370
906.317614	2584.024885
906.624391	2580.412899
906.931129	2579.850810
907.237826	2574.161868
907.544483	2577.731005
907.851099	2574.983576
908.157675	2571.293451
908.464211	2572.087433
908.770707	2569.773543
909.077163	2564.949159
909.383578	2567.898234
909.689954	2565.617112
909.996289	2563.648542
910.302584	2565.092832
910.608839	2564.896227
910.915054	2568.354459
911.221229	2564.964283
911.527363	2566.496793
911.833458	2563.278017
912.139513	2569.725652
912.445527	2565.360013
912.751502	2568.528378
913.057436	2568.654407
913.363331	2568.684654
913.669186	2570.975859
913.975000	2569.271949
914.280775	2571.159861
914.586510	2570.622978
914.892205	2576.896694
915.197859	2579.999524
915.503475	2584.849114
915.809050	2588.619897
916.114585	2591.742892
916.420081	2590.328848
916.725536	2594.712132
917.030952	2591.942017
917.336328	2591.349682
917.641665	2589.527305
917.946961	2587.969588
918.252218	2587.531008
918.557435	2583.051943
918.862612	2584.808785
919.167750	2580.664956
919.472848	2582.283167
919.777906	2579.933989
920.082925	2577.589852
920.387904	2576.828638
920.692843	2577.176478
920.997743	2572.420149
921.302603	2573.423339
921.607423	2568.621640
921.912204	2571.474933
922.216946	2569.980231
922.521647	2571.202711
922.826310	2568.500652
923.130932	2569.803790
923.435516	2569.176167
923.740059	2568.288924
924.044564	2565.077709
924.349028	2570.149109
924.653454	2562.862122
924.957840	2561.982440
925.262186	2564.382029
925.566493	2564.560990
925.870761	2562.317677
926.174989	2566.232133
926.479178	2566.088460
926.783328	2566.486711
927.087438	2567.101732
927.391509	2565.594427
927.695541	2562.118551
927.999533	2565.032338
928.303486	2562.741134
928.607400	2563.000753
928.911275	2562.373130
929.215110	2563.114179
929.518906	2564.530743
929.822663	2562.937739
930.126381	2562.368088
930.430060	2563.431772
930.733699	2561.851370
931.037299	2561.798438
931.340861	2562.466391
931.644383	2563.779612
931.947866	2563.396484
932.251309	2562.695763
932.554714	2561.942111
932.858080	2563.633418
933.161407	2561.838767
933.464694	2562.090825
933.767943	2563.484704
934.071153	2565.044941
934.374323	2564.457647
934.677455	2562.935218
934.980548	2565.816238
935.283602	2562.650393
935.586617	2561.236349
935.889593	2560.623849
936.192530	2563.419169
936.495428	2563.441854
936.798287	2562.640311
937.101108	2560.533108
937.403890	2560.515464
937.706632	2564.762637
938.009336	2565.768347
938.312002	2565.052503
938.614628	2564.969324
938.917216	2566.196845
939.219765	2563.701474
939.522275	2567.051320
939.824747	2563.557801
940.127179	2562.703325
940.429573	2565.057544
940.731929	2563.144426
941.034246	2561.024621
941.336524	2562.857080
941.638763	2565.226423
941.940964	2563.479663
942.243126	2564.061916
942.545250	2565.080229
942.847335	2563.005794
943.149381	2564.442523
943.451389	2563.608212
943.753359	2565.566701
944.055290	2564.472770
944.357182	2564.757595
944.659036	2563.424210
944.960851	2566.143913
945.262628	2563.497307
945.564367	2563.895558
945.866067	2564.712225
946.167729	2563.240208
946.469352	2565.743141
946.770937	2563.900599
947.072484	2561.685012
947.373992	2562.524364
947.675462	2563.149467
947.976893	2564.084601
948.278286	2561.858932
948.579641	2566.219530
948.880958	2563.850188
949.182236	2561.470763
949.483476	2564.631567
949.784678	2565.223902
950.085841	2564.077040
950.386967	2565.392781
950.688054	2560.860783
950.989103	2562.988150
951.290114	2561.652245
951.591087	2561.347255
951.892021	2565.906978
952.192917	2565.748182
952.493776	2562.559652
952.794596	2564.530743
953.095378	2562.763819
953.396122	2562.509241
953.696828	2567.673903
953.997496	2564.936556
954.298126	2562.645352
954.598718	2566.965621
954.899272	2565.468398
955.199788	2563.290620
955.500266	2563.499827
955.800706	2558.879610
956.101108	2558.259548
956.401472	2559.093859
956.701798	2560.049158
957.002087	2556.742161
957.302337	2560.177707
957.602550	2561.470763
957.902724	2562.428582
958.202861	2561.216185
958.502960	2562.242060
958.803022	2561.901782
959.103045	2560.500341
959.403031	2562.872204
959.702979	2559.161915
960.002889	2561.284240
960.302762	2558.922460
960.602596	2560.336503
960.902393	2561.178376
961.202153	2559.673592
961.501875	2560.908674
961.801559	2560.931360
962.101205	2558.967830
962.400814	2559.328273
962.700385	2561.369940
962.999918	2561.238870
963.299414	2558.279713
963.598873	2560.341545
963.898293	2560.028993
964.197677	2563.134344
964.497022	2560.593602
964.796331	2561.324570
965.095601	2560.134857
965.394835	2559.144271
965.694030	2557.745350
965.993189	2560.049158
966.292309	2557.198385
966.591393	2561.402707
966.890439	2559.920608
967.189447	2557.064795
967.488419	2560.840619
967.787353	2557.639486
968.086249	2560.777604
968.385108	2562.282389
968.683930	2557.765515
968.982714	2557.319373
969.281462	2558.531770
969.580172	2558.993036
969.878844	2558.078067
970.177480	2559.338355
970.476078	2559.696277
970.774639	2559.081256
971.073162	2557.518498
971.371649	2555.194527
971.670098	2554.887016
971.968510	2555.000442
972.266885	2556.671585
972.565223	2562.317677
972.863524	2561.904302
973.161788	2557.742830
973.460014	2562.415979
973.758204	2559.058571
974.056356	2557.652089
974.354471	2559.905485
974.652550	2561.075033
974.950591	2561.793397
975.248595	2560.638973
975.546563	2560.608726
975.844493	2559.378684
976.142386	2559.416493
976.440243	2557.677295
976.738062	2558.854404
977.035845	2560.006308
977.333590	2559.751730
977.631299	2559.797100
977.928971	2558.945145
978.226606	2560.805331
978.524204	2558.171328
978.821765	2560.402038
979.119290	2557.886503
979.416777	2559.603016
979.714228	2562.168963
980.011642	2559.754250
980.309020	2562.481514
980.606360	2558.214178
980.903664	2559.257697
981.200931	2559.882800
981.498162	2561.427913
981.795356	2559.663509
982.092513	2561.937070
982.389633	2562.766340
982.686717	2562.138716
982.983764	2561.664847
983.280775	2564.525702
983.577749	2562.897410
983.874686	2561.347255
984.171587	2560.820454
984.468451	2563.938408
984.765279	2561.042265
985.062070	2562.819272
985.358824	2560.835578
985.655543	2560.538150
985.952224	2560.412121
986.248869	2560.727193
986.545478	2556.119578
986.842050	2556.409445
987.138586	2555.388611
987.435086	2557.899106
987.731549	2554.259392
988.027975	2559.930691
988.324366	2555.484393
988.620719	2557.218550
988.917037	2561.876576
989.213318	2558.824157
989.509563	2556.711914
989.805772	2558.884651
990.101944	2558.786349
990.398080	2559.353478
990.694180	2559.494631
990.990244	2556.124619
991.286271	2559.572769
991.582262	2559.098900
991.878217	2559.129147
992.174136	2556.802655
992.470019	2555.242418
992.765865	2557.999929
993.061676	2557.889023
993.357450	2558.642676
993.653188	2557.926832
993.948890	2559.792059
994.244556	2557.218550
994.540186	2557.639486
994.835780	2559.121585
995.131337	2560.986812
995.426859	2559.262738
995.722345	2556.895916
996.017795	2560.162584
996.313208	2559.098900
996.608586	2560.354147
996.903928	2561.465722
997.199234	2560.739796
997.494504	2563.426731
997.789738	2561.437996
998.084936	2561.977399
998.380099	2560.931360
998.675225	2563.031000
998.970316	2563.572924
999.265371	2557.725186
999.560390	2561.201061
999.855373	2557.455484
1000.150320	2558.055381
1000.445232	2560.817934
1000.740108	2557.783159
1001.034948	2559.282902
1001.329752	2557.972202
1001.624521	2560.339024
1001.919254	2555.305432
1002.213951	2554.163611
1002.508613	2554.859290
1002.803239	2557.279044
1003.097829	2553.485575
1003.392384	2557.929352
1003.686903	2559.194682
1003.981386	2560.142419
1004.275834	2558.861966
1004.570246	2559.522357
1004.864623	2556.278375
1005.158964	2557.331976
1005.453270	2557.268961
1005.747540	2557.145453
1006.041775	2556.490103
1006.335974	2558.614949
1006.630138	2559.885320
1006.924266	2556.096893
1007.218359	2557.442881
1007.512416	2559.804662
1007.806438	2556.648899
1008.100425	2558.289795
1008.394376	2558.541853
1008.688292	2555.872562
1008.982172	2558.622511
1009.276017	2556.905998
1009.569827	2557.818447
1009.863602	2560.694425
1010.157341	2554.604712
1010.451045	2561.049827
1010.744714	2560.003787
1011.038347	2559.056050
1011.331945	2556.981616
1011.625508	2558.867007
1011.919036	2558.914898
1012.212528	2560.825495
1012.505986	2556.545556
1012.799408	2556.273333
1013.092795	2555.726368
1013.386147	2556.157387
1013.679464	2557.647048
1013.972745	2556.101934
1014.265992	2556.311142
1014.559204	2559.660989
1014.852380	2558.010011
1015.145521	2558.425906
1015.438628	2557.619322
1015.731699	2558.579661
1016.024736	2557.568910
1016.317737	2559.101421
1016.610703	2558.090669
1016.903635	2554.871893
1017.196531	2556.253169
1017.489393	2553.777962
1017.782219	2551.665719
1018.075011	2557.480690
1018.367768	2557.770556
1018.660490	2558.942624
1018.953177	2558.942624
1019.245829	2558.942624
