Dividing Wavelength (nm)	Counts (n)	Blue Motor Position (mm): 0.000000	Red Motor Position (mm): 26.000000	
326.493990	2146.893833
326.888308	2146.893833
327.282561	2146.893833
327.676750	2121.100769
328.070874	2119.555655
328.464933	2123.964144
328.858929	2133.938067
329.252859	2146.233441
329.646726	2161.092242
330.040528	2174.355518
330.434265	2191.278672
330.827938	2213.346323
331.221547	2233.687378
331.615091	2252.173289
332.008571	2273.028543
332.401986	2293.994702
332.795338	2312.982208
333.188625	2331.359734
333.581847	2353.077025
333.975006	2372.669469
334.368100	2388.259238
334.761129	2408.839748
335.154095	2421.130081
335.546996	2440.543565
335.939833	2453.171655
336.332606	2471.750828
336.725315	2481.139977
337.117960	2490.244300
337.510540	2496.054230
337.903056	2506.098729
338.295508	2512.062414
338.687896	2520.801254
339.080220	2529.245187
339.472480	2536.272556
339.864676	2535.602082
340.256807	2539.055272
340.648875	2540.681045
341.040879	2544.774462
341.432818	2544.151879
341.824694	2546.251520
342.216506	2544.376210
342.608253	2547.229503
342.999937	2544.754297
343.391557	2544.293031
343.783113	2542.989893
344.174605	2542.790768
344.566033	2539.067875
344.957397	2537.865560
345.348697	2538.997299
345.739934	2533.981351
346.131106	2531.939684
346.522215	2529.096473
346.913260	2528.562111
347.304241	2526.853160
347.695159	2527.853829
348.086012	2527.193438
348.476802	2521.665812
348.867528	2523.697397
349.258191	2521.421316
349.648789	2519.354443
350.039324	2518.822602
350.429796	2520.032478
350.820203	2518.373939
351.210548	2514.817405
351.600828	2515.631551
351.991045	2512.886643
352.381198	2513.841942
352.771288	2512.574091
353.161314	2512.201046
353.551276	2515.376973
353.941175	2516.491068
354.331010	2513.221880
354.720782	2515.603825
355.110490	2514.275481
355.500135	2514.658608
355.889717	2516.125584
356.279235	2515.467714
356.668689	2516.980060
357.058080	2517.708507
357.447408	2516.768331
357.836672	2513.599966
358.225873	2515.679442
358.615010	2515.303876
359.004084	2519.379649
359.393095	2517.378311
359.782043	2521.441481
360.170927	2519.901408
360.559748	2519.808147
360.948505	2518.184896
361.337199	2523.094979
361.725830	2521.660771
362.114398	2524.733354
362.502903	2521.696059
362.891344	2523.422654
363.279722	2526.530526
363.668037	2523.906605
364.056289	2524.075484
364.444478	2525.786956
364.832603	2525.408869
365.220665	2527.662265
365.608665	2525.426513
365.996601	2526.434744
366.384474	2526.699404
366.772284	2523.896523
367.160031	2524.960206
367.547715	2528.831813
367.935336	2527.069929
368.322893	2530.127389
368.710388	2528.912471
369.097820	2532.353058
369.485189	2530.250897
369.872495	2531.060003
370.259738	2530.540764
370.646918	2527.705115
371.034035	2530.989426
371.421090	2531.851464
371.808081	2532.300126
372.195010	2533.116793
372.581875	2530.843233
372.968678	2533.726773
373.355418	2533.593182
373.742096	2534.437576
374.128710	2536.685930
374.515262	2537.507638
374.901751	2535.992772
375.288177	2539.433359
375.674540	2539.942516
376.060841	2539.647608
376.447079	2543.420912
376.833254	2543.796478
377.219367	2544.628268
377.605417	2546.301931
377.991404	2550.599515
378.377329	2553.117571
378.763191	2553.851059
379.148991	2559.565207
379.534727	2567.313460
379.920402	2568.921588
380.306013	2572.165571
380.691563	2574.628175
381.077049	2580.788465
381.462474	2584.670153
381.847835	2588.236769
382.233134	2596.421083
382.618371	2600.126331
383.003545	2608.204780
383.388657	2612.232662
383.773706	2620.553086
384.158693	2625.039713
384.543618	2633.418111
384.928480	2637.919861
385.313280	2647.314051
385.698017	2654.394352
386.082692	2662.487924
386.467305	2665.573111
386.851856	2678.037363
387.236344	2689.821061
387.620770	2692.684436
388.005133	2703.843030
388.389435	2713.761500
388.773674	2718.031357
389.157851	2729.442009
389.541965	2742.049935
389.926018	2742.203690
390.310008	2755.577871
390.693936	2766.499531
391.077802	2774.696447
391.461606	2780.569392
391.845348	2793.033644
392.229027	2800.890283
392.612645	2817.649599
392.996200	2822.741164
393.379694	2837.852023
393.763125	2855.352388
394.146494	2861.530322
394.529801	2874.236551
394.913047	2893.859242
395.296230	2894.025600
395.679351	2898.315622
396.062410	2917.265319
396.445408	2913.136614
396.828343	2922.729930
397.211217	2933.165118
397.594028	2926.087338
397.976778	2937.815583
398.359466	2951.898046
398.742092	2947.877726
399.124656	2968.669965
399.507158	2981.345946
399.889598	2984.048005
400.271977	2999.988133
400.654294	3005.147754
401.036549	3019.840197
401.418742	3025.382946
401.800874	3047.080072
402.182944	3053.588202
402.564952	3082.784044
402.946898	3075.509659
403.328783	3085.682707
403.710606	3099.825665
404.092367	3121.989097
404.474067	3143.683703
404.855705	3136.474853
405.237282	3136.802528
405.618797	3170.618588
406.000250	3192.164480
406.381642	3222.161866
406.762972	3224.740416
407.144240	3216.853531
407.525447	3238.182652
407.906593	3236.614854
408.287677	3259.645365
408.668700	3279.908283
409.049661	3276.797891
409.430560	3290.159469
409.811399	3297.511992
410.192176	3317.553099
410.572891	3324.603153
410.953545	3360.324769
411.334138	3333.440296
411.714669	3382.636916
412.095139	3326.796055
412.475547	3383.808984
412.855894	3373.300699
413.236180	3399.718866
413.616405	3380.222203
413.996568	3407.593148
414.376670	3408.601379
414.756711	3405.296902
415.136691	3430.737085
415.516609	3454.453194
415.896466	3461.639358
416.276262	3488.788492
416.655997	3516.187164
417.035670	3522.768390
417.415283	3586.997731
417.794834	3612.788274
418.174324	3594.660285
418.553753	3594.844287
418.933121	3636.837099
419.312428	3628.748567
419.691674	3625.973412
420.070859	3659.998680
420.449983	3643.130979
420.829045	3690.691745
421.208047	3676.926875
421.586988	3720.021178
421.965867	3750.797422
422.344686	3760.073146
422.723444	3799.033703
423.102141	3707.733366
423.480777	3804.342038
423.859352	3773.094446
424.237866	3869.531719
424.616319	3857.700131
424.994712	3915.615427
425.373044	3907.065630
425.751314	3970.853870
426.129524	3904.850043
426.507673	4005.489118
426.885762	3980.290910
427.263789	4005.632791
427.641756	4007.666896
428.019662	4037.288716
428.397508	4037.301319
428.775292	4077.486877
429.153016	4082.628854
429.530679	4095.534208
429.908282	4101.172738
430.285824	4082.275973
430.663305	4150.772651
431.040726	4112.701857
431.418086	4104.641052
431.795385	4176.245601
432.172624	4210.505283
432.549802	4178.035211
432.926920	4195.699414
433.303977	4193.466183
433.680974	4231.431113
434.057910	4254.542282
434.434786	4259.333899
434.811601	4256.679732
435.188355	4362.806102
435.565050	4329.887368
435.941683	4322.683559
436.318257	4418.362138
436.694770	4420.033281
437.071222	4477.043690
437.447614	4411.478443
437.823946	4417.187549
438.200218	4428.237759
438.576429	4414.977003
438.952580	4437.674799
439.328670	4444.992033
439.704700	4487.234382
440.080670	4448.667035
440.456580	4505.924460
440.832429	4542.165315
441.208218	4448.883804
441.583947	4495.600177
441.959616	4512.563660
442.335224	4540.085839
442.710773	4559.249785
443.086261	4615.199031
443.461689	4567.512237
443.837057	4576.442641
444.212365	4653.050535
444.587612	4660.055218
444.962800	4625.752687
445.337927	4665.945807
445.712995	4551.493970
446.088002	4742.422631
446.462949	4758.463582
446.837837	4782.396460
447.212664	4766.330303
447.587431	4988.642667
447.962139	5290.501918
448.336786	5616.992247
448.711374	5605.843735
449.085901	5252.047997
449.460369	5188.819325
449.834776	5121.852637
450.209124	5355.071537
450.583412	5359.515314
450.957640	5478.000074
451.331808	5342.471173
451.705917	5191.554151
452.079965	5175.361964
452.453954	5215.096339
452.827883	5178.956307
453.201752	5184.804046
453.575562	5214.509045
453.949311	5338.884392
454.323001	5338.453374
454.696632	5324.615406
455.070202	5465.208146
455.443713	5492.420294
455.817164	5580.088480
456.190556	5639.687522
456.563888	5611.119303
456.937160	5679.915929
457.310373	5522.921796
457.683526	5565.895112
458.056619	5554.781888
458.429653	5528.842631
458.802628	5560.601900
459.175542	5580.390950
459.548398	5699.339495
459.921194	5867.751842
460.293930	5903.506226
460.666607	6124.936388
461.039224	6307.567310
461.411782	6408.813843
461.784280	6317.450492
462.156719	6314.229194
462.529099	6256.747438
462.901419	6120.386747
463.273680	5977.046578
463.645882	5951.203103
464.018024	5935.169713
464.390106	5974.876362
464.762130	6179.113668
465.134094	6488.789229
465.505999	6993.202041
465.877845	7565.677993
466.249631	7845.827515
466.621358	7766.812469
466.993026	7566.449289
467.364634	7361.511262
467.736184	7090.861794
468.107674	6928.846671
468.479105	6826.138203
468.850477	6743.785914
469.221790	6572.384162
469.593043	6362.725094
469.964238	6247.625470
470.335373	6188.719587
470.706449	6279.140243
471.077467	6372.855293
471.448425	6820.650907
471.819324	7219.380970
472.190164	7212.363684
472.560945	6816.892727
472.931667	6426.412512
473.302330	6243.484162
473.672934	6110.228822
474.043479	6121.185770
474.413965	6005.541700
474.784393	5929.274084
475.154761	5991.557540
475.525070	5948.937104
475.895321	5874.474221
476.265513	5885.892434
476.635645	5946.038441
477.005719	5889.844699
477.375734	5893.519700
477.745691	5912.164408
478.115588	5982.498586
478.485427	6064.228293
478.855207	6282.162415
479.224928	6460.578932
479.594591	6610.160049
479.964194	6555.259363
480.333739	6533.143821
480.703226	6468.957329
481.072653	6447.746675
481.442022	6430.158089
481.811333	6437.447597
482.180584	6281.509585
482.549777	6181.014183
482.918912	6081.312763
483.287988	6006.529767
483.657005	5889.300254
484.025964	5786.677486
484.394864	5740.440023
484.763706	5654.838710
485.132489	5547.053799
485.501213	5476.941432
485.869879	5428.241365
486.238487	5333.835677
486.607036	5297.884688
486.975527	5212.530392
487.343959	5163.827804
487.712333	5116.715701
488.080648	5065.111930
488.448905	5035.026324
488.817104	4970.507116
489.185244	4955.580260
489.553326	4960.202998
489.921350	5032.339389
490.289315	5150.506555
490.657222	5168.311911
491.025070	5148.810207
491.392861	5053.252615
491.760593	4936.486889
492.128267	4801.356240
492.495883	4670.470242
492.863440	4544.138927
493.230939	4429.825722
493.598380	4328.594312
493.965763	4261.471348
494.333088	4177.768030
494.700354	4107.325467
495.067563	4056.485430
495.434713	4002.020804
495.801805	3964.479331
496.168839	3910.115528
496.535815	3858.413454
496.902733	3820.327537
497.269593	3765.245369
497.636395	3723.837332
498.003139	3697.507385
498.369825	3645.071823
498.736453	3619.971918
499.103023	3572.635484
499.469535	3532.094525
499.835989	3500.690657
500.202385	3459.302784
500.568723	3427.099893
500.935003	3398.821540
501.301226	3365.391129
501.667390	3348.646936
502.033497	3329.062053
502.399546	3290.547638
502.765537	3249.999117
503.131470	3229.068246
503.497345	3207.895400
503.863163	3165.496776
504.228923	3148.462717
504.594625	3131.595016
504.960269	3100.652414
505.325856	3083.908221
505.691385	3054.291442
506.056856	3041.255019
506.422270	3023.621063
506.787625	2998.067454
507.152924	2980.725884
507.518164	2964.858853
507.883347	2941.667024
508.248472	2929.689243
508.613540	2918.558375
508.978550	2904.034811
509.343503	2888.470248
509.708398	2875.179246
510.073236	2866.213554
510.438016	2854.676874
510.802738	2836.190962
511.167403	2829.874397
511.532010	2821.445587
511.896561	2811.015440
512.261053	2808.857826
512.625488	2790.568520
512.989866	2781.093672
513.354186	2770.086312
513.718449	2759.872934
514.082655	2754.922521
514.446803	2750.488827
514.810894	2747.499422
515.174927	2739.519276
515.538904	2732.282699
515.902822	2729.815055
516.266684	2721.582850
516.630488	2716.539176
516.994235	2711.908876
517.357925	2704.616847
517.721558	2703.464943
518.085133	2701.682896
518.448651	2693.763243
518.812112	2692.066895
519.175516	2686.761080
519.538863	2684.696728
519.902152	2683.663291
520.265385	2680.457117
520.628560	2677.921417
520.991678	2672.696261
521.354739	2670.001764
521.717743	2667.778615
522.080690	2667.191321
522.443580	2665.316012
522.806413	2665.593275
523.169189	2660.728562
523.531908	2659.281751
523.894569	2659.309477
524.257174	2655.573982
524.619722	2657.393838
524.982213	2654.439722
525.344647	2654.154897
525.707025	2653.338230
526.069345	2648.292035
526.431608	2649.937972
526.793815	2649.207005
527.155964	2647.175420
527.518057	2645.156437
527.880093	2645.279946
528.242072	2644.002013
528.603995	2644.488485
528.965860	2643.603762
529.327669	2641.660397
529.689421	2640.027063
530.051117	2639.603607
530.412755	2636.929274
530.774337	2639.732156
531.135862	2639.472537
531.497331	2632.934160
531.858743	2632.513224
532.220098	2634.282669
532.581396	2632.377112
532.942638	2630.171608
533.303824	2634.363327
533.664953	2632.699746
534.026025	2633.526496
534.387040	2635.028759
534.747999	2634.000364
535.108902	2631.550363
535.469748	2628.686988
535.830537	2631.895682
536.191270	2627.603140
536.551947	2629.518778
536.912567	2631.822586
537.273131	2629.397791
537.633638	2628.936525
537.994089	2626.438633
538.354483	2626.579786
538.714821	2630.164046
539.075103	2626.627677
539.435328	2626.801596
539.795497	2626.491565
540.155609	2628.732358
540.515665	2627.764457
540.875665	2626.705814
541.235609	2626.783952
541.595496	2625.306894
541.955328	2625.863942
542.315102	2625.725310
542.674821	2623.970988
543.034483	2623.713890
543.394090	2620.810185
543.753640	2623.368571
544.113134	2621.909157
544.472571	2621.158025
544.831953	2621.946965
545.191278	2624.061729
545.550548	2622.370422
545.909761	2622.766153
546.268918	2621.339506
546.628019	2624.361678
546.987064	2622.486369
547.346053	2620.356481
547.704986	2618.458487
548.063863	2621.468056
548.422684	2619.963271
548.781449	2620.348919
549.140158	2621.236162
549.498811	2619.189454
549.857408	2620.185082
550.215949	2617.266254
550.574434	2618.007303
550.932864	2617.767849
551.291237	2612.976232
551.649555	2620.590895
552.007817	2619.907818
552.366022	2622.745988
552.724173	2614.806171
553.082267	2622.125926
553.440305	2619.895216
553.798288	2620.243055
554.156215	2619.570061
554.514086	2621.727675
554.871902	2619.522170
555.229661	2619.736419
555.587365	2619.015534
555.945014	2621.163066
556.302606	2617.493106
556.660143	2619.615432
557.017625	2616.772221
557.375050	2619.915380
557.732421	2617.979577
558.089735	2618.246758
558.446994	2620.459825
558.804197	2619.703652
559.161345	2618.345061
559.518437	2620.782459
559.875474	2618.282046
560.232455	2621.536111
560.589381	2618.387911
560.946251	2621.294136
561.303065	2619.275154
561.659825	2618.947479
562.016528	2616.706686
562.373177	2616.436984
562.729770	2616.620986
563.086307	2618.697942
563.442789	2617.004114
563.799216	2618.221552
564.155587	2615.007817
564.511904	2617.538476
564.868164	2618.254320
565.224370	2620.681636
565.580520	2616.124432
565.936615	2616.769700
566.292654	2617.392283
566.648638	2617.498147
567.004567	2620.303549
567.360441	2616.177365
567.716260	2618.965123
568.072023	2618.314814
568.427732	2613.515635
568.783385	2614.415481
569.138982	2611.330295
569.494525	2614.987652
569.850013	2614.458331
570.205445	2617.225925
570.560823	2616.578136
570.916145	2618.576954
571.271412	2616.053856
571.626625	2617.525873
571.981782	2616.893208
572.336884	2618.768518
572.691931	2614.556634
573.046923	2616.235338
573.401860	2618.433281
573.756743	2619.189454
574.111570	2617.399844
574.466342	2616.628548
574.821059	2617.694752
575.175722	2616.429422
575.530330	2617.649382
575.884882	2615.383383
576.239380	2614.236520
576.593823	2617.162910
576.948211	2616.754577
577.302544	2616.757097
577.656823	2617.374639
578.011047	2616.517642
578.365216	2616.346243
578.719330	2613.954216
579.073389	2615.942951
579.427394	2610.677466
579.781344	2613.571088
580.135239	2612.973711
580.489080	2613.097220
580.842866	2616.245420
581.196597	2617.273816
581.550273	2616.217694
581.903895	2618.143415
582.257463	2613.566047
582.610975	2615.741305
582.964434	2613.528238
583.317837	2615.872375
583.671186	2613.104781
584.024481	2615.320368
584.377721	2613.755090
584.730906	2611.549585
585.084037	2613.061932
585.437113	2612.905656
585.790135	2610.884153
586.143103	2615.272477
586.496016	2610.992538
586.848874	2608.504728
587.201679	2611.778958
587.554428	2608.187136
587.907124	2608.807198
588.259765	2610.385079
588.612352	2613.291304
588.964884	2612.204935
589.317362	2610.889194
589.669786	2609.233175
590.022155	2611.652929
590.374470	2613.064452
590.726731	2613.704679
591.078937	2611.426077
591.431090	2611.741149
591.783188	2610.800974
592.135232	2609.931375
592.487222	2611.839452
592.839157	2610.954729
593.191038	2611.521859
593.542866	2612.038577
593.894639	2611.809205
594.246358	2613.250975
594.598022	2610.097733
594.949633	2611.761314
595.301190	2610.614451
595.652692	2610.944647
596.004141	2610.826180
596.355535	2612.288114
596.706876	2610.848865
597.058162	2610.823659
597.409395	2609.765017
597.760573	2609.747373
598.111698	2607.499018
598.462768	2610.102774
598.813785	2610.163268
599.164748	2607.902311
599.515657	2608.776951
599.866511	2608.507249
600.217312	2607.650253
600.568060	2607.241919
600.918753	2609.157558
601.269392	2606.379882
601.619978	2606.057248
601.970510	2606.523555
602.320988	2607.809049
602.671412	2610.720316
603.021783	2608.061107
603.372100	2608.051025
603.722363	2607.630088
604.072572	2608.242588
604.422728	2609.255860
604.772830	2605.220417
605.122878	2604.151692
605.472872	2606.304265
605.822813	2602.886362
606.172701	2603.362752
606.522534	2607.761158
606.872314	2608.272835
607.222041	2607.854420
607.571714	2607.151179
607.921333	2608.091354
608.270899	2607.478854
608.620411	2607.158740
608.969870	2608.076230
609.319276	2610.349791
609.668627	2608.557661
610.017926	2609.550768
610.367171	2607.214193
610.716362	2605.485077
611.065500	2609.013885
611.414585	2607.340222
611.763616	2608.262753
612.112594	2608.978597
612.461518	2609.598659
612.810389	2610.659822
613.159207	2607.670417
613.507971	2608.207300
613.856682	2608.618154
614.205340	2610.687548
614.553945	2610.624534
614.902496	2611.020264
615.250994	2606.407608
615.599439	2606.397526
615.947830	2610.957250
616.296169	2608.361056
616.644454	2612.215018
616.992686	2608.824842
617.340864	2609.959101
617.688990	2608.724019
618.037063	2610.299379
618.385082	2610.039760
618.733048	2610.785851
619.080961	2608.635798
619.428821	2607.919955
619.776628	2609.255860
620.124382	2611.771396
620.472083	2607.478854
620.819731	2612.817436
621.167326	2611.055552
621.514868	2609.770058
621.862357	2606.077413
622.209793	2607.993051
622.557176	2611.925151
622.904506	2606.921806
623.251783	2602.956939
623.599007	2604.459203
623.946179	2603.224120
624.293297	2601.699171
624.640363	2605.681682
624.987376	2607.930037
625.334336	2606.158071
625.681243	2606.485746
626.028097	2606.437855
626.374899	2605.117073
626.721647	2605.848040
627.068343	2605.366610
627.414987	2603.667741
627.761577	2602.762854
628.108115	2603.687906
628.454600	2605.941302
628.801032	2604.350818
629.147412	2602.089860
629.493739	2602.218410
629.840014	2602.432659
630.186236	2603.466095
630.532405	2603.360231
630.878521	2602.500714
631.224585	2604.224789
631.570597	2602.276383
631.916556	2603.692947
632.262462	2603.279572
632.608316	2602.820827
632.954117	2606.747886
633.299866	2605.316199
633.645562	2602.021805
633.991206	2602.709922
634.336797	2601.837802
634.682336	2602.533482
635.027823	2601.671444
635.373257	2601.240426
635.718639	2600.252360
636.063968	2604.053390
636.409245	2601.305961
636.754470	2601.043821
637.099642	2598.918974
637.444762	2599.609612
637.789829	2601.295878
638.134845	2601.318564
638.479808	2599.070209
638.824719	2596.821854
639.169577	2600.443923
639.514383	2597.910744
639.859137	2597.431834
640.203839	2598.855960
640.548489	2597.086515
640.893086	2593.104003
641.237632	2595.657348
641.582125	2596.037955
641.926566	2593.472008
642.270955	2599.080291
642.615292	2597.943511
642.959576	2597.361258
643.303809	2597.310846
643.647990	2599.438213
643.992118	2601.089191
644.336195	2596.002667
644.680219	2599.140785
645.024192	2597.149529
645.368112	2597.988882
645.711981	2600.519541
646.055797	2604.154213
646.399562	2599.276896
646.743274	2597.935949
647.086935	2599.334870
647.430544	2601.058944
647.774101	2600.917792
648.117606	2598.772781
648.461059	2603.294696
648.804460	2601.444593
649.147810	2599.506269
649.491108	2601.008533
649.834354	2596.537029
650.177548	2596.688264
650.520690	2600.300251
650.863781	2597.565425
651.206820	2600.012905
651.549807	2596.852101
651.892742	2597.376381
652.235626	2598.124993
652.578458	2595.057451
652.921238	2598.235898
653.263967	2596.191710
653.606644	2595.289344
653.949269	2596.095928
654.291843	2595.314549
654.634365	2595.639704
654.976836	2597.089036
655.319255	2598.440065
655.661622	2596.393356
656.003938	2595.838829
656.346203	2595.314549
656.688416	2598.218254
657.030577	2593.035948
657.372687	2594.830599
657.714746	2597.116762
658.056753	2593.262800
658.398708	2591.309353
658.740612	2593.081318
659.082465	2589.368508
659.424266	2592.940166
659.766016	2592.375557
660.107715	2596.673140
660.449362	2595.107862
660.790958	2595.934611
661.132503	2596.037955
661.473996	2595.647266
661.815438	2591.924373
662.156829	2597.331011
662.498168	2595.538881
662.839456	2596.426124
663.180693	2595.354879
663.521879	2594.036617
663.863013	2595.317070
664.204097	2593.935794
664.545129	2598.276227
664.886110	2596.290013
665.227040	2595.385126
665.567918	2594.656679
665.908746	2593.242635
666.249522	2596.090887
666.590248	2593.746751
666.930922	2594.674323
667.271545	2595.866556
667.612118	2595.105342
667.952639	2595.412852
668.293109	2596.975610
668.633528	2595.695157
668.973896	2590.180134
669.314213	2596.670620
669.654480	2595.289344
669.994695	2596.161463
670.334859	2592.791452
670.674973	2594.989395
671.015035	2595.145671
671.355047	2593.008222
671.695008	2594.538212
672.034918	2592.806575
672.374777	2596.501741
672.714585	2594.664241
673.054342	2594.490321
673.394049	2595.632142
673.733705	2597.484766
674.073310	2595.072574
674.412864	2596.743717
674.752368	2594.608788
675.091820	2594.573500
675.431223	2595.309508
675.770574	2593.739189
676.109875	2591.309353
676.449125	2592.005032
676.788324	2590.545618
677.127473	2591.281626
677.466571	2586.527818
677.805619	2591.115268
678.144616	2594.099631
678.483562	2594.603747
678.822458	2590.689291
679.161303	2594.835640
679.500098	2591.556369
679.838842	2592.836822
680.177535	2592.912440
680.516179	2593.940835
680.854771	2590.086873
681.193314	2593.035948
681.531805	2595.138109
681.870247	2594.447471
682.208638	2593.444281
682.546978	2595.478387
682.885268	2595.909406
683.223508	2598.056937
683.561697	2594.770105
683.899836	2593.368664
684.237925	2592.118458
684.575963	2593.313211
684.913951	2593.454364
685.251889	2595.574169
685.589776	2594.344127
685.927614	2591.546287
686.265401	2591.553849
686.603137	2595.044848
686.940824	2595.556525
687.278460	2597.908223
687.616046	2595.208685
687.953582	2593.613160
688.291068	2593.923191
688.628504	2596.731114
688.965889	2595.062492
689.303224	2594.525609
689.640510	2595.180959
689.977745	2591.952100
690.314930	2595.604416
690.652065	2597.625918
690.989150	2591.881524
691.326185	2592.609970
691.663170	2592.998139
692.000105	2592.483942
692.336990	2588.471183
692.673825	2593.812286
693.010610	2594.119796
693.347345	2585.983374
693.684030	2587.682242
694.020665	2585.491861
694.357251	2584.561768
694.693786	2586.240472
695.030272	2587.914136
695.366707	2587.505802
695.703093	2590.132243
696.039429	2588.894640
696.375716	2589.345823
696.711952	2589.391194
697.048139	2587.122674
697.384276	2586.757191
697.720363	2586.797520
698.056400	2589.106368
698.392388	2586.449680
698.728326	2587.357088
699.064214	2589.181986
699.400053	2586.482448
699.735842	2587.417582
700.071581	2587.026892
700.407270	2584.617221
700.742910	2586.018662
701.078501	2585.658219
701.414042	2585.403641
701.749533	2587.800710
702.084974	2584.463466
702.420366	2582.978846
702.755709	2586.852973
703.091002	2582.507498
703.426246	2584.985225
703.761440	2584.841552
704.096584	2584.236614
704.431679	2584.531521
704.766725	2585.786769
705.101721	2584.425657
705.436668	2584.642427
705.771565	2584.649988
706.106413	2586.127047
706.441212	2584.700400
706.775961	2585.660740
707.110661	2584.634865
707.445311	2584.697879
707.779913	2584.276943
708.114465	2585.191912
708.448967	2585.620411
708.783421	2587.246183
709.117825	2585.761563
709.452180	2586.842890
709.786485	2586.056470
710.120742	2589.030751
710.454949	2587.553693
710.789107	2584.281984
711.123216	2581.837025
711.457275	2583.465317
711.791286	2585.693507
712.125247	2586.553024
712.459159	2585.983374
712.793023	2587.094948
713.126837	2588.619897
713.460602	2588.836667
713.794318	2587.863724
714.127985	2586.800041
714.461602	2584.508836
714.795171	2587.924218
715.128691	2586.674012
715.462162	2586.280802
715.795584	2587.669640
716.128957	2585.864907
716.462281	2584.725606
716.795556	2585.479258
717.128782	2584.922211
717.461960	2584.234093
717.795088	2583.213260
718.128167	2584.226532
718.461198	2582.900708
718.794180	2583.036819
719.127113	2582.603280
719.459997	2582.560430
719.792833	2583.447673
720.125619	2583.707293
720.458357	2580.168403
720.791046	2581.721078
721.123686	2580.947261
721.456278	2582.835173
721.788821	2579.707137
722.121315	2583.167889
722.453761	2579.311407
722.786158	2579.208063
723.118506	2580.307034
723.450805	2580.054977
723.783056	2582.600759
724.115259	2582.862899
724.447412	2580.339802
724.779518	2581.189236
725.111574	2581.400965
725.443582	2583.041860
725.775542	2582.096644
726.107453	2580.783423
726.439315	2581.075810
726.771129	2584.092941
727.102895	2579.853331
727.434612	2582.567992
727.766281	2581.915163
728.097901	2581.264854
728.429473	2583.125039
728.760996	2580.939699
729.092471	2581.476582
729.423897	2582.550348
729.755276	2584.140832
730.086606	2582.623445
730.417887	2585.534711
730.749120	2582.278126
731.080305	2582.305852
731.411442	2586.565627
731.742530	2585.494382
732.073570	2585.078487
732.404562	2586.197623
732.735506	2583.142683
733.066401	2584.241655
733.397249	2584.193764
733.728048	2584.206367
734.058798	2584.226532
734.389501	2584.193764
734.720156	2584.493713
735.050762	2583.167889
735.381320	2579.679411
735.711831	2583.654361
736.042293	2579.913824
736.372707	2579.432394
736.703073	2582.356263
737.033391	2579.815522
737.363661	2578.930799
737.693883	2582.280646
738.024056	2583.225862
738.354182	2581.695872
738.684260	2581.889957
739.014290	2581.292580
739.344272	2579.573547
739.674207	2582.557910
740.004093	2581.930286
740.333931	2581.857189
740.663722	2581.884916
740.993464	2581.322827
741.323159	2583.424988
741.652806	2580.838876
741.982405	2582.295770
742.311956	2584.322313
742.641460	2580.725450
742.970915	2583.130081
743.300323	2578.582960
743.629683	2579.860892
743.958996	2580.196129
744.288260	2580.554051
744.617477	2580.165882
744.946647	2574.562640
745.275768	2578.270408
745.604842	2573.108267
745.933869	2577.962898
746.262847	2576.430387
746.591778	2580.274267
746.920662	2579.591191
747.249498	2580.695203
747.578286	2580.480954
747.907027	2582.041191
748.235720	2580.584298
748.564365	2582.532704
748.892963	2582.207549
749.221514	2579.835687
749.550017	2577.778896
749.878473	2579.399627
750.206881	2580.861561
750.535242	2575.044070
750.863555	2579.928948
751.191821	2578.782085
751.520039	2580.617065
751.848210	2580.654874
752.176334	2579.117322
752.504411	2580.309555
752.832440	2579.568505
753.160421	2576.773186
753.488356	2579.795357
753.816243	2580.402816
754.144082	2579.729822
754.471875	2578.711509
754.799620	2577.592373
755.127318	2579.598752
755.454969	2580.102868
755.782572	2580.370049
756.110129	2578.121694
756.437638	2580.387693
756.765100	2577.264698
757.092515	2579.946592
757.419882	2577.156313
757.747203	2577.363001
758.074477	2575.656570
758.401703	2577.448700
758.728882	2579.616396
759.056014	2578.025912
759.383099	2577.297466
759.710138	2579.548341
760.037129	2579.152610
760.364073	2579.064390
760.690970	2579.538258
761.017820	2582.268043
761.344623	2579.082034
761.671379	2581.302662
761.998088	2578.124215
762.324751	2578.444328
762.651366	2582.346181
762.977935	2584.473548
763.304456	2586.187540
763.630931	2593.161977
763.957359	2591.067377
764.283740	2589.539908
764.610074	2587.715010
764.936362	2585.756522
765.262602	2581.816860
765.588796	2585.068404
765.914943	2579.155131
766.241044	2578.877867
766.567097	2577.431056
766.893104	2580.231417
767.219064	2577.952816
767.544978	2577.504153
767.870845	2579.538258
768.196665	2577.657908
768.522438	2574.010633
768.848165	2577.799060
769.173846	2575.858216
769.499479	2574.701271
769.825066	2574.754203
770.150607	2573.491394
770.476101	2574.018195
770.801548	2575.815366
771.126949	2575.913669
771.452303	2574.754203
771.777611	2574.459296
772.102872	2574.403843
772.428087	2573.478792
772.753256	2576.468196
773.078378	2575.825449
773.403453	2575.409553
773.728482	2573.745973
774.053465	2573.793864
774.378401	2575.427197
774.703291	2572.387382
775.028135	2572.231106
775.352932	2572.977197
775.677683	2572.369738
776.002388	2576.599266
776.327046	2570.575087
776.651658	2571.391754
776.976224	2571.053997
777.300743	2574.660942
777.625216	2572.195818
777.949643	2573.108267
778.274024	2574.398802
778.598359	2568.296485
778.922647	2567.928481
779.246889	2570.224727
779.571086	2567.928481
779.895236	2569.423183
780.219339	2570.242371
780.543397	2570.953173
780.867409	2570.685992
781.191374	2574.638257
781.515294	2570.572566
781.839167	2569.655076
782.162995	2570.781774
782.486776	2574.033318
782.810511	2573.002402
783.134201	2572.644481
783.457844	2572.926785
783.781441	2572.904100
784.104993	2572.062227
784.428498	2573.375448
784.751958	2572.432752
785.075372	2571.903431
785.398739	2571.532906
785.722061	2574.010633
786.045337	2575.296127
786.368568	2574.224882
786.691752	2571.643812
787.014891	2575.094481
787.337983	2572.498287
787.661030	2573.423339
787.984031	2575.775037
788.306987	2572.132803
788.629897	2576.092630
788.952760	2575.810325
789.275579	2573.796384
789.598351	2576.198494
789.921078	2574.088771
790.243759	2576.989955
790.566395	2574.257650
790.888984	2574.176991
791.211529	2573.531724
791.534027	2573.277145
791.856480	2570.693554
792.178888	2572.609193
792.501249	2572.049624
792.823566	2575.031467
793.145836	2574.592887
793.468062	2570.338153
793.790241	2573.042732
794.112375	2571.870663
794.434464	2570.849830
794.756507	2571.931157
795.078505	2574.139183
795.400457	2569.221537
795.722364	2570.809501
796.044226	2570.227247
796.366042	2572.253791
796.687812	2571.321178
797.009538	2574.282856
797.331218	2572.674727
797.652852	2572.808318
797.974442	2574.025757
798.295986	2572.016857
798.617484	2572.326888
798.938938	2572.672207
799.260346	2574.542475
799.581709	2571.827814
799.903026	2571.611044
800.224299	2573.350242
800.545526	2571.989131
800.866708	2572.402505
801.187845	2571.956363
801.508936	2573.133472
801.829983	2570.542319
802.150984	2570.433935
802.471940	2573.619944
802.792851	2572.548699
803.113717	2572.344532
803.434538	2573.365366
803.755314	2572.155489
804.076045	2569.256825
804.396731	2573.042732
804.717372	2568.896383
805.037967	2573.302351
805.358518	2574.741601
805.679024	2573.602300
805.999485	2573.395613
806.319901	2572.394943
806.640272	2570.766651
806.960598	2570.703636
807.280879	2570.688513
807.601115	2571.845458
807.921306	2571.810170
808.241453	2572.735221
808.561554	2571.149778
808.881611	2571.648853
809.201623	2572.440314
809.521590	2573.536765
809.841513	2572.107598
810.161390	2572.067268
810.481223	2568.248594
810.801011	2573.317475
811.120755	2571.696744
811.440453	2572.924265
811.760107	2571.167422
812.079716	2570.098698
812.399281	2569.652556
812.718801	2567.689026
813.038276	2563.736762
813.357707	2571.787484
813.677093	2571.374110
813.996434	2570.106260
814.315731	2568.682134
814.634983	2570.907803
814.954191	2568.006619
815.273354	2571.084243
815.592473	2571.028791
815.911547	2570.136507
816.230577	2571.414439
816.549562	2571.298493
816.868502	2571.553071
817.187399	2572.919223
817.506250	2573.030129
817.825058	2571.840417
818.143821	2574.660942
818.462539	2572.765468
818.781213	2573.153637
819.099843	2574.996179
819.418429	2574.401323
819.736970	2575.550706
820.055466	2577.375603
820.373919	2578.628330
820.692327	2581.403485
821.010691	2586.931111
821.329011	2595.276741
821.647286	2612.978752
821.965517	2629.448202
822.283704	2644.642240
822.601847	2653.648261
822.919945	2649.935451
823.237999	2639.510345
823.556010	2634.333080
823.873976	2626.360495
824.191897	2616.396655
824.509775	2613.185440
824.827609	2604.829727
825.145398	2601.983996
825.463144	2593.978644
825.780845	2593.343458
826.098502	2597.325970
826.416116	2599.584407
826.733685	2602.669593
827.051210	2604.749069
827.368692	2605.966507
827.686129	2603.236723
828.003522	2597.240270
828.320872	2586.094279
828.638177	2585.761563
828.955439	2581.726119
829.272656	2579.460121
829.589830	2576.359811
829.906960	2578.293093
830.224046	2576.478278
830.541088	2576.299317
830.858086	2576.611869
831.175041	2574.461817
831.491952	2575.228072
831.808819	2572.021898
832.125642	2574.350911
832.442421	2573.927454
832.759157	2577.105902
833.075849	2579.634040
833.392497	2582.835173
833.709101	2585.300297
834.025662	2586.926069
834.342179	2586.495051
834.658653	2584.022365
834.975083	2582.061356
835.291469	2586.348857
835.607811	2579.712178
835.924110	2574.953329
836.240366	2577.017682
836.556578	2575.268401
836.872746	2575.807805
837.188871	2572.226065
837.504952	2570.212124
837.820990	2573.713205
838.136984	2570.464182
838.452935	2569.211455
838.768842	2568.787998
839.084706	2570.519634
839.400526	2572.954512
839.716303	2573.325036
840.032037	2575.712023
840.347727	2573.554409
840.663373	2576.576581
840.978977	2574.802094
841.294537	2570.534758
841.610054	2571.500139
841.925527	2570.212124
842.240957	2572.203380
842.556344	2568.477967
842.871687	2570.509552
843.186987	2570.605334
843.502244	2569.055179
843.817458	2569.236661
844.132629	2569.423183
844.447756	2569.561815
844.762840	2564.109807
845.077881	2564.392112
845.392879	2561.705177
845.707833	2566.138872
846.022745	2564.596278
846.337613	2568.425035
846.652438	2566.809345
846.967221	2568.483008
847.281960	2566.380847
847.596656	2568.165415
847.911309	2566.494273
848.225919	2571.129614
848.540485	2566.385888
848.855009	2567.300857
849.169490	2566.093501
849.483928	2566.101063
849.798323	2564.944118
850.112675	2566.441341
850.426984	2567.149623
850.741251	2566.358162
851.055474	2567.210117
851.369654	2564.739951
851.683792	2564.470250
851.997887	2567.797411
852.311938	2564.911351
852.625947	2569.282031
852.939914	2566.761454
853.253837	2567.172308
853.567718	2566.390929
853.881555	2565.876732
854.195350	2567.683985
854.509103	2565.569221
854.822812	2566.711042
855.136479	2567.953687
855.450103	2564.848336
855.763685	2567.903275
856.077224	2568.059551
856.390720	2566.358162
856.704173	2566.378326
857.017584	2566.189283
857.330953	2567.903275
857.644278	2567.658779
857.957561	2566.605178
858.270802	2565.453275
858.584000	2568.929150
858.897155	2568.777916
859.210268	2566.209448
859.523339	2567.562998
859.836367	2566.791701
860.149352	2565.687688
860.462295	2567.235323
860.775195	2563.353634
861.088054	2562.138716
861.400869	2562.821792
861.713642	2563.167111
862.026373	2563.842626
862.339062	2564.651731
862.651708	2566.443861
862.964312	2565.024777
863.276873	2564.664334
863.589392	2568.062072
863.901869	2564.989488
864.214303	2566.595096
864.526696	2566.698440
864.839045	2567.119376
865.151353	2566.022925
865.463619	2565.080229
865.775842	2565.392781
866.088023	2569.002247
866.400162	2567.182390
866.712258	2567.701629
867.024313	2568.425035
867.336325	2566.950497
867.648296	2566.844633
867.960224	2567.182390
868.272110	2567.215158
868.583954	2567.626012
868.895755	2567.681465
869.207515	2566.093501
869.519233	2567.479818
869.830909	2567.573080
870.142542	2567.527709
870.454134	2564.465208
870.765684	2567.958728
871.077191	2566.501835
871.388657	2568.979562
871.700081	2566.479149
872.011463	2566.761454
872.322803	2568.377144
872.634101	2567.089129
872.945357	2565.886814
873.256571	2570.544840
873.567744	2565.942267
873.878874	2568.077195
874.189963	2564.818089
874.501010	2568.730025
874.812015	2565.788511
875.122979	2567.996537
875.433900	2569.944943
875.744780	2567.772205
876.055618	2566.917730
876.366415	2564.505538
876.677169	2567.920919
876.987882	2565.118038
877.298554	2565.957390
877.609183	2565.712894
877.919771	2565.299519
878.230317	2565.823799
878.540822	2569.055179
878.851285	2570.925447
879.161707	2571.389233
879.472087	2571.749676
879.782425	2573.607341
880.092722	2577.063052
880.402977	2580.201170
880.713191	2593.787080
881.023363	2598.568614
881.333494	2604.980962
881.643583	2609.230655
881.953631	2608.482043
882.263637	2606.992382
882.573602	2605.991713
882.883526	2603.856785
883.193408	2599.813779
883.503248	2598.671958
883.813048	2596.199272
884.122806	2591.894127
884.432522	2589.595360
884.742197	2585.547314
885.051831	2583.775348
885.361424	2578.177147
885.670975	2578.923238
885.980485	2577.693196
886.289954	2577.000038
886.599382	2573.166240
886.908768	2575.366704
887.218113	2572.568863
887.527417	2572.919223
887.836680	2572.016857
888.145901	2568.278841
888.455082	2569.619788
888.764221	2569.211455
889.073319	2567.767164
889.382376	2570.295303
889.691392	2569.861764
890.000366	2570.151630
890.309300	2568.830848
890.618193	2569.012329
890.927044	2569.239181
891.235855	2566.751372
891.544625	2567.615930
891.853353	2569.004767
892.162041	2567.399160
892.470687	2570.499470
892.779293	2569.972669
893.087858	2565.329766
893.396381	2565.811197
893.704864	2568.914027
894.013306	2567.620971
894.321707	2579.513053
894.630068	2579.182857
894.938387	2578.373752
895.246665	2580.428022
895.554903	2575.528021
895.863100	2577.539441
896.171256	2580.647312
896.479371	2575.288566
896.787446	2575.333936
897.095480	2575.563309
897.403473	2573.375448
897.711425	2572.999882
898.019336	2574.393761
898.327207	2570.877556
898.635038	2569.347566
898.942827	2570.401167
899.250576	2565.791032
899.558284	2570.837227
899.865952	2570.375961
900.173579	2566.849674
900.481165	2567.389078
900.788711	2568.268759
901.096216	2568.528378
901.403681	2567.252967
901.711105	2569.067782
902.018489	2566.217009
902.325832	2570.081054
902.633135	2568.616599
902.940397	2566.600137
903.247619	2568.198183
903.554800	2570.345714
903.861941	2575.139852
904.169041	2580.503639
904.476101	2582.114288
904.783121	2579.558423
905.090100	2580.947261
905.397039	2579.450038
905.703938	2580.304514
906.010796	2577.960377
906.317614	2577.136149
906.624391	2573.987948
906.931129	2572.163050
907.237826	2574.522310
907.544483	2572.102557
907.851099	2570.282700
908.157675	2568.523337
908.464211	2567.336146
908.770707	2564.008984
909.077163	2562.927657
909.383578	2562.839436
909.689954	2561.763150
909.996289	2561.493448
910.302584	2565.775908
910.608839	2566.209448
910.915054	2565.039900
911.221229	2562.078222
911.527363	2564.881104
911.833458	2565.574262
912.139513	2565.445713
912.445527	2560.805331
912.751502	2567.764644
913.057436	2566.491752
913.363331	2570.559963
913.669186	2566.567370
913.975000	2567.416804
914.280775	2567.852864
914.586510	2568.306568
914.892205	2570.645663
915.197859	2574.691189
915.503475	2575.986766
915.809050	2578.146900
916.114585	2579.760069
916.420081	2578.315779
916.725536	2582.706624
917.030952	2584.128229
917.336328	2580.606983
917.641665	2581.975656
917.946961	2578.310738
918.252218	2577.055490
918.557435	2578.030953
918.862612	2575.570870
919.167750	2577.105902
919.472848	2574.832341
919.777906	2570.602813
920.082925	2573.841755
920.387904	2572.266394
920.692843	2569.186249
920.997743	2569.158523
921.302603	2570.050807
921.607423	2567.522668
921.912204	2568.651887
922.216946	2567.189952
922.521647	2564.566032
922.826310	2566.549726
923.130932	2565.791032
923.435516	2565.375137
923.740059	2563.938408
924.044564	2566.096022
924.349028	2566.501835
924.653454	2562.726010
924.957840	2564.583676
925.262186	2560.086966
925.566493	2561.780794
925.870761	2561.289282
926.174989	2564.770198
926.479178	2564.876063
926.783328	2562.511761
927.087438	2566.058213
927.391509	2565.912020
927.695541	2565.508727
927.999533	2563.257852
928.303486	2561.264076
928.607400	2563.837585
928.911275	2564.029149
929.215110	2562.476473
929.518906	2562.589899
929.822663	2561.649724
930.126381	2563.741803
930.430060	2561.884138
930.733699	2565.118038
931.037299	2565.773388
931.340861	2563.141906
931.644383	2563.588048
931.947866	2564.326577
932.251309	2561.982440
932.554714	2564.306412
932.858080	2566.315312
933.161407	2562.322718
933.464694	2562.335321
933.767943	2566.337997
934.071153	2562.204251
934.374323	2563.207441
934.677455	2561.770712
934.980548	2563.451937
935.283602	2560.737275
935.586617	2561.753068
935.889593	2562.426062
936.192530	2563.847667
936.495428	2562.252142
936.798287	2562.116031
937.101108	2563.971175
937.403890	2562.841957
937.706632	2565.791032
938.009336	2563.383881
938.312002	2564.477811
938.614628	2565.770867
938.917216	2564.828172
939.219765	2565.390260
939.522275	2563.716597
939.824747	2565.642318
940.127179	2560.674261
940.429573	2558.735937
940.731929	2560.394477
941.034246	2560.633932
941.336524	2561.390105
941.638763	2562.920095
941.940964	2563.361196
942.243126	2564.124931
942.545250	2563.247770
942.847335	2563.341031
943.149381	2564.540826
943.451389	2564.361865
943.753359	2565.541495
944.055290	2560.583520
944.357182	2562.983109
944.659036	2563.948490
944.960851	2562.511761
945.262628	2562.690722
945.564367	2564.008984
945.866067	2564.989488
946.167729	2565.370096
946.469352	2564.911351
946.770937	2565.712894
947.072484	2562.967986
947.373992	2563.895558
947.675462	2563.270455
947.976893	2562.068140
948.278286	2562.781463
948.579641	2564.470250
948.880958	2563.751885
949.182236	2562.902451
949.483476	2562.030331
949.784678	2562.683161
950.085841	2565.115517
950.386967	2564.810527
950.688054	2562.201730
950.989103	2563.212482
951.290114	2561.732903
951.591087	2563.963614
951.892021	2562.358006
952.192917	2563.648542
952.493776	2564.624005
952.794596	2563.484704
953.095378	2564.218192
953.396122	2566.040569
953.696828	2565.168449
953.997496	2563.812379
954.298126	2564.271124
954.598718	2564.538305
954.899272	2563.487225
955.199788	2562.862122
955.500266	2562.917574
955.800706	2559.620660
956.101108	2558.390618
956.401472	2561.763150
956.701798	2560.523026
957.002087	2558.015052
957.302337	2559.734086
957.602550	2560.727193
957.902724	2561.443037
958.202861	2562.012687
958.502960	2560.933880
958.803022	2560.780125
959.103045	2559.993705
959.403031	2560.712069
959.702979	2564.722307
960.002889	2561.783315
960.302762	2565.503686
960.602596	2562.431103
960.902393	2562.015208
961.202153	2560.049158
961.501875	2561.669889
961.801559	2560.999415
962.101205	2560.822975
962.400814	2561.042265
962.700385	2562.247101
962.999918	2560.356668
963.299414	2560.820454
963.598873	2560.631411
963.898293	2560.066802
964.197677	2560.752399
964.497022	2562.342883
964.796331	2561.450598
965.095601	2562.438665
965.394835	2561.357337
965.694030	2561.987481
965.993189	2563.653583
966.292309	2560.477656
966.591393	2559.787018
966.890439	2561.125444
967.189447	2559.658468
967.488419	2561.339693
967.787353	2558.783828
968.086249	2559.610577
968.385108	2563.494786
968.683930	2561.069991
968.982714	2562.814231
969.281462	2558.735937
969.580172	2559.905485
969.878844	2561.773232
970.177480	2561.075032
970.476078	2561.750547
970.774639	2562.894889
971.073162	2561.261555
971.371649	2555.388611
971.670098	2557.384908
971.968510	2556.865669
972.266885	2559.214847
972.565223	2560.351627
972.863524	2559.971020
973.161788	2560.026472
973.460014	2561.412790
973.758204	2562.501679
974.056356	2559.262738
974.354471	2559.920608
974.652550	2562.249621
974.950591	2560.913716
975.248595	2561.826164
975.546563	2562.083263
975.844493	2559.247614
976.142386	2561.954714
976.440243	2561.463201
976.738062	2560.336503
977.035845	2562.045455
977.333590	2561.478325
977.631299	2556.958930
977.928971	2558.889692
978.226606	2561.763150
978.524204	2562.015208
978.821765	2558.395659
979.119290	2562.153839
979.416777	2560.129816
979.714228	2561.148129
980.011642	2562.239539
980.309020	2565.135682
980.606360	2560.172666
980.903664	2562.368088
981.200931	2562.519323
981.498162	2559.713921
981.795356	2561.138047
982.092513	2563.754406
982.389633	2564.119889
982.686717	2563.343552
982.983764	2562.287430
983.280775	2563.991340
983.577749	2564.752554
983.874686	2563.169632
984.171587	2562.912533
984.468451	2563.648542
984.765279	2564.185424
985.062070	2561.677450
985.358824	2560.598643
985.655543	2560.288613
985.952224	2562.731052
986.248869	2559.045968
986.545478	2560.069322
986.842050	2557.740309
987.138586	2557.117727
987.435086	2558.559497
987.731549	2556.157387
988.027975	2563.134344
988.324366	2560.991853
988.620719	2559.988664
988.917037	2562.786504
989.213318	2561.609395
989.509563	2560.422203
989.805772	2560.943962
990.101944	2559.764333
990.398080	2560.558314
990.694180	2561.652245
990.990244	2560.568397
991.286271	2556.916081
991.582262	2560.961607
991.878217	2560.497820
992.174136	2562.121072
992.470019	2559.660989
992.765865	2559.877758
993.061676	2557.868859
993.357450	2557.664692
993.653188	2562.073181
993.948890	2559.497151
994.244556	2560.754919
994.540186	2560.641493
994.835780	2560.545711
995.131337	2563.078891
995.426859	2559.943293
995.722345	2560.893551
996.017795	2561.566545
996.313208	2560.454971
996.608586	2559.313149
996.903928	2562.428582
997.199234	2560.586041
997.494504	2561.201061
997.789738	2560.122254
998.084936	2562.166442
998.380099	2563.325908
998.675225	2562.557132
998.970316	2560.044117
999.265371	2562.347924
999.560390	2562.244580
999.855373	2563.583007
1000.150320	2557.823488
1000.445232	2560.981771
1000.740108	2560.759960
1001.034948	2561.833726
1001.329752	2557.392470
1001.624521	2561.495969
1001.919254	2556.064126
1002.213951	2554.902140
1002.508613	2556.429609
1002.803239	2554.708055
1003.097829	2555.202088
1003.392384	2559.217367
1003.686903	2560.497820
1003.981386	2561.402707
1004.275834	2559.567727
1004.570246	2560.172666
1004.864623	2563.646021
1005.158964	2559.746688
1005.453270	2559.358520
1005.747540	2561.405228
1006.041775	2561.949673
1006.335974	2561.047306
1006.630138	2557.969682
1006.924266	2558.403221
1007.218359	2559.731565
1007.512416	2560.838098
1007.806438	2559.958417
1008.100425	2559.766853
1008.394376	2560.928839
1008.688292	2559.292985
1008.982172	2559.343396
1009.276017	2557.039589
1009.569827	2560.752399
1009.863602	2561.208623
1010.157341	2559.048489
1010.451045	2557.770556
1010.744714	2557.495813
1011.038347	2557.707542
1011.331945	2558.884651
1011.625508	2558.892213
1011.919036	2559.265258
1012.212528	2560.172666
1012.505986	2560.044117
1012.799408	2558.632593
1013.092795	2560.268448
1013.386147	2559.229970
1013.679464	2558.078067
1013.972745	2559.645865
1014.265992	2558.438509
1014.559204	2558.093190
1014.852380	2559.686195
1015.145521	2558.138560
1015.438628	2558.637635
1015.731699	2560.530588
1016.024736	2557.072356
1016.317737	2559.650907
1016.610703	2560.278530
1016.903635	2557.435319
1017.196531	2553.825853
1017.489393	2556.827860
1017.782219	2556.343910
1018.075011	2554.781152
1018.367768	2558.753581
1018.660490	2560.092007
1018.953177	2560.092007
1019.245829	2560.092007
