Dividing Wavelength (nm)	Counts (n)	Blue Motor Position (mm): 0.000000	Red Motor Position (mm): 31.500000	
326.493990	2144.496764
326.888308	2144.496764
327.282561	2144.496764
327.676750	2119.991715
328.070874	2118.925511
328.464933	2125.663013
328.858929	2132.508900
329.252859	2145.668832
329.646726	2161.351862
330.040528	2172.800322
330.434265	2193.569876
330.827938	2212.668287
331.221547	2230.808879
331.615091	2249.597260
332.008571	2271.243974
332.401986	2292.920936
332.795338	2311.046405
333.188625	2332.080619
333.581847	2349.210460
333.975006	2369.876670
334.368100	2388.365102
334.761129	2408.340674
335.154095	2423.844742
335.546996	2441.148503
335.939833	2454.890688
336.332606	2473.507670
336.725315	2483.542086
337.117960	2492.066677
337.510540	2495.033397
337.903056	2511.205418
338.295508	2516.541479
338.687896	2522.071625
339.080220	2526.369209
339.472480	2534.629139
339.864676	2538.493184
340.256807	2543.877136
340.648875	2545.518032
341.040879	2549.256047
341.432818	2548.003321
341.824694	2549.119936
342.216506	2549.155224
342.608253	2549.639175
342.999937	2545.515511
343.391557	2546.082641
343.783113	2544.066179
344.174605	2543.955274
344.566033	2541.603576
344.957397	2541.404450
345.348697	2538.536034
345.739934	2538.445293
346.131106	2535.569315
346.522215	2536.937988
346.913260	2531.571680
347.304241	2531.029756
347.695159	2529.751823
348.086012	2526.868283
348.476802	2524.496420
348.867528	2523.228570
349.258191	2520.506347
349.648789	2522.482479
350.039324	2520.725637
350.429796	2520.922242
350.820203	2521.232273
351.210548	2517.146418
351.600828	2518.540297
351.991045	2519.228414
352.381198	2515.603825
352.771288	2515.840759
353.161314	2514.903104
353.551276	2515.722292
353.941175	2518.252951
354.331010	2514.635923
354.720782	2515.029133
355.110490	2514.562827
355.500135	2514.872857
355.889717	2516.521315
356.279235	2518.260513
356.668689	2518.162210
357.058080	2521.353261
357.447408	2515.505522
357.836672	2516.256654
358.225873	2514.701458
358.615010	2514.993845
359.004084	2521.103724
359.393095	2520.198837
359.782043	2520.587005
360.170927	2523.967099
360.559748	2521.809485
360.948505	2523.062212
361.337199	2525.983561
361.725830	2524.796369
362.114398	2523.669671
362.502903	2526.810310
362.891344	2523.571368
363.279722	2525.091276
363.668037	2525.043385
364.056289	2527.619415
364.444478	2527.301822
364.832603	2524.007428
365.220665	2528.640249
365.608665	2526.946421
365.996601	2529.542615
366.384474	2528.652852
366.772284	2530.475229
367.160031	2530.339117
367.547715	2529.144364
367.935336	2527.057326
368.322893	2531.458254
368.710388	2531.652338
369.097820	2535.531506
369.485189	2530.286185
369.872495	2533.028573
370.259738	2531.962369
370.646918	2531.281813
371.034035	2533.164684
371.421090	2533.331042
371.808081	2533.406660
372.195010	2534.114942
372.581875	2533.941022
372.968678	2535.012267
373.355418	2536.504449
373.742096	2536.927906
374.128710	2538.122659
374.515262	2539.566950
374.901751	2542.906714
375.288177	2540.519728
375.674540	2545.540717
376.060841	2543.153731
376.447079	2547.300080
376.833254	2549.230842
377.219367	2546.521221
377.605417	2548.822508
377.991404	2551.693445
378.377329	2552.588250
378.763191	2556.318704
379.148991	2562.617626
379.534727	2567.933522
379.920402	2571.631209
380.306013	2574.126580
380.691563	2579.177816
381.077049	2581.952971
381.462474	2590.187696
381.847835	2593.003180
382.233134	2599.347472
382.618371	2601.931064
383.003545	2608.310644
383.388657	2612.094030
383.773706	2620.238014
384.158693	2625.871503
384.543618	2636.473050
384.928480	2642.396406
385.313280	2649.882519
385.698017	2654.157418
386.082692	2664.693429
386.467305	2670.054696
386.851856	2677.273629
387.236344	2690.483972
387.620770	2694.708459
388.005133	2706.111549
388.389435	2714.754607
388.773674	2721.713920
389.157851	2730.392267
389.541965	2741.190418
389.926018	2742.957343
390.310008	2756.959147
390.693936	2766.663369
391.077802	2778.862961
391.461606	2784.176337
391.845348	2793.149591
392.229027	2803.675520
392.612645	2819.792089
392.996200	2829.055209
393.379694	2840.264215
393.763125	2858.268696
394.146494	2864.444109
394.529801	2875.232178
394.913047	2893.100548
395.296230	2897.067936
395.679351	2901.783936
396.062410	2915.271543
396.445408	2916.632654
396.828343	2927.667740
397.211217	2933.770057
397.594028	2928.595313
397.976778	2942.687858
398.359466	2953.254117
398.742092	2951.862758
399.124656	2971.518217
399.507158	2982.702017
399.889598	2987.851555
400.271977	3005.001561
400.654294	3007.285203
401.036549	3022.438912
401.418742	3025.173738
401.800874	3047.594270
402.182944	3055.062739
402.564952	3085.816298
402.946898	3074.188877
403.328783	3084.639189
403.710606	3099.193000
404.092367	3121.845425
404.474067	3152.379693
404.855705	3141.001809
405.237282	3140.278404
405.618797	3171.140347
406.000250	3193.727237
406.381642	3229.214440
406.762972	3230.225191
407.144240	3222.111454
407.525447	3239.042169
407.906593	3242.296234
408.287677	3263.814399
408.668700	3281.105557
409.049661	3281.334929
409.430560	3294.983853
409.811399	3297.461581
410.192176	3319.297338
410.572891	3326.912001
410.953545	3365.683516
411.334138	3332.921057
411.714669	3389.288718
412.095139	3332.608505
412.475547	3385.258316
412.855894	3373.759444
413.236180	3403.643404
413.616405	3382.909138
413.996568	3408.457706
414.376670	3412.639343
414.756711	3408.188004
415.136691	3433.441664
415.516609	3450.637040
415.896466	3463.023155
416.276262	3485.617607
416.655997	3518.254037
417.035670	3520.706558
417.415283	3589.054522
417.794834	3617.093420
418.174324	3596.301181
418.553753	3595.585337
418.933121	3641.283396
419.312428	3629.474493
419.691674	3627.505923
420.070859	3665.939680
420.449983	3646.463182
420.829045	3693.713917
421.208047	3682.595652
421.586988	3724.001169
421.965867	3757.454266
422.344686	3763.392745
422.723444	3802.761636
423.102141	3704.786811
423.480777	3810.386382
423.859352	3775.962862
424.237866	3874.527502
424.616319	3859.683825
424.994712	3921.337137
425.373044	3909.336670
425.751314	3971.947801
426.129524	3906.674941
426.507673	4005.496679
426.885762	3984.868278
427.263789	4008.541536
427.641756	4007.392153
428.019662	4040.142009
428.397508	4043.020508
428.775292	4077.401177
429.153016	4085.277980
429.530679	4099.390690
429.908282	4108.021146
430.285824	4088.259823
430.663305	4158.319258
431.040726	4117.410295
431.418086	4109.399901
431.795385	4183.396478
432.172624	4217.756983
432.549802	4184.051828
432.926920	4205.547308
433.303977	4196.264023
433.680974	4236.076536
434.057910	4260.246348
434.434786	4264.405300
434.811601	4258.373559
435.188355	4364.419272
435.565050	4337.192000
435.941683	4335.614118
436.318257	4421.502777
436.694770	4429.876134
437.071222	4483.821521
437.447614	4420.998662
437.823946	4423.990587
438.200218	4438.705715
438.576429	4418.130245
438.952580	4447.081592
439.328670	4446.350624
439.704700	4494.554137
440.080670	4456.780772
440.456580	4519.865771
440.832429	4556.585536
441.208218	4457.393272
441.583947	4507.933360
441.959616	4524.228890
442.335224	4550.959608
442.710773	4570.088266
443.086261	4625.712358
443.461689	4575.273093
443.837057	4588.702727
444.212365	4667.165766
444.587612	4667.521167
444.962800	4635.479593
445.337927	4673.918391
445.712995	4561.346905
446.088002	4755.514507
446.462949	4778.476963
446.837837	4796.420950
447.212664	4781.022746
447.587431	5008.096480
447.962139	5301.080780
448.336786	5642.205578
448.711374	5629.809381
449.085901	5276.646307
449.460369	5213.548705
449.834776	5151.484539
450.209124	5382.140013
450.583412	5390.044542
450.957640	5515.412997
451.331808	5378.522985
451.705917	5227.253082
452.079965	5217.904262
452.453954	5258.704840
452.827883	5223.628492
453.201752	5229.072938
453.575562	5263.088124
453.949311	5397.142487
454.323001	5398.884205
454.696632	5394.246344
455.070202	5545.380136
455.443713	5572.315021
455.817164	5667.965874
456.190556	5738.138736
456.563888	5709.310898
456.937160	5789.641684
457.310373	5636.181399
457.683526	5690.346077
458.056619	5684.208472
458.429653	5662.196274
458.802628	5707.044899
459.175542	5740.440023
459.548398	5875.991608
459.921194	6059.908024
460.293930	6122.622498
460.666607	6376.071549
461.039224	6586.912768
461.411782	6712.384566
461.784280	6633.127546
462.156719	6635.753987
462.529099	6598.008347
462.901419	6452.382016
463.273680	6324.654301
463.645882	6312.749616
464.018024	6312.013607
464.390106	6378.259410
464.762130	6637.694831
465.134094	7021.477873
465.505999	7652.471538
465.877845	8352.229063
466.249631	8711.338177
466.621358	8637.505438
466.993026	8450.403013
467.364634	8237.323523
467.736184	7950.217208
468.107674	7798.511245
468.479105	7712.599901
468.850477	7647.357288
469.221790	7471.047973
469.593043	7253.799448
469.964238	7148.348592
470.335373	7127.926878
470.706449	7283.385980
471.077467	7464.300389
471.448425	8115.990511
471.819324	8703.904996
472.190164	8738.807425
472.560945	8258.652644
472.931667	7790.394987
473.302330	7601.835669
473.672934	7479.504509
474.043479	7555.744399
474.413965	7458.613967
474.784393	7406.934579
475.154761	7559.258083
475.525070	7572.922131
475.895321	7521.096549
476.265513	7621.332331
476.635645	7776.322606
477.005719	7774.812781
477.375734	7856.965944
477.745691	7958.963610
478.115588	8168.826845
478.485427	8399.918378
478.855207	8870.676448
479.224928	9299.010687
479.594591	9680.716774
479.964194	9691.348567
480.333739	9780.425756
480.703226	9774.764540
481.072653	9878.708091
481.442022	9985.739349
481.811333	10135.186876
482.180584	9976.226692
482.549777	9915.886601
482.918912	9848.743473
483.287988	9836.516154
483.657005	9748.210262
484.025964	9659.909412
484.394864	9718.762362
484.763706	9678.506228
485.132489	9587.236138
485.501213	9579.835724
485.869879	9640.485846
486.238487	9573.435979
486.607036	9648.980190
486.975527	9589.146735
487.343959	9642.706474
487.712333	9683.978401
488.080648	9720.844359
488.448905	9817.551333
488.817104	9817.808432
489.185244	9992.272685
489.553326	10190.357263
489.921350	10643.892231
490.289315	11262.499781
490.657222	11541.073942
491.025070	11716.417876
491.392861	11632.825463
491.760593	11475.246556
492.128267	11218.122504
492.495883	10981.541154
492.863440	10741.922508
493.230939	10514.838692
493.598380	10324.250309
493.965763	10298.855497
494.333088	10160.009517
494.700354	10088.362118
495.067563	10054.213342
495.434713	10049.010871
495.801805	10079.139327
496.168839	10036.198779
496.535815	9993.444753
496.902733	10030.456904
497.269593	9975.619233
497.636395	9971.929108
498.003139	10069.024252
498.369825	9985.963681
498.736453	10069.861083
499.103023	10005.435137
499.469535	9997.452470
499.835989	10027.948930
500.202385	9982.853289
500.568723	9993.848045
500.935003	10033.360609
501.301226	9992.623045
501.667390	10129.074477
502.033497	10213.286952
502.399546	10122.957036
502.765537	10026.408858
503.131470	10099.956772
503.497345	10176.211786
503.863163	9938.889386
504.228923	10044.486436
504.594625	10133.074632
504.960269	10029.345330
505.325856	10147.020984
505.691385	10007.209623
506.056856	10042.671620
506.422270	10116.678279
506.787625	10031.439929
507.152924	10048.148834
507.518164	10086.703578
507.883347	9940.570611
508.248472	9976.743410
508.613540	10044.347804
508.978550	10082.199308
509.343503	10034.648624
509.708398	10052.017919
510.073236	10130.216298
510.438016	10116.375810
510.802738	10005.462864
511.167403	10081.425490
511.532010	10097.224467
511.896561	10151.815122
512.261053	10280.553588
512.625488	10177.671200
512.989866	10119.685328
513.354186	10056.837262
513.718449	10033.143839
514.082655	10101.718655
514.446803	10023.502633
514.810894	10074.405684
515.174927	10023.469865
515.538904	9970.131937
515.902822	10046.689420
516.266684	9896.639476
516.630488	9936.714128
516.994235	9876.726918
517.357925	9917.272918
517.721558	9914.399461
518.085133	9912.103215
518.448651	9878.050221
518.812112	9800.078694
519.175516	9748.510211
519.538863	9766.282799
519.902152	9718.192712
520.265385	9741.986958
520.628560	9702.739055
520.991678	9604.000495
521.354739	9579.876053
521.717743	9571.500176
522.080690	9494.615018
522.443580	9521.638123
522.806413	9472.882604
523.169189	9407.453468
523.531908	9378.340805
523.894569	9295.691087
524.257174	9236.265966
524.619722	9238.111028
524.982213	9158.244028
525.344647	9091.610056
525.707025	9023.022638
526.069345	9027.025314
526.431608	8950.883726
526.793815	8928.838760
527.155964	8795.066702
527.518057	8749.608097
527.880093	8645.132704
528.242072	8643.965677
528.603995	8533.367803
528.965860	8466.930436
529.327669	8421.975947
529.689421	8321.843508
530.051117	8255.849763
530.412755	8203.976290
530.774337	8140.387175
531.135862	8047.839152
531.497331	8004.039087
531.858743	7916.920387
532.220098	7886.491982
532.581396	7777.784541
532.942638	7664.550143
533.303824	7625.350131
533.664953	7549.881537
534.026025	7452.254552
534.387040	7425.380161
534.747999	7347.078438
535.108902	7293.611961
535.469748	7176.074938
535.830537	7117.756350
536.191270	7068.768938
536.551947	6966.037784
536.912567	6921.214364
537.273131	6869.870213
537.633638	6756.489621
537.994089	6707.766869
538.354483	6613.575430
538.714821	6587.764723
539.075103	6557.580814
539.435328	6467.381969
539.795497	6389.730556
540.155609	6324.712274
540.515665	6292.653056
540.875665	6182.521488
541.235609	6145.710983
541.595496	6072.500826
541.955328	6060.916255
542.315102	5955.853568
542.674821	5869.881730
543.034483	5808.475435
543.394090	5756.266725
543.753640	5682.116393
544.113134	5689.010171
544.472571	5566.863013
544.831953	5582.329273
545.191278	5474.067974
545.550548	5400.938476
545.909761	5372.554259
546.268918	5326.384851
546.628019	5282.370537
546.987064	5203.413465
547.346053	5112.894507
547.704986	5100.712558
548.063863	5019.791957
548.422684	4984.231658
548.781449	4919.044497
549.140158	4885.946802
549.498811	4825.074869
549.857408	4753.901338
550.215949	4743.793825
550.574434	4684.633364
550.932864	4625.813181
551.291237	4613.621150
551.649555	4549.462385
552.007817	4513.511397
552.366022	4454.502170
552.724173	4411.506169
553.082267	4387.923651
553.440305	4358.742932
553.798288	4288.708703
554.156215	4258.723919
554.514086	4219.239082
554.871902	4171.292668
555.229661	4138.164725
555.587365	4092.131429
555.945014	4057.052560
556.302606	4014.747197
556.660143	3983.252588
557.017625	3953.966005
557.375050	3913.470416
557.732421	3891.105337
558.089735	3858.017724
558.446994	3817.892660
558.804197	3797.055050
559.161345	3762.303856
559.518437	3713.870971
559.875474	3691.253834
560.232455	3662.272240
560.589381	3633.426758
560.946251	3603.041203
561.303065	3589.334306
561.659825	3553.584963
562.016528	3518.921990
562.373177	3489.839573
562.729770	3472.485401
563.086307	3437.900565
563.442789	3420.241403
563.799216	3400.240625
564.155587	3371.952190
564.511904	3351.056608
564.868164	3326.344872
565.224370	3307.838796
565.580520	3285.098151
565.936615	3265.856067
566.292654	3240.385637
566.648638	3225.423492
567.004567	3207.482026
567.360441	3187.327492
567.716260	3171.533557
568.072023	3153.513953
568.427732	3133.180459
568.783385	3112.854527
569.138982	3101.769029
569.494525	3089.899633
569.850013	3070.912127
570.205445	3054.523336
570.560823	3043.089999
570.916145	3028.316897
571.271412	3012.699403
571.626625	3003.025428
571.981782	2988.627893
572.336884	2971.150213
572.691931	2962.038327
573.046923	2946.640123
573.401860	2938.780964
573.756743	2924.832091
574.111570	2917.933272
574.466342	2902.986251
574.821059	2894.728841
575.175722	2884.250803
575.530330	2872.756972
575.884882	2865.449819
576.239380	2856.075794
576.593823	2847.268898
576.948211	2839.069461
577.302544	2830.222236
577.656823	2820.540700
578.011047	2814.607262
578.365216	2807.108546
578.719330	2798.876342
579.073389	2790.961730
579.427394	2786.621297
579.781344	2779.893877
580.135239	2776.445728
580.489080	2770.706374
580.842866	2764.089860
581.196597	2761.095414
581.550273	2753.868920
581.903895	2751.923035
582.257463	2746.488671
582.610975	2740.615727
582.964434	2740.151941
583.317837	2737.152454
583.671186	2732.204562
584.024481	2728.065774
584.377721	2725.842625
584.730906	2722.545711
585.084037	2719.629403
585.437113	2718.507747
585.790135	2710.983824
586.143103	2710.245295
586.496016	2706.366127
586.848874	2699.489994
587.201679	2698.776670
587.554428	2695.517564
587.907124	2694.292564
588.259765	2687.655885
588.612352	2690.005063
588.964884	2689.581606
589.317362	2685.599094
589.669786	2687.703776
590.022155	2683.882581
590.374470	2683.844773
590.726731	2682.493743
591.078937	2675.622651
591.431090	2675.731036
591.783188	2673.286076
592.135232	2671.138544
592.487222	2671.161230
592.839157	2670.004285
593.191038	2666.437668
593.542866	2666.949346
593.894639	2667.367761
594.246358	2663.526402
594.598022	2662.283758
594.949633	2660.468942
595.301190	2659.722852
595.652692	2659.793428
596.004141	2656.607418
596.355535	2658.197902
596.706876	2655.773107
597.058162	2650.926038
597.409395	2652.536687
597.760573	2653.181954
598.111698	2651.384783
598.462768	2653.494506
598.813785	2648.811274
599.164748	2646.976294
599.515657	2648.226500
599.866511	2646.270532
600.217312	2648.337406
600.568060	2643.974287
600.918753	2647.848414
601.269392	2646.739360
601.619978	2644.453197
601.970510	2643.719709
602.320988	2645.589977
602.671412	2643.502939
603.021783	2641.854482
603.372100	2642.134266
603.722363	2642.562764
604.072572	2644.470841
604.422728	2645.998310
604.772830	2638.010602
605.122878	2635.827782
605.472872	2634.930457
605.822813	2633.211423
606.172701	2636.669655
606.522534	2636.195787
606.872314	2639.555716
607.222041	2638.418935
607.571714	2637.284676
607.921333	2634.970786
608.270899	2632.271248
608.620411	2636.261322
608.969870	2635.535395
609.319276	2635.560601
609.668627	2637.360293
610.017926	2635.701753
610.367171	2636.450365
610.716362	2634.038173
611.065500	2634.383492
611.414585	2635.900879
611.763616	2636.866260
612.112594	2631.812503
612.461518	2635.500107
612.810389	2636.389871
613.159207	2634.176804
613.507971	2632.974489
613.856682	2637.027577
614.205340	2633.125724
614.553945	2634.408697
614.902496	2635.873153
615.250994	2634.406177
615.599439	2634.000364
615.947830	2635.734521
616.296169	2633.579428
616.644454	2636.044552
616.992686	2632.059520
617.340864	2635.701753
617.688990	2633.423152
618.037063	2632.906434
618.385082	2632.001547
618.733048	2633.728142
619.080961	2631.134468
619.428821	2635.273255
619.776628	2632.873666
620.124382	2631.767133
620.472083	2632.508182
620.819731	2634.093625
621.167326	2634.194448
621.514868	2629.760754
621.862357	2632.987092
622.209793	2630.779067
622.557176	2630.232102
622.904506	2627.671195
623.251783	2626.234467
623.599007	2625.944600
623.946179	2621.954527
624.293297	2626.494086
624.640363	2627.862759
624.987376	2628.528192
625.334336	2628.230763
625.681243	2628.467698
626.028097	2628.593727
626.374899	2627.260341
626.721647	2625.526184
627.068343	2627.903088
627.414987	2620.525360
627.761577	2622.713221
628.108115	2622.844291
628.454600	2621.949486
628.801032	2623.918056
629.147412	2623.880248
629.493739	2625.143057
629.840014	2623.439147
630.186236	2620.379166
630.532405	2621.866307
630.878521	2623.610546
631.224585	2621.044599
631.570597	2617.513270
631.916556	2622.304887
632.262462	2621.014352
632.608316	2621.742798
632.954117	2620.177520
633.299866	2621.536111
633.645562	2622.443519
633.991206	2618.564351
634.336797	2619.930504
634.682336	2621.949486
635.027823	2617.684670
635.373257	2618.279526
635.718639	2618.584516
636.063968	2617.223404
636.409245	2615.819443
636.754470	2618.140894
637.099642	2616.890688
637.444762	2614.473455
637.789829	2615.408589
638.134845	2612.991355
638.479808	2615.955554
638.824719	2615.496809
639.169577	2618.206429
639.514383	2612.840121
639.859137	2612.522528
640.203839	2612.134359
640.548489	2613.278701
640.893086	2612.252826
641.237632	2609.966663
641.582125	2608.701333
641.926566	2608.930706
642.270955	2610.571602
642.615292	2610.609410
642.959576	2612.393979
643.303809	2613.467744
643.647990	2614.349946
643.992118	2613.233331
644.336195	2610.480861
644.680219	2609.921293
645.024192	2613.167796
645.368112	2610.758124
645.711981	2611.950357
646.055797	2613.792899
646.399562	2612.842641
646.743274	2613.230810
647.086935	2617.372118
647.430544	2615.511932
647.774101	2616.321037
648.117606	2615.663167
648.461059	2615.000255
648.804460	2615.648043
649.147810	2615.990842
649.491108	2613.984463
649.834354	2613.460183
650.177548	2612.126797
650.520690	2611.670573
650.863781	2612.444390
651.206820	2614.796088
651.549807	2612.071345
651.892742	2610.685027
652.235626	2608.895418
652.578458	2608.630757
652.921238	2611.761314
653.263967	2611.335336
653.606644	2607.798967
653.949269	2609.092023
654.291843	2608.620675
654.634365	2608.000613
654.976836	2607.085644
655.319255	2610.712754
655.661622	2606.579008
656.003938	2607.428442
656.346203	2605.633791
656.688416	2607.128493
657.030577	2606.415170
657.372687	2607.451127
657.714746	2606.889039
658.056753	2607.506580
658.398708	2601.605909
658.740612	2605.684203
659.082465	2603.183791
659.424266	2603.050200
659.766016	2601.323605
660.107715	2607.226796
660.449362	2606.818462
660.790958	2608.172012
661.132503	2608.207300
661.473996	2607.640171
661.815438	2606.712598
662.156829	2606.347115
662.498168	2606.997423
662.839456	2606.906683
663.180693	2607.627568
663.521879	2607.209152
663.863013	2606.077413
664.204097	2606.478185
664.545129	2607.617485
664.886110	2608.597990
665.227040	2606.521034
665.567918	2609.515480
665.908746	2610.558999
666.249522	2605.994234
666.590248	2605.603544
666.930922	2606.929368
667.271545	2610.193515
667.612118	2606.468102
667.952639	2607.725870
668.293109	2607.932557
668.633528	2605.598503
668.973896	2606.261415
669.314213	2606.359717
669.654480	2606.548761
669.994695	2607.473812
670.334859	2604.847371
670.674973	2603.609768
671.015035	2607.844337
671.355047	2605.648915
671.695008	2607.088164
672.034918	2604.885180
672.374777	2607.879625
672.714585	2606.440376
673.054342	2606.389964
673.394049	2606.231168
673.733705	2607.675459
674.073310	2608.146807
674.412864	2605.969028
674.752368	2604.002978
675.091820	2605.422063
675.431223	2606.629419
675.770574	2604.071034
676.109875	2601.338728
676.449125	2601.091712
676.788324	2604.733945
677.127473	2605.270828
677.466571	2600.970724
677.805619	2603.211517
678.144616	2602.364603
678.483562	2603.844182
678.822458	2602.561208
679.161303	2604.365941
679.500098	2603.887032
679.838842	2603.385437
680.177535	2600.864860
680.516179	2602.346959
680.854771	2602.460385
681.193314	2604.542382
681.531805	2605.512804
681.870247	2605.167485
682.208638	2607.937599
682.546978	2606.485746
682.885268	2606.059769
683.223508	2605.417022
683.561697	2606.916765
683.899836	2607.982969
684.237925	2607.589759
684.575963	2604.910386
684.913951	2609.225613
685.251889	2607.340222
685.589776	2605.976590
685.927614	2606.155551
686.265401	2605.873246
686.603137	2605.142279
686.940824	2605.633791
687.278460	2607.771241
687.616046	2606.994903
687.953582	2608.108998
688.291068	2605.689244
688.628504	2608.739142
688.965889	2605.893411
689.303224	2608.792074
689.640510	2605.895931
689.977745	2607.466251
690.314930	2607.380551
690.652065	2604.381065
690.989150	2604.605396
691.326185	2605.185129
691.663170	2601.104315
692.000105	2603.987855
692.336990	2602.367124
692.673825	2601.671444
693.010610	2600.431321
693.347345	2595.760692
693.684030	2595.417893
694.020665	2597.451999
694.357251	2593.696339
694.693786	2593.691298
695.030272	2598.132554
695.366707	2596.824375
695.703093	2595.806062
696.039429	2596.773963
696.375716	2597.678851
696.711952	2594.386977
697.048139	2595.352358
697.384276	2595.095259
697.720363	2595.332193
698.056400	2594.729776
698.392388	2596.045517
698.728326	2596.937801
699.064214	2593.416555
699.400053	2596.564756
699.735842	2595.674992
700.071581	2595.077615
700.407270	2593.640886
700.742910	2593.645927
701.078501	2593.106524
701.414042	2594.117275
701.749533	2593.242635
702.084974	2592.723396
702.420366	2592.685588
702.755709	2592.672985
703.091002	2592.718355
703.426246	2589.870103
703.761440	2591.684919
704.096584	2591.599219
704.431679	2593.840012
704.766725	2593.782039
705.101721	2591.372367
705.436668	2593.116606
705.771565	2591.775659
706.106413	2593.711462
706.441212	2592.824219
706.775961	2592.756164
707.110661	2588.357757
707.445311	2591.326997
707.779913	2591.032089
708.114465	2593.303129
708.448967	2593.638366
708.783421	2592.864549
709.117825	2594.626432
709.452180	2593.351020
709.786485	2593.088880
710.120742	2596.884869
710.454949	2592.645258
710.789107	2591.679877
711.123216	2592.811617
711.457275	2593.098962
711.791286	2592.012594
712.125247	2596.521906
712.459159	2596.673140
712.793023	2600.234716
713.126837	2597.005857
713.460602	2597.172215
713.794318	2597.661207
714.127985	2600.088522
714.461602	2595.448140
714.795171	2595.851432
715.128691	2595.680033
715.462162	2596.002667
715.795584	2594.407142
716.128957	2595.400249
716.462281	2592.456215
716.795556	2592.660382
717.128782	2593.802203
717.461960	2593.008222
717.795088	2590.991760
718.128167	2589.275247
718.461198	2589.418920
718.794180	2592.327666
719.127113	2588.244331
719.459997	2589.928077
719.792833	2589.812130
720.125619	2589.171903
720.458357	2588.385483
720.791046	2589.086204
721.123686	2588.892119
721.456278	2589.270206
721.788821	2589.852459
722.121315	2589.928077
722.453761	2587.793148
722.786158	2588.269537
723.118506	2588.161152
723.450805	2588.786255
723.783056	2587.036975
724.115259	2588.982860
724.447412	2588.284660
724.779518	2588.690473
725.111574	2589.494537
725.443582	2589.807089
725.775542	2589.610484
726.107453	2588.466142
726.439315	2589.587799
726.771129	2590.774990
727.102895	2589.020669
727.434612	2589.081163
727.766281	2592.065526
728.097901	2589.141657
728.429473	2589.678539
728.760996	2586.230390
729.092471	2585.738878
729.423897	2591.836153
729.755276	2590.754826
730.086606	2591.173242
730.417887	2593.545104
730.749120	2588.496389
731.080305	2592.370516
731.411442	2590.790114
731.742530	2592.173911
732.073570	2590.926225
732.404562	2595.072574
732.735506	2595.604416
733.066401	2592.793973
733.397249	2592.292378
733.728048	2592.476380
734.058798	2589.141657
734.389501	2589.333220
734.720156	2589.416399
735.050762	2588.975298
735.381320	2587.266347
735.711831	2586.976481
736.042293	2588.050247
736.372707	2588.062850
736.703073	2586.500092
737.033391	2586.558065
737.363661	2586.510174
737.693883	2586.142170
738.024056	2588.652665
738.354182	2586.734506
738.684260	2588.478745
739.014290	2586.956316
739.344272	2587.717531
739.674207	2588.478745
740.004093	2590.459918
740.333931	2588.745926
740.663722	2593.207347
740.993464	2588.640062
741.323159	2592.683067
741.652806	2590.018817
741.982405	2591.238777
742.311956	2587.180648
742.641460	2588.713158
742.970915	2588.340113
743.300323	2590.207861
743.629683	2587.493199
743.958996	2587.258786
744.288260	2584.352560
744.617477	2586.797520
744.946647	2583.727457
745.275768	2584.839032
745.604842	2585.237283
745.933869	2581.017837
746.262847	2582.338619
746.591778	2585.950606
746.920662	2585.985894
747.249498	2584.730647
747.578286	2586.762232
747.907027	2584.448342
748.235720	2584.372725
748.564365	2587.599063
748.892963	2583.170410
749.221514	2586.865576
749.550017	2586.890781
749.878473	2586.893302
750.206881	2584.796182
750.535242	2585.595205
750.863555	2584.564289
751.191821	2586.845411
751.520039	2585.328024
751.848210	2583.419947
752.176334	2585.484299
752.504411	2586.507654
752.832440	2585.378435
753.160421	2584.652509
753.488356	2584.508836
753.816243	2583.714854
754.144082	2582.993969
754.471875	2587.198292
754.799620	2583.888774
755.127318	2581.151428
755.454969	2584.297108
755.782572	2583.288877
756.110129	2585.247365
756.437638	2585.842221
756.765100	2584.440781
757.092515	2585.338106
757.419882	2583.593867
757.747203	2585.864907
758.074477	2585.940524
758.401703	2583.916501
758.728882	2584.176120
759.056014	2586.036306
759.383099	2583.147725
759.710138	2586.852973
760.037129	2585.575040
760.364073	2586.182499
760.690970	2585.000349
761.017820	2584.130750
761.344623	2585.693507
761.671379	2585.902715
761.998088	2584.284505
762.324751	2584.032447
762.651366	2587.571337
762.977935	2594.621391
763.304456	2599.695312
763.630931	2603.294696
763.957359	2603.667741
764.283740	2603.272011
764.610074	2598.079622
764.936362	2596.499221
765.262602	2593.620722
765.588796	2591.752974
765.914943	2586.590833
766.241044	2589.791965
766.567097	2583.830801
766.893104	2583.591346
767.219064	2582.121850
767.544978	2582.184864
767.870845	2584.788620
768.196665	2580.770821
768.522438	2581.121181
768.848165	2580.763259
769.173846	2579.076993
769.499479	2581.663105
769.825066	2581.590008
770.150607	2580.090265
770.476101	2579.205542
770.801548	2582.467169
771.126949	2578.225038
771.452303	2579.329051
771.777611	2579.087075
772.102872	2578.358628
772.428087	2579.782754
772.753256	2580.007086
773.078378	2577.206725
773.403453	2577.821746
773.728482	2575.462486
774.053465	2577.794019
774.378401	2576.581622
774.703291	2578.265367
775.028135	2576.506004
775.352932	2574.930644
775.677683	2577.209245
776.002388	2577.831828
776.327046	2576.750500
776.651658	2577.554564
776.976224	2575.817887
777.300743	2579.094637
777.625216	2575.860737
777.949643	2578.802250
778.274024	2578.459452
778.598359	2572.815880
778.922647	2570.592731
779.246889	2571.046435
779.571086	2571.608523
779.895236	2573.677917
780.219339	2573.209090
780.543397	2577.143710
780.867409	2578.139338
781.191374	2572.936867
781.515294	2577.577250
781.839167	2575.046590
782.162995	2576.284194
782.486776	2576.052301
782.810511	2578.739236
783.134201	2575.591035
783.457844	2577.446180
783.781441	2578.169585
784.104993	2576.193453
784.428498	2574.834862
784.751958	2575.490212
785.075372	2579.407188
785.398739	2576.644636
785.722061	2578.671180
786.045337	2575.422156
786.368568	2577.877198
786.691752	2574.539954
787.014891	2576.916858
787.337983	2578.172106
787.661030	2577.758731
787.984031	2577.804102
788.306987	2580.339802
788.629897	2582.008424
788.952760	2581.153948
789.275579	2578.575398
789.598351	2579.646643
789.921078	2578.083886
790.243759	2574.555078
790.566395	2576.586663
790.888984	2575.520459
791.211529	2576.395099
791.534027	2579.981880
791.856480	2573.884604
792.178888	2576.924420
792.501249	2575.535582
792.823566	2576.392578
793.145836	2575.911148
793.468062	2574.287897
793.790241	2576.344687
794.112375	2578.956005
794.434464	2575.669173
794.756507	2577.186560
795.078505	2574.209759
795.400457	2573.105746
795.722364	2570.570046
796.044226	2571.812690
796.366042	2572.536096
796.687812	2575.880901
797.009538	2576.826118
797.331218	2576.027095
797.652852	2576.816035
797.974442	2577.045408
798.295986	2578.141859
798.617484	2578.895511
798.938938	2575.008782
799.260346	2576.760583
799.581709	2577.481468
799.903026	2579.959195
800.224299	2578.217476
800.545526	2576.717733
800.866708	2573.430901
801.187845	2577.032805
801.508936	2574.890315
801.829983	2576.422825
802.150984	2570.461661
802.471940	2576.606828
802.792851	2575.472568
803.113717	2574.252609
803.434538	2575.550706
803.755314	2575.467527
804.076045	2571.616085
804.396731	2573.914851
804.717372	2572.629357
805.037967	2574.277814
805.358518	2572.347052
805.679024	2574.973494
805.999485	2573.564491
806.319901	2573.332598
806.640272	2574.277814
806.960598	2573.503997
807.280879	2574.779409
807.601115	2575.356621
807.921306	2573.962742
808.241453	2571.986610
808.561554	2574.948288
808.881611	2572.624316
809.201623	2573.572053
809.521590	2575.517938
809.841513	2575.114646
810.161390	2573.599779
810.481223	2574.328226
810.801011	2574.562640
811.120755	2574.839903
811.440453	2574.882753
811.760107	2575.132290
812.079716	2569.380333
812.399281	2571.053997
812.718801	2573.786302
813.038276	2569.629871
813.357707	2575.452403
813.677093	2574.426528
813.996434	2575.424677
814.315731	2571.779923
814.634983	2571.840417
814.954191	2573.362845
815.273354	2572.268915
815.592473	2570.176836
815.911547	2571.822773
816.230577	2574.141703
816.549562	2575.152455
816.868502	2575.535582
817.187399	2574.424008
817.506250	2576.624472
817.825058	2577.680593
818.143821	2575.379307
818.462539	2576.145562
818.781213	2575.399471
819.099843	2579.634040
819.418429	2578.169585
819.736970	2581.085893
820.055466	2585.449011
820.373919	2587.384814
820.692327	2590.472521
821.010691	2599.302102
821.329011	2610.276694
821.647286	2633.100518
821.965517	2657.156904
822.283704	2679.882426
822.601847	2692.102183
822.919945	2681.891326
823.237999	2677.046777
823.556010	2665.288285
823.873976	2654.109527
824.191897	2642.436735
824.509775	2631.396608
824.827609	2622.153652
825.145398	2616.764659
825.463144	2613.107302
825.780845	2609.439863
826.098502	2611.035388
826.416116	2615.741305
826.733685	2620.769856
827.051210	2622.929990
827.368692	2627.146915
827.686129	2616.873044
828.003522	2613.066973
828.320872	2603.524068
828.638177	2598.215733
828.955439	2594.699529
829.272656	2587.924218
829.589830	2584.559248
829.906960	2584.894484
830.224046	2582.404154
830.541088	2581.489185
830.858086	2580.596901
831.175041	2578.703947
831.491952	2576.851323
831.808819	2579.407188
832.125642	2581.290059
832.442421	2579.119843
832.759157	2582.441963
833.075849	2585.872468
833.392497	2592.027717
833.709101	2596.569797
834.025662	2597.729262
834.342179	2596.337904
834.658653	2593.290526
834.975083	2590.928746
835.291469	2591.702563
835.607811	2582.628486
835.924110	2582.938517
836.240366	2579.455079
836.556578	2578.635892
836.872746	2580.274267
837.188871	2577.879719
837.504952	2577.889801
837.820990	2574.676066
838.136984	2570.373441
838.452935	2572.495767
838.768842	2572.243709
839.084706	2572.510890
839.400526	2574.708833
839.716303	2577.088258
840.032037	2581.005234
840.347727	2580.039853
840.663373	2581.279977
840.978977	2579.094637
841.294537	2575.989286
841.610054	2575.205387
841.925527	2574.905438
842.240957	2571.943760
842.556344	2575.076837
842.871687	2574.502146
843.186987	2571.419480
843.502244	2569.713050
843.817458	2571.908472
844.132629	2569.534089
844.447756	2570.292782
844.762840	2564.457647
845.077881	2566.093501
845.392879	2565.256670
845.707833	2565.657441
846.022745	2562.499158
846.337613	2566.637946
846.652438	2566.093501
846.967221	2569.672720
847.281960	2567.804973
847.596656	2565.415466
847.911309	2568.795560
848.225919	2568.480488
848.540485	2567.908317
848.855009	2569.340004
849.169490	2564.190466
849.483928	2566.937894
849.798323	2565.186093
850.112675	2567.459654
850.426984	2566.632905
850.741251	2568.651887
851.055474	2566.335477
851.369654	2568.835889
851.683792	2569.445868
851.997887	2567.971331
852.311938	2566.285065
852.625947	2568.437638
852.939914	2566.779098
853.253837	2568.830848
853.567718	2567.260528
853.881555	2568.185580
854.195350	2566.826989
854.509103	2567.598286
854.822812	2564.823130
855.136479	2566.945456
855.450103	2566.776577
855.763685	2567.968810
856.077224	2570.131465
856.390720	2566.489232
856.704173	2568.835889
857.017584	2565.012174
857.330953	2566.534602
857.644278	2568.722463
857.957561	2569.738255
858.270802	2568.659448
858.584000	2567.552915
858.897155	2568.979562
859.210268	2565.997719
859.523339	2568.871177
859.836367	2566.963100
860.149352	2567.938563
860.462295	2566.595096
860.775195	2566.511917
861.088054	2563.893037
861.400869	2560.815413
861.713642	2563.739282
862.026373	2565.854046
862.339062	2566.416135
862.651708	2570.817062
862.964312	2569.077864
863.276873	2566.910168
863.589392	2568.225909
863.901869	2565.425548
864.214303	2569.329922
864.526696	2569.705488
864.839045	2566.443861
865.151353	2569.700447
865.463619	2565.725497
865.775842	2569.362689
866.088023	2568.624160
866.400162	2568.515776
866.712258	2567.076526
867.024313	2570.131465
867.336325	2568.959397
867.648296	2569.342525
867.960224	2568.238512
868.272110	2568.167936
868.583954	2569.153482
868.895755	2567.661300
869.207515	2566.264900
869.519233	2567.752041
869.830909	2568.117524
870.142542	2567.535271
870.454134	2568.109963
870.765684	2570.310426
871.077191	2567.958728
871.388657	2571.454768
871.700081	2571.336301
872.011463	2566.721125
872.322803	2569.408060
872.634101	2569.521486
872.945357	2568.349418
873.256571	2571.888307
873.567744	2571.152299
873.878874	2571.321178
874.189963	2572.173133
874.501010	2571.520303
874.812015	2568.616599
875.122979	2569.430745
875.433900	2569.937381
875.744780	2572.427711
876.055618	2570.320509
876.366415	2571.593400
876.677169	2569.831517
876.987882	2566.557287
877.298554	2567.086608
877.609183	2569.158523
877.919771	2568.694737
878.230317	2567.447051
878.540822	2574.686148
878.851285	2571.777402
879.161707	2576.402661
879.472087	2577.310068
879.782425	2577.415933
880.092722	2582.794844
880.402977	2590.510330
880.713191	2602.014243
881.023363	2614.249123
881.333494	2623.043416
881.643583	2631.999026
881.953631	2632.571197
882.263637	2629.249077
882.573602	2627.640948
882.883526	2623.499641
883.193408	2617.909001
883.503248	2613.117384
883.813048	2609.702003
884.122806	2608.187136
884.432522	2603.894593
884.742197	2595.105342
885.051831	2593.661051
885.361424	2587.495720
885.670975	2587.273909
885.980485	2585.383476
886.289954	2583.316603
886.599382	2580.599421
886.908768	2578.091447
887.218113	2575.054152
887.527417	2575.855696
887.836680	2573.526683
888.145901	2572.004254
888.455082	2570.343194
888.764221	2572.548699
889.073319	2571.306054
889.382376	2571.036352
889.691392	2573.153637
890.000366	2572.321847
890.309300	2573.186405
890.618193	2572.430232
890.927044	2570.063410
891.235855	2571.283369
891.544625	2570.839748
891.853353	2571.671538
892.162041	2570.973338
892.470687	2574.348391
892.779293	2572.031980
893.087858	2569.849161
893.396381	2571.981569
893.704864	2574.187074
894.013306	2573.070458
894.321707	2585.199474
894.630068	2585.413723
894.938387	2589.176945
895.246665	2588.382963
895.554903	2585.048240
895.863100	2586.462283
896.171256	2583.508167
896.479371	2581.554720
896.787446	2580.690162
897.095480	2579.954154
897.403473	2578.855182
897.711425	2578.857703
898.019336	2577.549523
898.327207	2574.303020
898.635038	2575.177660
898.942827	2572.901579
899.250576	2575.001220
899.558284	2571.283369
899.865952	2571.053997
900.173579	2569.312278
900.481165	2568.626681
900.788711	2568.402350
901.096216	2569.773543
901.403681	2566.668193
901.711105	2570.161712
902.018489	2566.781619
902.325832	2574.484502
902.633135	2569.140879
902.940397	2570.474264
903.247619	2573.322516
903.554800	2574.451734
903.861941	2581.358115
904.169041	2587.263827
904.476101	2589.058478
904.783121	2593.169538
905.090100	2591.752974
905.397039	2587.034454
905.703938	2584.594536
906.010796	2587.344485
906.317614	2581.647981
906.624391	2578.356108
906.931129	2576.400140
907.237826	2578.817373
907.544483	2574.890315
907.851099	2575.149934
908.157675	2571.283369
908.464211	2572.420149
908.770707	2566.121228
909.077163	2566.111145
909.383578	2564.059396
909.689954	2563.560321
909.996289	2564.235836
910.302584	2567.205076
910.608839	2567.389078
910.915054	2566.227092
911.221229	2567.986454
911.527363	2563.870352
911.833458	2567.406722
912.139513	2568.490570
912.445527	2564.555949
912.751502	2564.286247
913.057436	2567.573080
913.363331	2568.334294
913.669186	2569.087947
913.975000	2571.626167
914.280775	2570.234809
914.586510	2575.822928
914.892205	2576.248906
915.197859	2578.943402
915.503475	2585.028075
915.809050	2584.569330
916.114585	2589.325659
916.420081	2589.993612
916.725536	2591.505958
917.030952	2592.105855
917.336328	2590.429671
917.641665	2590.961513
917.946961	2588.577047
918.252218	2584.599577
918.557435	2582.840214
918.862612	2582.235276
919.167750	2581.070769
919.472848	2581.020358
919.777906	2577.113463
920.082925	2576.934502
920.387904	2574.761765
920.692843	2571.553071
920.997743	2571.558112
921.302603	2574.048442
921.607423	2571.311095
921.912204	2571.646332
922.216946	2568.558625
922.521647	2569.861764
922.826310	2569.256825
923.130932	2567.242884
923.435516	2566.300188
923.740059	2564.024107
924.044564	2568.546022
924.349028	2565.160888
924.653454	2563.119220
924.957840	2564.170301
925.262186	2562.534447
925.566493	2562.594940
925.870761	2561.521175
926.174989	2567.494942
926.479178	2562.509241
926.783328	2566.776577
927.087438	2566.106104
927.391509	2565.448233
927.695541	2565.435631
927.999533	2564.629046
928.303486	2565.019735
928.607400	2564.664334
928.911275	2566.083419
929.215110	2564.351782
929.518906	2562.625187
929.822663	2563.688871
930.126381	2564.306412
930.430060	2562.070660
930.733699	2562.138716
931.037299	2564.258521
931.340861	2563.111659
931.644383	2563.416648
931.947866	2561.289282
932.251309	2562.584858
932.554714	2565.339849
932.858080	2565.841443
933.161407	2564.863460
933.464694	2563.383881
933.767943	2564.709704
934.071153	2564.888665
934.374323	2564.157698
934.677455	2564.490414
934.980548	2563.814900
935.283602	2562.897410
935.586617	2561.856411
935.889593	2564.200548
936.192530	2563.555280
936.495428	2563.759447
936.798287	2563.472101
937.101108	2561.551422
937.403890	2562.970506
937.706632	2563.404046
938.009336	2565.959911
938.312002	2564.129972
938.614628	2562.252142
938.917216	2563.983778
939.219765	2563.761967
939.522275	2567.399160
939.824747	2567.923440
940.127179	2563.225085
940.429573	2562.668037
940.731929	2563.028480
941.034246	2561.518654
941.336524	2561.932029
941.638763	2562.211813
941.940964	2565.055023
942.243126	2563.454457
942.545250	2566.383368
942.847335	2564.926474
943.149381	2565.924623
943.451389	2562.789025
943.753359	2564.175342
944.055290	2562.179045
944.357182	2566.101063
944.659036	2563.434293
944.960851	2562.655434
945.262628	2563.076371
945.564367	2565.624674
945.866067	2564.490414
946.167729	2564.954200
946.469352	2561.291802
946.770937	2563.227605
947.072484	2565.027297
947.373992	2564.848336
947.675462	2563.610733
947.976893	2564.792883
948.278286	2562.478994
948.579641	2564.543346
948.880958	2564.434962
949.182236	2564.946639
949.483476	2564.366906
949.784678	2563.749365
950.085841	2563.194838
950.386967	2565.831361
950.688054	2562.403377
950.989103	2561.148129
951.290114	2566.048131
951.591087	2564.467729
951.892021	2565.881773
952.192917	2566.947977
952.493776	2563.099056
952.794596	2565.571742
953.095378	2562.703325
953.396122	2564.971844
953.696828	2561.921946
953.997496	2562.602502
954.298126	2565.055023
954.598718	2563.086453
954.899272	2564.757595
955.199788	2564.263562
955.500266	2564.283727
955.800706	2559.184600
956.101108	2559.948335
956.401472	2560.336503
956.701798	2558.302398
957.002087	2557.878941
957.302337	2562.110990
957.602550	2564.061916
957.902724	2564.520661
958.202861	2562.476473
958.502960	2561.884138
958.803022	2563.036041
959.103045	2563.257852
959.403031	2562.053016
959.702979	2561.148129
960.002889	2560.747357
960.302762	2560.780125
960.602596	2562.267265
960.902393	2559.013201
961.202153	2561.501010
961.501875	2563.020918
961.801559	2563.628377
962.101205	2560.974209
962.400814	2563.061247
962.700385	2560.623849
962.999918	2562.151319
963.299414	2560.941442
963.598873	2561.155691
963.898293	2563.517472
964.197677	2563.192317
964.497022	2560.288613
964.796331	2560.863304
965.095601	2559.565207
965.394835	2562.652914
965.694030	2561.067471
965.993189	2561.639642
966.292309	2563.267934
966.591393	2560.235680
966.890439	2560.328942
967.189447	2562.393294
967.488419	2558.677964
967.787353	2562.327759
968.086249	2560.167625
968.385108	2559.678633
968.683930	2563.217523
968.982714	2561.314487
969.281462	2559.454302
969.580172	2560.525547
969.878844	2558.771225
970.177480	2559.759291
970.476078	2557.271482
970.774639	2562.279868
971.073162	2559.030845
971.371649	2557.843653
971.670098	2555.408776
971.968510	2554.927345
972.266885	2558.413303
972.565223	2562.864642
972.863524	2560.200392
973.161788	2558.380536
973.460014	2560.195351
973.758204	2560.041596
974.056356	2561.929508
974.354471	2559.396328
974.652550	2558.877089
974.950591	2559.562686
975.248595	2563.146947
975.546563	2558.917419
975.844493	2560.828016
976.142386	2559.197203
976.440243	2560.117213
976.738062	2562.884807
977.035845	2561.916905
977.333590	2559.338355
977.631299	2560.833057
977.928971	2559.542522
978.226606	2560.124775
978.524204	2557.896585
978.821765	2560.694425
979.119290	2558.909857
979.416777	2560.684343
979.714228	2561.211144
980.011642	2557.919270
980.309020	2560.843139
980.606360	2557.846173
980.903664	2562.340362
981.200931	2562.927657
981.498162	2560.283571
981.795356	2560.442368
982.092513	2563.769529
982.389633	2559.842470
982.686717	2563.338511
982.983764	2561.253993
983.280775	2563.663665
983.577749	2564.744992
983.874686	2564.543346
984.171587	2563.542677
984.468451	2565.090312
984.765279	2563.366237
985.062070	2564.422359
985.358824	2563.711556
985.655543	2563.512430
985.952224	2560.951524
986.248869	2564.003943
986.545478	2557.762994
986.842050	2556.169990
987.138586	2558.715773
987.435086	2556.923642
987.731549	2557.132850
988.027975	2561.463201
988.324366	2561.226267
988.620719	2560.482697
988.917037	2560.671740
989.213318	2560.611246
989.509563	2560.386915
989.805772	2560.291133
990.101944	2559.439178
990.398080	2560.107131
990.694180	2560.709549
990.990244	2560.530588
991.286271	2557.153015
991.582262	2560.041596
991.878217	2558.791390
992.174136	2560.447409
992.470019	2558.887172
992.765865	2560.281051
993.061676	2562.421021
993.357450	2562.879766
993.653188	2560.891030
993.948890	2558.872048
994.244556	2561.561504
994.540186	2562.801628
994.835780	2560.016390
995.131337	2562.007646
995.426859	2563.320867
995.722345	2559.812223
996.017795	2563.341031
996.313208	2562.552091
996.608586	2562.940259
996.903928	2560.177707
997.199234	2561.616957
997.494504	2560.021431
997.789738	2562.806669
998.084936	2563.131823
998.380099	2562.841957
998.675225	2560.344065
998.970316	2560.906154
999.265371	2560.218036
999.560390	2559.971020
999.855373	2560.649055
1000.150320	2557.599157
1000.445232	2562.519323
1000.740108	2558.534291
1001.034948	2560.835578
1001.329752	2561.203582
1001.624521	2559.078736
1001.919254	2555.013045
1002.213951	2556.805175
1002.508613	2556.578323
1002.803239	2557.072356
1003.097829	2557.596636
1003.392384	2556.674105
1003.686903	2558.519167
1003.981386	2558.980433
1004.275834	2556.069167
1004.570246	2557.889023
1004.864623	2557.334496
1005.158964	2558.372974
1005.453270	2557.001780
1005.747540	2560.218036
1006.041775	2557.518498
1006.335974	2558.345248
1006.630138	2558.262069
1006.924266	2557.531101
1007.218359	2556.018755
1007.512416	2558.083108
1007.806438	2559.449260
1008.100425	2556.217881
1008.394376	2559.161915
1008.688292	2559.063612
1008.982172	2560.341545
1009.276017	2557.571431
1009.569827	2557.826009
1009.863602	2558.743499
1010.157341	2559.504713
1010.451045	2560.802810
1010.744714	2556.540515
1011.038347	2559.509754
1011.331945	2557.722665
1011.625508	2559.504713
1011.919036	2558.652758
1012.212528	2559.166956
1012.505986	2555.867521
1012.799408	2557.803324
1013.092795	2556.515309
1013.386147	2559.754250
1013.679464	2557.415155
1013.972745	2560.460012
1014.265992	2557.011862
1014.559204	2558.720814
1014.852380	2559.424055
1015.145521	2560.248283
1015.438628	2557.921791
1015.731699	2558.584702
1016.024736	2559.471946
1016.317737	2561.521175
1016.610703	2559.774415
1016.903635	2555.570092
1017.196531	2554.529094
1017.489393	2556.908519
1017.782219	2554.095555
1018.075011	2556.318704
1018.367768	2558.199054
1018.660490	2559.184600
1018.953177	2559.184600
1019.245829	2559.184600
