Dividing Wavelength (nm)	Counts (n)	Blue Motor Position (mm): 0.000000	Red Motor Position (mm): 48.500000	
326.493990	2136.572070
326.888308	2136.572070
327.282561	2136.572070
327.676750	2110.370673
328.070874	2111.923348
328.464933	2119.124637
328.858929	2127.417335
329.252859	2138.785137
329.646726	2154.473207
330.040528	2167.176915
330.434265	2187.480162
330.827938	2202.591021
331.221547	2221.258413
331.615091	2244.210787
332.008571	2265.053438
332.401986	2285.603701
332.795338	2304.840744
333.188625	2322.633497
333.581847	2346.362208
333.975006	2361.024404
334.368100	2382.061139
334.761129	2400.776423
335.154095	2417.233269
335.546996	2439.356373
335.939833	2472.910293
336.332606	2483.295070
336.725315	2496.200424
337.117960	2505.440859
337.510540	2514.530059
337.903056	2520.246727
338.295508	2529.363654
338.687896	2536.113759
339.080220	2541.616179
339.472480	2547.864689
339.864676	2552.497509
340.256807	2555.338199
340.648875	2555.847356
341.040879	2560.442368
341.432818	2564.560990
341.824694	2563.517472
342.216506	2563.555280
342.608253	2562.247101
342.999937	2562.179045
343.391557	2561.127965
343.783113	2560.230639
344.174605	2558.831719
344.566033	2554.831563
344.957397	2554.914743
345.348697	2554.881975
345.739934	2550.339895
346.131106	2551.806871
346.522215	2546.407795
346.913260	2544.746735
347.304241	2546.934596
347.695159	2542.097609
348.086012	2540.413863
348.476802	2541.462423
348.867528	2540.101312
349.258191	2535.879346
349.648789	2537.207690
350.039324	2535.239119
350.429796	2536.726259
350.820203	2532.138809
351.210548	2531.783408
351.600828	2531.125538
351.991045	2529.497245
352.381198	2530.422297
352.771288	2526.827954
353.161314	2531.813655
353.551276	2530.540764
353.941175	2529.305681
354.331010	2531.102852
354.720782	2527.959693
355.110490	2531.914478
355.500135	2532.980682
355.889717	2531.725435
356.279235	2531.743079
356.668689	2535.123172
357.058080	2532.900024
357.447408	2530.200486
357.836672	2529.557739
358.225873	2530.881042
358.615010	2530.082019
359.004084	2533.583100
359.393095	2535.057638
359.782043	2535.581917
360.170927	2537.404295
360.559748	2535.402957
360.948505	2536.597710
361.337199	2536.620395
361.725830	2540.466796
362.114398	2540.436549
362.502903	2539.579552
362.891344	2539.188863
363.279722	2539.622402
363.668037	2543.032743
364.056289	2540.638195
364.444478	2545.238248
364.832603	2541.190201
365.220665	2542.470654
365.608665	2541.502753
365.996601	2544.945861
366.384474	2542.979811
366.772284	2546.294369
367.160031	2542.316899
367.547715	2544.792106
367.935336	2544.489636
368.322893	2544.981149
368.710388	2545.505429
369.097820	2548.124308
369.485189	2544.131714
369.872495	2547.277394
370.259738	2548.966181
370.646918	2546.722868
371.034035	2546.639688
371.421090	2549.606408
371.808081	2548.915769
372.195010	2550.309648
372.581875	2550.372663
372.968678	2550.632282
373.355418	2552.318548
373.742096	2552.489947
374.128710	2555.189485
374.515262	2554.166131
374.901751	2555.960782
375.288177	2557.102603
375.674540	2558.125957
376.060841	2560.283571
376.447079	2561.047306
376.833254	2565.667524
377.219367	2560.369271
377.605417	2567.116855
377.991404	2566.126269
378.377329	2568.172977
378.763191	2571.361507
379.148991	2579.427353
379.534727	2581.753846
379.920402	2584.962540
380.306013	2588.128385
380.691563	2596.799169
381.077049	2598.210692
381.462474	2601.777309
381.847835	2606.969697
382.233134	2613.934051
382.618371	2618.239197
383.003545	2622.249434
383.388657	2630.189252
383.773706	2633.697895
384.158693	2642.741725
384.543618	2648.806233
384.928480	2655.475679
385.313280	2661.709066
385.698017	2671.781292
386.082692	2677.316478
386.467305	2685.694876
386.851856	2696.024200
387.236344	2704.700026
387.620770	2708.947198
388.005133	2716.657643
388.389435	2731.846640
388.773674	2735.980386
389.157851	2745.782909
389.541965	2756.966709
389.926018	2761.037441
390.310008	2771.709564
390.693936	2779.722478
391.077802	2790.442491
391.461606	2799.267031
391.845348	2806.901859
392.229027	2815.159269
392.612645	2833.022597
392.996200	2840.438135
393.379694	2854.291225
393.763125	2869.981817
394.146494	2877.719988
394.529801	2890.756412
394.913047	2907.127559
395.296230	2909.007909
395.679351	2915.263981
396.062410	2933.016404
396.445408	2928.673450
396.828343	2941.412446
397.211217	2947.373611
397.594028	2939.937909
397.976778	2956.450208
398.359466	2971.677013
398.742092	2964.853812
399.124656	2983.944661
399.507158	2996.381188
399.889598	3000.986282
400.271977	3014.350381
400.654294	3021.828932
401.036549	3032.843853
401.418742	3040.826521
401.800874	3063.224367
402.182944	3071.396077
402.564952	3096.637135
402.946898	3086.529621
403.328783	3097.569748
403.710606	3114.422326
404.092367	3136.895789
404.474067	3165.590037
404.855705	3150.711072
405.237282	3153.458500
405.618797	3183.770958
406.000250	3207.421532
406.381642	3237.555029
406.762972	3241.784557
407.144240	3233.121334
407.525447	3252.592791
407.906593	3255.025147
408.287677	3273.793363
408.668700	3294.351189
409.049661	3291.964202
409.430560	3308.587407
409.811399	3313.116884
410.192176	3335.078671
410.572891	3341.934640
410.953545	3378.883777
411.334138	3347.497553
411.714669	3398.443454
412.095139	3342.199300
412.475547	3394.617218
412.855894	3387.751167
413.236180	3416.720157
413.616405	3396.101838
413.996568	3422.814912
414.376670	3424.780962
414.756711	3420.110333
415.136691	3446.102522
415.516609	3464.956438
415.896466	3474.000268
416.276262	3498.719566
416.655997	3530.844318
417.035670	3540.374620
417.415283	3605.672686
417.794834	3630.064308
418.174324	3611.747276
418.553753	3609.579580
418.933121	3656.343843
419.312428	3644.068634
419.691674	3641.626195
420.070859	3675.270856
420.449983	3657.382321
420.829045	3708.237481
421.208047	3692.861962
421.586988	3736.525916
421.965867	3768.048251
422.344686	3775.448665
422.723444	3816.647495
423.102141	3718.957495
423.480777	3819.165551
423.859352	3786.781179
424.237866	3886.401940
424.616319	3868.886451
424.994712	3932.518416
425.373044	3917.851179
425.751314	3983.524810
426.129524	3916.941250
426.507673	4020.607538
426.885762	3993.067715
427.263789	4017.295500
427.641756	4020.670552
428.019662	4051.756828
428.397508	4056.089699
428.775292	4094.510853
429.153016	4100.527471
429.530679	4111.002988
429.908282	4114.405767
430.285824	4096.413889
430.663305	4170.392822
431.040726	4130.522336
431.418086	4118.794092
431.795385	4194.461811
432.172624	4228.265268
432.549802	4192.044578
432.926920	4215.211200
433.303977	4209.275241
433.680974	4247.608175
434.057910	4266.114251
434.434786	4276.899800
434.811601	4271.508286
435.188355	4374.390674
435.565050	4349.205069
435.941683	4342.407073
436.318257	4431.527112
436.694770	4439.721507
437.071222	4498.829036
437.447614	4429.775311
437.823946	4431.985857
438.200218	4449.687868
438.576429	4432.762194
438.952580	4459.026606
439.328670	4464.148418
439.704700	4507.000746
440.080670	4470.517916
440.456580	4530.464797
440.832429	4569.450560
441.208218	4467.445333
441.583947	4522.046070
441.959616	4536.196589
442.335224	4562.755908
442.710773	4580.626798
443.086261	4638.088390
443.461689	4591.344291
443.837057	4600.950210
444.212365	4676.602806
444.587612	4676.491900
444.962800	4648.163136
445.337927	4684.235113
445.712995	4576.624122
446.088002	4767.855252
446.462949	4787.795536
446.837837	4808.229853
447.212664	4795.508502
447.587431	5017.457903
447.962139	5314.855732
448.336786	5653.056662
448.711374	5648.421321
449.085901	5290.600221
449.460369	5225.657556
449.834776	5162.564995
450.209124	5393.800202
450.583412	5405.188168
450.957640	5527.027816
451.331808	5388.751486
451.705917	5239.039299
452.079965	5229.992949
452.453954	5272.346203
452.827883	5233.163834
453.201752	5241.380915
453.575562	5265.454945
453.949311	5404.169855
454.323001	5407.640690
454.696632	5401.087190
455.070202	5554.862547
455.443713	5589.119707
455.817164	5682.476836
456.190556	5751.865798
456.563888	5724.893104
456.937160	5799.875226
457.310373	5640.594929
457.683526	5703.228745
458.056619	5694.920924
458.429653	5673.548952
458.802628	5722.178443
459.175542	5752.977372
459.548398	5892.471140
459.921194	6072.677267
460.293930	6139.238142
460.666607	6384.943980
461.039224	6599.245951
461.411782	6729.350570
461.784280	6646.337889
462.156719	6652.956924
462.529099	6613.255317
462.901419	6471.979501
463.273680	6341.592577
463.645882	6321.987530
464.018024	6330.839796
464.390106	6396.604169
464.762130	6651.913405
465.134094	7035.409102
465.505999	7659.466139
465.877845	8370.278914
466.249631	8725.458449
466.621358	8659.436978
466.993026	8465.942370
467.364634	8255.315401
467.736184	7970.835527
468.107674	7816.699728
468.479105	7731.272335
468.850477	7663.403281
469.221790	7494.320460
469.593043	7270.185719
469.964238	7169.962539
470.335373	7144.179558
470.706449	7299.099257
471.077467	7478.874365
471.448425	8126.231615
471.819324	8718.292449
472.190164	8762.097556
472.560945	8286.086604
472.931667	7813.624624
473.302330	7621.476004
473.672934	7499.570822
474.043479	7574.275681
474.413965	7476.401679
474.784393	7425.148267
475.154761	7579.503357
475.525070	7590.510717
475.895321	7538.722943
476.265513	7644.307390
476.635645	7804.956360
477.005719	7790.788197
477.375734	7876.628965
477.745691	7991.017787
478.115588	8194.241822
478.485427	8429.522554
478.855207	8888.438953
479.224928	9333.489659
479.594591	9708.571670
479.964194	9716.413184
480.333739	9801.260845
480.703226	9809.288882
481.072653	9913.119007
481.442022	10015.537610
481.811333	10174.898565
482.180584	10020.659422
482.549777	9956.041912
482.918912	9891.968847
483.287988	9882.219255
483.657005	9784.418350
484.025964	9704.274086
484.394864	9772.009550
484.763706	9730.662006
485.132489	9630.547211
485.501213	9629.183579
485.869879	9688.853196
486.238487	9624.848187
486.607036	9696.654382
486.975527	9646.015992
487.343959	9707.197955
487.712333	9754.272250
488.080648	9791.428074
488.448905	9894.431450
488.817104	9903.235825
489.185244	10064.411596
489.553326	10273.712742
489.921350	10735.076622
490.289315	11365.288908
490.657222	11656.599545
491.025070	11837.118223
491.392861	11750.879204
491.760593	11597.786923
492.128267	11342.835609
492.495883	11111.423962
492.863440	10878.182376
493.230939	10652.129476
493.598380	10475.371499
493.965763	10448.348394
494.333088	10314.450306
494.700354	10243.538916
495.067563	10218.935564
495.434713	10219.439680
495.801805	10267.794427
496.168839	10229.146422
496.535815	10193.243324
496.902733	10239.327032
497.269593	10196.852790
497.636395	10202.922339
498.003139	10310.006529
498.369825	10237.028266
498.736453	10333.263892
499.103023	10271.915571
499.469535	10282.635584
499.835989	10329.185599
500.202385	10304.443616
500.568723	10318.510956
500.935003	10375.521365
501.301226	10351.739721
501.667390	10518.559064
502.033497	10615.646646
502.399546	10545.733404
502.765537	10449.480133
503.131470	10554.472244
503.497345	10645.883487
503.863163	10421.857130
504.228923	10554.459641
504.594625	10675.008753
504.960269	10577.928733
505.325856	10729.057484
505.691385	10613.080698
506.056856	10676.284165
506.422270	10781.866091
506.787625	10714.143230
507.152924	10770.334452
507.518164	10835.531694
507.883347	10695.064983
508.248472	10763.652402
508.613540	10877.713549
508.978550	10952.362955
509.343503	10941.355596
509.708398	10979.007974
510.073236	11114.090732
510.438016	11125.135900
510.802738	11037.576099
511.167403	11169.462766
511.532010	11223.430839
511.896561	11323.734677
512.261053	11517.859429
512.625488	11441.092738
512.989866	11425.813001
513.354186	11405.154353
513.718449	11414.384705
514.082655	11551.156250
514.446803	11506.360557
514.810894	11615.244439
515.174927	11617.840633
515.538904	11601.431678
515.902822	11757.712488
516.266684	11627.358332
516.630488	11732.728529
516.994235	11715.573483
517.357925	11833.536483
517.721558	11900.251113
518.085133	11966.466669
518.448651	11988.307468
518.812112	11951.355810
519.175516	11949.853546
519.538863	12046.615974
519.902152	12048.173690
520.265385	12156.755103
520.628560	12187.821213
520.991678	12125.099177
521.354739	12181.892817
521.717743	12256.653128
522.080690	12223.467212
522.443580	12356.372192
522.806413	12363.187832
523.169189	12360.455527
523.531908	12426.298037
523.894569	12378.749874
524.257174	12399.463975
524.619722	12504.672856
524.982213	12488.279024
525.344647	12466.460910
525.707025	12480.293836
526.069345	12577.451994
526.431608	12561.403481
526.793815	12648.287768
527.155964	12539.393803
527.518057	12570.507805
527.880093	12524.734128
528.242072	12641.477169
528.603995	12567.730129
528.965860	12590.788367
529.327669	12620.183335
529.689421	12559.576063
530.051117	12577.184813
530.412755	12614.398611
530.774337	12626.935960
531.135862	12571.533680
531.497331	12640.915080
531.858743	12596.230292
532.220098	12684.198427
532.581396	12601.730191
532.942638	12528.436855
533.303824	12591.663007
533.664953	12589.424735
534.026025	12538.619986
534.387040	12644.527067
534.747999	12623.505455
535.108902	12665.589008
535.469748	12539.033361
535.830537	12568.796333
536.191270	12600.868154
536.551947	12533.084799
536.912567	12597.359511
537.273131	12628.186167
537.633638	12503.112619
537.994089	12564.226527
538.354483	12482.070843
538.714821	12600.525355
539.075103	12693.731249
539.435328	12621.017646
539.795497	12600.984100
540.155609	12591.597472
540.515665	12705.320862
540.875665	12566.124522
541.235609	12661.064572
541.595496	12624.208696
541.955328	12796.787557
542.315102	12633.930561
542.674821	12573.472003
543.034483	12586.216040
543.394090	12591.080754
543.753640	12571.707599
544.113134	12817.282368
544.472571	12570.152403
544.831953	12848.892923
545.191278	12667.204697
545.550548	12606.310079
545.909761	12720.497255
546.268918	12760.211465
546.628019	12815.563334
546.987064	12714.120196
547.346053	12569.000500
547.704986	12761.575097
548.063863	12639.619503
548.422684	12693.378368
548.781449	12646.767860
549.140158	12748.508427
549.498811	12692.395343
549.857408	12572.148700
550.215949	12770.122374
550.574434	12737.506108
550.932864	12678.509485
551.291237	12867.933361
551.649555	12771.052467
552.007817	12826.807628
552.366022	12749.579672
552.724173	12788.905713
553.082267	12884.067574
553.440305	12967.937251
553.798288	12789.777833
554.156215	12867.285573
554.514086	12912.476997
554.871902	12853.631608
555.229661	12879.306204
555.587365	12829.759224
555.945014	12838.883712
556.302606	12821.350579
556.660143	12890.578224
557.017625	12916.686360
557.375050	12874.204557
557.732421	12983.300167
558.089735	12980.525012
558.446994	12948.891771
558.804197	13070.222262
559.161345	13058.088205
559.518437	12877.211605
559.875474	12968.758959
560.232455	12998.965552
560.589381	13045.283674
560.946251	12987.411228
561.303065	13158.631498
561.659825	13109.656688
562.016528	13017.630425
562.373177	12962.341570
562.729770	13087.891506
563.086307	12968.784164
563.442789	13085.542329
563.799216	13121.057257
564.155587	13057.957135
564.511904	13078.898088
564.868164	13089.519799
565.224370	13146.358809
565.580520	13099.040018
565.936615	13165.918486
566.292654	13099.778547
566.648638	13172.824866
567.004567	13167.932427
567.360441	13169.626254
567.716260	13139.011327
568.072023	13220.647772
568.427732	13202.625647
568.783385	13104.771810
569.138982	13218.129716
569.494525	13213.466649
569.850013	13159.370027
570.205445	13159.309533
570.560823	13174.629599
570.916145	13123.144295
571.271412	13144.244045
571.626625	13087.571393
571.981782	13088.009973
572.336884	13028.161395
572.691931	13123.298050
573.046923	13013.249662
573.401860	12998.542096
573.756743	12990.861898
574.111570	13017.590095
574.466342	12986.937359
574.821059	13046.347358
575.175722	12919.033017
575.530330	12945.050412
575.884882	12873.362684
576.239380	12870.383362
576.593823	12859.907844
576.948211	12856.230322
577.302544	12730.221641
577.656823	12746.186975
578.011047	12807.338692
578.365216	12738.526942
578.719330	12686.224971
579.073389	12659.600117
579.427394	12674.325327
579.781344	12646.745174
580.135239	12575.778331
580.489080	12597.969490
580.842866	12478.216881
581.196597	12572.599884
581.550273	12561.557236
581.903895	12528.542720
582.257463	12641.449442
582.610975	12487.127120
582.964434	12558.499776
583.317837	12477.001963
583.671186	12426.920620
584.024481	12488.432779
584.377721	12379.911860
584.730906	12440.083072
585.084037	12462.218779
585.437113	12372.834080
585.790135	12402.632341
586.143103	12316.978096
586.496016	12331.234479
586.848874	12341.730161
587.201679	12338.861744
587.554428	12212.495141
587.907124	12255.516348
588.259765	12201.328985
588.612352	12266.309458
588.964884	12129.185032
589.317362	12186.596213
589.669786	12178.439626
590.022155	12132.839869
590.374470	12233.395765
590.726731	12109.237187
591.078937	12003.849345
591.431090	12028.515711
591.783188	11961.982562
592.135232	11880.071374
592.487222	11944.036055
592.839157	11955.076182
593.191038	11890.695606
593.542866	11839.422030
593.894639	11698.103364
594.246358	11761.803384
594.598022	11765.070052
594.949633	11669.857779
595.301190	11654.411684
595.652692	11616.446754
596.004141	11702.418592
596.355535	11482.765437
596.706876	11467.914197
597.058162	11432.306007
597.409395	11522.093998
597.760573	11550.115252
598.111698	11444.727410
598.462768	11449.254366
598.813785	11453.907351
599.164748	11316.727473
599.515657	11392.838814
599.866511	11271.447829
600.217312	11404.249465
600.568060	11173.450319
600.918753	11335.117602
601.269392	11333.017962
601.619978	11236.298384
601.970510	11274.681729
602.320988	11319.477422
602.671412	11388.475695
603.021783	11310.378140
603.372100	11246.279868
603.722363	11262.406520
604.072572	11262.250244
604.422728	11270.684094
604.772830	11220.421270
605.122878	11227.080634
605.472872	11197.673063
605.822813	11251.442010
606.172701	11210.275948
606.522534	11253.188770
606.872314	11301.490585
607.222041	11237.407438
607.571714	11313.770836
607.921333	11170.987715
608.270899	11228.754297
608.620411	11290.672269
608.969870	11236.288302
609.319276	11221.043852
609.668627	11241.286606
610.017926	11324.760552
610.367171	11354.009326
610.716362	11345.162101
611.065500	11319.270735
611.414585	11335.624238
611.763616	11393.839483
612.112594	11350.717453
612.461518	11384.601568
612.810389	11426.690162
613.159207	11381.513862
613.507971	11369.841070
613.856682	11469.287912
614.205340	11421.533061
614.553945	11566.483878
614.902496	11431.965729
615.250994	11504.575989
615.599439	11492.356232
615.947830	11525.143896
616.296169	11495.801860
616.644454	11509.420538
616.992686	11520.803463
617.340864	11618.183432
617.688990	11507.376350
618.037063	11631.968467
618.385082	11614.064809
618.733048	11650.771971
619.080961	11641.894499
619.428821	11624.920934
619.776628	11627.229782
620.124382	11575.908316
620.472083	11599.899167
620.819731	11617.888524
621.167326	11541.686443
621.514868	11524.339832
621.862357	11424.935840
622.209793	11414.793039
622.557176	11327.918834
622.904506	11276.627615
623.251783	11191.041425
623.599007	11140.282047
623.946179	11090.591394
624.293297	11062.887733
624.640363	10923.131825
624.987376	10913.107490
625.334336	10845.339259
625.681243	10763.360015
626.028097	10734.401107
626.374899	10693.643378
626.721647	10674.325677
627.068343	10630.233224
627.414987	10569.741899
627.761577	10501.154480
628.108115	10548.793384
628.454600	10420.624568
628.801032	10440.726169
629.147412	10421.529455
629.493739	10400.134798
629.840014	10318.770575
630.186236	10364.468635
630.532405	10265.944324
630.878521	10292.599425
631.224585	10244.915151
631.570597	10177.033494
631.916556	10178.868474
632.262462	10169.834726
632.608316	10142.725921
632.954117	10118.546027
633.299866	10105.055899
633.645562	10084.462786
633.991206	9985.499894
634.336797	9881.596672
634.682336	9872.734324
635.027823	9822.542076
635.373257	9777.174212
635.718639	9709.761382
636.063968	9675.269807
636.409245	9574.048479
636.754470	9554.554337
637.099642	9510.159416
637.444762	9403.899455
637.789829	9411.733408
638.134845	9341.424435
638.479808	9314.693717
638.824719	9287.602556
639.169577	9199.929329
639.514383	9205.270431
639.859137	9135.813414
640.203839	9168.419597
640.548489	9086.271474
640.893086	9091.035365
641.237632	9022.160600
641.582125	9039.388743
641.926566	9018.775465
642.270955	9006.369186
642.615292	8996.727979
642.959576	8972.472467
643.303809	8960.255231
643.647990	8982.816915
643.992118	8956.292884
644.336195	8941.408877
644.680219	8938.865615
645.024192	8970.864339
645.368112	9047.721771
645.711981	9023.068008
646.055797	9161.054471
646.399562	9118.386145
646.743274	9278.339436
647.086935	9349.873409
647.430544	9317.438625
647.774101	9345.212862
648.117606	9372.248570
648.461059	9435.383981
648.804460	9355.569913
649.147810	9247.235517
649.491108	9213.802584
649.834354	9144.675762
650.177548	9009.325822
650.520690	8917.700331
650.863781	8907.786902
651.206820	8886.926607
651.549807	8799.094584
651.892742	8709.901449
652.235626	8670.338473
652.578458	8628.809448
652.921238	8523.149384
653.263967	8552.791368
653.606644	8489.164445
653.949269	8470.844892
654.291843	8396.800424
654.634365	8460.772667
654.976836	8386.244248
655.319255	8373.651446
655.661622	8368.509469
656.003938	8333.332298
656.346203	8294.631359
656.688416	8323.194537
657.030577	8274.980942
657.372687	8244.381138
657.714746	8280.183413
658.056753	8285.766490
658.398708	8192.590844
658.740612	8186.233949
659.082465	8230.775064
659.424266	8182.846293
659.766016	8196.835495
660.107715	8173.142072
660.449362	8196.671658
660.790958	8189.256121
661.132503	8182.185902
661.473996	8180.116509
661.815438	8198.330198
662.156829	8228.609888
662.498168	8170.515631
662.839456	8170.918923
663.180693	8192.253087
663.521879	8209.645067
663.863013	8195.560083
664.204097	8187.005245
664.545129	8260.722038
664.886110	8252.308352
665.227040	8257.692305
665.567918	8265.906865
665.908746	8286.283209
666.249522	8298.548336
666.590248	8298.412225
666.930922	8312.419071
667.271545	8300.965569
667.612118	8318.959968
667.952639	8285.637941
668.293109	8281.952858
668.633528	8264.064323
668.973896	8251.501768
669.314213	8250.140656
669.654480	8209.846713
669.994695	8213.912404
670.334859	8188.837705
670.674973	8164.128489
671.015035	8195.726442
671.355047	8179.544338
671.695008	8166.865836
672.034918	8143.807598
672.374777	8143.903380
672.714585	8126.581975
673.054342	8156.715472
673.394049	8121.830688
673.733705	8160.582037
674.073310	8112.345757
674.412864	8118.780790
674.752368	8054.954741
675.091820	8115.763659
675.431223	8038.833131
675.770574	7987.131057
676.109875	7960.957386
676.449125	7917.734533
676.788324	7908.731032
677.127473	7827.928898
677.466571	7809.037174
677.805619	7752.324193
678.144616	7752.432578
678.483562	7731.600010
678.822458	7680.240734
679.161303	7668.840165
679.500098	7642.737070
679.838842	7628.107642
680.177535	7639.137687
680.516179	7671.181781
680.854771	7687.303391
681.193314	7801.732542
681.531805	7955.276006
681.870247	8075.394099
682.208638	8228.670382
682.546978	8306.001682
682.885268	8342.499636
683.223508	8267.875435
683.561697	8216.311993
683.899836	8184.555245
684.237925	8101.608099
684.575963	8075.996517
684.913951	7994.594485
685.251889	8011.704162
685.589776	8006.103440
685.927614	7990.375040
686.265401	8007.988831
686.603137	8010.010334
686.940824	8083.185202
687.278460	8136.873491
687.616046	8140.722412
687.953582	8257.775484
688.291068	8237.731856
688.628504	8295.251421
688.965889	8299.801063
689.303224	8264.364272
689.640510	8224.781132
689.977745	8111.047660
690.314930	7995.441399
690.652065	7915.463493
690.989150	7802.060217
691.326185	7659.388002
691.663170	7541.460290
692.000105	7422.670540
692.336990	7305.257026
692.673825	7233.980152
693.010610	7143.045298
693.347345	7049.015176
693.684030	6933.567712
694.020665	6893.208234
694.357251	6780.808148
694.693786	6768.346415
695.030272	6725.468881
695.366707	6627.060517
695.703093	6577.077477
696.039429	6573.087403
696.375716	6527.248191
696.711952	6511.658423
697.048139	6480.090718
697.384276	6456.460309
697.720363	6477.986036
698.056400	6443.333144
698.392388	6413.144195
698.728326	6414.711993
699.064214	6384.258383
699.400053	6376.860490
699.735842	6322.423590
700.071581	6277.370798
700.407270	6233.232976
700.742910	6206.310693
701.078501	6158.470143
701.414042	6118.526561
701.749533	6065.337347
702.084974	6004.823336
702.420366	6046.818668
702.755709	5972.393593
703.091002	5919.995840
703.426246	5926.922386
703.761440	5912.494603
704.096584	5865.125401
704.431679	5859.880081
704.766725	5839.496175
705.101721	5826.694165
705.436668	5841.893244
705.771565	5788.336025
706.106413	5845.815261
706.441212	5838.268654
706.775961	5855.912693
707.110661	5869.425505
707.445311	5921.782929
707.779913	5892.750924
708.114465	5935.636020
708.448967	5983.264842
708.783421	6092.592345
709.117825	6137.456094
709.452180	6166.780486
709.786485	6232.839766
710.120742	6366.634509
710.454949	6367.516711
710.789107	6435.675632
711.123216	6562.140538
711.457275	6586.940494
711.791286	6695.247164
712.125247	6712.248455
712.459159	6681.235277
712.793023	6817.142264
713.126837	6650.428786
713.460602	6706.287291
713.794318	6661.330281
714.127985	6611.095183
714.461602	6466.618234
714.795171	6473.000335
715.128691	6303.138656
715.462162	6212.571807
715.795584	6142.338451
716.128957	6101.696669
716.462281	6039.879520
716.795556	5994.231872
717.128782	5913.699439
717.461960	5811.449716
717.795088	5801.316996
718.128167	5738.995732
718.461198	5655.988093
718.794180	5634.106964
719.127113	5574.016411
719.459997	5541.062388
719.792833	5473.120237
720.125619	5465.109843
720.458357	5407.847377
720.791046	5373.428899
721.123686	5346.834292
721.456278	5305.685874
721.788821	5294.938134
722.121315	5251.846351
722.453761	5260.134008
722.786158	5244.158591
723.118506	5247.863839
723.450805	5222.663111
723.783056	5249.048510
724.115259	5230.164348
724.447412	5217.485846
724.779518	5260.489409
725.111574	5265.318834
725.443582	5300.301921
725.775542	5293.849244
726.107453	5379.258993
726.439315	5359.233010
726.771129	5423.563174
727.102895	5486.759079
727.434612	5525.621334
727.766281	5553.075458
728.097901	5609.909426
728.429473	5629.753928
728.760996	5637.928159
729.092471	5660.852806
729.423897	5653.273431
729.755276	5621.612465
730.086606	5634.855576
730.417887	5723.715995
730.749120	5814.562628
731.080305	5854.866653
731.411442	5928.124701
731.742530	5951.520696
732.073570	5972.877544
732.404562	6037.071597
732.735506	6030.445000
733.066401	6015.560994
733.397249	5949.796621
733.728048	5853.192990
734.058798	5706.344178
734.389501	5583.881949
734.720156	5500.166027
735.050762	5394.206015
735.381320	5323.292103
735.711831	5263.728350
736.042293	5185.603068
736.372707	5182.001164
736.703073	5135.007528
737.033391	5164.760418
737.363661	5148.590917
737.693883	5159.855375
738.024056	5182.109549
738.354182	5206.251635
738.684260	5250.800311
739.014290	5291.734480
739.344272	5328.335778
739.674207	5382.639087
740.004093	5412.943983
740.333931	5420.334315
740.663722	5443.652172
740.993464	5448.983192
741.323159	5435.097334
741.652806	5393.598556
741.982405	5360.697465
742.311956	5312.312470
742.641460	5297.070542
742.970915	5241.960648
743.300323	5182.099467
743.629683	5152.470085
743.958996	5101.506540
744.288260	5048.390423
744.617477	4992.015199
744.946647	4978.492304
745.275768	4923.647071
745.604842	4892.626330
745.933869	4856.897152
746.262847	4847.442468
746.591778	4840.120192
746.920662	4809.893434
747.249498	4807.350172
747.578286	4823.081092
747.907027	4844.952138
748.235720	4893.276639
748.564365	4898.673194
748.892963	4883.340525
749.221514	4899.951127
749.550017	4876.587899
749.878473	4874.140419
750.206881	4833.289429
750.535242	4823.804498
750.863555	4813.495338
751.191821	4785.897542
751.520039	4797.724089
751.848210	4778.550060
752.176334	4782.522489
752.504411	4763.149335
752.832440	4738.031786
753.160421	4749.071913
753.488356	4724.405547
753.816243	4708.021797
754.144082	4676.703629
754.471875	4665.098893
754.799620	4656.125639
755.127318	4649.488960
755.454969	4637.770798
755.782572	4631.534890
756.110129	4635.169562
756.437638	4620.419146
756.765100	4616.567705
757.092515	4617.822952
757.419882	4620.477119
757.747203	4617.296151
758.074477	4630.093120
758.401703	4618.342191
758.728882	4647.875791
759.056014	4660.259385
759.383099	4686.072613
759.710138	4709.080439
760.037129	4731.921907
760.364073	4746.969752
760.690970	4738.319132
761.017820	4742.934308
761.344623	4779.419659
761.671379	4837.271941
761.998088	4919.760341
762.324751	5143.612778
762.651366	5594.359987
762.977935	6285.900430
763.304456	6849.201482
763.630931	7175.527973
763.957359	7113.582275
764.283740	6832.341343
764.610074	6508.510223
764.936362	6111.282423
765.262602	5791.529596
765.588796	5439.246204
765.914943	5186.414694
766.241044	4959.552689
766.567097	4786.699085
766.893104	4634.887258
767.219064	4538.654151
767.544978	4437.153039
767.870845	4357.517932
768.196665	4310.693174
768.522438	4260.596708
768.848165	4221.391655
769.173846	4179.976055
769.499479	4151.077641
769.825066	4115.308134
770.150607	4070.567893
770.476101	4057.856624
770.801548	4036.582955
771.126949	4001.244466
771.452303	3984.822907
771.777611	3945.345632
772.102872	3948.904686
772.428087	3918.932506
772.753256	3892.204308
773.078378	3874.582955
773.403453	3837.512830
773.728482	3818.674038
774.053465	3807.820434
774.378401	3783.529634
774.703291	3761.656068
775.028135	3736.170515
775.352932	3728.180286
775.677683	3711.458778
776.002388	3688.304759
776.327046	3690.769883
776.651658	3672.077285
776.976224	3655.968277
777.300743	3653.193122
777.625216	3638.029332
777.949643	3624.687918
778.274024	3633.202427
778.598359	3611.883387
778.922647	3611.288531
779.246889	3598.927622
779.571086	3596.149946
779.895236	3603.348714
780.219339	3602.680761
780.543397	3603.431893
780.867409	3610.887759
781.191374	3615.457565
781.515294	3608.727625
781.839167	3623.387300
782.162995	3624.882002
782.486776	3615.659211
782.810511	3605.904579
783.134201	3595.497117
783.457844	3594.312445
783.781441	3585.671908
784.104993	3577.028849
784.428498	3575.332501
784.751958	3571.450813
785.075372	3567.266655
785.398739	3554.641085
785.722061	3559.384811
786.045337	3556.639903
786.368568	3583.272318
786.691752	3579.209148
787.014891	3627.614308
787.337983	3669.680216
787.661030	3756.161210
787.984031	3851.302907
788.306987	3929.193775
788.629897	3983.426508
788.952760	3986.178978
789.275579	3975.537102
789.598351	3925.506171
789.921078	3872.659755
790.243759	3807.492759
790.566395	3763.546501
790.888984	3715.549675
791.211529	3676.505938
791.534027	3634.656800
791.856480	3595.668516
792.178888	3576.297882
792.501249	3555.946744
792.823566	3523.290149
793.145836	3515.640198
793.468062	3509.905886
793.790241	3490.310921
794.112375	3498.858197
794.434464	3520.951054
794.756507	3520.008358
795.078505	3536.997047
795.400457	3574.636822
795.722364	3624.125829
796.044226	3672.989733
796.366042	3717.472875
796.687812	3715.161506
797.009538	3742.373654
797.331218	3729.901840
797.652852	3721.125191
797.974442	3703.571893
798.295986	3692.708207
798.617484	3662.279802
798.938938	3635.223929
799.260346	3622.497537
799.581709	3587.781631
799.903026	3575.335022
800.224299	3556.138308
800.545526	3526.488762
800.866708	3511.335053
801.187845	3495.984740
801.508936	3474.630412
801.829983	3468.434834
802.150984	3437.716563
802.471940	3429.076025
802.792851	3420.904315
803.113717	3415.722009
803.434538	3405.375040
803.755314	3395.683422
804.076045	3391.035478
804.396731	3376.214486
804.717372	3376.368241
805.037967	3378.798077
805.358518	3378.304044
805.679024	3391.758884
805.999485	3390.483472
806.319901	3396.152249
806.640272	3396.366498
806.960598	3409.418046
807.280879	3407.625916
807.601115	3422.472114
807.921306	3414.083634
808.241453	3416.311824
808.561554	3418.708892
808.881611	3412.286462
809.201623	3415.691762
809.521590	3408.795463
809.841513	3406.158940
810.161390	3417.650250
810.481223	3393.147722
810.801011	3394.934811
811.120755	3388.688821
811.440453	3379.244219
811.760107	3372.478991
812.079716	3364.539174
812.399281	3352.616845
812.718801	3352.936958
813.038276	3348.112574
813.357707	3339.706450
813.677093	3349.735825
813.996434	3330.448371
814.315731	3339.139320
814.634983	3338.274762
814.954191	3337.589165
815.273354	3355.523070
815.592473	3360.344934
815.911547	3385.470044
816.230577	3399.411355
816.549562	3423.298863
816.868502	3442.500618
817.187399	3467.025831
817.506250	3492.788648
817.825058	3496.824092
818.143821	3545.962739
818.462539	3590.869337
818.781213	3647.327740
819.099843	3730.093404
819.418429	3883.437742
819.736970	4029.437119
820.055466	4216.232034
820.373919	4453.819094
820.692327	4789.660763
821.010691	5297.748577
821.329011	6359.186204
821.647286	8083.260820
821.965517	10247.201314
822.283704	11883.375850
822.601847	12993.448010
822.919945	12606.443670
823.237999	11936.065990
823.556010	11049.710157
823.873976	10093.151214
824.191897	9118.764231
824.509775	8350.537756
824.827609	7540.205042
825.145398	6993.454099
825.463144	6602.338698
825.780845	6463.505322
826.098502	6518.501789
826.416116	6890.662452
826.733685	7400.817138
827.051210	7697.110956
827.368692	7613.977288
827.686129	7171.558064
828.003522	6627.728470
828.320872	6060.684362
828.638177	5599.902736
828.955439	5226.922886
829.272656	4885.828334
829.589830	4604.426086
829.906960	4338.076722
830.224046	4128.236173
830.541088	3958.676963
830.858086	3840.401412
831.175041	3739.802666
831.491952	3695.773228
831.808819	3680.672452
832.125642	3710.707647
832.442421	3810.706495
832.759157	4024.060728
833.075849	4401.133995
833.392497	4868.474162
833.709101	5259.168627
834.025662	5378.127254
834.342179	5255.730560
834.658653	4985.824662
834.975083	4711.016242
835.291469	4467.110096
835.607811	4242.519130
835.924110	4082.588525
836.240366	3922.350408
836.556578	3758.502826
836.872746	3624.866879
837.188871	3509.426976
837.504952	3412.238571
837.820990	3337.407684
838.136984	3280.760238
838.452935	3253.230497
838.768842	3237.454206
839.084706	3266.660131
839.400526	3399.880183
839.716303	3627.735295
840.032037	3837.689271
840.347727	3907.436155
840.663373	3820.786282
840.978977	3674.187007
841.294537	3542.428890
841.610054	3432.539298
841.925527	3355.618852
842.240957	3288.417751
842.556344	3227.959192
842.871687	3166.976354
843.186987	3107.268928
843.502244	3052.232131
843.817458	3015.577902
844.132629	2979.868888
844.447756	2958.711166
844.762840	2935.163936
845.077881	2921.963675
845.392879	2906.346180
845.707833	2895.202709
846.022745	2881.962119
846.337613	2876.172354
846.652438	2871.441231
846.967221	2868.197248
847.281960	2858.704756
847.596656	2856.040506
847.911309	2847.820904
848.225919	2843.984586
848.540485	2842.169771
848.855009	2838.131807
849.169490	2833.458657
849.483928	2828.268789
849.798323	2828.901454
850.112675	2821.871565
850.426984	2823.532625
850.741251	2822.776452
851.055474	2818.609938
851.369654	2817.871409
851.683792	2817.579022
851.997887	2820.346616
852.311938	2820.391986
852.625947	2820.863334
852.939914	2815.328147
853.253837	2821.037254
853.567718	2818.748570
853.881555	2814.327478
854.195350	2816.144814
854.509103	2816.749753
854.822812	2817.238745
855.136479	2814.072900
855.450103	2820.901143
855.763685	2814.960143
856.077224	2811.885039
856.390720	2816.056594
856.704173	2821.064980
857.017584	2821.380052
857.330953	2820.588591
857.644278	2823.625887
857.957561	2828.661999
858.270802	2828.304077
858.584000	2824.124961
858.897155	2828.044458
859.210268	2823.787203
859.523339	2824.424909
859.836367	2821.143118
860.149352	2820.868375
860.462295	2820.427274
860.775195	2814.715647
861.088054	2813.783034
861.400869	2811.257416
861.713642	2809.936633
862.026373	2815.630617
862.339062	2816.268322
862.651708	2819.779486
862.964312	2822.048005
863.276873	2824.432471
863.589392	2834.192145
863.901869	2837.219358
864.214303	2845.801922
864.526696	2853.645958
864.839045	2861.709283
865.151353	2867.173894
865.463619	2866.873945
865.775842	2867.269676
866.088023	2876.058928
866.400162	2874.317209
866.712258	2872.575490
867.024313	2877.677138
867.336325	2879.164278
867.648296	2881.856255
867.960224	2883.250134
868.272110	2885.475803
868.583954	2884.205432
868.895755	2886.869682
869.207515	2887.744322
869.519233	2893.443347
869.830909	2896.520971
870.142542	2899.336456
870.454134	2900.750499
870.765684	2906.303330
871.077191	2912.123342
871.388657	2915.672315
871.700081	2923.188675
872.011463	2931.877104
872.322803	2937.238371
872.634101	2940.888166
872.945357	2948.734722
873.256571	2959.240487
873.567744	2964.145529
873.878874	2965.539408
874.189963	2979.042139
874.501010	2979.029536
874.812015	2981.043477
875.122979	2986.077069
875.433900	2986.697131
875.744780	2991.889520
876.055618	2997.550735
876.366415	3000.562825
876.677169	3006.017353
876.987882	3009.606655
877.298554	3021.463449
877.609183	3034.439379
877.919771	3054.750187
878.230317	3076.338929
878.540822	3115.743108
878.851285	3162.782114
879.161707	3226.666137
879.472087	3335.096315
879.782425	3494.275788
880.092722	3770.009260
880.402977	4189.639947
880.713191	4734.412237
881.023363	5334.533877
881.333494	5776.317914
881.643583	6067.217697
881.953631	6149.287682
882.263637	6100.567450
882.573602	5959.296676
882.883526	5796.293487
883.193408	5592.280511
883.503248	5376.761102
883.813048	5159.683976
884.122806	4941.490235
884.432522	4697.110220
884.742197	4470.238132
885.051831	4260.523611
885.361424	4058.033064
885.670975	3889.446797
885.980485	3741.171339
886.289954	3615.553347
886.599382	3512.365969
886.908768	3427.115016
887.218113	3345.322295
887.527417	3281.345012
887.836680	3224.667319
888.145901	3173.981038
888.455082	3137.432672
888.764221	3103.664503
889.073319	3074.788774
889.382376	3058.185734
889.691392	3040.957591
890.000366	3030.134233
890.309300	3022.958151
890.618193	3020.964374
890.927044	3015.706451
891.235855	3014.219311
891.544625	3017.581760
891.853353	3024.165507
892.162041	3037.607744
892.470687	3065.097156
892.779293	3097.337855
893.087858	3145.304434
893.396381	3220.493244
893.704864	3328.610870
894.013306	3484.526197
894.321707	3668.992098
894.630068	3826.699555
894.938387	3907.622677
895.246665	3912.396650
895.554903	3858.514277
895.863100	3772.338273
896.171256	3697.913198
896.479371	3619.624079
896.787446	3545.735887
897.095480	3473.349959
897.403473	3421.431115
897.711425	3361.370808
898.019336	3312.338026
898.327207	3257.921290
898.635038	3212.485371
898.942827	3160.800941
899.250576	3117.628499
899.558284	3077.064855
899.865952	3051.770866
900.173579	3021.317255
900.481165	2997.454953
900.788711	2978.699341
901.096216	2962.804583
901.403681	2947.454269
901.711105	2940.588218
902.018489	2934.387598
902.325832	2942.965122
902.633135	2949.770679
902.940397	2989.578151
903.247619	3076.838003
903.554800	3249.641195
903.861941	3524.734440
904.169041	3789.969708
904.476101	3963.617294
904.783121	3992.031757
905.090100	3926.373249
905.397039	3820.045232
905.703938	3714.796022
906.010796	3609.846761
906.317614	3526.866848
906.624391	3442.044393
906.931129	3369.214844
907.237826	3301.925522
907.544483	3239.253898
907.851099	3166.857887
908.157675	3088.566247
908.464211	3018.269878
908.770707	2956.394755
909.077163	2910.981521
909.383578	2873.545913
909.689954	2845.519618
909.996289	2824.588747
910.302584	2811.645584
910.608839	2801.921199
910.915054	2794.795528
911.221229	2786.344033
911.527363	2788.214301
911.833458	2788.670526
912.139513	2792.395938
912.445527	2793.946093
912.751502	2805.510500
913.057436	2821.881647
913.363331	2840.049966
913.669186	2869.457537
913.975000	2907.747621
914.280775	2969.295068
914.586510	3046.016388
914.892205	3155.175013
915.197859	3304.173877
915.503475	3487.767659
915.809050	3661.319462
916.114585	3794.821819
916.420081	3868.742778
916.725536	3909.790374
917.030952	3871.878376
917.336328	3828.874813
917.641665	3781.319088
917.946961	3720.205180
918.252218	3662.211747
918.557435	3589.805654
918.862612	3521.974408
919.167750	3465.974751
919.472848	3392.431878
919.777906	3322.523677
920.082925	3252.887698
920.387904	3182.848427
920.692843	3122.208388
920.997743	3073.752817
921.302603	3024.089890
921.607423	2989.300887
921.912204	2950.567182
922.216946	2925.946186
922.521647	2900.430386
922.826310	2880.608569
923.130932	2859.327338
923.435516	2842.134483
923.740059	2825.634786
924.044564	2810.657518
924.349028	2796.501958
924.653454	2781.713733
924.957840	2769.541867
925.262186	2760.878645
925.566493	2749.951944
925.870761	2736.222361
926.174989	2731.919736
926.479178	2725.179714
926.783328	2717.502036
927.087438	2710.620861
927.391509	2704.105170
927.695541	2698.869932
927.999533	2690.516740
928.303486	2686.115812
928.607400	2683.895184
928.911275	2681.402334
929.215110	2674.997548
929.518906	2673.260870
929.822663	2674.291786
930.126381	2670.384892
930.430060	2673.218020
930.733699	2674.894204
931.037299	2677.064421
931.340861	2671.466219
931.644383	2674.750531
931.947866	2673.447393
932.251309	2673.326405
932.554714	2674.712722
932.858080	2672.459327
933.161407	2672.421518
933.464694	2668.829696
933.767943	2669.966476
934.071153	2666.979592
934.374323	2667.622340
934.677455	2664.597647
934.980548	2664.433810
935.283602	2663.536484
935.586617	2660.695794
935.889593	2661.691422
936.192530	2663.370126
936.495428	2663.748213
936.798287	2664.809376
937.101108	2669.424552
937.403890	2675.610048
937.706632	2687.776873
938.009336	2698.209541
938.312002	2710.822507
938.614628	2721.504713
938.917216	2731.342524
939.219765	2738.473236
939.522275	2746.783578
939.824747	2749.992273
940.127179	2748.003538
940.429573	2749.553692
940.731929	2748.878178
941.034246	2747.673342
941.336524	2748.104361
941.638763	2748.522777
941.940964	2747.713671
942.243126	2739.267218
942.545250	2739.851992
942.847335	2729.381515
943.149381	2726.833212
943.451389	2718.691749
943.753359	2712.478527
944.055290	2711.208156
944.357182	2707.886035
944.659036	2699.210210
944.960851	2698.091073
945.262628	2696.243491
945.564367	2694.247194
945.866067	2692.601257
946.167729	2692.255938
946.469352	2690.753674
946.770937	2690.930114
947.072484	2686.735874
947.373992	2686.763601
947.675462	2686.327541
947.976893	2682.748322
948.278286	2683.060873
948.579641	2681.833352
948.880958	2682.675225
949.182236	2680.310924
949.483476	2674.102743
949.784678	2679.501819
950.085841	2677.107271
950.386967	2679.453928
950.688054	2681.286387
950.989103	2683.297807
951.290114	2685.538600
951.591087	2691.472038
951.892021	2694.766432
952.192917	2701.128369
952.493776	2704.573997
952.794596	2705.128524
953.095378	2712.614638
953.396122	2706.834955
953.696828	2708.969883
953.997496	2706.845037
954.298126	2702.123997
954.598718	2702.648277
954.899272	2695.648634
955.199788	2695.401618
955.500266	2689.569003
955.800706	2680.494926
956.101108	2674.112825
956.401472	2664.862308
956.701798	2661.756957
957.002087	2653.953251
957.302337	2652.161121
957.602550	2645.824390
957.902724	2640.092598
958.202861	2636.077319
958.502960	2629.717904
958.803022	2626.065588
959.103045	2621.606687
959.403031	2619.254989
959.702979	2616.028651
960.002889	2612.661160
960.302762	2608.192177
960.602596	2606.042125
960.902393	2604.887701
961.202153	2602.979624
961.501875	2600.065837
961.801559	2598.818151
962.101205	2598.263624
962.400814	2595.609457
962.700385	2596.042996
962.999918	2596.491659
963.299414	2593.744230
963.598873	2593.018304
963.898293	2592.244487
964.197677	2593.913109
964.497022	2590.742223
964.796331	2589.194589
965.095601	2589.665937
965.394835	2587.873806
965.694030	2587.178127
965.993189	2588.599733
966.292309	2587.205853
966.591393	2587.425144
966.890439	2583.881212
967.189447	2587.019331
967.488419	2586.923549
967.787353	2586.883220
968.086249	2588.745926
968.385108	2587.296594
968.683930	2590.066708
968.982714	2585.764083
969.281462	2588.796338
969.580172	2589.486976
969.878844	2590.079311
970.177480	2591.526122
970.476078	2595.047368
970.774639	2595.430496
971.073162	2596.988212
971.371649	2595.478387
971.670098	2592.990577
971.968510	2595.493510
972.266885	2596.063161
972.565223	2600.577514
972.863524	2601.933584
973.161788	2602.737648
973.460014	2602.480550
973.758204	2603.755962
974.056356	2606.868874
974.354471	2603.692947
974.652550	2605.815273
974.950591	2604.779316
975.248595	2605.956425
975.546563	2604.938112
975.844493	2604.761672
976.142386	2603.912237
976.440243	2603.246805
976.738062	2602.936774
977.035845	2600.277565
977.333590	2597.880497
977.631299	2598.258583
977.928971	2597.774632
978.226606	2597.242791
978.524204	2596.418562
978.821765	2596.380753
979.119290	2596.239601
979.416777	2595.879159
979.714228	2594.167687
980.011642	2597.391505
980.309020	2596.983171
980.606360	2599.110538
980.903664	2602.044490
981.200931	2607.831734
981.498162	2614.783486
981.795356	2625.937038
982.092513	2639.926240
982.389633	2658.767553
982.686717	2678.362518
982.983764	2693.047399
983.280775	2707.724718
983.577749	2711.329143
983.874686	2714.946171
984.171587	2710.895604
984.468451	2705.620037
984.765279	2696.268696
985.062070	2691.466997
985.358824	2683.605318
985.655543	2674.165757
985.952224	2666.830878
986.248869	2652.524084
986.545478	2637.529172
986.842050	2625.085083
987.138586	2616.391614
987.435086	2605.802670
987.731549	2597.585589
988.027975	2594.797831
988.324366	2588.876996
988.620719	2586.789958
988.917037	2587.210895
989.213318	2582.545307
989.509563	2581.385841
989.805772	2580.226376
990.101944	2578.033474
990.398080	2577.068093
990.694180	2573.655232
990.990244	2577.851992
991.286271	2572.979717
991.582262	2575.883422
991.878217	2575.787640
992.174136	2578.517425
992.470019	2577.209245
992.765865	2579.596232
993.061676	2580.775862
993.357450	2582.018506
993.653188	2581.295101
993.948890	2584.339957
994.244556	2588.723241
994.540186	2591.054774
994.835780	2597.053747
995.131337	2605.089347
995.426859	2610.717795
995.722345	2617.236007
996.017795	2632.354427
996.313208	2640.422794
996.608586	2645.169040
996.903928	2648.438229
997.199234	2652.244300
997.494504	2651.173055
997.789738	2651.404948
998.084936	2646.157107
998.380099	2641.466313
998.675225	2637.408184
998.970316	2631.709160
999.265371	2623.650875
999.560390	2618.274485
999.855373	2612.149483
1000.150320	2605.520365
1000.445232	2596.874787
1000.740108	2595.513675
1001.034948	2589.897830
1001.329752	2584.982705
1001.624521	2585.368353
1001.919254	2576.339646
1002.213951	2574.343349
1002.508613	2570.542319
1002.803239	2572.906621
1003.097829	2570.539799
1003.392384	2572.286559
1003.686903	2569.501321
1003.981386	2569.965107
1004.275834	2567.189952
1004.570246	2572.946950
1004.864623	2567.870508
1005.158964	2567.326063
1005.453270	2566.184242
1005.747540	2568.684654
1006.041775	2565.879252
1006.335974	2563.971175
1006.630138	2564.689540
1006.924266	2567.343707
1007.218359	2564.061916
1007.512416	2567.842782
1007.806438	2565.750703
1008.100425	2563.565362
1008.394376	2564.750034
1008.688292	2565.390260
1008.982172	2565.917061
1009.276017	2564.046793
1009.569827	2562.345403
1009.863602	2566.774057
1010.157341	2563.494786
1010.451045	2565.024777
1010.744714	2563.361196
1011.038347	2564.649211
1011.331945	2563.827502
1011.625508	2562.831875
1011.919036	2566.171639
1012.212528	2562.688202
1012.505986	2564.218192
1012.799408	2560.220557
1013.092795	2560.787687
1013.386147	2561.942111
1013.679464	2562.186607
1013.972745	2560.500341
1014.265992	2562.388253
1014.559204	2564.014025
1014.852380	2560.424724
1015.145521	2561.790876
1015.438628	2561.387584
1015.731699	2562.300033
1016.024736	2562.731052
1016.317737	2562.050496
1016.610703	2560.419682
1016.903635	2558.277192
1017.196531	2557.977243
1017.489393	2559.439178
1017.782219	2557.843653
1018.075011	2561.904302
1018.367768	2563.058727
1018.660490	2564.429920
1018.953177	2564.429920
1019.245829	2564.429920
