Dividing Wavelength (nm)	Counts (n)	Blue Motor Position (mm): 0.000000	Red Motor Position (mm): 29.500000	
326.493990	2143.818729
326.888308	2143.818729
327.282561	2143.818729
327.676750	2118.718824
328.070874	2122.454319
328.464933	2128.395318
328.858929	2133.496966
329.252859	2145.714203
329.646726	2162.208858
330.040528	2174.627740
330.434265	2193.567355
330.827938	2210.051928
331.221547	2228.431975
331.615091	2252.856366
332.008571	2271.760693
332.401986	2294.806328
332.795338	2312.299131
333.188625	2331.677327
333.581847	2350.304390
333.975006	2369.561598
334.368100	2387.003990
334.761129	2407.735735
335.154095	2422.728127
335.546996	2442.804522
335.939833	2455.901440
336.332606	2470.639253
336.725315	2481.011427
337.117960	2489.296563
337.510540	2498.126144
337.903056	2509.158710
338.295508	2514.267919
338.687896	2522.507685
339.080220	2531.281813
339.472480	2533.923378
339.864676	2538.478060
340.256807	2542.621889
340.648875	2543.433515
341.040879	2547.342929
341.432818	2546.858979
341.824694	2548.189843
342.216506	2546.105326
342.608253	2548.610780
342.999937	2547.340409
343.391557	2545.079451
343.783113	2544.494677
344.174605	2541.785057
344.566033	2540.653318
344.957397	2541.296065
345.348697	2537.923533
345.739934	2535.874304
346.131106	2531.080167
346.522215	2533.646114
346.913260	2531.296937
347.304241	2530.510517
347.695159	2527.324507
348.086012	2528.083201
348.476802	2523.687315
348.867528	2524.138498
349.258191	2522.666481
349.648789	2520.816378
350.039324	2520.523991
350.429796	2520.700431
350.820203	2517.484175
351.210548	2517.277488
351.600828	2517.932838
351.991045	2517.882426
352.381198	2515.195491
352.771288	2515.308917
353.161314	2516.806140
353.551276	2517.438805
353.941175	2516.891840
354.331010	2517.456449
354.720782	2515.724813
355.110490	2516.546521
355.500135	2516.710358
355.889717	2516.145749
356.279235	2518.318486
356.668689	2517.131294
357.058080	2518.734381
357.447408	2517.688342
357.836672	2515.185409
358.225873	2515.639113
358.615010	2516.906963
359.004084	2519.377128
359.393095	2521.953158
359.782043	2521.963240
360.170927	2521.277643
360.559748	2521.469207
360.948505	2522.709331
361.337199	2520.745802
361.725830	2525.529857
362.114398	2526.737213
362.502903	2524.151101
362.891344	2525.728982
363.279722	2524.846780
363.668037	2527.561442
364.056289	2525.577748
364.444478	2526.931297
364.832603	2527.949611
365.220665	2527.309384
365.608665	2528.776360
365.996601	2532.584952
366.384474	2531.158305
366.772284	2529.615712
367.160031	2527.170752
367.547715	2530.434899
367.935336	2527.047244
368.322893	2530.437420
368.710388	2531.566638
369.097820	2533.406660
369.485189	2532.978162
369.872495	2530.485311
370.259738	2531.060003
370.646918	2532.433717
371.034035	2529.945908
371.421090	2534.361958
371.808081	2534.798018
372.195010	2534.795497
372.581875	2533.356248
372.968678	2536.907741
373.355418	2534.172915
373.742096	2535.758358
374.128710	2537.696682
374.515262	2538.888914
374.901751	2538.994779
375.288177	2543.829245
375.674540	2545.586087
376.060841	2544.872764
376.447079	2546.077600
376.833254	2546.296890
377.219367	2546.178423
377.605417	2548.961140
377.991404	2550.491130
378.377329	2554.808878
378.763191	2553.291491
379.148991	2564.823130
379.534727	2567.303378
379.920402	2569.118193
380.306013	2573.191446
380.691563	2577.547003
381.077049	2582.636047
381.462474	2586.674012
381.847835	2591.432861
382.233134	2595.561566
382.618371	2602.457864
383.003545	2609.500356
383.388657	2613.364401
383.773706	2621.644496
384.158693	2627.134312
384.543618	2633.927267
384.928480	2639.033956
385.313280	2648.405461
385.698017	2654.868220
386.082692	2667.607216
386.467305	2672.234995
386.851856	2678.410409
387.236344	2691.658561
387.620770	2697.990250
388.005133	2705.841847
388.389435	2716.579505
388.773674	2721.144270
389.157851	2730.863615
389.541965	2745.228382
389.926018	2743.348032
390.310008	2759.918305
390.693936	2767.880807
391.077802	2776.541510
391.461606	2786.714558
391.845348	2794.803089
392.229027	2802.795839
392.612645	2815.756645
392.996200	2826.267451
393.379694	2838.862774
393.763125	2855.518746
394.146494	2864.020652
394.529801	2875.206973
394.913047	2890.481669
395.296230	2894.086094
395.679351	2899.318812
396.062410	2918.313879
396.445408	2912.055287
396.828343	2929.411979
397.211217	2932.736620
397.594028	2927.481218
397.976778	2943.086109
398.359466	2954.516926
398.742092	2952.460135
399.124656	2966.252732
399.507158	2980.292345
399.889598	2983.362408
400.271977	2998.586693
400.654294	3006.922240
401.036549	3021.460928
401.418742	3024.377236
401.800874	3049.265412
402.182944	3057.275806
402.564952	3084.152717
402.946898	3073.825914
403.328783	3084.755135
403.710606	3100.123093
404.092367	3123.292236
404.474067	3149.546565
404.855705	3141.826038
405.237282	3143.101450
405.618797	3169.196983
406.000250	3191.801517
406.381642	3222.912997
406.762972	3227.203019
407.144240	3216.447718
407.525447	3240.950246
407.906593	3238.210379
408.287677	3261.964296
408.668700	3280.127573
409.049661	3280.729991
409.430560	3295.813123
409.811399	3298.633649
410.192176	3316.154179
410.572891	3326.846466
410.953545	3364.881972
411.334138	3336.482632
411.714669	3388.522463
412.095139	3332.333762
412.475547	3384.083727
412.855894	3371.208620
413.236180	3400.175090
413.616405	3382.601628
413.996568	3408.198087
414.376670	3407.580545
414.756711	3409.992737
415.136691	3428.728186
415.516609	3451.637709
415.896466	3459.632979
416.276262	3486.000734
416.655997	3517.081968
417.035670	3520.547762
417.415283	3589.893874
417.794834	3612.437914
418.174324	3595.628187
418.553753	3596.354113
418.933121	3641.472440
419.312428	3630.545739
419.691674	3624.788741
420.070859	3664.039165
420.449983	3640.764157
420.829045	3692.103268
421.208047	3676.773119
421.586988	3722.138463
421.965867	3752.372783
422.344686	3760.264709
422.723444	3799.225267
423.102141	3704.933005
423.480777	3807.969148
423.859352	3776.431690
424.237866	3874.479612
424.616319	3858.408413
424.994712	3915.912855
425.373044	3908.111669
425.751314	3969.485197
426.129524	3904.476997
426.507673	4004.150691
426.885762	3980.880725
427.263789	4006.822503
427.641756	4006.333511
428.019662	4039.095970
428.397508	4039.635373
428.775292	4076.463523
429.153016	4085.099019
429.530679	4096.658385
429.908282	4104.023511
430.285824	4083.972321
430.663305	4155.261798
431.040726	4111.547433
431.418086	4104.852781
431.795385	4178.657793
432.172624	4217.083989
432.549802	4182.168957
432.926920	4200.322152
433.303977	4192.508364
433.680974	4236.759612
434.057910	4255.737036
434.434786	4262.696349
434.811601	4257.829115
435.188355	4358.962223
435.565050	4339.349613
435.941683	4331.011545
436.318257	4420.043363
436.694770	4421.222993
437.071222	4479.052589
437.447614	4414.561108
437.823946	4417.575718
438.200218	4432.086680
438.576429	4418.669649
438.952580	4444.719811
439.328670	4451.215338
439.704700	4489.686903
440.080670	4452.357159
440.456580	4513.929812
440.832429	4551.829207
441.208218	4450.585194
441.583947	4508.046786
441.959616	4521.799053
442.335224	4547.365265
442.710773	4566.539294
443.086261	4618.793374
443.461689	4576.346859
443.837057	4586.509825
444.212365	4660.239220
444.587612	4664.950179
444.962800	4633.364829
445.337927	4672.204399
445.712995	4562.055188
446.088002	4750.059979
446.462949	4773.546715
446.837837	4792.604797
447.212664	4778.703815
447.587431	5001.069111
447.962139	5299.434843
448.336786	5635.626872
448.711374	5622.693792
449.085901	5268.308238
449.460369	5207.005287
449.834776	5141.543384
450.209124	5376.098190
450.583412	5388.827103
450.957640	5506.669116
451.331808	5369.511922
451.705917	5217.604313
452.079965	5217.904262
452.453954	5251.175877
452.827883	5220.124890
453.201752	5223.358790
453.575562	5254.003964
453.949311	5385.625971
454.323001	5388.033122
454.696632	5382.530702
455.070202	5538.501482
455.443713	5565.302776
455.817164	5656.850130
456.190556	5729.843517
456.563888	5706.613880
456.937160	5784.986178
457.310373	5625.874760
457.683526	5684.785684
458.056619	5676.371998
458.429653	5655.741076
458.802628	5701.517274
459.175542	5728.182457
459.548398	5868.172779
459.921194	6057.339556
460.293930	6114.110510
460.666607	6365.026381
461.039224	6573.805768
461.411782	6706.312497
461.784280	6624.151771
462.156719	6625.467512
462.529099	6585.198775
462.901419	6443.640655
463.273680	6315.701211
463.645882	6303.657895
464.018024	6304.517412
464.390106	6367.970415
464.762130	6623.877028
465.134094	7008.701069
465.505999	7635.871019
465.877845	8340.609203
466.249631	8694.213378
466.621358	8618.696893
466.993026	8428.310157
467.364634	8213.388124
467.736184	7929.419928
468.107674	7780.297556
468.479105	7689.400511
468.850477	7624.142774
469.221790	7455.553987
469.593043	7233.080306
469.964238	7127.102649
470.335373	7106.438960
470.706449	7259.624502
471.077467	7434.842406
471.448425	8081.385511
471.819324	8661.425713
472.190164	8708.016057
472.560945	8223.173004
472.931667	7756.329390
473.302330	7551.351033
473.672934	7440.284332
474.043479	7510.626072
474.413965	7418.695591
474.784393	7361.438165
475.154761	7506.862851
475.525070	7517.146805
475.895321	7465.721994
476.265513	7558.270017
476.635645	7713.771969
477.005719	7697.428548
477.375734	7781.920808
477.745691	7883.608442
478.115588	8073.672545
478.485427	8300.491701
478.855207	8758.422554
479.224928	9170.420935
479.594591	9536.731338
479.964194	9540.406339
480.333739	9615.426270
480.703226	9601.603426
481.072653	9684.331281
481.442022	9779.563719
481.811333	9911.929295
482.180584	9754.025233
482.549777	9680.651239
482.918912	9613.044325
483.287988	9580.181043
483.657005	9475.229261
484.025964	9377.914827
484.394864	9426.103217
484.763706	9374.917861
485.132489	9270.727293
485.501213	9244.064631
485.869879	9288.078945
486.238487	9210.578766
486.607036	9255.374459
486.975527	9189.572278
487.343959	9215.052790
487.712333	9236.318898
488.080648	9250.295497
488.448905	9321.791661
488.817104	9294.619842
489.185244	9428.984236
489.553326	9585.665818
489.921350	9981.169543
490.289315	10508.113793
490.657222	10736.336910
491.025070	10851.678510
491.392861	10751.788047
491.760593	10581.255894
492.128267	10326.591925
492.495883	10081.117980
492.863440	9840.118059
493.230939	9610.478377
493.598380	9411.035208
493.965763	9351.587401
494.333088	9198.132158
494.700354	9102.314946
495.067563	9040.752376
495.434713	8996.944749
495.801805	8999.009101
496.168839	8916.840814
496.535815	8853.891926
496.902733	8844.205349
497.269593	8764.918081
497.636395	8729.907268
498.003139	8763.062937
498.369825	8660.525867
498.736453	8686.142491
499.103023	8596.304088
499.469535	8550.472438
499.835989	8543.772744
500.202385	8469.723235
500.568723	8432.484232
500.935003	8420.372860
501.301226	8344.100202
501.667390	8414.333557
502.033497	8432.209489
502.399546	8316.089031
502.765537	8197.692492
503.131470	8217.022796
503.497345	8224.400525
503.863163	8008.823142
504.228923	8038.457565
504.594625	8055.320225
504.960269	7934.624919
505.325856	7971.427863
505.691385	7828.097777
506.056856	7808.112122
506.422270	7809.407699
506.787625	7697.652880
507.152924	7675.592791
507.518164	7647.052298
507.883347	7495.850450
508.248472	7472.726678
508.613540	7475.174158
508.978550	7452.546939
509.343503	7370.083744
509.708398	7330.792991
510.073236	7334.258784
510.438016	7278.425485
510.802738	7160.845612
511.167403	7163.192270
511.532010	7119.939170
511.896561	7099.973680
512.261053	7130.749924
512.625488	7014.241297
512.989866	6935.188443
513.354186	6856.647266
513.718449	6790.446834
514.082655	6781.143384
514.446803	6690.677358
514.810894	6672.632548
515.174927	6598.998934
515.538904	6517.405338
515.902822	6508.603484
516.266684	6394.103757
516.630488	6356.184197
516.994235	6285.381192
517.357925	6259.595690
517.721558	6212.055088
518.085133	6162.939126
518.448651	6103.955106
518.812112	6014.933370
519.175516	5953.542198
519.538863	5909.263224
519.902152	5845.863152
520.265385	5815.089429
520.628560	5753.917547
520.991678	5668.631307
521.354739	5616.576352
521.717743	5569.766718
522.080690	5495.656715
522.443580	5463.985666
522.806413	5410.148664
523.169189	5338.251727
523.531908	5289.443276
523.894569	5213.374785
524.257174	5155.288090
524.619722	5117.416422
524.982213	5054.215476
525.344647	4984.561853
525.707025	4932.771559
526.069345	4897.735540
526.431608	4831.325900
526.793815	4792.345177
527.155964	4712.800811
527.518057	4658.114374
527.880093	4596.861834
528.242072	4562.392945
528.603995	4499.272658
528.965860	4448.364565
529.327669	4401.474273
529.689421	4343.511086
530.051117	4294.208601
530.412755	4253.523969
530.774337	4204.559242
531.135862	4154.510667
531.497331	4111.975931
531.858743	4060.294022
532.220098	4033.079353
532.581396	3977.966938
532.942638	3924.986932
533.303824	3893.935945
533.664953	3853.359698
534.026025	3810.580466
534.387040	3783.385962
534.747999	3739.830392
535.108902	3710.516083
535.469748	3664.291222
535.830537	3631.291829
536.191270	3600.961727
536.551947	3562.548135
536.912567	3535.945966
537.273131	3507.629805
537.633638	3468.535657
537.994089	3440.111111
538.354483	3408.205648
538.714821	3387.824263
539.075103	3366.772405
539.435328	3335.895338
539.795497	3308.380720
540.155609	3282.204528
540.515665	3263.698453
540.875665	3234.119482
541.235609	3217.644992
541.595496	3193.893595
541.955328	3180.653005
542.315102	3148.545896
542.674821	3126.531177
543.034483	3109.204731
543.394090	3088.384766
543.753640	3071.612847
544.113134	3063.226888
544.472571	3038.356355
544.831953	3029.957793
545.191278	3006.907117
545.550548	2988.890033
545.909761	2977.953250
546.268918	2966.414049
546.628019	2952.828139
546.987064	2937.273659
547.346053	2918.762542
547.704986	2913.368507
548.063863	2898.242525
548.422684	2883.547562
548.781449	2874.768392
549.140158	2865.732124
549.498811	2859.004704
549.857408	2844.309741
550.215949	2834.650890
550.574434	2823.572954
550.932864	2814.965184
551.291237	2809.712302
551.649555	2804.741724
552.007817	2794.097328
552.366022	2789.895526
552.724173	2781.990997
553.082267	2777.872374
553.440305	2772.248967
553.798288	2763.943666
554.156215	2758.622728
554.514086	2754.735999
554.871902	2747.441449
555.229661	2742.480954
555.587365	2738.654718
555.945014	2734.954511
556.302606	2730.074674
556.660143	2727.763305
557.017625	2724.163921
557.375050	2718.565720
557.732421	2717.620503
558.089735	2711.412322
558.446994	2706.199769
558.804197	2707.472661
559.161345	2703.132227
559.518437	2697.478573
559.875474	2695.648634
560.232455	2694.900023
560.589381	2693.513706
560.946251	2691.958510
561.303065	2689.347192
561.659825	2685.009279
562.016528	2683.423836
562.373177	2680.099195
562.729770	2678.957374
563.086307	2679.060718
563.442789	2675.844462
563.799216	2675.441169
564.155587	2671.740962
564.511904	2671.748524
564.868164	2670.765499
565.224370	2670.389933
565.580520	2667.440858
565.936615	2664.816937
566.292654	2663.544046
566.648638	2666.548574
567.004567	2662.613953
567.360441	2662.082112
567.716260	2660.058088
568.072023	2658.906185
568.427732	2657.507264
568.783385	2654.933755
569.138982	2653.620535
569.494525	2656.804023
569.850013	2653.028199
570.205445	2654.361584
570.560823	2655.863848
570.916145	2654.522901
571.271412	2654.303611
571.626625	2654.154897
571.981782	2649.307828
572.336884	2649.779176
572.691931	2649.088537
573.046923	2649.504433
573.401860	2648.513846
573.756743	2647.064514
574.111570	2648.077786
574.466342	2646.389000
574.821059	2646.192395
575.175722	2645.093423
575.530330	2642.585449
575.884882	2643.820532
576.239380	2642.686272
576.593823	2644.329688
576.948211	2641.184008
577.302544	2639.464975
577.656823	2638.454223
578.011047	2638.928092
578.365216	2640.266518
578.719330	2637.745941
579.073389	2638.779378
579.427394	2638.328195
579.781344	2637.357773
580.135239	2638.124028
580.489080	2639.588483
580.842866	2638.721405
581.196597	2637.400622
581.550273	2636.273924
581.903895	2635.318626
582.257463	2635.200159
582.610975	2635.580766
582.964434	2634.895169
583.317837	2634.065899
583.671186	2636.596558
584.024481	2632.830816
584.377721	2632.868625
584.730906	2632.571197
585.084037	2632.425003
585.437113	2632.961886
585.790135	2634.212092
586.143103	2633.181177
586.496016	2633.581948
586.848874	2628.021556
587.201679	2626.186576
587.554428	2626.032820
587.907124	2629.622122
588.259765	2624.954013
588.612352	2631.560446
588.964884	2628.601288
589.317362	2629.785959
589.669786	2626.990640
590.022155	2630.083387
590.374470	2631.182359
590.726731	2629.153295
591.078937	2627.605660
591.431090	2628.853346
591.783188	2626.121041
592.135232	2625.586678
592.487222	2626.620115
592.839157	2628.324025
593.191038	2624.896040
593.542866	2626.100876
593.894639	2626.093314
594.246358	2624.686832
594.598022	2625.165742
594.949633	2626.287399
595.301190	2626.277316
595.652692	2626.554580
596.004141	2624.003756
596.355535	2625.566514
596.706876	2623.056019
597.058162	2622.486369
597.409395	2620.701800
597.760573	2623.532408
598.111698	2621.873868
598.462768	2624.021400
598.813785	2625.369909
599.164748	2620.795062
599.515657	2621.523508
599.866511	2623.907974
600.217312	2623.512243
600.568060	2620.164917
600.918753	2621.314300
601.269392	2619.640637
601.619978	2622.738426
601.970510	2620.984105
602.320988	2619.880092
602.671412	2623.247583
603.021783	2619.794392
603.372100	2622.577109
603.722363	2619.423868
604.072572	2619.897736
604.422728	2624.772532
604.772830	2616.293311
605.122878	2618.894547
605.472872	2615.272477
605.822813	2617.979577
606.172701	2619.512088
606.522534	2621.266409
606.872314	2619.812037
607.222041	2619.537294
607.571714	2619.559979
607.921333	2620.744650
608.270899	2621.558796
608.620411	2618.987808
608.969870	2618.556789
609.319276	2618.201388
609.668627	2618.559310
610.017926	2620.182561
610.367171	2621.062243
610.716362	2618.556789
611.065500	2619.640637
611.414585	2620.505195
611.763616	2619.179372
612.112594	2621.916718
612.461518	2618.269443
612.810389	2618.007303
613.159207	2617.919083
613.507971	2617.828342
613.856682	2620.263220
614.205340	2619.988477
614.553945	2620.243055
614.902496	2621.117695
615.250994	2618.897067
615.599439	2620.648868
615.947830	2621.505864
616.296169	2618.912191
616.644454	2622.393107
616.992686	2619.877572
617.340864	2620.880761
617.688990	2622.269599
618.037063	2619.270112
618.385082	2620.878241
618.733048	2625.904271
619.080961	2620.041409
619.428821	2622.960237
619.776628	2621.669702
620.124382	2622.274640
620.472083	2622.461163
620.819731	2622.312449
621.167326	2618.791203
621.514868	2622.057871
621.862357	2618.851697
622.209793	2617.961933
622.557176	2620.933693
622.904506	2616.830194
623.251783	2612.933382
623.599007	2615.370780
623.946179	2613.404730
624.293297	2612.668722
624.640363	2614.740636
624.987376	2617.389762
625.334336	2613.739967
625.681243	2616.447066
626.028097	2616.351284
626.374899	2613.233331
626.721647	2615.789196
627.068343	2614.629730
627.414987	2615.537138
627.761577	2614.100409
628.108115	2614.725512
628.454600	2612.691407
628.801032	2615.189298
629.147412	2612.295676
629.493739	2614.002107
629.840014	2614.163424
630.186236	2613.273660
630.532405	2612.063783
630.878521	2614.082765
631.224585	2612.721654
631.570597	2611.320213
631.916556	2614.521346
632.262462	2613.555965
632.608316	2611.557147
632.954117	2612.877929
633.299866	2612.177209
633.645562	2612.477158
633.991206	2610.997579
634.336797	2610.987497
634.682336	2611.410954
635.027823	2610.667383
635.373257	2612.280553
635.718639	2608.897938
636.063968	2609.954060
636.409245	2608.781992
636.754470	2608.797115
637.099642	2607.430963
637.444762	2607.897269
637.789829	2608.338370
638.134845	2609.787702
638.479808	2607.773761
638.824719	2608.350973
639.169577	2608.209821
639.514383	2606.820983
639.859137	2607.322578
640.203839	2607.607403
640.548489	2605.081785
640.893086	2604.711260
641.237632	2601.041300
641.582125	2604.738987
641.926566	2601.532813
642.270955	2606.304265
642.615292	2607.337701
642.959576	2607.201590
643.303809	2605.497680
643.647990	2606.687392
643.992118	2605.187649
644.336195	2605.379213
644.680219	2603.047679
645.024192	2605.452310
645.368112	2606.160592
645.711981	2605.013729
646.055797	2609.283587
646.399562	2607.201590
646.743274	2609.331478
647.086935	2607.037753
647.430544	2610.243927
647.774101	2607.967846
648.117606	2609.699482
648.461059	2608.908021
648.804460	2610.790892
649.147810	2608.696292
649.491108	2607.620006
649.834354	2606.205962
650.177548	2606.687392
650.520690	2606.763010
650.863781	2606.407608
651.206820	2607.153699
651.549807	2605.427104
651.892742	2604.126486
652.235626	2604.204624
652.578458	2605.220417
652.921238	2603.070365
653.263967	2604.728904
653.606644	2602.667072
653.949269	2602.094901
654.291843	2604.681013
654.634365	2604.076075
654.976836	2605.532968
655.319255	2601.651280
655.661622	2605.071703
656.003938	2602.369644
656.346203	2603.055241
656.688416	2604.320571
657.030577	2601.368975
657.372687	2601.278234
657.714746	2601.565580
658.056753	2604.527258
658.398708	2597.283120
658.740612	2599.090374
659.082465	2599.581886
659.424266	2600.179263
659.766016	2596.789087
660.107715	2601.825200
660.449362	2602.341918
660.790958	2600.020467
661.132503	2601.540374
661.473996	2602.644387
661.815438	2602.019284
662.156829	2600.511979
662.498168	2601.805035
662.839456	2600.262442
663.180693	2601.731938
663.521879	2604.590272
663.863013	2603.713112
664.204097	2600.292689
664.545129	2603.052721
664.886110	2602.649428
665.227040	2602.609099
665.567918	2603.077926
665.908746	2601.691609
666.249522	2600.448965
666.590248	2602.208327
666.930922	2601.736979
667.271545	2604.030704
667.612118	2602.409973
667.952639	2603.014912
668.293109	2604.310488
668.633528	2603.657659
668.973896	2601.895776
669.314213	2602.851074
669.654480	2600.897627
669.994695	2603.103132
670.334859	2601.298399
670.674973	2603.524068
671.015035	2603.057762
671.355047	2600.658173
671.695008	2601.409304
672.034918	2600.438882
672.374777	2602.621702
672.714585	2601.852926
673.054342	2601.578183
673.394049	2601.966352
673.733705	2604.549943
674.073310	2601.000971
674.412864	2602.021805
674.752368	2603.022474
675.091820	2598.825713
675.431223	2601.348811
675.770574	2601.555498
676.109875	2598.102308
676.449125	2596.607605
676.788324	2597.870414
677.127473	2597.905702
677.466571	2594.916298
677.805619	2600.060796
678.144616	2600.317895
678.483562	2600.171701
678.822458	2599.511310
679.161303	2602.810745
679.500098	2597.638521
679.838842	2598.485435
680.177535	2600.973245
680.516179	2600.196907
680.854771	2598.619026
681.193314	2599.531475
681.531805	2601.212699
681.870247	2603.241764
682.208638	2601.729418
682.546978	2602.548605
682.885268	2600.063316
683.223508	2601.931064
683.561697	2602.462906
683.899836	2601.605909
684.237925	2598.009046
684.575963	2602.747731
684.913951	2601.379057
685.251889	2603.229161
685.589776	2600.154057
685.927614	2600.501897
686.265401	2601.321084
686.603137	2600.113728
686.940824	2601.958790
687.278460	2601.535333
687.616046	2601.202617
687.953582	2602.362082
688.291068	2601.671444
688.628504	2602.717484
688.965889	2602.563729
689.303224	2604.123966
689.640510	2601.376537
689.977745	2602.087340
690.314930	2600.103646
690.652065	2602.415015
690.989150	2600.590117
691.326185	2600.963162
691.663170	2598.901330
692.000105	2598.424941
692.336990	2597.383943
692.673825	2597.895620
693.010610	2598.591299
693.347345	2591.521081
693.684030	2591.054774
694.020665	2591.299270
694.357251	2591.889085
694.693786	2592.284816
695.030272	2594.570979
695.366707	2594.258428
695.703093	2594.530650
696.039429	2594.780187
696.375716	2594.792790
696.711952	2591.594178
697.048139	2594.087028
697.384276	2593.156936
697.720363	2593.439240
698.056400	2592.181472
698.392388	2593.910588
698.728326	2590.848087
699.064214	2591.657192
699.400053	2594.417224
699.735842	2592.483942
700.071581	2595.143150
700.407270	2590.583427
700.742910	2593.275403
701.078501	2590.669126
701.414042	2590.838005
701.749533	2592.025197
702.084974	2590.543097
702.420366	2590.492686
702.755709	2589.333220
703.091002	2590.207861
703.426246	2588.937490
703.761440	2590.729620
704.096584	2591.059816
704.431679	2591.906729
704.766725	2588.564444
705.101721	2589.459249
705.436668	2590.341451
705.771565	2589.330700
706.106413	2588.198961
706.441212	2588.335072
706.775961	2588.498909
707.110661	2589.184506
707.445311	2591.921853
707.779913	2587.893971
708.114465	2592.262131
708.448967	2589.325659
708.783421	2592.521750
709.117825	2587.674681
709.452180	2591.581575
709.786485	2591.200968
710.120742	2589.444126
710.454949	2591.266503
710.789107	2587.808271
711.123216	2590.023858
711.457275	2591.193406
711.791286	2591.909250
712.125247	2590.101996
712.459159	2593.217429
712.793023	2599.226485
713.126837	2593.527460
713.460602	2594.792790
713.794318	2593.875300
714.127985	2596.093408
714.461602	2592.536874
714.795171	2593.928232
715.128691	2591.263982
715.462162	2592.047882
715.795584	2592.725917
716.128957	2589.161821
716.462281	2592.337748
716.795556	2591.891606
717.128782	2589.786924
717.461960	2588.587130
717.795088	2592.073087
718.128167	2587.694845
718.461198	2588.314907
718.794180	2591.563931
719.127113	2588.952613
719.459997	2587.843559
719.792833	2585.534711
720.125619	2589.073601
720.458357	2587.551172
720.791046	2587.914136
721.123686	2583.976994
721.456278	2586.928590
721.788821	2585.212077
722.121315	2586.668971
722.453761	2586.384145
722.786158	2584.463466
723.118506	2587.641913
723.450805	2584.554207
723.783056	2586.064032
724.115259	2588.539239
724.447412	2582.633527
724.779518	2586.595874
725.111574	2587.442788
725.443582	2586.232911
725.775542	2589.373550
726.107453	2586.278281
726.439315	2584.980184
726.771129	2591.110227
727.102895	2586.263158
727.434612	2588.612335
727.766281	2589.237438
728.097901	2583.616552
728.429473	2583.818198
728.760996	2585.393559
729.092471	2584.660071
729.423897	2589.429002
729.755276	2587.709969
730.086606	2586.568148
730.417887	2587.331882
730.749120	2590.316245
731.080305	2589.799527
731.411442	2590.270875
731.742530	2592.065526
732.073570	2592.365474
732.404562	2590.056626
732.735506	2591.284147
733.066401	2589.857500
733.397249	2592.423448
733.728048	2589.239959
734.058798	2591.402614
734.389501	2586.449680
734.720156	2588.211564
735.050762	2588.932449
735.381320	2584.644947
735.711831	2585.517067
736.042293	2587.218456
736.372707	2586.595874
736.703073	2584.902046
737.033391	2585.827098
737.363661	2589.532346
737.693883	2583.298959
738.024056	2588.521595
738.354182	2585.537232
738.684260	2585.970771
739.014290	2583.924062
739.344272	2584.781058
739.674207	2586.679053
740.004093	2589.030751
740.333931	2587.289032
740.663722	2587.399938
740.993464	2585.116295
741.323159	2584.062694
741.652806	2590.038982
741.982405	2587.447829
742.311956	2588.088055
742.641460	2589.489496
742.970915	2584.612180
743.300323	2587.992273
743.629683	2587.165524
743.958996	2583.762745
744.288260	2586.419433
744.617477	2585.721234
744.946647	2580.843917
745.275768	2578.920717
745.604842	2581.789134
745.933869	2578.736715
746.262847	2577.743608
746.591778	2584.534042
746.920662	2583.256109
747.249498	2584.957499
747.578286	2584.465986
747.907027	2583.712334
748.235720	2583.755184
748.564365	2585.658219
748.892963	2585.514546
749.221514	2581.804257
749.550017	2582.071438
749.878473	2585.335585
750.206881	2584.471027
750.535242	2584.276943
750.863555	2583.591346
751.191821	2584.430698
751.520039	2583.949268
751.848210	2583.982036
752.176334	2583.273753
752.504411	2584.350040
752.832440	2583.293918
753.160421	2582.497416
753.488356	2585.106213
753.816243	2583.719896
754.144082	2580.664956
754.471875	2586.540421
754.799620	2581.486664
755.127318	2579.404668
755.454969	2581.572364
755.782572	2583.901377
756.110129	2581.526994
756.437638	2583.687128
756.765100	2582.565471
757.092515	2581.678228
757.419882	2580.712847
757.747203	2581.879874
758.074477	2583.974474
758.401703	2583.389700
758.728882	2584.629824
759.056014	2584.425657
759.383099	2584.208887
759.710138	2582.565471
760.037129	2583.356932
760.364073	2582.320975
760.690970	2582.497416
761.017820	2583.488002
761.344623	2583.266192
761.671379	2582.036150
761.998088	2581.872313
762.324751	2583.233424
762.651366	2585.786769
762.977935	2593.809765
763.304456	2593.920670
763.630931	2600.945518
763.957359	2601.638677
764.283740	2597.883017
764.610074	2595.639704
764.936362	2593.532502
765.262602	2591.090062
765.588796	2587.599063
765.914943	2584.612180
766.241044	2586.921028
766.567097	2584.319793
766.893104	2583.976994
767.219064	2583.591346
767.544978	2581.461459
767.870845	2581.194277
768.196665	2580.617065
768.522438	2581.910121
768.848165	2580.816191
769.173846	2577.211766
769.499479	2581.078331
769.825066	2579.497929
770.150607	2578.645974
770.476101	2577.224369
770.801548	2580.551530
771.126949	2577.360480
771.452303	2577.874678
771.777611	2576.082547
772.102872	2580.959864
772.428087	2576.132959
772.753256	2576.826118
773.078378	2575.921231
773.403453	2579.724781
773.728482	2576.400140
774.053465	2574.925603
774.378401	2575.452403
774.703291	2576.296797
775.028135	2574.416446
775.352932	2574.179512
775.677683	2575.268401
776.002388	2577.108422
776.327046	2578.769482
776.651658	2578.403999
776.976224	2574.711354
777.300743	2576.727815
777.625216	2574.933164
777.949643	2573.584656
778.274024	2576.402661
778.598359	2570.882597
778.922647	2569.750858
779.246889	2572.727660
779.571086	2571.979048
779.895236	2570.633060
780.219339	2575.936354
780.543397	2577.957857
780.867409	2574.469378
781.191374	2576.818556
781.515294	2577.257136
781.839167	2576.813515
782.162995	2575.187743
782.486776	2576.379976
782.810511	2577.909966
783.134201	2575.323854
783.457844	2578.477096
783.781441	2573.710685
784.104993	2575.094481
784.428498	2573.015005
784.751958	2575.538103
785.075372	2576.410223
785.398739	2575.286045
785.722061	2574.292938
786.045337	2573.249419
786.368568	2574.794533
786.691752	2576.500963
787.014891	2573.009964
787.337983	2576.773186
787.661030	2577.204204
787.984031	2576.276632
788.306987	2575.207907
788.629897	2579.492888
788.952760	2579.558423
789.275579	2577.604976
789.598351	2578.787127
789.921078	2577.302507
790.243759	2576.584142
790.566395	2575.989286
790.888984	2577.042887
791.211529	2574.660942
791.534027	2577.504153
791.856480	2577.957857
792.178888	2573.317475
792.501249	2574.242526
792.823566	2574.265212
793.145836	2576.306879
793.468062	2576.314441
793.790241	2575.429718
794.112375	2575.764955
794.434464	2574.474419
794.756507	2574.050962
795.078505	2576.569019
795.400457	2571.308575
795.722364	2570.817062
796.044226	2572.435273
796.366042	2574.610531
796.687812	2571.961404
797.009538	2576.662280
797.331218	2579.737384
797.652852	2574.764286
797.974442	2575.749831
798.295986	2575.119687
798.617484	2578.678742
798.938938	2573.471230
799.260346	2574.822259
799.581709	2577.768813
799.903026	2576.379976
800.224299	2575.883422
800.545526	2576.886612
800.866708	2572.767989
801.187845	2573.188925
801.508936	2575.409553
801.829983	2575.240675
802.150984	2575.956519
802.471940	2574.648339
802.792851	2572.619275
803.113717	2572.929306
803.434538	2574.789492
803.755314	2573.630026
804.076045	2572.412587
804.396731	2570.610375
804.717372	2572.914182
805.037967	2576.135480
805.358518	2576.503484
805.679024	2574.434090
805.999485	2573.146075
806.319901	2575.258319
806.640272	2572.316806
806.960598	2572.062227
807.280879	2571.207752
807.601115	2574.098853
807.921306	2574.716395
808.241453	2572.916703
808.561554	2574.794533
808.881611	2574.338308
809.201623	2573.745973
809.521590	2573.831672
809.841513	2574.824780
810.161390	2573.995510
810.481223	2570.549881
810.801011	2576.349729
811.120755	2572.296641
811.440453	2576.563978
811.760107	2575.555747
812.079716	2572.478123
812.399281	2567.565518
812.718801	2570.859912
813.038276	2567.005950
813.357707	2569.808832
813.677093	2573.680438
813.996434	2577.400809
814.315731	2573.551888
814.634983	2571.762279
814.954191	2573.758576
815.273354	2574.381158
815.592473	2573.287228
815.911547	2572.430232
816.230577	2575.916189
816.549562	2573.897207
816.868502	2573.345201
817.187399	2575.054152
817.506250	2574.466858
817.825058	2575.896025
818.143821	2574.688668
818.462539	2576.130438
818.781213	2574.151786
819.099843	2577.471385
819.418429	2579.502970
819.736970	2580.982549
820.055466	2580.654874
820.373919	2585.542273
820.692327	2586.149732
821.010691	2594.913778
821.329011	2604.081116
821.647286	2625.450567
821.965517	2649.380924
822.283704	2667.675272
822.601847	2677.969308
822.919945	2672.061076
823.237999	2665.442041
823.556010	2655.765546
823.873976	2644.017137
824.191897	2633.261835
824.509775	2626.935187
824.827609	2615.098558
825.145398	2611.652929
825.463144	2608.030860
825.780845	2603.352669
826.098502	2604.265118
826.416116	2609.608741
826.733685	2618.788682
827.051210	2617.057046
827.368692	2618.450925
827.686129	2614.241562
828.003522	2607.499018
828.320872	2596.363109
828.638177	2595.952255
828.955439	2589.285329
829.272656	2587.790627
829.589830	2582.578074
829.906960	2584.443301
830.224046	2580.324678
830.541088	2578.940882
830.858086	2578.842579
831.175041	2576.626992
831.491952	2576.679924
831.808819	2577.902404
832.125642	2577.463824
832.442421	2580.697724
832.759157	2581.292580
833.075849	2586.432036
833.392497	2589.333220
833.709101	2592.937645
834.025662	2594.654158
834.342179	2594.202975
834.658653	2591.057295
834.975083	2586.716862
835.291469	2590.343972
835.607811	2584.564289
835.924110	2579.991962
836.240366	2578.446849
836.556578	2576.402661
836.872746	2574.222362
837.188871	2575.273442
837.504952	2574.655901
837.820990	2573.907290
838.136984	2569.140879
838.452935	2571.994172
838.768842	2571.928637
839.084706	2572.495767
839.400526	2572.470561
839.716303	2575.331416
840.032037	2578.303176
840.347727	2582.326017
840.663373	2579.069431
840.978977	2574.870150
841.294537	2575.596076
841.610054	2577.678073
841.925527	2571.540468
842.240957	2572.049624
842.556344	2574.129100
842.871687	2572.324367
843.186987	2570.156671
843.502244	2570.040725
843.817458	2569.397978
844.132629	2571.807649
844.447756	2569.226578
844.762840	2564.624005
845.077881	2568.510734
845.392879	2564.097204
845.707833	2566.327915
846.022745	2563.656103
846.337613	2569.776064
846.652438	2565.438151
846.967221	2570.076013
847.281960	2567.842782
847.596656	2567.598286
847.911309	2564.661813
848.225919	2567.278172
848.540485	2565.473439
848.855009	2568.354459
849.169490	2567.880590
849.483928	2568.886300
849.798323	2568.248594
850.112675	2567.436969
850.426984	2566.073337
850.741251	2567.779767
851.055474	2567.527709
851.369654	2568.314129
851.683792	2566.784139
851.997887	2566.521999
852.311938	2565.728017
852.625947	2567.999057
852.939914	2568.210786
853.253837	2568.026784
853.567718	2567.063923
853.881555	2565.808676
854.195350	2564.387071
854.509103	2566.413614
854.822812	2564.127451
855.136479	2570.444017
855.450103	2568.833368
855.763685	2568.293965
856.077224	2565.612071
856.390720	2568.881259
856.704173	2568.997206
857.017584	2566.864798
857.330953	2569.975190
857.644278	2564.787842
857.957561	2569.193811
858.270802	2567.880590
858.584000	2567.104252
858.897155	2567.285734
859.210268	2567.600806
859.523339	2569.708008
859.836367	2568.840930
860.149352	2569.123235
860.462295	2569.216496
860.775195	2562.632749
861.088054	2565.009653
861.400869	2562.378171
861.713642	2560.465053
862.026373	2565.823799
862.339062	2566.239695
862.651708	2568.339335
862.964312	2565.642318
863.276873	2567.562997
863.589392	2567.114335
863.901869	2566.489232
864.214303	2568.936712
864.526696	2568.089798
864.839045	2566.093501
865.151353	2569.226578
865.463619	2567.920919
865.775842	2568.208265
866.088023	2569.750858
866.400162	2566.826989
866.712258	2570.990982
867.024313	2568.588872
867.336325	2569.367731
867.648296	2569.634912
867.960224	2566.421176
868.272110	2569.050138
868.583954	2568.583831
868.895755	2566.716084
869.207515	2567.051320
869.519233	2567.459654
869.830909	2570.514593
870.142542	2569.271949
870.454134	2568.851012
870.765684	2569.219017
871.077191	2569.846640
871.388657	2570.133986
871.700081	2567.356310
872.011463	2569.685323
872.322803	2567.941084
872.634101	2569.211455
872.945357	2567.520148
873.256571	2571.502659
873.567744	2567.520148
873.878874	2570.391085
874.189963	2568.891342
874.501010	2568.916547
874.812015	2568.936712
875.122979	2568.800601
875.433900	2567.220199
875.744780	2571.248081
876.055618	2568.586352
876.366415	2569.415622
876.677169	2569.740776
876.987882	2568.556105
877.298554	2565.559139
877.609183	2568.961918
877.919771	2567.706670
878.230317	2568.470405
878.540822	2572.699933
878.851285	2574.517269
879.161707	2575.233113
879.472087	2572.798236
879.782425	2576.541292
880.092722	2583.820719
880.402977	2586.628641
880.713191	2597.976279
881.023363	2609.124790
881.333494	2620.729527
881.643583	2622.758591
881.953631	2621.112654
882.263637	2622.158694
882.573602	2621.019393
882.883526	2616.860441
883.193408	2613.543362
883.503248	2609.250819
883.813048	2605.106991
884.122806	2603.226640
884.432522	2599.604571
884.742197	2590.843046
885.051831	2589.955803
885.361424	2586.895822
885.670975	2588.808940
885.980485	2583.997159
886.289954	2578.310737
886.599382	2579.329051
886.908768	2578.603124
887.218113	2573.602300
887.527417	2574.849985
887.836680	2574.600448
888.145901	2573.839234
888.455082	2572.057186
888.764221	2572.445355
889.073319	2570.280179
889.382376	2571.779923
889.691392	2569.604665
890.000366	2573.801425
890.309300	2574.091292
890.618193	2571.515262
890.927044	2570.940571
891.235855	2570.305385
891.544625	2572.039542
891.853353	2571.056517
892.162041	2570.358317
892.470687	2572.044583
892.779293	2570.020560
893.087858	2569.733214
893.396381	2569.292113
893.704864	2570.902762
894.013306	2573.362845
894.321707	2580.301993
894.630068	2583.682087
894.938387	2587.326841
895.246665	2583.969433
895.554903	2583.976994
895.863100	2580.566654
896.171256	2581.927765
896.479371	2580.347364
896.787446	2577.544482
897.095480	2577.978021
897.403473	2576.543813
897.711425	2574.817218
898.019336	2575.056673
898.327207	2574.875191
898.635038	2573.584656
898.942827	2572.115159
899.250576	2573.745973
899.558284	2570.749007
899.865952	2570.670869
900.173579	2570.580128
900.481165	2570.630540
900.788711	2571.104408
901.096216	2569.440827
901.403681	2566.088460
901.711105	2568.120045
902.018489	2569.680282
902.325832	2573.103226
902.633135	2570.207083
902.940397	2569.128276
903.247619	2570.852350
903.554800	2574.907959
903.861941	2580.584298
904.169041	2584.234093
904.476101	2588.173755
904.783121	2588.745926
905.090100	2589.096286
905.397039	2584.244176
905.703938	2585.973291
906.010796	2584.256778
906.317614	2576.712692
906.624391	2578.209914
906.931129	2577.874678
907.237826	2575.815366
907.544483	2572.682289
907.851099	2573.766137
908.157675	2571.053997
908.464211	2572.616754
908.770707	2565.682647
909.077163	2566.085939
909.383578	2563.845147
909.689954	2563.197358
909.996289	2561.432954
910.302584	2563.590568
910.608839	2568.051989
910.915054	2568.213306
911.221229	2568.082236
911.527363	2566.491752
911.833458	2566.892524
912.139513	2564.074519
912.445527	2567.237843
912.751502	2564.198027
913.057436	2566.002760
913.363331	2568.750189
913.669186	2565.700291
913.975000	2569.360169
914.280775	2568.188101
914.586510	2570.262535
914.892205	2571.066599
915.197859	2577.990624
915.503475	2579.939030
915.809050	2584.990266
916.114585	2587.639393
916.420081	2588.425813
916.725536	2591.863880
917.030952	2590.394383
917.336328	2589.005545
917.641665	2586.394228
917.946961	2586.323652
918.252218	2583.286356
918.557435	2581.403485
918.862612	2583.122519
919.167750	2581.741243
919.472848	2577.836869
919.777906	2576.541293
920.082925	2576.110274
920.387904	2573.927454
920.692843	2572.042063
920.997743	2572.110118
921.302603	2568.493090
921.607423	2568.530899
921.912204	2572.145406
922.216946	2568.198183
922.521647	2571.734552
922.826310	2569.637432
923.130932	2570.572566
923.435516	2564.901268
923.740059	2568.848492
924.044564	2568.392267
924.349028	2563.824982
924.653454	2563.651062
924.957840	2562.940259
925.262186	2563.613253
925.566493	2562.181566
925.870761	2561.513613
926.174989	2566.832030
926.479178	2566.025446
926.783328	2565.483522
927.087438	2562.970506
927.391509	2565.874211
927.695541	2563.973696
927.999533	2563.083932
928.303486	2562.940259
928.607400	2563.184755
928.911275	2562.441185
929.215110	2564.210630
929.518906	2563.822461
929.822663	2563.552760
930.126381	2562.789025
930.430060	2562.794066
930.733699	2564.855898
931.037299	2563.807338
931.340861	2564.949159
931.644383	2564.921433
931.947866	2560.638973
932.251309	2562.688202
932.554714	2561.122923
932.858080	2565.818758
933.161407	2563.393963
933.464694	2562.209292
933.767943	2566.380847
934.071153	2564.480332
934.374323	2564.437482
934.677455	2563.721638
934.980548	2563.199879
935.283602	2562.300033
935.586617	2563.167111
935.889593	2562.468912
936.192530	2563.600651
936.495428	2564.225754
936.798287	2561.707697
937.101108	2565.468398
937.403890	2565.218861
937.706632	2565.120558
938.009336	2565.783470
938.312002	2563.547718
938.614628	2567.638615
938.917216	2565.889334
939.219765	2563.419169
939.522275	2566.403532
939.824747	2566.738769
940.127179	2562.879766
940.429573	2560.606205
940.731929	2562.486556
941.034246	2560.578479
941.336524	2560.681823
941.638763	2565.670044
941.940964	2567.530230
942.243126	2564.203068
942.545250	2568.004098
942.847335	2564.379509
943.149381	2561.334652
943.451389	2564.913871
943.753359	2563.293140
944.055290	2564.122410
944.357182	2565.861608
944.659036	2560.994374
944.960851	2563.973696
945.262628	2563.661144
945.564367	2564.414797
945.866067	2562.042934
946.167729	2563.613253
946.469352	2563.610733
946.770937	2565.317163
947.072484	2564.596278
947.373992	2563.449416
947.675462	2565.722976
947.976893	2561.959755
948.278286	2565.274314
948.579641	2564.787842
948.880958	2563.615774
949.182236	2563.598130
949.483476	2561.188458
949.784678	2565.176011
950.085841	2565.604509
950.386967	2564.175342
950.688054	2563.507389
950.989103	2563.245249
951.290114	2563.290620
951.591087	2564.649211
951.892021	2564.261042
952.192917	2562.536967
952.493776	2563.517472
952.794596	2564.361865
953.095378	2564.956721
953.396122	2566.650549
953.696828	2564.480332
953.997496	2563.134344
954.298126	2563.484704
954.598718	2565.065106
954.899272	2562.473953
955.199788	2565.354972
955.500266	2564.114848
955.800706	2561.286761
956.101108	2559.076215
956.401472	2560.379353
956.701798	2558.269630
957.002087	2559.320711
957.302337	2562.927657
957.602550	2562.171483
957.902724	2561.644683
958.202861	2563.434293
958.502960	2561.231308
958.803022	2562.400856
959.103045	2560.137378
959.403031	2561.995043
959.702979	2562.211813
960.002889	2561.947152
960.302762	2561.538819
960.602596	2560.308777
960.902393	2559.121585
961.202153	2561.319528
961.501875	2562.352965
961.801559	2561.818603
962.101205	2561.352296
962.400814	2563.015877
962.700385	2561.997564
962.999918	2563.416648
963.299414	2565.491083
963.598873	2560.212995
963.898293	2560.429765
964.197677	2562.302553
964.497022	2561.652245
964.796331	2562.027811
965.095601	2562.794066
965.394835	2561.884138
965.694030	2562.715928
965.993189	2562.980589
966.292309	2561.947152
966.591393	2560.165104
966.890439	2561.402707
967.189447	2562.007646
967.488419	2560.465053
967.787353	2561.821123
968.086249	2560.757440
968.385108	2561.979920
968.683930	2560.923798
968.982714	2560.444888
969.281462	2564.240877
969.580172	2561.609395
969.878844	2559.847512
970.177480	2559.338355
970.476078	2563.131823
970.774639	2562.405897
971.073162	2559.340876
971.371649	2557.074877
971.670098	2557.586554
971.968510	2560.225598
972.266885	2556.648899
972.565223	2561.490928
972.863524	2561.080074
973.161788	2562.221895
973.460014	2560.860783
973.758204	2563.487225
974.056356	2560.722152
974.354471	2562.181566
974.652550	2561.012018
974.950591	2560.016390
975.248595	2563.109138
975.546563	2560.765002
975.844493	2560.863304
976.142386	2560.477656
976.440243	2558.473797
976.738062	2562.955383
977.035845	2558.304918
977.333590	2560.172666
977.631299	2562.844478
977.928971	2563.101576
978.226606	2561.768191
978.524204	2561.800959
978.821765	2560.888510
979.119290	2559.119065
979.416777	2560.586041
979.714228	2560.026472
980.011642	2560.432285
980.309020	2563.177194
980.606360	2557.581513
980.903664	2560.104610
981.200931	2561.460681
981.498162	2561.742985
981.795356	2559.731565
982.092513	2561.022100
982.389633	2562.473953
982.686717	2561.712738
982.983764	2562.612584
983.280775	2564.505538
983.577749	2562.453788
983.874686	2565.765826
984.171587	2565.886814
984.468451	2561.342214
984.765279	2563.318346
985.062070	2562.862122
985.358824	2564.203068
985.655543	2565.969993
985.952224	2562.529405
986.248869	2561.727862
986.545478	2556.356512
986.842050	2560.699467
987.138586	2557.306770
987.435086	2556.031358
987.731549	2559.103941
988.027975	2560.868345
988.324366	2561.097718
988.620719	2561.768191
988.917037	2559.958417
989.213318	2563.406566
989.509563	2559.361040
989.805772	2561.858932
990.101944	2563.119220
990.398080	2560.752399
990.694180	2560.210475
990.990244	2561.357337
991.286271	2560.787687
991.582262	2561.869014
991.878217	2559.456822
992.174136	2562.478994
992.470019	2560.407080
992.765865	2559.444219
993.061676	2560.664178
993.357450	2561.863973
993.653188	2558.158725
993.948890	2560.601164
994.244556	2560.555794
994.540186	2561.054868
994.835780	2557.170659
995.131337	2562.138716
995.426859	2560.646534
995.722345	2560.669220
996.017795	2560.838098
996.313208	2561.001936
996.608586	2561.143088
996.903928	2563.855229
997.199234	2560.618808
997.494504	2559.834909
997.789738	2561.369940
998.084936	2561.929508
998.380099	2560.396997
998.675225	2560.520506
998.970316	2565.196176
999.265371	2560.636452
999.560390	2561.405228
999.855373	2562.141237
1000.150320	2560.013870
1000.445232	2562.920095
1000.740108	2560.288612
1001.034948	2562.194169
1001.329752	2559.199723
1001.624521	2562.141237
1001.919254	2555.527243
1002.213951	2558.360371
1002.508613	2556.152346
1002.803239	2557.914229
1003.097829	2552.971378
1003.392384	2560.485218
1003.686903	2561.143088
1003.981386	2560.822975
1004.275834	2561.637121
1004.570246	2561.077553
1004.864623	2558.771225
1005.158964	2557.863818
1005.453270	2557.468087
1005.747540	2557.243756
1006.041775	2554.380380
1006.335974	2559.676112
1006.630138	2560.681822
1006.924266	2560.339024
1007.218359	2560.873386
1007.512416	2559.708880
1007.806438	2558.546894
1008.100425	2558.569579
1008.394376	2558.660320
1008.688292	2558.004970
1008.982172	2558.935063
1009.276017	2560.510423
1009.569827	2557.508416
1009.863602	2559.839950
1010.157341	2558.564538
1010.451045	2559.103941
1010.744714	2560.339024
1011.038347	2560.155022
1011.331945	2558.456153
1011.625508	2558.609908
1011.919036	2559.817265
1012.212528	2559.217367
1012.505986	2557.987326
1012.799408	2556.485062
1013.092795	2557.941955
1013.386147	2559.918088
1013.679464	2558.398180
1013.972745	2557.906667
1014.265992	2557.178221
1014.559204	2560.296174
1014.852380	2557.377346
1015.145521	2560.137378
1015.438628	2558.357851
1015.731699	2559.116544
1016.024736	2556.467418
1016.317737	2561.992522
1016.610703	2561.632080
1016.903635	2556.250648
1017.196531	2553.581357
1017.489393	2553.241079
1017.782219	2556.613611
1018.075011	2555.880123
1018.367768	2559.187120
1018.660490	2557.750392
1018.953177	2557.750392
1019.245829	2557.750392
