Dividing Wavelength (nm)	Counts (n)	Blue Motor Position (mm): 0.000000	Red Motor Position (mm): 24.500000	
326.493990	2145.434418
326.888308	2145.434418
327.282561	2145.434418
327.676750	2121.657816
328.070874	2119.532970
328.464933	2125.897427
328.858929	2133.315485
329.252859	2145.063894
329.646726	2159.836995
330.040528	2173.811073
330.434265	2193.902592
330.827938	2213.305993
331.221547	2230.705536
331.615091	2252.881572
332.008571	2273.885539
332.401986	2294.788683
332.795338	2312.286528
333.188625	2332.259580
333.581847	2352.378825
333.975006	2371.668800
334.368100	2391.576317
334.761129	2407.531569
335.154095	2423.557397
335.546996	2440.672114
335.939833	2457.058385
336.332606	2468.025415
336.725315	2482.944710
337.117960	2488.653816
337.510540	2496.805362
337.903056	2508.717609
338.295508	2514.348578
338.687896	2515.445028
339.080220	2529.061185
339.472480	2531.977492
339.864676	2540.252547
340.256807	2541.273380
340.648875	2542.304296
341.040879	2543.917465
341.432818	2544.371169
341.824694	2546.874102
342.216506	2545.802857
342.608253	2543.178936
342.999937	2543.753628
343.391557	2543.804039
343.783113	2546.014585
344.174605	2540.368493
344.566033	2539.917310
344.957397	2538.195756
345.348697	2536.000333
345.739934	2533.157122
346.131106	2531.566638
346.522215	2530.318953
346.913260	2529.923222
347.304241	2525.802079
347.695159	2527.037162
348.086012	2525.139167
348.476802	2523.546163
348.867528	2520.473579
349.258191	2519.692201
349.648789	2520.793693
350.039324	2517.398476
350.429796	2520.377797
350.820203	2516.402848
351.210548	2516.385204
351.600828	2516.362518
351.991045	2515.150121
352.381198	2512.972342
352.771288	2514.207425
353.161314	2514.608197
353.551276	2515.102230
353.941175	2514.000738
354.331010	2513.962929
354.720782	2513.811695
355.110490	2516.831346
355.500135	2515.901253
355.889717	2517.307735
356.279235	2512.490912
356.668689	2517.592560
357.058080	2517.736233
357.447408	2516.049967
357.836672	2513.708351
358.225873	2513.756242
358.615010	2511.825480
359.004084	2518.575585
359.393095	2519.276305
359.782043	2520.259330
360.170927	2517.085924
360.559748	2519.243538
360.948505	2519.125071
361.337199	2520.660102
361.725830	2521.209588
362.114398	2521.441481
362.502903	2521.459125
362.891344	2523.258817
363.279722	2522.573220
363.668037	2525.040865
364.056289	2524.284692
364.444478	2525.716379
364.832603	2525.285361
365.220665	2525.494569
365.608665	2526.157480
365.996601	2524.680422
366.384474	2526.885927
366.772284	2525.953314
367.160031	2526.475073
367.547715	2527.011956
367.935336	2527.448016
368.322893	2531.400280
368.710388	2525.459281
369.097820	2530.460105
369.485189	2528.768798
369.872495	2527.100176
370.259738	2532.595034
370.646918	2529.643438
371.034035	2528.045392
371.421090	2530.550846
371.808081	2530.424817
372.195010	2531.150743
372.581875	2533.469674
372.968678	2539.448483
373.355418	2532.279962
373.742096	2534.692154
374.128710	2535.425642
374.515262	2534.399767
374.901751	2536.385982
375.288177	2538.289017
375.674540	2539.521579
376.060841	2541.860675
376.447079	2541.364121
376.833254	2545.490305
377.219367	2544.971067
377.605417	2546.677497
377.991404	2547.174051
378.377329	2550.473486
378.763191	2552.263096
379.148991	2559.789538
379.534727	2566.368244
379.920402	2566.312791
380.306013	2575.318813
380.691563	2574.431570
381.077049	2578.298135
381.462474	2584.866758
381.847835	2592.715835
382.233134	2597.411669
382.618371	2600.721187
383.003545	2608.003134
383.388657	2611.574791
383.773706	2618.682818
384.158693	2622.645165
384.543618	2632.359468
384.928480	2637.047742
385.313280	2646.691469
385.698017	2654.429640
386.082692	2663.997750
386.467305	2666.230981
386.851856	2678.231448
387.236344	2689.092614
387.620770	2695.381453
388.005133	2704.004347
388.389435	2713.874926
388.773674	2720.556976
389.157851	2726.596278
389.541965	2737.575911
389.926018	2744.182343
390.310008	2756.553335
390.693936	2764.601537
391.077802	2775.533279
391.461606	2785.325720
391.845348	2791.007101
392.229027	2800.708801
392.612645	2816.797644
392.996200	2822.753767
393.379694	2836.667352
393.763125	2855.027234
394.146494	2862.220960
394.529801	2873.397198
394.913047	2889.307080
395.296230	2894.068450
395.679351	2898.285375
396.062410	2919.319589
396.445408	2909.615368
396.828343	2922.548448
397.211217	2932.524892
397.594028	2923.932245
397.976778	2939.605193
398.359466	2951.804785
398.742092	2949.516101
399.124656	2967.359265
399.507158	2979.084989
399.889598	2983.811071
400.271977	2998.014522
400.654294	3003.529544
401.036549	3018.768952
401.418742	3023.686597
401.800874	3048.632747
402.182944	3055.592060
402.564952	3082.791606
402.946898	3075.013105
403.328783	3082.216914
403.710606	3097.967999
404.092367	3119.894498
404.474067	3147.386431
404.855705	3134.125675
405.237282	3136.711787
405.618797	3170.676561
406.000250	3188.494520
406.381642	3223.407031
406.762972	3229.295098
407.144240	3215.822615
407.525447	3237.451685
407.906593	3239.881521
408.287677	3258.259048
408.668700	3279.225207
409.049661	3274.778909
409.430560	3295.263638
409.811399	3295.495531
410.192176	3315.193839
410.572891	3322.531239
410.953545	3361.630428
411.334138	3334.440965
411.714669	3380.509549
412.095139	3330.839060
412.475547	3378.551061
412.855894	3371.732900
413.236180	3401.142992
413.616405	3378.364538
413.996568	3406.353024
414.376670	3408.213210
414.756711	3402.342786
415.136691	3430.963937
415.516609	3454.203657
415.896466	3458.730613
416.276262	3483.185250
416.655997	3514.732791
417.035670	3522.115561
417.415283	3588.336157
417.794834	3608.410032
418.174324	3596.820419
418.553753	3592.739605
418.933121	3637.303405
419.312428	3626.646406
419.691674	3625.073566
420.070859	3661.163187
420.449983	3645.263387
420.829045	3692.070501
421.208047	3675.283458
421.586988	3716.837690
421.965867	3753.804471
422.344686	3759.891664
422.723444	3797.286943
423.102141	3702.009136
423.480777	3804.901606
423.859352	3771.146040
424.237866	3865.327397
424.616319	3854.733412
424.994712	3913.730035
425.373044	3907.446237
425.751314	3969.714569
426.129524	3900.771749
426.507673	4000.896627
426.885762	3978.249243
427.263789	4000.833612
427.641756	4002.315711
428.019662	4033.946431
428.397508	4034.435423
428.775292	4073.751382
429.153016	4080.486363
429.530679	4093.391717
429.908282	4098.574023
430.285824	4078.621137
430.663305	4154.251047
431.040726	4112.202783
431.418086	4100.345989
431.795385	4174.259387
432.172624	4210.994275
432.549802	4174.513965
432.926920	4191.235472
433.303977	4186.300183
433.680974	4226.755442
434.057910	4250.330398
434.434786	4258.648302
434.811601	4250.582456
435.188355	4355.123384
435.565050	4326.751770
435.941683	4322.071059
436.318257	4409.414090
436.694770	4413.900717
437.071222	4469.267710
437.447614	4406.114655
437.823946	4407.566507
438.200218	4424.333385
438.576429	4405.514758
438.952580	4427.315227
439.328670	4436.359058
439.704700	4474.591168
440.080670	4438.549439
440.456580	4501.175693
440.832429	4534.948903
441.208218	4433.697328
441.583947	4485.716995
441.959616	4501.478162
442.335224	4524.977501
442.710773	4542.848391
443.086261	4594.681535
443.461689	4544.496849
443.837057	4551.625040
444.212365	4623.685814
444.587612	4630.135970
444.962800	4593.784210
445.337927	4627.950630
445.712995	4514.370913
446.088002	4699.103996
446.462949	4718.088981
446.837837	4730.865786
447.212664	4713.884659
447.587431	4921.514663
447.962139	5205.044278
448.336786	5522.188308
448.711374	5501.897664
449.085901	5158.380838
449.460369	5086.521710
449.834776	5016.989075
450.209124	5226.927927
450.583412	5228.215942
450.957640	5332.144370
451.331808	5193.711764
451.705917	5039.762488
452.079965	5025.758162
452.453954	5042.406573
452.827883	4999.019882
453.201752	4991.548892
453.575562	5008.340976
453.949311	5114.164877
454.323001	5102.151808
454.696632	5080.941153
455.070202	5201.041602
455.443713	5212.931163
455.817164	5267.728506
456.190556	5309.633097
456.563888	5272.058857
456.937160	5318.084592
457.310373	5162.864944
457.683526	5195.201425
458.056619	5164.626827
458.429653	5127.309686
458.802628	5144.086646
459.175542	5142.342407
459.548398	5229.108226
459.921194	5348.064333
460.293930	5359.628740
460.666607	5521.006157
461.039224	5649.973996
461.411782	5713.926074
461.784280	5622.713957
462.156719	5592.716571
462.529099	5529.681983
462.901419	5395.630141
463.273680	5267.776397
463.645882	5225.564295
464.018024	5189.734294
464.390106	5199.607394
464.762130	5327.808977
465.134094	5538.740937
465.505999	5891.944340
465.877845	6283.253825
466.249631	6457.466019
466.621358	6363.352718
466.993026	6195.268046
467.364634	6011.119737
467.736184	5791.043125
468.107674	5635.594105
468.479105	5533.530904
468.850477	5450.102328
469.221790	5302.971212
469.593043	5133.094410
469.964238	5025.624572
470.335373	4962.627793
470.706449	4991.770703
471.077467	5022.592318
471.448425	5280.757368
471.819324	5508.231873
472.190164	5473.952027
472.560945	5190.520714
472.931667	4923.947019
473.302330	4778.421511
473.672934	4673.189945
474.043479	4654.633457
474.413965	4564.734561
474.784393	4491.400896
475.154761	4499.171834
475.525070	4454.774392
475.895321	4386.930544
476.265513	4369.767936
476.635645	4376.024008
477.005719	4321.017458
477.375734	4296.366215
477.745691	4284.307775
478.115588	4294.475783
478.485427	4310.312567
478.855207	4396.521339
479.224928	4465.910301
479.594591	4513.261859
479.964194	4454.681131
480.333739	4409.986261
480.703226	4346.805480
481.072653	4311.799708
481.442022	4280.078247
481.811333	4256.979680
482.180584	4164.799662
482.549777	4090.656891
482.918912	4026.551058
483.287988	3971.378150
483.657005	3902.919281
484.025964	3833.870597
484.394864	3796.843322
484.763706	3739.399374
485.132489	3672.843540
485.501213	3628.947693
485.869879	3595.242538
486.238487	3538.209444
486.607036	3511.695496
486.975527	3463.537353
487.343959	3435.944597
487.712333	3401.500914
488.080648	3367.470605
488.448905	3344.732480
488.817104	3309.666214
489.185244	3292.054943
489.553326	3283.668984
489.921350	3295.767753
490.289315	3320.663491
490.657222	3313.827687
491.025070	3294.220119
491.392861	3252.595311
491.760593	3207.539999
492.128267	3155.311124
492.495883	3109.126593
492.863440	3070.380285
493.230939	3031.263452
493.598380	2998.846312
493.965763	2969.375727
494.333088	2945.515945
494.700354	2922.830753
495.067563	2907.218300
495.434713	2885.818602
495.801805	2876.547920
496.168839	2859.017307
496.535815	2845.053311
496.902733	2834.534943
497.269593	2820.485248
497.636395	2807.670635
498.003139	2800.335756
498.369825	2784.415792
498.736453	2778.434463
499.103023	2769.171343
499.469535	2757.327152
499.835989	2748.774834
500.202385	2740.628330
500.568723	2732.852350
500.935003	2727.707852
501.301226	2721.628221
501.667390	2719.127808
502.033497	2713.834597
502.399546	2707.283617
502.765537	2700.616692
503.131470	2694.995805
503.497345	2693.538912
503.863163	2686.783765
504.228923	2683.091120
504.594625	2679.113650
504.960269	2676.444359
505.325856	2674.228772
505.691385	2667.443379
506.056856	2670.556291
506.422270	2666.351969
506.787625	2661.555311
507.152924	2659.243942
507.518164	2654.961482
507.883347	2653.212201
508.248472	2652.876965
508.613540	2650.376552
508.978550	2650.643733
509.343503	2646.056283
509.708398	2645.993269
510.073236	2642.628299
510.438016	2642.898001
510.802738	2640.284162
511.167403	2639.139820
511.532010	2638.769296
511.896561	2641.604945
512.261053	2639.706950
512.625488	2635.976496
512.989866	2634.522123
513.354186	2633.634880
513.718449	2629.657410
514.082655	2631.018522
514.446803	2632.548512
514.810894	2634.728811
515.174927	2631.608337
515.538904	2629.044910
515.902822	2633.826444
516.266684	2628.956690
516.630488	2629.866618
516.994235	2630.269910
517.357925	2628.145064
517.721558	2629.876700
518.085133	2628.013994
518.448651	2627.507358
518.812112	2627.426699
519.175516	2626.758747
519.538863	2624.933849
519.902152	2625.720269
520.265385	2625.344703
520.628560	2626.773870
520.991678	2624.586009
521.354739	2626.484004
521.717743	2624.775052
522.080690	2624.964096
522.443580	2623.156842
522.806413	2626.466360
523.169189	2623.381173
523.531908	2622.015021
523.894569	2622.947634
524.257174	2622.151132
524.619722	2623.134157
524.982213	2623.615587
525.344647	2623.466873
525.707025	2624.278499
526.069345	2622.274640
526.431608	2621.558796
526.793815	2620.608539
527.155964	2620.784979
527.518057	2620.807664
527.880093	2619.602829
528.242072	2620.273302
528.603995	2622.272120
528.965860	2618.531583
529.327669	2620.946296
529.689421	2618.947479
530.051117	2621.263889
530.412755	2619.565020
530.774337	2622.178858
531.135862	2619.897736
531.497331	2616.779782
531.858743	2614.412961
532.220098	2616.313476
532.581396	2619.393621
532.942638	2615.751387
533.303824	2618.879423
533.664953	2617.815740
534.026025	2618.919752
534.387040	2616.210132
534.747999	2615.844648
535.108902	2615.937910
535.469748	2615.007817
535.830537	2617.404886
536.191270	2613.397168
536.551947	2614.516304
536.912567	2616.169803
537.273131	2615.353136
537.633638	2615.166613
537.994089	2617.034361
538.354483	2614.760800
538.714821	2614.382714
539.075103	2614.528907
539.435328	2614.647374
539.795497	2614.183588
540.155609	2617.331789
540.515665	2614.360029
540.875665	2617.445215
541.235609	2613.450100
541.595496	2615.426233
541.955328	2613.664349
542.315102	2613.689555
542.674821	2611.363063
543.034483	2616.845317
543.394090	2610.841303
543.753640	2611.708382
544.113134	2613.218207
544.472571	2610.357352
544.831953	2614.538990
545.191278	2612.618310
545.550548	2612.169647
545.909761	2610.140583
546.268918	2611.118567
546.628019	2614.239041
546.987064	2611.100923
547.346053	2614.042436
547.704986	2615.307766
548.063863	2613.263578
548.422684	2613.566047
548.781449	2614.281891
549.140158	2615.395986
549.498811	2616.537807
549.857408	2613.319030
550.215949	2611.214349
550.574434	2607.804008
550.932864	2608.212342
551.291237	2608.650922
551.649555	2612.933382
552.007817	2613.250975
552.366022	2612.124277
552.724173	2612.484719
553.082267	2611.998248
553.440305	2611.879781
553.798288	2610.438011
554.156215	2610.130501
554.514086	2612.096551
554.871902	2612.908176
555.229661	2610.259050
555.587365	2610.062445
555.945014	2613.087137
556.302606	2612.031016
556.660143	2613.820625
557.017625	2611.761314
557.375050	2614.470934
557.732421	2612.850203
558.089735	2613.336674
558.446994	2611.426077
558.804197	2613.066973
559.161345	2614.239041
559.518437	2612.378855
559.875474	2613.694596
560.232455	2609.618823
560.589381	2610.405243
560.946251	2614.657457
561.303065	2611.743670
561.659825	2612.270470
562.016528	2610.155706
562.373177	2610.611931
562.729770	2611.090840
563.086307	2612.358691
563.442789	2612.222579
563.799216	2612.257868
564.155587	2611.617641
564.511904	2614.924638
564.868164	2613.208125
565.224370	2615.063270
565.580520	2613.850872
565.936615	2613.936572
566.292654	2611.262240
566.648638	2611.680655
567.004567	2613.021602
567.360441	2611.514297
567.716260	2612.509925
568.072023	2613.936572
568.427732	2610.382558
568.783385	2606.957094
569.138982	2610.185953
569.494525	2608.560181
569.850013	2609.835593
570.205445	2614.354987
570.560823	2611.403392
570.916145	2611.655450
571.271412	2612.630913
571.626625	2611.753752
571.981782	2612.129318
572.336884	2609.991869
572.691931	2611.199225
573.046923	2610.664863
573.401860	2610.611931
573.756743	2611.536982
574.111570	2613.263578
574.466342	2612.656119
574.821059	2607.529265
575.175722	2610.107815
575.530330	2611.229472
575.884882	2612.399020
576.239380	2608.920624
576.593823	2612.449431
576.948211	2613.918928
577.302544	2611.279884
577.656823	2611.045470
578.011047	2612.275512
578.365216	2612.083948
578.719330	2608.812239
579.073389	2607.955243
579.427394	2608.648401
579.781344	2610.445573
580.135239	2610.589246
580.489080	2610.495984
580.842866	2610.967332
581.196597	2609.795264
581.550273	2609.099585
581.903895	2609.036570
582.257463	2609.333998
582.610975	2609.109667
582.964434	2610.364914
583.317837	2609.099585
583.671186	2610.294338
584.024481	2609.041611
584.377721	2607.622527
584.730906	2608.794595
585.084037	2609.810387
585.437113	2608.174533
585.790135	2609.618823
586.143103	2608.189656
586.496016	2608.202259
586.848874	2604.068513
587.201679	2606.858792
587.554428	2606.221086
587.907124	2603.224120
588.259765	2602.538523
588.612352	2607.357866
588.964884	2609.591097
589.317362	2608.928185
589.669786	2607.738473
590.022155	2610.039760
590.374470	2607.446086
590.726731	2609.611262
591.078937	2604.912906
591.431090	2605.182608
591.783188	2604.807042
592.135232	2609.039091
592.487222	2604.746548
592.839157	2609.197887
593.191038	2605.013729
593.542866	2606.163112
593.894639	2602.427618
594.246358	2607.388113
594.598022	2608.439193
594.949633	2605.142279
595.301190	2606.952053
595.652692	2605.618668
596.004141	2605.661518
596.355535	2604.368462
596.706876	2604.522217
597.058162	2606.389964
597.409395	2605.598503
597.760573	2606.397526
598.111698	2606.170674
598.462768	2607.055397
598.813785	2602.949377
599.164748	2607.985490
599.515657	2605.086826
599.866511	2605.850561
600.217312	2603.677824
600.568060	2602.606578
600.918753	2606.974738
601.269392	2604.219748
601.619978	2604.088678
601.970510	2605.182608
602.320988	2603.324943
602.671412	2605.215376
603.021783	2604.020622
603.372100	2603.506424
603.722363	2602.460385
604.072572	2605.482557
604.422728	2608.129162
604.772830	2601.500045
605.122878	2603.670262
605.472872	2601.996599
605.822813	2599.589448
606.172701	2600.464088
606.522534	2603.922320
606.872314	2602.747731
607.222041	2604.217227
607.571714	2604.060951
607.921333	2605.013729
608.270899	2599.828903
608.620411	2603.640015
608.969870	2603.647577
609.319276	2604.093719
609.668627	2603.234202
610.017926	2604.287803
610.367171	2604.489449
610.716362	2602.755292
611.065500	2604.592793
611.414585	2604.252515
611.763616	2606.967177
612.112594	2606.039604
612.461518	2604.444079
612.810389	2607.095726
613.159207	2604.953236
613.507971	2604.491970
613.856682	2605.742176
614.205340	2604.532299
614.553945	2605.119594
614.902496	2604.398709
615.250994	2607.060438
615.599439	2603.476177
615.947830	2605.457351
616.296169	2605.210334
616.644454	2606.367279
616.992686	2604.895262
617.340864	2604.544902
617.688990	2605.056579
618.037063	2605.502721
618.385082	2606.488267
618.733048	2604.938112
619.080961	2605.409460
619.428821	2605.578339
619.776628	2604.376023
620.124382	2604.875098
620.472083	2604.917947
620.819731	2605.815273
621.167326	2603.647577
621.514868	2606.914244
621.862357	2604.771754
622.209793	2605.043976
622.557176	2604.272680
622.904506	2601.253029
623.251783	2598.467791
623.599007	2601.568101
623.946179	2599.027359
624.293297	2596.917636
624.640363	2603.864346
624.987376	2605.106991
625.334336	2601.290837
625.681243	2601.459716
626.028097	2601.409304
626.374899	2600.774119
626.721647	2604.660849
627.068343	2602.427617
627.414987	2601.197576
627.761577	2599.833944
628.108115	2600.363265
628.454600	2600.789242
628.801032	2601.873091
629.147412	2600.116248
629.493739	2601.386619
629.840014	2600.600199
630.186236	2600.459047
630.532405	2599.430652
630.878521	2599.045003
631.224585	2600.905189
631.570597	2600.577514
631.916556	2600.693461
632.262462	2599.831423
632.608316	2599.808738
632.954117	2600.365786
633.299866	2601.169850
633.645562	2600.693461
633.991206	2600.653131
634.336797	2598.785384
634.682336	2603.352669
635.027823	2599.723038
635.373257	2597.149529
635.718639	2597.820003
636.063968	2599.128182
636.409245	2596.579879
636.754470	2599.067688
637.099642	2596.595002
637.444762	2600.723707
637.789829	2596.511823
638.134845	2595.584251
638.479808	2596.584920
638.824719	2597.033583
639.169577	2596.191710
639.514383	2597.267997
639.859137	2597.247832
640.203839	2595.279261
640.548489	2596.577358
640.893086	2592.652820
641.237632	2591.180803
641.582125	2590.780032
641.926566	2590.709455
642.270955	2594.568459
642.615292	2596.796649
642.959576	2594.175249
643.303809	2596.564756
643.647990	2592.942687
643.992118	2596.330342
644.336195	2597.855291
644.680219	2593.817327
645.024192	2595.488469
645.368112	2595.271700
645.711981	2595.637183
646.055797	2595.170877
646.399562	2596.146340
646.743274	2594.916298
647.086935	2596.887389
647.430544	2595.662389
647.774101	2597.041145
648.117606	2595.125506
648.461059	2596.907554
648.804460	2601.638677
649.147810	2596.063161
649.491108	2596.756319
649.834354	2593.139292
650.177548	2595.037286
650.520690	2594.739858
650.863781	2594.918819
651.206820	2598.636670
651.549807	2595.359920
651.892742	2594.127358
652.235626	2595.364961
652.578458	2593.003180
652.921238	2594.573500
653.263967	2594.016452
653.606644	2594.702049
653.949269	2595.637183
654.291843	2591.097624
654.634365	2593.010742
654.976836	2590.064188
655.319255	2591.942017
655.661622	2591.599219
656.003938	2593.330855
656.346203	2593.648448
656.688416	2593.502255
657.030577	2591.329517
657.372687	2593.356061
657.714746	2591.891606
658.056753	2592.015114
658.398708	2587.286512
658.740612	2588.088055
659.082465	2589.101327
659.424266	2588.708117
659.766016	2588.118302
660.107715	2592.355392
660.449362	2591.821030
660.790958	2592.189034
661.132503	2589.050916
661.473996	2590.996801
661.815438	2590.971595
662.156829	2593.741709
662.498168	2591.785742
662.839456	2590.021338
663.180693	2591.783221
663.521879	2593.703901
663.863013	2591.987388
664.204097	2594.008891
664.545129	2591.510999
664.886110	2593.552666
665.227040	2592.531832
665.567918	2593.411514
665.908746	2592.488983
666.249522	2592.244487
666.590248	2591.647110
666.930922	2595.861515
667.271545	2591.732810
667.612118	2594.215578
667.952639	2594.633994
668.293109	2593.736668
668.633528	2592.909919
668.973896	2589.638210
669.314213	2591.992429
669.654480	2593.131730
669.994695	2589.849939
670.334859	2591.427820
670.674973	2588.423292
671.015035	2594.271031
671.355047	2591.485793
671.695008	2593.187182
672.034918	2590.497727
672.374777	2591.891606
672.714585	2591.052254
673.054342	2591.531163
673.394049	2591.011925
673.733705	2593.124168
674.073310	2593.416555
674.412864	2591.344641
674.752368	2590.016297
675.091820	2591.977306
675.431223	2592.693149
675.770574	2591.049733
676.109875	2589.222315
676.449125	2588.824064
676.788324	2587.941862
677.127473	2586.605956
677.466571	2584.019844
677.805619	2589.287850
678.144616	2590.003694
678.483562	2591.526122
678.822458	2589.345823
679.161303	2590.417068
679.500098	2590.338931
679.838842	2589.371029
680.177535	2586.285843
680.516179	2589.625607
680.854771	2590.757346
681.193314	2591.349682
681.531805	2590.563262
681.870247	2592.110896
682.208638	2591.624425
682.546978	2591.609301
682.885268	2592.501586
683.223508	2592.483942
683.561697	2593.227512
683.899836	2590.046544
684.237925	2589.557552
684.575963	2591.858838
684.913951	2592.252048
685.251889	2594.011411
685.589776	2590.366657
685.927614	2589.368508
686.265401	2589.492017
686.603137	2591.289188
686.940824	2590.470001
687.278460	2592.373036
687.616046	2591.175762
687.953582	2590.898499
688.291068	2591.606781
688.628504	2592.178952
688.965889	2593.305650
689.303224	2594.190372
689.640510	2591.936976
689.977745	2590.656523
690.314930	2591.463108
690.652065	2593.792121
690.989150	2587.755339
691.326185	2589.544949
691.663170	2586.986563
692.000105	2591.231215
692.336990	2589.557552
692.673825	2588.236769
693.010610	2588.022520
693.347345	2582.618403
693.684030	2584.203846
694.020665	2582.532704
694.357251	2581.169072
694.693786	2582.686459
695.030272	2584.370204
695.366707	2587.488158
695.703093	2586.807602
696.039429	2583.974474
696.375716	2585.741398
696.711952	2585.065884
697.048139	2586.031265
697.384276	2586.391707
697.720363	2585.718713
698.056400	2585.133939
698.392388	2581.950451
698.728326	2585.746439
699.064214	2583.379618
699.400053	2586.074114
699.735842	2585.685946
700.071581	2586.106882
700.407270	2584.753332
700.742910	2583.160327
701.078501	2581.403485
701.414042	2585.088569
701.749533	2583.417426
702.084974	2582.305852
702.420366	2582.197467
702.755709	2583.119998
703.091002	2582.580595
703.426246	2580.906932
703.761440	2583.871130
704.096584	2583.719896
704.431679	2582.522622
704.766725	2581.383321
705.101721	2579.248392
705.436668	2582.784762
705.771565	2581.983218
706.106413	2582.520101
706.441212	2582.482292
706.775961	2583.203177
707.110661	2584.891964
707.445311	2583.535893
707.779913	2582.638568
708.114465	2583.934145
708.448967	2583.132601
708.783421	2584.652509
709.117825	2581.584967
709.452180	2584.634865
709.786485	2582.782241
710.120742	2583.122519
710.454949	2584.385328
710.789107	2583.258630
711.123216	2582.164700
711.457275	2583.203177
711.791286	2582.993969
712.125247	2582.731829
712.459159	2585.254927
712.793023	2587.145360
713.126837	2582.502457
713.460602	2586.933631
713.794318	2583.354412
714.127985	2584.831470
714.461602	2584.985225
714.795171	2582.835173
715.128691	2582.895667
715.462162	2584.871799
715.795584	2582.583115
716.128957	2584.758373
716.462281	2582.265523
716.795556	2580.879205
717.128782	2581.181675
717.461960	2585.164186
717.795088	2580.690162
718.128167	2581.476582
718.461198	2583.233424
718.794180	2582.822570
719.127113	2579.082034
719.459997	2579.268557
719.792833	2580.919535
720.125619	2580.503639
720.458357	2578.093968
720.791046	2579.049267
721.123686	2580.546489
721.456278	2581.705955
721.788821	2578.678742
722.121315	2580.692683
722.453761	2578.172106
722.786158	2579.001376
723.118506	2579.286201
723.450805	2580.301993
723.783056	2578.918197
724.115259	2577.516756
724.447412	2579.036664
724.779518	2579.765110
725.111574	2578.411561
725.443582	2583.119998
725.775542	2578.716550
726.107453	2581.342992
726.439315	2581.332909
726.771129	2582.540266
727.102895	2582.142014
727.434612	2580.606983
727.766281	2583.142683
728.097901	2576.589183
728.429473	2576.637074
728.760996	2577.368042
729.092471	2574.857547
729.423897	2582.623445
729.755276	2583.556058
730.086606	2582.482292
730.417887	2579.316448
730.749120	2582.293249
731.080305	2583.185533
731.411442	2582.915832
731.742530	2583.576223
732.073570	2582.996490
732.404562	2581.763928
732.735506	2580.596901
733.066401	2580.813670
733.397249	2583.861048
733.728048	2582.852817
734.058798	2581.012796
734.389501	2583.760225
734.720156	2580.027250
735.050762	2580.866602
735.381320	2579.515573
735.711831	2580.317117
736.042293	2578.703947
736.372707	2580.105388
736.703073	2578.613207
737.033391	2581.022878
737.363661	2578.260326
737.693883	2580.601942
738.024056	2581.174113
738.354182	2579.994483
738.684260	2579.976839
739.014290	2580.478434
739.344272	2577.519276
739.674207	2580.654874
740.004093	2581.176633
740.333931	2580.516242
740.663722	2580.289390
740.993464	2578.804771
741.323159	2579.157651
741.652806	2579.457600
741.982405	2581.854669
742.311956	2579.734863
742.641460	2578.318299
742.970915	2578.532548
743.300323	2578.262847
743.629683	2577.259657
743.958996	2578.474575
744.288260	2579.734863
744.617477	2577.894842
744.946647	2575.124728
745.275768	2573.952660
745.604842	2573.070458
745.933869	2574.567681
746.262847	2573.872002
746.591778	2577.783937
746.920662	2577.761252
747.249498	2576.773186
747.578286	2577.483988
747.907027	2576.914338
748.235720	2575.265881
748.564365	2580.130594
748.892963	2579.417271
749.221514	2579.084555
749.550017	2579.702096
749.878473	2577.768813
750.206881	2578.025912
750.535242	2579.689493
750.863555	2577.526838
751.191821	2575.956519
751.520039	2575.243195
751.848210	2576.891653
752.176334	2578.078844
752.504411	2577.355439
752.832440	2576.458113
753.160421	2578.945923
753.488356	2574.386199
753.816243	2574.910479
754.144082	2578.527507
754.471875	2580.654874
754.799620	2577.141190
755.127318	2575.333936
755.454969	2578.187229
755.782572	2580.370049
756.110129	2575.190263
756.437638	2576.758062
756.765100	2574.507187
757.092515	2578.973649
757.419882	2580.405337
757.747203	2576.082548
758.074477	2578.106571
758.401703	2578.048597
758.728882	2575.152455
759.056014	2577.052970
759.383099	2577.325192
759.710138	2580.133115
760.037129	2574.008113
760.364073	2577.960377
760.690970	2577.597414
761.017820	2578.913155
761.344623	2578.429205
761.671379	2579.238310
761.998088	2577.736046
762.324751	2577.468865
762.651366	2576.339646
762.977935	2584.264340
763.304456	2586.437077
763.630931	2587.233580
763.957359	2587.684763
764.283740	2586.966399
764.610074	2586.205184
764.936362	2584.294587
765.262602	2582.724268
765.588796	2580.367528
765.914943	2579.016499
766.241044	2578.313258
766.567097	2576.193453
766.893104	2579.079513
767.219064	2575.994327
767.544978	2577.552044
767.870845	2577.375603
768.196665	2572.657083
768.522438	2572.349573
768.848165	2574.101374
769.173846	2573.254460
769.499479	2576.692527
769.825066	2575.167578
770.150607	2574.330747
770.476101	2573.599779
770.801548	2577.098340
771.126949	2573.824111
771.452303	2571.981569
771.777611	2576.558937
772.102872	2572.951991
772.428087	2574.272773
772.753256	2574.018195
773.078378	2572.848647
773.403453	2574.572722
773.728482	2572.773030
774.053465	2569.992834
774.378401	2572.641960
774.703291	2572.432752
775.028135	2572.954512
775.352932	2572.576425
775.677683	2573.866960
776.002388	2573.708164
776.327046	2573.057855
776.651658	2571.918554
776.976224	2572.936868
777.300743	2571.101887
777.625216	2573.022567
777.949643	2572.389902
778.274024	2571.364028
778.598359	2569.521486
778.922647	2567.489901
779.246889	2567.948646
779.571086	2566.816907
779.895236	2569.571897
780.219339	2572.069789
780.543397	2572.200859
780.867409	2571.719429
781.191374	2573.748493
781.515294	2572.062227
781.839167	2571.636250
782.162995	2571.611044
782.486776	2570.897721
782.810511	2573.476271
783.134201	2571.283369
783.457844	2572.503328
783.781441	2570.864953
784.104993	2571.023750
784.428498	2572.364697
784.751958	2574.013154
785.075372	2574.786971
785.398739	2574.154306
785.722061	2572.034501
786.045337	2572.011816
786.368568	2572.392423
786.691752	2570.794377
787.014891	2572.137845
787.337983	2572.674727
787.661030	2572.405026
787.984031	2575.283525
788.306987	2573.211610
788.629897	2571.938719
788.952760	2577.529359
789.275579	2575.475088
789.598351	2573.377968
789.921078	2572.203380
790.243759	2572.878894
790.566395	2571.036352
790.888984	2570.922927
791.211529	2573.677917
791.534027	2570.955694
791.856480	2570.164233
792.178888	2572.735221
792.501249	2573.529203
792.823566	2572.442834
793.145836	2569.221537
793.468062	2569.614747
793.790241	2570.922927
794.112375	2575.752352
794.434464	2569.314798
794.756507	2570.532237
795.078505	2573.115828
795.400457	2567.305899
795.722364	2569.518965
796.044226	2570.280179
796.366042	2567.288255
796.687812	2569.266907
797.009538	2568.863615
797.331218	2574.648339
797.652852	2569.559294
797.974442	2571.018708
798.295986	2571.031311
798.617484	2572.415108
798.938938	2572.644481
799.260346	2571.931157
799.581709	2570.910324
799.903026	2571.064079
800.224299	2570.388564
800.545526	2570.955694
800.866708	2570.839748
801.187845	2572.871333
801.508936	2569.403019
801.829983	2571.187587
802.150984	2570.575087
802.471940	2570.880077
802.792851	2572.289079
803.113717	2572.190777
803.434538	2569.695406
803.755314	2569.823955
804.076045	2569.828996
804.396731	2571.815211
804.717372	2573.433421
805.037967	2572.226065
805.358518	2570.774212
805.679024	2570.743966
805.999485	2572.256312
806.319901	2571.006106
806.640272	2571.353945
806.960598	2569.065261
807.280879	2572.924265
807.601115	2568.926630
807.921306	2574.464337
808.241453	2569.009809
808.561554	2569.743297
808.881611	2572.636919
809.201623	2574.408884
809.521590	2573.393092
809.841513	2571.026270
810.161390	2569.912175
810.481223	2571.689182
810.801011	2571.749676
811.120755	2569.307237
811.440453	2573.052814
811.760107	2569.455951
812.079716	2566.932853
812.399281	2567.578121
812.718801	2565.334807
813.038276	2568.054510
813.357707	2571.028791
813.677093	2570.277659
813.996434	2570.615416
814.315731	2569.886969
814.634983	2572.447876
814.954191	2572.309244
815.273354	2572.573904
815.592473	2569.899572
815.911547	2569.644994
816.230577	2569.818914
816.549562	2573.196487
816.868502	2572.014336
817.187399	2572.092474
817.506250	2571.245560
817.825058	2572.644481
818.143821	2571.487536
818.462539	2572.019377
818.781213	2574.436611
819.099843	2571.674058
819.418429	2575.827969
819.736970	2575.422156
820.055466	2573.758576
820.373919	2578.189750
820.692327	2581.642940
821.010691	2585.048240
821.329011	2590.636359
821.647286	2607.131014
821.965517	2620.643827
822.283704	2633.418111
822.601847	2641.955305
822.919945	2637.166209
823.237999	2632.412401
823.556010	2623.174486
823.873976	2618.803806
824.191897	2610.133021
824.509775	2607.083123
824.827609	2599.153388
825.145398	2597.358737
825.463144	2593.847574
825.780845	2591.211050
826.098502	2594.843202
826.416116	2594.296236
826.733685	2597.925867
827.051210	2601.590786
827.368692	2601.590786
827.686129	2598.029211
828.003522	2594.230701
828.320872	2584.831470
828.638177	2583.944227
828.955439	2579.966757
829.272656	2574.691189
829.589830	2574.476940
829.906960	2580.508681
830.224046	2574.907959
830.541088	2575.195304
830.858086	2572.508369
831.175041	2574.348391
831.491952	2573.292269
831.808819	2571.976528
832.125642	2572.556260
832.442421	2571.565674
832.759157	2575.563309
833.075849	2580.279308
833.392497	2579.175295
833.709101	2585.648137
834.025662	2583.548496
834.342179	2584.660071
834.658653	2582.257961
834.975083	2581.847107
835.291469	2585.045719
835.607811	2577.627661
835.924110	2572.901579
836.240366	2573.723287
836.556578	2574.436611
836.872746	2571.555591
837.188871	2571.774882
837.504952	2571.132134
837.820990	2569.864284
838.136984	2566.542164
838.452935	2571.384192
838.768842	2569.317319
839.084706	2570.935529
839.400526	2568.621640
839.716303	2571.651373
840.032037	2573.004923
840.347727	2573.808987
840.663373	2572.866291
840.978977	2572.029460
841.294537	2571.018708
841.610054	2570.532237
841.925527	2570.638101
842.240957	2569.544171
842.556344	2570.229768
842.871687	2570.628019
843.186987	2564.283727
843.502244	2566.577452
843.817458	2568.044428
844.132629	2566.605178
844.447756	2567.865467
844.762840	2564.079560
845.077881	2567.137020
845.392879	2564.440003
845.707833	2563.852708
846.022745	2562.935218
846.337613	2567.414283
846.652438	2566.723645
846.967221	2570.078533
847.281960	2564.560990
847.596656	2568.659448
847.911309	2565.486042
848.225919	2563.882955
848.540485	2568.508214
848.855009	2566.733728
849.169490	2565.612071
849.483928	2564.681978
849.798323	2567.615930
850.112675	2565.072667
850.426984	2566.640466
850.741251	2565.924622
851.055474	2566.171639
851.369654	2567.321022
851.683792	2564.356824
851.997887	2565.985116
852.311938	2567.310940
852.625947	2564.888665
852.939914	2562.789025
853.253837	2567.111814
853.567718	2565.460836
853.881555	2565.922102
854.195350	2565.191135
854.509103	2567.701629
854.822812	2565.947308
855.136479	2566.080898
855.450103	2567.121897
855.763685	2564.553429
856.077224	2565.624674
856.390720	2566.053172
856.704173	2565.811197
857.017584	2568.750189
857.330953	2566.610219
857.644278	2567.472257
857.957561	2565.952349
858.270802	2565.705332
858.584000	2565.705332
858.897155	2567.106773
859.210268	2566.078378
859.523339	2567.779767
859.836367	2565.075188
860.149352	2565.450754
860.462295	2568.157854
860.775195	2563.101576
861.088054	2562.146278
861.400869	2562.894889
861.713642	2558.909857
862.026373	2563.625856
862.339062	2567.585683
862.651708	2567.315981
862.964312	2566.297668
863.276873	2567.217678
863.589392	2565.748182
863.901869	2562.781463
864.214303	2563.671227
864.526696	2565.793552
864.839045	2564.535785
865.151353	2566.902606
865.463619	2566.912689
865.775842	2568.775395
866.088023	2568.195662
866.400162	2567.205076
866.712258	2565.942267
867.024313	2567.502504
867.336325	2567.283213
867.648296	2566.474108
867.960224	2565.511248
868.272110	2568.457802
868.583954	2568.858574
868.895755	2567.285734
869.207515	2568.258677
869.519233	2568.213306
869.830909	2566.905127
870.142542	2570.418811
870.454134	2567.857905
870.765684	2565.803635
871.077191	2568.576269
871.388657	2567.227761
871.700081	2566.375806
872.011463	2567.202555
872.322803	2566.617781
872.634101	2568.558625
872.945357	2566.998388
873.256571	2565.912020
873.567744	2567.757082
873.878874	2568.490570
874.189963	2568.616599
874.501010	2568.167936
874.812015	2570.267577
875.122979	2567.106773
875.433900	2567.121897
875.744780	2569.854202
876.055618	2567.598286
876.366415	2567.671382
876.677169	2568.238512
876.987882	2566.665672
877.298554	2563.499828
877.609183	2563.706515
877.919771	2567.225240
878.230317	2565.780950
878.540822	2571.580797
878.851285	2568.465364
879.161707	2571.119532
879.472087	2572.717577
879.782425	2571.177505
880.092722	2576.216138
880.402977	2579.155131
880.713191	2588.496389
881.023363	2592.451174
881.333494	2600.990889
881.643583	2602.472988
881.953631	2604.494491
882.263637	2601.066506
882.573602	2602.541043
882.883526	2599.226485
883.193408	2596.597523
883.503248	2592.713314
883.813048	2591.591657
884.122806	2589.159301
884.432522	2585.068404
884.742197	2581.781572
885.051831	2581.829463
885.361424	2578.706468
885.670975	2575.374265
885.980485	2573.872002
886.289954	2574.207238
886.599382	2572.324367
886.908768	2572.405026
887.218113	2570.630540
887.527417	2571.853019
887.836680	2569.498801
888.145901	2568.566187
888.455082	2568.510734
888.764221	2567.535271
889.073319	2569.224058
889.382376	2567.411763
889.691392	2564.959242
890.000366	2570.819583
890.309300	2566.327915
890.618193	2568.147771
890.927044	2567.401681
891.235855	2567.981413
891.544625	2569.839078
891.853353	2568.321691
892.162041	2568.629202
892.470687	2568.755230
892.779293	2569.120714
893.087858	2566.942936
893.396381	2568.493090
893.704864	2566.753892
894.013306	2569.897052
894.321707	2572.846127
894.630068	2578.572877
894.938387	2577.242013
895.246665	2576.226220
895.554903	2581.073290
895.863100	2574.111456
896.171256	2575.661611
896.479371	2573.826631
896.787446	2572.951991
897.095480	2573.902248
897.403473	2574.171950
897.711425	2572.258832
898.019336	2572.394943
898.327207	2569.695406
898.635038	2569.362689
898.942827	2569.408060
899.250576	2570.086095
899.558284	2568.077195
899.865952	2567.371434
900.173579	2568.755230
900.481165	2565.884293
900.788711	2570.726322
901.096216	2567.991496
901.403681	2567.159705
901.711105	2567.787329
902.018489	2567.109294
902.325832	2569.934860
902.633135	2565.130641
902.940397	2564.394632
903.247619	2570.522155
903.554800	2567.631053
903.861941	2573.811508
904.169041	2581.164031
904.476101	2579.954154
904.783121	2580.838876
905.090100	2578.656057
905.397039	2575.301169
905.703938	2577.141190
906.010796	2576.551375
906.317614	2572.243709
906.624391	2576.785788
906.931129	2571.240519
907.237826	2570.514593
907.544483	2570.628019
907.851099	2572.165571
908.157675	2568.674572
908.464211	2567.978893
908.770707	2563.502348
909.077163	2565.954869
909.383578	2560.916236
909.689954	2562.456309
909.996289	2562.970506
910.302584	2565.559139
910.608839	2564.354303
910.915054	2566.521999
911.221229	2567.124417
911.527363	2562.504200
911.833458	2563.010836
912.139513	2564.959242
912.445527	2565.919581
912.751502	2567.134499
913.057436	2565.551577
913.363331	2566.322874
913.669186	2568.334294
913.975000	2569.234140
914.280775	2566.579972
914.586510	2570.869994
914.892205	2569.909655
915.197859	2572.352094
915.503475	2574.524831
915.809050	2578.411561
916.114585	2577.879719
916.420081	2578.391396
916.725536	2578.716550
917.030952	2580.289390
917.336328	2579.994483
917.641665	2577.766293
917.946961	2576.279152
918.252218	2577.189081
918.557435	2572.301682
918.862612	2575.260839
919.167750	2571.923596
919.472848	2572.959553
919.777906	2568.314129
920.082925	2572.011816
920.387904	2570.438976
920.692843	2569.403019
920.997743	2569.965107
921.302603	2565.967472
921.607423	2566.763975
921.912204	2567.494942
922.216946	2565.468398
922.521647	2567.124417
922.826310	2564.966803
923.130932	2566.471588
923.435516	2566.721125
923.740059	2565.236505
924.044564	2566.048131
924.349028	2565.057544
924.653454	2559.068653
924.957840	2564.387071
925.262186	2560.225598
925.566493	2563.356155
925.870761	2559.124106
926.174989	2564.276165
926.479178	2562.892368
926.783328	2562.088304
927.087438	2563.048644
927.391509	2564.092163
927.695541	2562.862122
927.999533	2564.313974
928.303486	2563.787173
928.607400	2563.290620
928.911275	2562.645352
929.215110	2562.884807
929.518906	2565.455795
929.822663	2565.160888
930.126381	2563.300702
930.430060	2564.830692
930.733699	2562.494117
931.037299	2567.837740
931.340861	2563.646021
931.644383	2564.881104
931.947866	2563.353634
932.251309	2563.429251
932.554714	2563.129303
932.858080	2563.207441
933.161407	2562.206772
933.464694	2564.374468
933.767943	2562.486556
934.071153	2563.053685
934.374323	2561.770712
934.677455	2565.201217
934.980548	2563.151988
935.283602	2561.173335
935.586617	2563.885476
935.889593	2565.120558
936.192530	2564.321536
936.495428	2562.620146
936.798287	2561.685012
937.101108	2561.561504
937.403890	2563.149467
937.706632	2565.176011
938.009336	2562.499158
938.312002	2565.213820
938.614628	2567.018553
938.917216	2564.424879
939.219765	2563.958573
939.522275	2564.918912
939.824747	2564.140054
940.127179	2560.981771
940.429573	2560.155022
940.731929	2561.939590
941.034246	2559.754250
941.336524	2560.011349
941.638763	2565.324725
941.940964	2564.387071
942.243126	2563.724159
942.545250	2564.694581
942.847335	2565.556618
943.149381	2561.289282
943.451389	2562.184086
943.753359	2562.889848
944.055290	2563.678788
944.357182	2561.523695
944.659036	2562.070660
944.960851	2563.746844
945.262628	2561.700136
945.564367	2564.218192
945.866067	2563.885476
946.167729	2564.936556
946.469352	2561.256514
946.770937	2563.661144
947.072484	2562.544529
947.373992	2563.862791
947.675462	2562.451267
947.976893	2566.030487
948.278286	2564.639128
948.579641	2562.494117
948.880958	2561.856411
949.182236	2560.548232
949.483476	2560.543191
949.784678	2562.645352
950.085841	2561.042265
950.386967	2562.237018
950.688054	2561.601833
950.989103	2565.791032
951.290114	2562.516803
951.591087	2562.768860
951.892021	2564.354303
952.192917	2565.120558
952.493776	2563.217523
952.794596	2564.954200
953.095378	2563.151988
953.396122	2563.988819
953.696828	2564.981927
953.997496	2564.692060
954.298126	2562.801628
954.598718	2564.089642
954.899272	2563.618295
955.199788	2562.017728
955.500266	2564.873542
955.800706	2556.285936
956.101108	2561.566545
956.401472	2562.053016
956.701798	2558.315001
957.002087	2559.655948
957.302337	2562.973027
957.602550	2560.034034
957.902724	2562.108469
958.202861	2563.116700
958.502960	2559.232491
958.803022	2562.910013
959.103045	2560.880948
959.403031	2563.366237
959.702979	2560.379353
960.002889	2560.074363
960.302762	2561.700136
960.602596	2563.393963
960.902393	2564.397153
961.202153	2560.381874
961.501875	2563.456978
961.801559	2560.097049
962.101205	2563.464539
962.400814	2561.417831
962.700385	2561.216185
962.999918	2560.031514
963.299414	2561.085115
963.598873	2560.850701
963.898293	2560.041596
964.197677	2559.640824
964.497022	2563.041082
964.796331	2560.480176
965.095601	2560.885989
965.394835	2563.618295
965.694030	2562.219374
965.993189	2564.520661
966.292309	2559.333314
966.591393	2562.131154
966.890439	2560.419682
967.189447	2561.042265
967.488419	2560.273489
967.787353	2562.809189
968.086249	2562.284909
968.385108	2560.316339
968.683930	2561.427913
968.982714	2562.027811
969.281462	2562.156360
969.580172	2561.884138
969.878844	2561.027142
970.177480	2562.405897
970.476078	2561.516133
970.774639	2561.165773
971.073162	2561.246432
971.371649	2557.599157
971.670098	2556.011193
971.968510	2556.507747
972.266885	2556.464897
972.565223	2561.173335
972.863524	2561.848850
973.161788	2559.492110
973.460014	2561.987481
973.758204	2561.753068
974.056356	2559.577810
974.354471	2561.253993
974.652550	2562.794066
974.950591	2561.286761
975.248595	2560.260886
975.546563	2562.156360
975.844493	2560.225598
976.142386	2562.340362
976.440243	2558.171328
976.738062	2561.281720
977.035845	2560.402038
977.333590	2560.076884
977.631299	2559.464384
977.928971	2560.512944
978.226606	2558.090669
978.524204	2563.073850
978.821765	2561.253993
979.119290	2563.431772
979.416777	2557.889023
979.714228	2560.949004
980.011642	2561.397666
980.309020	2561.127965
980.606360	2560.316339
980.903664	2562.662996
981.200931	2563.308264
981.498162	2558.370453
981.795356	2563.401525
982.092513	2561.695094
982.389633	2561.947152
982.686717	2560.943962
982.983764	2564.271124
983.280775	2565.460836
983.577749	2563.036041
983.874686	2563.759447
984.171587	2561.412790
984.468451	2562.675599
984.765279	2561.369940
985.062070	2564.646690
985.358824	2562.201730
985.655543	2561.846329
985.952224	2564.119889
986.248869	2561.095197
986.545478	2554.879454
986.842050	2560.757440
987.138586	2558.035217
987.435086	2558.652758
987.731549	2553.573796
988.027975	2560.250804
988.324366	2562.395815
988.620719	2560.613767
988.917037	2560.747357
989.213318	2560.011349
989.509563	2560.724672
989.805772	2559.575289
990.101944	2561.490928
990.398080	2559.199723
990.694180	2560.422203
990.990244	2560.928839
991.286271	2560.059240
991.582262	2562.007646
991.878217	2560.931360
992.174136	2558.907336
992.470019	2560.550752
992.765865	2560.833057
993.061676	2557.584033
993.357450	2559.040927
993.653188	2560.064281
993.948890	2560.323901
994.244556	2561.037224
994.540186	2561.790876
994.835780	2561.841288
995.131337	2558.196534
995.426859	2561.362378
995.722345	2559.131668
996.017795	2558.027655
996.313208	2563.656103
996.608586	2558.705690
996.903928	2560.465053
997.199234	2561.909343
997.494504	2560.510423
997.789738	2561.947152
998.084936	2562.426062
998.380099	2560.979251
998.675225	2561.775753
998.970316	2563.426731
999.265371	2560.394477
999.560390	2562.098387
999.855373	2560.470094
1000.150320	2560.505382
1000.445232	2559.406411
1000.740108	2562.226936
1001.034948	2560.076884
1001.329752	2562.075702
1001.624521	2557.203426
1001.919254	2556.696790
1002.213951	2556.991698
1002.508613	2556.094373
1002.803239	2558.798952
1003.097829	2556.341389
1003.392384	2559.875238
1003.686903	2559.411452
1003.981386	2559.570248
1004.275834	2560.205433
1004.570246	2561.175856
1004.864623	2561.425393
1005.158964	2560.739796
1005.453270	2559.149312
1005.747540	2559.998746
1006.041775	2559.373643
1006.335974	2558.156204
1006.630138	2560.311298
1006.924266	2560.003787
1007.218359	2558.151163
1007.512416	2558.834240
1007.806438	2559.991184
1008.100425	2559.114024
1008.394376	2559.260217
1008.688292	2557.571431
1008.982172	2557.538663
1009.276017	2558.062943
1009.569827	2558.758622
1009.863602	2560.260886
1010.157341	2559.804662
1010.451045	2558.665361
1010.744714	2557.420196
1011.038347	2559.338355
1011.331945	2556.817778
1011.625508	2559.676112
1011.919036	2561.929508
1012.212528	2557.397511
1012.505986	2560.119734
1012.799408	2557.417675
1013.092795	2556.258210
1013.386147	2558.773746
1013.679464	2558.390618
1013.972745	2560.260886
1014.265992	2559.708880
1014.559204	2560.775084
1014.852380	2562.496638
1015.145521	2560.770043
1015.438628	2559.986143
1015.731699	2557.994887
1016.024736	2559.194682
1016.317737	2560.906154
1016.610703	2560.591082
1016.903635	2554.027499
1017.196531	2554.587068
1017.489393	2556.139743
1017.782219	2558.100752
1018.075011	2556.381718
1018.367768	2559.645865
1018.660490	2556.631255
1018.953177	2556.631255
1019.245829	2556.631255
