Dividing Wavelength (nm)	Counts (n)	Blue Motor Position (mm): 40.900000	Red Motor Position (mm): 0.000000	
326.493990	2249.735892
326.888308	2249.735892
327.282561	2249.735892
327.676750	2210.190560
328.070874	2208.466486
328.464933	2207.380117
328.858929	2209.830118
329.252859	2216.461756
329.646726	2226.014742
330.040528	2239.348594
330.434265	2247.797568
330.827938	2269.146854
331.221547	2285.575975
331.615091	2303.507359
332.008571	2320.954793
332.401986	2342.533452
332.795338	2359.751513
333.188625	2380.342105
333.581847	2398.369272
333.975006	2417.578588
334.368100	2438.214552
334.761129	2451.908846
335.154095	2473.059007
335.546996	2498.988182
335.939833	2535.680220
336.332606	2554.531615
336.725315	2565.561659
337.117960	2580.261664
337.510540	2592.143664
337.903056	2602.536002
338.295508	2608.804677
338.687896	2618.110647
339.080220	2626.778911
339.472480	2632.994654
339.864676	2638.348359
340.256807	2642.603093
340.648875	2645.390851
341.040879	2648.624751
341.432818	2652.776142
341.824694	2656.246976
342.216506	2656.461225
342.608253	2657.051040
342.999937	2657.807213
343.391557	2658.076915
343.783113	2656.332676
344.174605	2655.924342
344.566033	2654.563231
344.957397	2654.170021
345.348697	2653.376039
345.739934	2650.540390
346.131106	2653.239928
346.522215	2648.392858
346.913260	2646.701551
347.304241	2647.815646
347.695159	2642.774492
348.086012	2642.343474
348.476802	2640.200983
348.867528	2636.901548
349.258191	2635.328708
349.648789	2634.161681
350.039324	2627.509878
350.429796	2634.655714
350.820203	2632.235960
351.210548	2628.946607
351.600828	2629.191103
351.991045	2628.399642
352.381198	2626.867131
352.771288	2627.104066
353.161314	2625.291771
353.551276	2624.112141
353.941175	2624.820423
354.331010	2624.938890
354.720782	2624.810341
355.110490	2627.920732
355.500135	2623.348406
355.889717	2624.268417
356.279235	2625.420320
356.668689	2621.846142
357.058080	2626.357975
357.447408	2625.437964
357.836672	2625.954682
358.225873	2623.824795
358.615010	2627.343520
359.004084	2627.043572
359.393095	2625.821092
359.782043	2627.288068
360.170927	2628.346710
360.559748	2629.687657
360.948505	2628.293778
361.337199	2632.354427
361.725830	2630.723614
362.114398	2628.384519
362.502903	2630.670682
362.891344	2633.463481
363.279722	2633.481125
363.668037	2635.701753
364.056289	2634.267545
364.444478	2636.460447
364.832603	2637.067906
365.220665	2637.561939
365.608665	2636.394912
365.996601	2637.090591
366.384474	2638.852475
366.772284	2638.194604
367.160031	2638.066055
367.547715	2641.211735
367.935336	2641.221817
368.322893	2639.321302
368.710388	2637.125879
369.097820	2642.093937
369.485189	2639.691827
369.872495	2641.927578
370.259738	2642.711478
370.646918	2643.893628
371.034035	2644.619555
371.421090	2645.337919
371.808081	2645.022847
372.195010	2646.509987
372.581875	2646.084010
372.968678	2647.493012
373.355418	2647.734988
373.742096	2647.263640
374.128710	2649.176758
374.515262	2647.026706
374.901751	2646.877992
375.288177	2650.114412
375.674540	2649.592653
376.060841	2654.590957
376.447079	2652.249341
376.833254	2653.794455
377.219367	2654.023827
377.605417	2653.542397
377.991404	2654.114568
378.377329	2652.471152
378.763191	2654.638848
379.148991	2653.670946
379.534727	2655.397542
379.920402	2656.955258
380.306013	2656.980464
380.691563	2659.269148
381.077049	2656.476348
381.462474	2657.514826
381.847835	2661.451967
382.233134	2660.211843
382.618371	2658.865855
383.003545	2659.564055
383.388657	2663.420538
383.773706	2666.906496
384.158693	2666.104952
384.543618	2668.086126
384.928480	2671.511590
385.313280	2674.097702
385.698017	2679.869823
386.082692	2686.630010
386.467305	2695.179807
386.851856	2708.485933
387.236344	2720.839280
387.620770	2736.686147
388.005133	2758.899992
388.389435	2783.062242
388.773674	2811.428815
389.157851	2853.424147
389.541965	2896.924263
389.926018	2929.878286
390.310008	2986.243427
390.693936	3040.249308
391.077802	3093.504058
391.461606	3138.942498
391.845348	3203.222251
392.229027	3270.186418
392.612645	3326.700273
392.996200	3414.426432
393.379694	3492.342506
393.763125	3591.204574
394.146494	3661.614370
394.529801	3748.869181
394.913047	3850.972711
395.296230	3883.944378
395.679351	4003.407121
396.062410	4096.287860
396.445408	4138.986433
396.828343	4240.169953
397.211217	4339.049665
397.594028	4311.479594
397.976778	4452.087457
398.359466	4537.535015
398.742092	4612.020584
399.124656	4584.667283
399.507158	4730.240683
399.889598	4827.839942
400.271977	4975.727231
400.654294	5007.236963
401.036549	5080.464764
401.418742	5045.569897
401.800874	5262.120222
402.182944	5345.090053
402.564952	5479.981247
402.946898	5558.161982
403.328783	5440.128406
403.710606	5476.286082
404.092367	5797.407582
404.474067	5839.281926
404.855705	5764.635040
405.237282	5718.251384
405.618797	5967.183561
406.000250	5965.968643
406.381642	6172.774418
406.762972	6206.209870
407.144240	6270.129181
407.525447	6258.872284
407.906593	6296.106246
408.287677	6459.797553
408.668700	6367.367997
409.049661	6493.656463
409.430560	6524.586462
409.811399	6387.799794
410.192176	6663.717267
410.572891	6665.035529
410.953545	6869.887857
411.334138	6604.430777
411.714669	6775.353619
412.095139	6568.593215
412.475547	6812.275030
412.855894	6882.072325
413.236180	7059.248718
413.616405	6747.150884
413.996568	6961.901517
414.376670	6997.434090
414.756711	6886.682461
415.136691	6991.435117
415.516609	7192.700664
415.896466	7186.316042
416.276262	7380.050105
416.655997	7364.818259
417.035670	7550.458749
417.415283	7893.632777
417.794834	7944.964326
418.174324	7802.783623
418.553753	7727.617498
418.933121	8037.713995
419.312428	8135.734190
419.691674	7919.060357
420.070859	8387.161738
420.449983	8068.013850
420.829045	8435.340046
421.208047	8211.845531
421.586988	8508.938371
421.965867	8522.602419
422.344686	8637.187846
422.723444	8674.489863
423.102141	8044.348153
423.480777	8789.728120
423.859352	8316.348650
424.237866	8934.273124
424.616319	8803.152712
424.994712	9212.610351
425.373044	8776.124566
425.751314	9237.687571
426.129524	9113.821380
426.507673	9230.151046
426.885762	9380.080003
427.263789	9296.888361
427.641756	9214.067245
428.019662	9315.240682
428.397508	9568.624198
428.775292	9247.767358
429.153016	9627.630903
429.530679	9453.595149
429.908282	9496.918825
430.285824	9214.906597
430.663305	9896.026975
431.040726	9350.831228
431.418086	9340.396040
431.795385	9663.382767
432.172624	9748.726981
432.549802	9665.434516
432.926920	9741.994520
433.303977	9620.240572
433.680974	9823.094082
434.057910	9910.134644
434.434786	9977.232402
434.811601	9815.297938
435.188355	10378.596468
435.565050	10119.171130
435.941683	10040.030056
436.318257	10531.988698
436.694770	10674.454226
437.071222	10729.738040
437.447614	10575.720707
437.823946	10478.305450
438.200218	10602.849677
438.576429	10418.703888
438.952580	10664.636579
439.328670	10711.075688
439.704700	10498.868317
440.080670	10488.826338
440.456580	11030.400017
440.832429	10802.461725
441.208218	10401.821064
441.583947	10724.371731
441.959616	10879.321677
442.335224	10687.208345
442.710773	10814.845319
443.086261	11025.731908
443.461689	10301.333224
443.837057	10970.281737
444.212365	11231.728578
444.587612	10872.599298
444.962800	11094.914183
445.337927	10849.236071
445.712995	10470.652979
446.088002	11545.530323
446.462949	11205.202026
446.837837	11186.370796
447.212664	11148.552060
447.587431	11690.050121
447.962139	12429.428594
448.336786	14697.156363
448.711374	15221.509460
449.085901	13060.994430
449.460369	12690.867873
449.834776	12133.936320
450.209124	13032.292621
450.583412	13451.096559
450.957640	14391.143202
451.331808	13485.736847
451.705917	12508.463804
452.079965	11789.522169
452.453954	12694.789891
452.827883	12345.203516
453.201752	12628.418060
453.575562	12161.093016
453.949311	12585.210330
454.323001	12547.010987
454.696632	12785.550825
455.070202	13065.334863
455.443713	13282.631279
455.817164	13761.664403
456.190556	13736.872008
456.563888	14101.312143
456.937160	14257.466925
457.310373	13610.434829
457.683526	13698.579404
458.056619	13236.691244
458.429653	13417.330910
458.802628	12807.563023
459.175542	13215.067215
459.548398	14160.790197
459.921194	14503.054296
460.293930	14573.877467
460.666607	15440.308140
461.039224	16484.147099
461.411782	17203.343313
461.784280	17024.581477
462.156719	17106.946369
462.529099	16788.849561
462.901419	15731.964096
463.273680	15499.128323
463.645882	15392.870882
464.018024	15120.608245
464.390106	15338.023128
464.762130	16062.721761
465.134094	16839.833271
465.505999	18866.830821
465.877845	22131.088842
466.249631	24942.376504
466.621358	24590.388019
466.993026	23163.060925
467.364634	22580.495104
467.736184	21117.484202
468.107674	20316.384362
468.479105	20448.913776
468.850477	19914.622045
469.221790	19503.473099
469.593043	18823.960848
469.964238	18253.519003
470.335373	17897.628665
470.706449	18381.483652
471.077467	17951.321994
471.448425	19805.249171
471.819324	23879.867631
472.190164	25801.386599
472.560945	22194.173841
472.931667	19868.959273
473.302330	19238.288242
473.672934	18835.041305
474.043479	19094.970759
474.413965	18921.792001
474.784393	18529.948153
475.154761	19246.870806
475.525070	19209.276402
475.895321	18898.874915
476.265513	19497.481687
476.635645	20073.849410
477.005719	19850.690132
477.375734	20036.181908
477.745691	20524.828512
478.115588	21064.715924
478.485427	21596.524888
478.855207	22672.186131
479.224928	24458.690395
479.594591	26694.711828
479.964194	26650.016958
480.333739	26868.649280
480.703226	26446.097244
481.072653	26140.268084
481.442022	26752.773317
481.811333	27662.182348
482.180584	27557.578405
482.549777	26607.600689
482.918912	26276.991738
483.287988	26396.560345
483.657005	26043.248557
484.025964	25812.552755
484.394864	25707.606014
484.763706	25370.861978
485.132489	24817.887730
485.501213	24995.933723
485.869879	24910.103037
486.238487	24744.796041
486.607036	24883.432813
486.975527	24617.383398
487.343959	24923.623412
487.712333	24835.791388
488.080648	24505.419371
488.448905	24996.127807
488.817104	24746.757050
489.185244	25448.891478
489.553326	25401.310547
489.921350	26431.195593
490.289315	28736.341327
490.657222	30489.823513
491.025070	30991.619967
491.392861	30756.049368
491.760593	29901.346940
492.128267	28990.811211
492.495883	27923.727492
492.863440	27056.948979
493.230939	26198.251435
493.598380	26044.629834
493.965763	25649.121067
494.333088	25177.730333
494.700354	25127.593538
495.067563	24977.803213
495.434713	24741.879733
495.801805	24903.579784
496.168839	24690.417114
496.535815	24547.896133
496.902733	24770.110195
497.269593	24450.372492
497.636395	24623.883966
498.003139	24564.839451
498.369825	24309.283198
498.736453	24518.460836
499.103023	24399.779472
499.469535	24395.297886
499.835989	24610.824857
500.202385	24640.751667
500.568723	24169.434029
500.935003	24379.027562
501.301226	24020.339383
501.667390	24868.276584
502.033497	25074.527832
502.399546	24815.805734
502.765537	24361.456620
503.131470	24763.899493
503.497345	24901.195318
503.863163	24131.690910
504.228923	24698.321643
504.594625	24929.105667
504.960269	24466.161385
505.325856	24954.508041
505.691385	24350.781977
506.056856	24961.469874
506.422270	24937.839466
506.787625	24480.148067
507.152924	24898.876388
507.518164	24925.826396
507.883347	24754.197793
508.248472	24422.076495
508.613540	25201.146493
508.978550	25001.834393
509.343503	25018.805437
509.708398	25231.824434
510.073236	25404.221814
510.438016	25618.924556
510.802738	25276.433605
511.167403	25532.791401
511.532010	25263.795432
511.896561	26024.059405
512.261053	25989.474569
512.625488	25807.665356
512.989866	25712.601797
513.354186	25543.581991
513.718449	25672.617886
514.082655	26037.836879
514.446803	25768.883759
514.810894	26251.208757
515.174927	25730.389509
515.538904	25756.258190
515.902822	26253.867965
516.266684	26012.739494
516.630488	25924.776401
516.994235	25862.319025
517.357925	26201.666817
517.721558	26366.164708
518.085133	26485.342626
518.448651	26371.732663
518.812112	26127.942463
519.175516	26336.752096
519.538863	26493.204306
519.902152	26281.790916
520.265385	26548.036936
520.628560	26350.111154
520.991678	26336.061458
521.354739	26404.008650
521.717743	26482.421278
522.080690	26258.140343
522.443580	26596.762209
522.806413	26574.434938
523.169189	26680.505856
523.531908	26730.110810
523.894569	26349.392789
524.257174	26434.495028
524.619722	26593.470335
524.982213	26297.196683
525.344647	26331.685737
525.707025	26480.051935
526.069345	26441.560205
526.431608	26421.758553
526.793815	26600.548115
527.155964	26075.199391
527.518057	26253.694045
527.880093	26164.402608
528.242072	26393.681847
528.603995	26108.992765
528.965860	25907.243268
529.327669	25944.184843
529.689421	25936.837362
530.051117	25776.347188
530.412755	25963.641177
530.774337	25731.085188
531.135862	25618.077642
531.497331	25822.201523
531.858743	25410.238431
532.220098	25862.785332
532.581396	25543.652567
532.942638	25452.755522
533.303824	25578.607928
533.664953	25573.347484
534.026025	25225.676747
534.387040	25481.028834
534.747999	25534.213007
535.108902	25690.229157
535.469748	25186.690984
535.830537	25351.841705
536.191270	25499.439127
536.551947	25330.008467
536.912567	24955.803617
537.273131	25372.664191
537.633638	25058.895213
537.994089	25274.921259
538.354483	24787.401353
538.714821	25293.558404
539.075103	25336.806463
539.435328	25105.460352
539.795497	24698.757703
540.155609	25056.299019
540.515665	25359.715987
540.875665	24574.400000
541.235609	24912.689149
541.595496	24855.361148
541.955328	25201.252357
542.315102	25142.066690
542.674821	24659.741693
543.034483	24526.115828
543.394090	24701.190060
543.753640	24510.727706
544.113134	25138.865558
544.472571	24726.811724
544.831953	25029.318764
545.191278	24671.633775
545.550548	24574.016872
545.909761	24774.874085
546.268918	25002.646019
546.628019	24976.061494
546.987064	24659.540047
547.346053	24413.428396
547.704986	24512.983622
548.063863	24679.077039
548.422684	24695.538927
548.781449	24200.560633
549.140158	24625.318174
549.498811	24191.980589
549.857408	23948.208033
550.215949	24357.428738
550.574434	24046.765112
550.932864	24245.615946
551.291237	24427.614202
551.649555	24273.425471
552.007817	24331.857485
552.366022	24182.059599
552.724173	24207.532549
553.082267	24174.376880
553.440305	24661.821169
553.798288	23895.590990
554.156215	24395.292845
554.514086	24526.773699
554.871902	23904.271857
555.229661	24184.312994
555.587365	24024.916751
555.945014	23930.178347
556.302606	24154.943232
556.660143	24126.077585
557.017625	24363.347053
557.375050	23888.997161
557.732421	24270.990594
558.089735	24097.574901
558.446994	24145.140708
558.804197	24182.626728
559.161345	24088.833541
559.518437	23877.515933
559.875474	24039.737743
560.232455	24235.473144
560.589381	24039.185737
560.946251	24048.587489
561.303065	24353.138716
561.659825	24444.388642
562.016528	24044.753691
562.373177	23782.938846
562.729770	24152.112624
563.086307	24003.219625
563.442789	24160.642257
563.799216	24015.134392
564.155587	24012.865873
564.511904	23998.039839
564.868164	23936.958699
565.224370	23899.329006
565.580520	23837.529501
565.936615	23963.102123
566.292654	23649.980934
566.648638	23911.037086
567.004567	23745.331838
567.360441	23675.703421
567.716260	23398.467686
568.072023	23713.761612
568.427732	23508.715200
568.783385	23276.527216
569.138982	23516.801211
569.494525	23549.765316
569.850013	23315.943997
570.205445	23415.045520
570.560823	23229.384865
570.916145	22999.735102
571.271412	23174.718593
571.626625	22925.362959
571.981782	23033.331872
572.336884	22845.001926
572.691931	22978.630311
573.046923	22717.012071
573.401860	22598.761725
573.756743	22619.324592
574.111570	22523.550230
574.466342	22438.576541
574.821059	22529.095499
575.175722	22223.510836
575.530330	22180.043487
575.884882	22211.810318
576.239380	22124.570630
576.593823	22017.420905
576.948211	21998.761074
577.302544	21850.508301
577.656823	21715.728012
578.011047	21819.485040
578.365216	21689.408147
578.719330	21569.496741
579.073389	21458.714865
579.427394	21598.778283
579.781344	21366.277747
580.135239	21247.954305
580.489080	21194.334072
580.842866	20975.734518
581.196597	21181.093482
581.550273	21151.287659
581.903895	21027.164369
582.257463	21347.761589
582.610975	20872.733663
582.964434	21196.025379
583.317837	20885.860827
583.671186	20967.746810
584.024481	20948.189653
584.377721	20715.658870
584.730906	20790.393976
585.084037	20789.970519
585.437113	20716.435208
585.790135	20920.155797
586.143103	20372.119359
586.496016	20394.343286
586.848874	20631.990840
587.201679	20546.497912
587.554428	20249.498333
587.907124	20581.458314
588.259765	20332.568987
588.612352	20407.820811
588.964884	19979.100923
589.317362	20149.880092
589.669786	20214.941223
590.022155	20221.608149
590.374470	20452.505598
590.726731	20215.750329
591.078937	20002.890128
591.431090	20099.435786
591.783188	19855.317911
592.135232	19808.329316
592.487222	19909.124667
592.839157	19919.542211
593.191038	19797.977307
593.542866	19694.197593
593.894639	19397.311440
594.246358	19621.317632
594.598022	19518.377270
594.949633	19265.737325
595.301190	19242.384179
595.652692	19416.800541
596.004141	19643.518873
596.355535	18974.025916
596.706876	18997.260594
597.058162	18886.166166
597.409395	19113.948182
597.760573	19170.809877
598.111698	18951.557493
598.462768	18893.450634
598.813785	18872.897849
599.164748	18662.258277
599.515657	18723.818327
599.866511	18518.318211
600.217312	18868.875009
600.568060	18385.582110
600.918753	18693.407567
601.269392	18594.540458
601.619978	18381.239156
601.970510	18577.208971
602.320988	18530.721970
602.671412	18725.461743
603.021783	18656.584458
603.372100	18362.778451
603.722363	18516.437861
604.072572	18458.106670
604.422728	18605.623434
604.772830	18364.424387
605.122878	18324.478284
605.472872	18304.669070
605.822813	18281.661244
606.172701	18269.184388
606.522534	18451.001163
606.872314	18478.654413
607.222041	18315.235329
607.571714	18534.608700
607.921333	18361.213172
608.270899	18432.066590
608.620411	18595.223534
608.969870	18380.969454
609.319276	18387.651504
609.668627	18403.236231
610.017926	18534.999389
610.367171	18655.074633
610.716362	18716.647286
611.065500	18523.429941
611.414585	18668.685748
611.763616	18644.800761
612.112594	18586.983768
612.461518	18556.021001
612.810389	18749.752543
613.159207	18598.538093
613.507971	18515.434671
613.856682	18769.554196
614.205340	18692.394295
614.553945	18857.847485
614.902496	18604.025388
615.250994	18813.818047
615.599439	18757.394933
615.947830	18750.125589
616.296169	18815.068253
616.644454	18784.523902
616.992686	18755.166742
617.340864	18969.604824
617.688990	18719.944201
618.037063	18886.375374
618.385082	18751.713552
618.733048	19017.697432
619.080961	18909.660464
619.428821	18933.091747
619.776628	18817.558583
620.124382	18747.637779
620.472083	18798.109812
620.819731	18805.379155
621.167326	18500.550665
621.514868	18546.702428
621.862357	18320.672213
622.209793	18317.105597
622.557176	18159.695568
622.904506	17978.153536
623.251783	17905.863389
623.599007	17653.457858
623.946179	17596.470134
624.293297	17535.262964
624.640363	17264.530318
624.987376	17292.826314
625.334336	17097.615193
625.681243	16943.491997
626.028097	16966.877909
626.374899	16878.924898
626.721647	16744.227788
627.068343	16581.940443
627.414987	16509.567118
627.761577	16477.273486
628.108115	16511.417221
628.454600	16242.552322
628.801032	16343.950090
629.147412	16275.022394
629.493739	16287.277439
629.840014	16099.900271
630.186236	16192.717996
630.532405	15960.320803
630.878521	16166.960220
631.224585	16060.652368
631.570597	15883.357508
631.916556	15911.882877
632.262462	15890.405041
632.608316	15806.558049
632.954117	15748.413381
633.299866	15738.434417
633.645562	15660.513302
633.991206	15412.571712
634.336797	15289.796930
634.682336	15265.233908
635.027823	15138.562315
635.373257	14997.513351
635.718639	14914.493109
636.063968	14859.668040
636.409245	14616.961688
636.754470	14642.752231
637.099642	14496.891486
637.444762	14270.727680
637.789829	14304.926868
638.134845	14143.025171
638.479808	14168.770344
638.824719	14090.138426
639.169577	13956.510040
639.514383	13996.420855
639.859137	13828.784846
640.203839	13917.579730
640.548489	13767.643212
640.893086	13754.999998
641.237632	13630.536430
641.582125	13785.725830
641.926566	13597.388323
642.270955	13619.012352
642.615292	13574.171289
642.959576	13579.404006
643.303809	13614.908853
643.647990	13541.852451
643.992118	13605.328140
644.336195	13371.431204
644.680219	13594.277931
645.024192	13505.803160
645.368112	13747.375252
645.711981	13792.029793
646.055797	13973.236589
646.399562	13959.373416
646.743274	14221.747829
647.086935	14495.260672
647.430544	14452.312562
647.774101	14493.637421
648.117606	14639.334329
648.461059	14609.215955
648.804460	14591.327421
649.147810	14316.816429
649.491108	14238.023195
649.834354	14245.700872
650.177548	13925.706070
650.520690	13735.170619
650.863781	13661.446265
651.206820	13705.863871
651.549807	13534.709136
651.892742	13335.172705
652.235626	13269.191563
652.578458	13273.819343
652.921238	12971.070328
653.263967	13179.902646
653.606644	13001.365142
653.949269	12980.378818
654.291843	12771.228907
654.634365	12941.173765
654.976836	12795.214717
655.319255	12787.652986
655.661622	12746.388621
656.003938	12675.883044
656.346203	12587.783839
656.688416	12669.256447
657.030577	12632.156075
657.372687	12537.173175
657.714746	12522.702543
658.056753	12715.824106
658.398708	12519.483766
658.740612	12526.009540
659.082465	12633.272691
659.424266	12608.848300
659.766016	12632.977783
660.107715	12544.961758
660.449362	12626.527627
660.790958	12570.228021
661.132503	12510.666788
661.473996	12582.490628
661.815438	12597.578801
662.156829	12615.910957
662.498168	12592.638470
662.839456	12591.058068
663.180693	12614.277623
663.521879	12707.869165
663.863013	12679.144670
664.204097	12645.550421
664.545129	12773.305862
664.886110	12753.446237
665.227040	12849.006349
665.567918	12845.202798
665.908746	12864.273483
666.249522	12862.730890
666.590248	12920.958738
666.930922	13027.289275
667.271545	12996.760048
667.612118	13083.099890
667.952639	12984.757060
668.293109	13005.120801
668.633528	12958.260756
668.973896	12940.089917
669.314213	13007.409485
669.654480	12743.406779
669.994695	12829.726456
670.334859	12851.940301
670.674973	12796.490129
671.015035	12832.972959
671.355047	12771.428033
671.695008	12748.909198
672.034918	12755.245929
672.374777	12798.133545
672.714585	12710.699773
673.054342	12745.650092
673.394049	12693.617823
673.733705	12791.234726
674.073310	12702.580994
674.412864	12705.779607
674.752368	12567.309193
675.091820	12609.017179
675.431223	12576.232035
675.770574	12450.467849
676.109875	12361.635157
676.449125	12317.028507
676.788324	12283.582972
677.127473	12107.666867
677.466571	12098.549941
677.805619	11987.132879
678.144616	11929.557861
678.483562	11900.515773
678.822458	11765.150710
679.161303	11738.561144
679.500098	11724.637477
679.838842	11680.935715
680.177535	11719.208155
680.516179	11782.666199
680.854771	11718.154554
681.193314	11935.040116
681.531805	12099.815270
681.870247	12530.228986
682.208638	12948.740537
682.546978	13257.982558
682.885268	13279.704890
683.223508	12986.569355
683.561697	12829.673524
683.899836	12728.991599
684.237925	12532.870550
684.575963	12439.515943
684.913951	12357.788757
685.251889	12316.955410
685.589776	12421.105649
685.927614	12334.859068
686.265401	12302.814974
686.603137	12361.128521
686.940824	12507.049760
687.278460	12643.997746
687.616046	12670.546982
687.953582	12834.011437
688.291068	12776.103703
688.628504	13006.827232
688.965889	13011.182789
689.303224	12968.186788
689.640510	12855.476670
689.977745	12537.422712
690.314930	12316.907519
690.652065	12232.183367
690.989150	11940.091352
691.326185	11701.367511
691.663170	11504.225628
692.000105	11266.744432
692.336990	11147.843778
692.673825	10890.457586
693.010610	10780.941039
693.347345	10566.729809
693.684030	10367.410148
694.020665	10321.346605
694.357251	10113.779616
694.693786	10045.408967
695.030272	9888.634123
695.366707	9772.153222
695.703093	9710.857833
696.039429	9702.199651
696.375716	9617.190674
696.711952	9489.372218
697.048139	9541.089415
697.384276	9485.982042
697.720363	9513.320219
698.056400	9445.993089
698.392388	9388.362618
698.728326	9357.364563
699.064214	9298.559504
699.400053	9331.266510
699.735842	9152.164396
700.071581	9113.496226
700.407270	9033.725007
700.742910	8960.963513
701.078501	8865.108493
701.414042	8733.841888
701.749533	8676.241664
702.084974	8532.573821
702.420366	8656.099734
702.755709	8528.097276
703.091002	8402.640601
703.426246	8429.673789
703.761440	8380.981284
704.096584	8336.619130
704.431679	8275.437166
704.766725	8256.641224
705.101721	8213.982980
705.436668	8261.770598
705.771565	8153.095924
706.106413	8233.214982
706.441212	8268.026670
706.775961	8228.796411
707.110661	8276.077393
707.445311	8402.441476
707.779913	8307.077968
708.114465	8430.976927
708.448967	8473.478895
708.783421	8632.229871
709.117825	8796.861352
709.452180	8829.485180
709.786485	8928.788349
710.120742	9205.580462
710.454949	9223.312721
710.789107	9321.726126
711.123216	9540.418942
711.457275	9715.233554
711.791286	9859.350061
712.125247	9869.258448
712.459159	9851.987455
712.793023	10082.257281
713.126837	9659.536366
713.460602	9818.317589
713.794318	9643.923913
714.127985	9671.294857
714.461602	9334.273558
714.795171	9294.574472
715.128691	9034.072847
715.462162	8791.575703
715.795584	8734.078823
716.128957	8574.743073
716.462281	8407.654029
716.795556	8451.428888
717.128782	8245.182681
717.461960	7990.589289
717.795088	8060.817603
718.128167	7963.500648
718.461198	7807.073645
718.794180	7751.459635
719.127113	7739.083603
719.459997	7571.923982
719.792833	7351.381063
720.125619	7419.209788
720.458357	7266.908969
720.791046	7264.978207
721.123686	7254.467401
721.456278	7094.957732
721.788821	7111.386852
722.121315	7012.721389
722.453761	7078.284115
722.786158	7018.700197
723.118506	7029.687392
723.450805	6991.606516
723.783056	7053.892492
724.115259	6972.709751
724.447412	6974.582540
724.779518	7028.870725
725.111574	7024.331166
725.443582	7092.452278
725.775542	7072.872437
726.107453	7277.961699
726.439315	7184.254210
726.771129	7255.762978
727.102895	7432.669669
727.434612	7540.177316
727.766281	7579.001762
728.097901	7654.278792
728.429473	7656.723752
728.760996	7641.675908
729.092471	7616.671784
729.423897	7552.961682
729.755276	7548.308697
730.086606	7472.905638
730.417887	7575.243582
730.749120	7787.473638
731.080305	7972.907442
731.411442	8079.535407
731.742530	8068.346566
732.073570	8179.778751
732.404562	8269.140765
732.735506	8131.081205
733.066401	8261.112728
733.397249	8182.044750
733.728048	7941.937113
734.058798	7607.375897
734.389501	7376.060032
734.720156	7205.752211
735.050762	6983.444888
735.381320	6895.885087
735.711831	6826.206258
736.042293	6722.209775
736.372707	6743.561582
736.703073	6605.635613
737.033391	6646.322766
737.363661	6653.902141
737.693883	6687.095618
738.024056	6775.913187
738.354182	6814.409958
738.684260	6842.211922
739.014290	6968.432332
739.344272	7074.667088
739.674207	7109.456090
740.004093	7190.764861
740.333931	7196.872218
740.663722	7201.762138
740.993464	7278.528828
741.323159	7258.530571
741.652806	7010.465473
741.982405	7040.107457
742.311956	7086.080260
742.641460	6904.838176
742.970915	6716.069650
743.300323	6705.473144
743.629683	6661.612585
743.958996	6526.565115
744.288260	6435.584891
744.617477	6383.787035
744.946647	6384.339042
745.275768	6216.456016
745.604842	6172.310631
745.933869	6155.395040
746.262847	6113.167814
746.591778	6100.070897
746.920662	6060.704526
747.249498	6059.358538
747.578286	6103.887050
747.907027	6182.811355
748.235720	6238.884109
748.564365	6218.046500
748.892963	6254.267190
749.221514	6396.866309
749.550017	6203.948913
749.878473	6097.336071
750.206881	6164.486761
750.535242	6107.892247
750.863555	6036.544797
751.191821	6047.526950
751.520039	6040.421444
751.848210	5950.247804
752.176334	5981.661755
752.504411	6021.945615
752.832440	5948.687567
753.160421	5884.039810
753.488356	5928.008754
753.816243	5953.325429
754.144082	5809.589530
754.471875	5782.712618
754.799620	5822.678886
755.127318	5835.710268
755.454969	5792.406757
755.782572	5763.019351
756.110129	5804.255989
756.437638	5784.731600
756.765100	5724.399071
757.092515	5730.914762
757.419882	5778.621722
757.747203	5756.612044
758.074477	5819.104708
758.401703	5801.616945
758.728882	5760.743270
759.056014	5829.643240
759.383099	5946.608091
759.710138	5957.837262
760.037129	5941.456032
760.364073	5949.085818
760.690970	6027.798395
761.017820	6004.911556
761.344623	5968.078366
761.671379	6074.020734
761.998088	6199.616041
762.324751	6459.530372
762.651366	7089.848522
762.977935	8452.817726
763.304456	10105.872566
763.630931	10968.882816
763.957359	10524.694148
764.283740	9561.574144
764.610074	8697.134727
764.936362	7702.600772
765.262602	7110.436595
765.588796	6571.736374
765.914943	6236.565178
766.241044	6071.139715
766.567097	5858.650039
766.893104	5600.454742
767.219064	5422.310447
767.544978	5363.034040
767.870845	5282.368017
768.196665	5176.087891
768.522438	5105.869659
768.848165	5069.903547
769.173846	5002.084904
769.499479	4958.231907
769.825066	4906.791973
770.150607	4841.713197
770.476101	4818.470957
770.801548	4815.100946
771.126949	4730.202874
771.452303	4679.672868
771.777611	4640.117455
772.102872	4662.658974
772.428087	4624.656236
772.753256	4579.850461
773.078378	4531.173079
773.403453	4461.176658
773.728482	4450.915389
774.053465	4401.948141
774.378401	4391.452459
774.703291	4387.754773
775.028135	4312.823062
775.352932	4260.866410
775.677683	4252.727467
776.002388	4270.305970
776.327046	4283.082775
776.651658	4204.254252
776.976224	4143.828462
777.300743	4151.211231
777.625216	4169.755116
777.949643	4159.060308
778.274024	4125.508908
778.598359	4082.679265
778.922647	4107.764047
779.246889	4097.921194
779.571086	4089.073969
779.895236	4075.389757
780.219339	4062.486924
780.543397	4059.747057
780.867409	4110.221609
781.191374	4123.699134
781.515294	4058.537180
781.839167	4054.811767
782.162995	4078.522834
782.486776	4063.043971
782.810511	4072.158377
783.134201	4062.655802
783.457844	4017.068648
783.781441	3962.969506
784.104993	3970.518633
784.428498	3988.989421
784.751958	3982.725787
785.075372	3960.756439
785.398739	3924.994494
785.722061	3938.865228
786.045337	3986.451200
786.368568	4009.963142
786.691752	3919.857558
787.014891	3978.932319
787.337983	4109.563739
787.661030	4273.373513
787.984031	4433.606587
788.306987	4597.615487
788.629897	4687.063200
788.952760	4641.140809
789.275579	4572.283689
789.598351	4504.790200
789.921078	4355.425853
790.243759	4158.596522
790.566395	4143.883914
790.888984	4140.191269
791.211529	4030.946945
791.534027	3970.750527
791.856480	3953.988690
792.178888	3894.167838
792.501249	3848.358873
792.823566	3858.224411
793.145836	3883.145355
793.468062	3827.284329
793.790241	3787.935603
794.112375	3821.449194
794.434464	3884.408164
794.756507	3909.692071
795.078505	3878.993965
795.400457	3925.806119
795.722364	4069.231987
796.044226	4172.235363
796.366042	4246.632712
796.687812	4222.314186
797.009538	4228.673601
797.331218	4187.535265
797.652852	4162.158097
797.974442	4140.377792
798.295986	4132.306904
798.617484	4051.494688
798.938938	3968.686174
799.260346	4011.631764
799.581709	4001.746061
799.903026	3928.155297
800.224299	3891.677508
800.545526	3886.021333
800.866708	3845.785364
801.187845	3789.236221
801.508936	3824.110923
801.829983	3815.399809
802.150984	3735.888210
802.471940	3730.494175
802.792851	3737.176225
803.113717	3736.783015
803.434538	3741.753593
803.755314	3679.540713
804.076045	3659.895336
804.396731	3680.858975
804.717372	3702.228426
805.037967	3687.427598
805.358518	3676.384951
805.679024	3706.871328
805.999485	3718.425653
806.319901	3724.384297
806.640272	3737.594641
806.960598	3750.351280
807.280879	3723.779358
807.601115	3738.262593
807.921306	3760.073146
808.241453	3795.872900
808.561554	3765.605812
808.881611	3698.581151
809.201623	3744.259046
809.521590	3753.449069
809.841513	3725.155593
810.161390	3755.873864
810.481223	3731.958631
810.801011	3677.793953
811.120755	3672.989733
811.440453	3706.188252
811.760107	3705.094322
812.079716	3662.471366
812.399281	3632.446254
812.718801	3657.296622
813.038276	3631.566572
813.357707	3626.583392
813.677093	3642.740290
813.996434	3587.854727
814.315731	3605.796194
814.634983	3607.306019
814.954191	3623.518370
815.273354	3647.098367
815.592473	3643.004950
815.911547	3653.929131
816.230577	3696.776418
816.549562	3748.503698
816.868502	3789.952064
817.187399	3813.562308
817.506250	3809.932678
817.825058	3787.439049
818.143821	3881.449007
818.462539	3985.369873
818.781213	4028.449053
819.099843	4090.051953
819.418429	4352.123897
819.736970	4596.203964
820.055466	4850.525134
820.373919	5223.547833
820.692327	5634.918590
821.010691	6119.925481
821.329011	7581.877741
821.647286	10460.782400
821.965517	15174.465413
822.283704	19199.294917
822.601847	21225.402703
822.919945	19307.596546
823.237999	16659.740570
823.556010	14150.123116
823.873976	11994.404743
824.191897	9882.514163
824.509775	8540.150675
824.827609	7401.308651
825.145398	6875.289453
825.463144	6760.726711
825.780845	6868.499019
826.098502	7092.510252
826.416116	8026.434413
826.733685	9387.984532
827.051210	10485.000103
827.368692	10449.268404
827.686129	9135.936922
828.003522	7617.619521
828.320872	6596.322081
828.638177	5881.178956
828.955439	5310.283406
829.272656	4807.458557
829.589830	4530.487482
829.906960	4355.924927
830.224046	4164.620701
830.541088	4040.293244
830.858086	3994.549814
831.175041	3914.178698
831.491952	3900.587747
831.808819	3911.033018
832.125642	3994.761542
832.442421	4147.077485
832.759157	4437.586578
833.075849	5015.572511
833.392497	5904.849693
833.709101	6694.498553
834.025662	7015.138622
834.342179	6599.041784
834.658653	5921.853505
834.975083	5263.289770
835.291469	4679.569525
835.607811	4276.584728
835.924110	4131.109630
836.240366	3929.977674
836.556578	3722.917321
836.872746	3615.250878
837.188871	3572.786718
837.504952	3505.015967
837.820990	3418.910538
838.136984	3376.688354
838.452935	3402.904875
838.768842	3395.368350
839.084706	3422.459511
839.400526	3591.078545
839.716303	3951.226138
840.032037	4497.795599
840.347727	4739.287033
840.663373	4431.993418
840.978977	4044.742062
841.294537	3730.020307
841.610054	3503.922036
841.925527	3399.015625
842.240957	3332.739575
842.556344	3276.631533
842.871687	3213.576781
843.186987	3165.211951
843.502244	3123.768625
843.817458	3088.984663
844.132629	3062.833678
844.447756	3068.825089
844.762840	3051.690207
845.077881	3019.381452
845.392879	3002.009636
845.707833	3000.545181
846.022745	2998.712721
846.337613	3000.426714
846.652438	2987.297028
846.967221	2983.201091
847.281960	2970.852785
847.596656	2964.216106
847.911309	2966.351034
848.225919	2960.001701
848.540485	2956.551031
848.855009	2951.913170
849.169490	2944.671552
849.483928	2935.615119
849.798323	2934.783329
850.112675	2933.598658
850.426984	2947.391255
850.741251	2940.202569
851.055474	2926.946855
851.369654	2924.252358
851.683792	2929.621187
851.997887	2939.458999
852.311938	2941.271294
852.625947	2926.125147
852.939914	2931.657813
853.253837	2934.254008
853.567718	2919.604415
853.881555	2920.844538
854.195350	2938.123093
854.509103	2930.001794
854.822812	2922.243459
855.136479	2918.770104
855.450103	2921.653644
855.763685	2919.664908
856.077224	2915.163158
856.390720	2923.571803
856.704173	2934.450613
857.017584	2926.588933
857.330953	2923.773449
857.644278	2935.932712
857.957561	2945.256326
858.270802	2947.839917
858.584000	2943.842282
858.897155	2932.353493
859.210268	2932.358534
859.523339	2931.045313
859.836367	2929.396856
860.149352	2922.790424
860.462295	2918.790268
860.775195	2926.097421
861.088054	2925.918460
861.400869	2908.949936
861.713642	2906.631005
862.026373	2922.175403
862.339062	2925.492482
862.651708	2932.739141
862.964312	2933.812907
863.276873	2925.363933
863.589392	2936.351128
863.901869	2949.732871
864.214303	2972.828917
864.526696	2987.191164
864.839045	2982.351657
865.151353	2982.119763
865.463619	2978.359063
865.775842	2983.826194
866.088023	3003.267404
866.400162	3008.053979
866.712258	2978.759834
867.024313	2970.484780
867.336325	2979.548775
867.648296	2997.149964
867.960224	2992.300374
868.272110	2976.403095
868.583954	2978.971563
868.895755	2997.170128
869.207515	2982.596153
869.519233	2990.180568
869.830909	3001.777743
870.142542	3010.262005
870.454134	3007.353259
870.765684	3012.906090
871.077191	3011.426511
871.388657	3022.116278
871.700081	3033.743699
872.011463	3046.323899
872.322803	3044.499001
872.634101	3042.979093
872.945357	3064.265365
873.256571	3087.537852
873.567744	3080.487798
873.878874	3077.417736
874.189963	3099.253494
874.501010	3097.148812
874.812015	3089.433326
875.122979	3086.995928
875.433900	3084.258582
875.744780	3092.274016
876.055618	3101.269955
876.366415	3093.309973
876.677169	3104.478650
876.987882	3103.631736
877.298554	3099.177876
877.609183	3122.967081
877.919771	3150.091010
878.230317	3172.506500
878.540822	3227.565982
878.851285	3267.713732
879.161707	3313.802481
879.472087	3424.959923
879.782425	3672.238602
880.092722	4127.099393
880.402977	4671.891847
880.713191	5331.892312
881.023363	6542.787548
881.333494	7850.059563
881.643583	8376.403916
881.953631	8053.044144
882.263637	7381.912812
882.573602	6762.649911
882.883526	6173.838101
883.193408	5597.664463
883.503248	5142.481038
883.813048	4830.768852
884.122806	4508.858412
884.432522	4182.814225
884.742197	3939.586113
885.051831	3749.272473
885.361424	3618.217597
885.670975	3544.962070
885.980485	3451.085703
886.289954	3373.174670
886.599382	3326.009635
886.908768	3291.160138
887.218113	3244.660535
887.527417	3186.815815
887.836680	3132.646097
888.145901	3132.086529
888.455082	3118.450208
888.764221	3063.254614
889.073319	3035.747558
889.382376	3034.714122
889.691392	3039.104967
890.000366	3038.048845
890.309300	3029.025179
890.618193	3040.566901
890.927044	3054.689694
891.235855	3051.609549
891.544625	3041.300389
891.853353	3052.615259
892.162041	3069.898855
892.470687	3114.140021
892.779293	3165.085922
893.087858	3214.620299
893.396381	3290.643420
893.704864	3418.905497
894.013306	3669.143333
894.321707	3984.606138
894.630068	4186.022919
894.938387	4169.659334
895.246665	4129.327583
895.554903	4002.015763
895.863100	3796.228301
896.171256	3623.709934
896.479371	3480.213490
896.787446	3356.569109
897.095480	3248.743870
897.403473	3185.822708
897.711425	3151.754590
898.019336	3136.742034
898.327207	3107.591562
898.635038	3071.290213
898.942827	3054.324210
899.250576	3046.182747
899.558284	3014.748632
899.865952	2992.701145
900.173579	2969.615181
900.481165	2966.182156
900.788711	2951.361163
901.096216	2925.550456
901.403681	2914.704413
901.711105	2922.281267
902.018489	2920.496699
902.325832	2919.856472
902.633135	2929.497679
902.940397	2965.509162
903.247619	3054.437636
903.554800	3261.147629
903.861941	3631.148157
904.169041	4073.738779
904.476101	4369.180641
904.783121	4302.990291
905.090100	4040.094118
905.397039	3756.443515
905.703938	3501.519927
906.010796	3319.133501
906.317614	3203.058413
906.624391	3103.309102
906.931129	3031.853267
907.237826	2969.330356
907.544483	2920.968047
907.851099	2889.417985
908.157675	2872.018443
908.464211	2848.526666
908.770707	2835.303719
909.077163	2821.800989
909.383578	2805.228196
909.689954	2795.395425
909.996289	2796.683440
910.302584	2796.764098
910.608839	2797.916002
910.915054	2788.544497
911.221229	2781.791871
911.527363	2786.626338
911.833458	2792.728655
912.139513	2799.246867
912.445527	2799.607309
912.751502	2811.189360
913.057436	2819.610607
913.363331	2832.412618
913.669186	2857.588140
913.975000	2892.931670
914.280775	2957.753346
914.586510	3029.438554
914.892205	3112.441152
915.197859	3245.197418
915.503475	3455.799182
915.809050	3675.825383
916.114585	3823.584122
916.420081	3838.135413
916.725536	3778.357411
917.030952	3647.279849
917.336328	3514.999972
917.641665	3380.701113
917.946961	3276.286214
918.252218	3204.749720
918.557435	3125.243162
918.862612	3061.086918
919.167750	3006.846623
919.472848	2970.575521
919.777906	2941.404884
920.082925	2915.069897
920.387904	2884.079403
920.692843	2868.494676
920.997743	2857.888089
921.302603	2842.331088
921.607423	2832.273986
921.912204	2815.986018
922.216946	2804.898000
922.521647	2797.089253
922.826310	2786.502830
923.130932	2777.378341
923.435516	2772.039759
923.740059	2764.457864
924.044564	2756.233221
924.349028	2753.261461
924.653454	2744.666294
924.957840	2735.675396
925.262186	2732.948132
925.566493	2730.553584
925.870761	2724.433623
926.174989	2719.238714
926.479178	2717.126470
926.783328	2712.481047
927.087438	2709.776468
927.391509	2707.190356
927.695541	2702.355890
927.999533	2701.148533
928.303486	2697.350024
928.607400	2696.155270
928.911275	2699.273224
929.215110	2695.562935
929.518906	2694.398428
929.822663	2694.884900
930.126381	2695.857842
930.430060	2695.439427
930.733699	2693.612008
931.037299	2696.719880
931.340861	2697.672658
931.644383	2697.657534
931.947866	2698.159129
932.251309	2697.488656
932.554714	2696.326670
932.858080	2695.512523
933.161407	2692.180321
933.464694	2688.825433
933.767943	2690.060515
934.071153	2689.329548
934.374323	2689.080011
934.677455	2688.495237
934.980548	2688.255782
935.283602	2685.876358
935.586617	2686.778724
935.889593	2686.428364
936.192530	2683.882581
936.495428	2687.083714
936.798287	2689.382480
937.101108	2691.756864
937.403890	2696.611495
937.706632	2701.035107
938.009336	2705.098277
938.312002	2718.011193
938.614628	2723.526215
938.917216	2731.713049
939.219765	2731.765981
939.522275	2731.150960
939.824747	2731.826475
940.127179	2728.277503
940.429573	2726.203068
940.731929	2722.160062
941.034246	2716.715616
941.336524	2713.484237
941.638763	2710.572970
941.940964	2709.088351
942.243126	2707.258412
942.545250	2708.251519
942.847335	2703.250694
943.149381	2700.704912
943.451389	2699.673996
943.753359	2694.189220
944.055290	2694.567307
944.357182	2690.541946
944.659036	2691.711493
944.960851	2688.981708
945.262628	2688.772501
945.564367	2690.209229
945.866067	2690.849456
946.167729	2689.004394
946.469352	2692.049251
946.770937	2688.018848
947.072484	2687.844928
947.373992	2689.200999
947.675462	2685.011800
947.976893	2681.964422
948.278286	2680.898218
948.579641	2681.540965
948.880958	2677.689524
949.182236	2681.180523
949.483476	2678.239010
949.784678	2679.953002
950.085841	2678.801098
950.386967	2681.175482
950.688054	2682.899556
950.989103	2682.849145
951.290114	2681.936696
951.591087	2685.891481
951.892021	2685.226049
952.192917	2692.601257
952.493776	2692.064374
952.794596	2691.547656
953.095378	2691.260310
953.396122	2694.907585
953.696828	2692.969261
953.997496	2687.358457
954.298126	2684.840401
954.598718	2685.732685
954.899272	2680.038702
955.199788	2678.024761
955.500266	2675.526869
955.800706	2673.812877
956.101108	2672.461847
956.401472	2669.911023
956.701798	2667.435817
957.002087	2666.732576
957.302337	2664.327946
957.602550	2663.075219
957.902724	2662.737462
958.202861	2661.167142
958.502960	2662.371978
958.803022	2659.493479
959.103045	2657.134219
959.403031	2659.092707
959.702979	2655.407624
960.002889	2657.741678
960.302762	2658.729744
960.602596	2655.170690
960.902393	2655.926863
961.202153	2655.077428
961.501875	2652.750936
961.801559	2655.483241
962.101205	2655.430309
962.400814	2653.587767
962.700385	2654.180103
962.999918	2652.559372
963.299414	2649.232210
963.598873	2651.311686
963.898293	2647.293887
964.197677	2651.571306
964.497022	2650.978970
964.796331	2650.931079
965.095601	2651.835966
965.394835	2653.746564
965.694030	2652.493837
965.993189	2651.568785
966.292309	2652.178765
966.591393	2650.268167
966.890439	2651.702376
967.189447	2652.922335
967.488419	2650.507622
967.787353	2650.832777
968.086249	2650.275729
968.385108	2650.144659
968.683930	2648.818836
968.982714	2653.159269
969.281462	2651.800678
969.580172	2652.450987
969.878844	2654.727068
970.177480	2649.625420
970.476078	2650.918476
970.774639	2652.080462
971.073162	2650.048877
971.371649	2653.726399
971.670098	2652.158600
971.968510	2651.102478
972.266885	2651.687252
972.565223	2651.813281
972.863524	2651.309166
973.161788	2651.079793
973.460014	2653.232366
973.758204	2653.817140
974.056356	2651.679691
974.354471	2652.077942
974.652550	2652.292191
974.950591	2651.077273
975.248595	2653.822181
975.546563	2652.261944
975.844493	2651.684732
976.142386	2652.622386
976.440243	2649.842190
976.738062	2651.079793
977.035845	2649.630462
977.333590	2651.374701
977.631299	2649.721202
977.928971	2646.232724
978.226606	2646.164668
978.524204	2645.224493
978.821765	2643.714667
979.119290	2647.092241
979.416777	2647.316572
979.714228	2650.046357
980.011642	2649.703558
980.309020	2650.016110
980.606360	2648.425626
980.903664	2649.534680
981.200931	2647.278763
981.498162	2650.384114
981.795356	2651.289001
982.092513	2651.606594
982.389633	2653.746564
982.686717	2658.150012
982.983764	2662.056906
983.280775	2666.185611
983.577749	2667.594613
983.874686	2667.587052
984.171587	2664.060764
984.468451	2658.422234
984.765279	2658.954076
985.062070	2658.260917
985.358824	2655.904177
985.655543	2653.789413
985.952224	2652.090545
986.248869	2652.700524
986.545478	2650.522746
986.842050	2648.922179
987.138586	2647.480409
987.435086	2649.023002
987.731549	2649.121305
988.027975	2646.431849
988.324366	2647.210708
988.620719	2645.368166
988.917037	2646.308341
989.213318	2645.658032
989.509563	2646.106695
989.805772	2646.436891
990.101944	2646.658701
990.398080	2644.705254
990.694180	2644.672487
990.990244	2646.623413
991.286271	2645.065697
991.582262	2646.915800
991.878217	2645.353042
992.174136	2647.334216
992.470019	2647.402272
992.765865	2641.027733
993.061676	2645.058135
993.357450	2644.677528
993.653188	2642.640902
993.948890	2644.072589
994.244556	2645.847076
994.540186	2648.203815
994.835780	2646.633496
995.131337	2646.482261
995.426859	2647.792961
995.722345	2646.116777
996.017795	2648.902015
996.313208	2646.018475
996.608586	2649.658188
996.903928	2653.688590
997.199234	2652.287150
997.494504	2653.370998
997.789738	2650.938641
998.084936	2650.976450
998.380099	2650.699186
998.675225	2648.647437
998.970316	2647.394710
999.265371	2646.106695
999.560390	2646.058804
999.855373	2648.034936
1000.150320	2644.987559
1000.445232	2644.627116
1000.740108	2644.564102
1001.034948	2648.014772
1001.329752	2644.029740
1001.624521	2646.152065
1001.919254	2644.768269
1002.213951	2643.528145
1002.508613	2644.382620
1002.803239	2643.112250
1003.097829	2643.881026
1003.392384	2646.215080
1003.686903	2643.538227
1003.981386	2642.484626
1004.275834	2641.970428
1004.570246	2644.856489
1004.864623	2642.426653
1005.158964	2643.175264
1005.453270	2642.645943
1005.747540	2641.851961
1006.041775	2643.941519
1006.335974	2642.003196
1006.630138	2643.384472
1006.924266	2646.434370
1007.218359	2642.630819
1007.512416	2638.663431
1007.806438	2639.560757
1008.100425	2639.286014
1008.394376	2640.566467
1008.688292	2643.472692
1008.982172	2642.683752
1009.276017	2642.071251
1009.569827	2641.806591
1009.863602	2642.126704
1010.157341	2640.614358
1010.451045	2644.438073
1010.744714	2642.139307
1011.038347	2642.887918
1011.331945	2643.064359
1011.625508	2642.502270
1011.919036	2643.422281
1012.212528	2642.971097
1012.505986	2640.778195
1012.799408	2645.751294
1013.092795	2645.481592
1013.386147	2643.623927
1013.679464	2643.523104
1013.972745	2642.242651
1014.265992	2641.153761
1014.559204	2644.269194
1014.852380	2640.790798
1015.145521	2640.914307
1015.438628	2642.290542
1015.731699	2640.422794
1016.024736	2643.860861
1016.317737	2642.277939
1016.610703	2642.935809
1016.903635	2643.233237
1017.196531	2641.501601
1017.489393	2641.786426
1017.782219	2640.533699
1018.075011	2640.944553
1018.367768	2642.698875
1018.660490	2640.705099
1018.953177	2640.705099
1019.245829	2640.705099
