Dividing Wavelength (nm)	Counts (n)	Blue Motor Position (mm): 42.600000	Red Motor Position (mm): 0.000000	
326.493990	2258.126892
326.888308	2258.126892
327.282561	2258.126892
327.676750	2218.775645
328.070874	2214.548638
328.464933	2215.463607
328.858929	2218.924359
329.252859	2224.794783
329.646726	2231.330639
330.040528	2244.326733
330.434265	2256.785945
330.827938	2277.366456
331.221547	2292.237860
331.615091	2310.902732
332.008571	2327.331852
332.401986	2348.164420
332.795338	2366.259642
333.188625	2388.231511
333.581847	2405.860426
333.975006	2425.926739
334.368100	2444.223607
334.761129	2461.388736
335.154095	2479.405820
335.546996	2507.250633
335.939833	2543.302445
336.332606	2563.996381
336.725315	2573.471230
337.117960	2589.469332
337.510540	2599.347472
337.903056	2610.473299
338.295508	2615.448918
338.687896	2625.397635
339.080220	2635.258132
339.472480	2641.131076
339.864676	2645.431180
340.256807	2649.544762
340.648875	2652.703045
341.040879	2657.661020
341.432818	2658.109682
341.824694	2662.513130
342.216506	2663.397853
342.608253	2663.070178
342.999937	2665.666372
343.391557	2666.820796
343.783113	2663.798624
344.174605	2661.807369
344.566033	2660.116062
344.957397	2659.692605
345.348697	2658.870897
345.739934	2660.347955
346.131106	2657.986174
346.522215	2657.136740
346.913260	2651.851090
347.304241	2650.555513
347.695159	2649.764052
348.086012	2649.496871
348.476802	2647.896305
348.867528	2640.379944
349.258191	2637.514048
349.648789	2640.092598
350.039324	2634.224695
350.429796	2639.316261
350.820203	2639.175108
351.210548	2635.182515
351.600828	2635.774850
351.991045	2634.270066
352.381198	2631.585651
352.771288	2633.929788
353.161314	2633.574387
353.551276	2629.478449
353.941175	2633.395426
354.331010	2632.722432
354.720782	2630.194293
355.110490	2631.608337
355.500135	2630.416104
355.889717	2630.705970
356.279235	2632.397277
356.668689	2631.900723
357.058080	2634.383492
357.447408	2633.813841
357.836672	2632.304016
358.225873	2630.998357
358.615010	2633.271917
359.004084	2634.075981
359.393095	2637.204017
359.782043	2636.054634
360.170927	2636.369706
360.559748	2637.284676
360.948505	2637.841723
361.337199	2639.033956
361.725830	2640.011940
362.114398	2640.480767
362.502903	2639.971611
362.891344	2641.080665
363.279722	2639.608648
363.668037	2641.809111
364.056289	2641.234420
364.444478	2644.007054
364.832603	2646.351191
365.220665	2644.823721
365.608665	2645.917652
365.996601	2647.377066
366.384474	2644.599390
366.772284	2645.726088
367.160031	2649.562406
367.547715	2646.220121
367.935336	2647.230872
368.322893	2647.780358
368.710388	2645.128711
369.097820	2645.552168
369.485189	2646.905718
369.872495	2651.362098
370.259738	2653.275216
370.646918	2652.496357
371.034035	2650.018630
371.421090	2654.565751
371.808081	2655.326965
372.195010	2652.037612
372.581875	2653.892757
372.968678	2653.786893
373.355418	2655.417706
373.742096	2655.019455
374.128710	2656.441060
374.515262	2656.413334
374.901751	2658.858294
375.288177	2658.160094
375.674540	2659.493479
376.060841	2659.891730
376.447079	2656.846873
376.833254	2660.244611
377.219367	2657.850063
377.605417	2664.345590
377.991404	2661.520023
378.377329	2666.147802
378.763191	2663.145795
379.148991	2664.965652
379.534727	2669.752227
379.920402	2668.565035
380.306013	2670.044614
380.691563	2678.120542
381.077049	2680.288239
381.462474	2685.742767
381.847835	2696.067050
382.233134	2707.449976
382.618371	2719.306769
383.003545	2739.264697
383.388657	2758.053078
383.773706	2784.123405
384.158693	2814.350163
384.543618	2842.096674
384.928480	2879.247458
385.313280	2922.613983
385.698017	2961.788790
386.082692	3017.385155
386.467305	3054.051988
386.851856	3097.920108
387.236344	3166.641118
387.620770	3209.962273
388.005133	3269.929319
388.389435	3333.745285
388.773674	3377.434445
389.157851	3455.529480
389.541965	3537.032335
389.926018	3560.067887
390.310008	3658.677898
390.693936	3736.916605
391.077802	3800.404897
391.461606	3839.907378
391.845348	3930.506995
392.229027	4009.534644
392.612645	4051.991241
392.996200	4168.930887
393.379694	4250.753855
393.763125	4371.214747
394.146494	4428.381432
394.529801	4513.516438
394.913047	4621.906287
395.296230	4607.528916
395.679351	4731.528697
396.062410	4810.211027
396.445408	4812.824865
396.828343	4896.981887
397.211217	4966.998473
397.594028	4878.254001
397.976778	5010.617057
398.359466	5070.929421
398.742092	5109.990802
399.124656	5034.421385
399.507158	5162.882588
399.889598	5238.827571
400.271977	5366.560327
400.654294	5364.889184
401.036549	5416.792904
401.418742	5335.065718
401.800874	5550.441455
402.182944	5605.972285
402.564952	5722.669955
402.946898	5779.246825
403.328783	5631.039422
403.710606	5645.396628
404.092367	5969.348736
404.474067	5988.192569
404.855705	5897.076234
405.237282	5826.744576
405.618797	6078.651034
406.000250	6062.284928
406.381642	6265.496360
406.762972	6284.168794
407.144240	6343.183062
407.525447	6333.181412
407.906593	6360.138983
408.287677	6510.745974
408.668700	6422.351862
409.049661	6538.308483
409.430560	6564.653553
409.811399	6429.837976
410.192176	6693.480239
410.572891	6708.192847
410.953545	6906.461428
411.334138	6631.968080
411.714669	6809.124309
412.095139	6602.915911
412.475547	6848.866245
412.855894	6917.499034
413.236180	7093.165602
413.616405	6770.703155
413.996568	6988.208778
414.376670	7023.829572
414.756711	6926.782319
415.136691	7020.078953
415.516609	7226.599903
415.896466	7210.097686
416.276262	7412.850373
416.655997	7397.273207
417.035670	7577.935558
417.415283	7927.365658
417.794834	7974.971794
418.174324	7838.041453
418.553753	7754.685974
418.933121	8067.245074
419.312428	8170.775251
419.691674	7946.269985
420.070859	8420.992922
420.449983	8100.587266
420.829045	8465.390364
421.208047	8242.145386
421.586988	8543.452631
421.965867	8564.164212
422.344686	8666.335797
422.723444	8715.066111
423.102141	8073.997700
423.480777	8827.509047
423.859352	8350.126902
424.237866	8964.162125
424.616319	8840.187549
424.994712	9261.340665
425.373044	8814.260895
425.751314	9287.922669
426.129524	9161.936673
426.507673	9266.933825
426.885762	9414.596783
427.263789	9330.636366
427.641756	9256.886806
428.019662	9354.516312
428.397508	9609.034087
428.775292	9286.879150
429.153016	9668.471811
429.530679	9501.307150
429.908282	9524.004945
430.285824	9249.456145
430.663305	9934.291854
431.040726	9383.888594
431.418086	9367.441830
431.795385	9701.425834
432.172624	9787.163258
432.549802	9700.377274
432.926920	9778.154716
433.303977	9646.620930
433.680974	9859.002221
434.057910	9946.297362
434.434786	10018.216983
434.811601	9846.938740
435.188355	10412.538557
435.565050	10149.357559
435.941683	10079.429193
436.318257	10563.173275
436.694770	10712.890503
437.071222	10766.687177
437.447614	10611.364186
437.823946	10521.974446
438.200218	10630.709613
438.576429	10464.275919
438.952580	10711.705832
439.328670	10747.944167
439.704700	10543.752230
440.080670	10524.205156
440.456580	11066.676160
440.832429	10841.260966
441.208218	10436.274830
441.583947	10755.508418
441.959616	10919.114025
442.335224	10721.767975
442.710773	10848.091729
443.086261	11068.811088
443.461689	10340.540798
443.837057	11016.993068
444.212365	11266.618404
444.587612	10906.662375
444.962800	11132.856427
445.337927	10879.054496
445.712995	10516.161995
446.088002	11573.725496
446.462949	11247.441854
446.837837	11226.737836
447.212664	11184.109839
447.587431	11734.462686
447.962139	12477.402734
448.336786	14752.790537
448.711374	15275.961483
449.085901	13111.481586
449.460369	12734.738515
449.834776	12180.030110
450.209124	13089.892844
450.583412	13508.933717
450.957640	14451.483293
451.331808	13524.881407
451.705917	12563.508163
452.079965	11829.286790
452.453954	12741.599525
452.827883	12397.825600
453.201752	12682.436544
453.575562	12215.028321
453.949311	12637.338381
454.323001	12612.281326
454.696632	12843.377901
455.070202	13119.991053
455.443713	13333.746059
455.817164	13811.566785
456.190556	13789.678095
456.563888	14162.095856
456.937160	14316.813909
457.310373	13664.619671
457.683526	13757.518054
458.056619	13297.275831
458.429653	13479.231238
458.802628	12865.105274
459.175542	13270.963529
459.548398	14211.655439
459.921194	14566.804728
460.293930	14640.216531
460.666607	15491.811088
461.039224	16545.717232
461.411782	17268.497706
461.784280	17074.491421
462.156719	17177.588058
462.529099	16845.854929
462.901419	15789.428208
463.273680	15571.814200
463.645882	15457.811026
464.018024	15177.336350
464.390106	15397.977571
464.762130	16120.241327
465.134094	16908.975216
465.505999	18954.509089
465.877845	22206.408721
466.249631	25028.149216
466.621358	24677.572254
466.993026	23238.234611
467.364634	22673.408611
467.736184	21198.697191
468.107674	20394.101311
468.479105	20528.294305
468.850477	19987.756584
469.221790	19583.821529
469.593043	18896.104801
469.964238	18332.181167
470.335373	17977.498186
470.706449	18455.994426
471.077467	18026.654477
471.448425	19890.573220
471.819324	23991.191432
472.190164	25896.941670
472.560945	22261.566506
472.931667	19933.425549
473.302330	19309.809612
473.672934	18919.997350
474.043479	19173.673252
474.413965	18977.758891
474.784393	18587.634077
475.154761	19337.137707
475.525070	19277.924314
475.895321	18973.763776
476.265513	19577.608307
476.635645	20167.294758
477.005719	19933.508728
477.375734	20115.988415
477.745691	20606.795153
478.115588	21140.073613
478.485427	21696.576668
478.855207	22780.442389
479.224928	24566.124946
479.594591	26795.045913
479.964194	26741.672697
480.333739	26968.350700
480.703226	26537.019494
481.072653	26252.408551
481.442022	26843.072986
481.811333	27778.522096
482.180584	27654.166913
482.549777	26709.066513
482.918912	26390.510961
483.287988	26508.373138
483.657005	26149.372408
484.025964	25928.406032
484.394864	25803.914738
484.763706	25469.436700
485.132489	24935.341574
485.501213	25103.988335
485.869879	25027.738362
486.238487	24856.437434
486.607036	24987.411652
486.975527	24728.349276
487.343959	25026.160481
487.712333	24934.436687
488.080648	24610.955927
488.448905	25105.142759
488.817104	24862.905234
489.185244	25561.770474
489.553326	25513.889595
489.921350	26554.134212
490.289315	28884.556291
490.657222	30625.823762
491.025070	31127.526954
491.392861	30880.913708
491.760593	30029.200683
492.128267	29128.434711
492.495883	28063.037257
492.863440	27181.538575
493.230939	26309.693703
493.598380	26155.368860
493.965763	25765.037359
494.333088	25266.066472
494.700354	25235.068417
495.067563	25090.694812
495.434713	24843.196843
495.801805	25022.359451
496.168839	24792.460150
496.535815	24660.056765
496.902733	24882.432144
497.269593	24567.970008
497.636395	24741.599949
498.003139	24677.080742
498.369825	24417.282358
498.736453	24625.000581
499.103023	24500.912579
499.469535	24499.836293
499.835989	24725.833741
500.202385	24754.558235
500.568723	24270.622589
500.935003	24470.648012
501.301226	24135.764162
501.667390	24986.186652
502.033497	25196.904362
502.399546	24923.729276
502.765537	24482.734179
503.131470	24857.463309
503.497345	24990.690923
503.863163	24233.887701
504.228923	24794.768999
504.594625	25028.774319
504.960269	24572.121398
505.325856	25053.402876
505.691385	24451.857111
506.056856	25057.816407
506.422270	25048.961620
506.787625	24582.060033
507.152924	25003.639126
507.518164	25048.399531
507.883347	24860.495563
508.248472	24539.242993
508.613540	25319.858104
508.978550	25118.509378
509.343503	25124.795697
509.708398	25343.647309
510.073236	25515.117116
510.438016	25714.101541
510.802738	25374.796599
511.167403	25630.859488
511.532010	25374.395827
511.896561	26124.196885
512.261053	26088.185403
512.625488	25918.807675
512.989866	25814.087786
513.354186	25646.126622
513.718449	25763.504848
514.082655	26148.419630
514.446803	25882.362653
514.810894	26367.175460
515.174927	25835.152247
515.538904	25870.246240
515.902822	26368.438269
516.266684	26121.388963
516.630488	26020.749888
516.994235	25963.195034
517.357925	26300.901931
517.721558	26475.731667
518.085133	26590.463287
518.448651	26475.474568
518.812112	26239.236016
519.175516	26453.296011
519.538863	26607.580525
519.902152	26386.041978
520.265385	26659.822002
520.628560	26447.846524
520.991678	26457.565869
521.354739	26506.003795
521.717743	26600.449813
522.080690	26367.157816
522.443580	26710.702368
522.806413	26680.163058
523.169189	26794.161190
523.531908	26828.942631
523.894569	26451.173686
524.257174	26552.644551
524.619722	26687.253441
524.982213	26394.962300
525.344647	26430.444461
525.707025	26593.954286
526.069345	26563.530922
526.431608	26525.898709
526.793815	26698.490173
527.155964	26184.365577
527.518057	26363.699584
527.880093	26279.613138
528.242072	26504.395667
528.603995	26220.256072
528.965860	26018.700659
529.327669	26059.193727
529.689421	26040.622116
530.051117	25889.319445
530.412755	26067.829224
530.774337	25835.764748
531.135862	25732.244653
531.497331	25925.267913
531.858743	25496.855536
532.220098	25955.378725
532.581396	25651.944114
532.942638	25552.104062
533.303824	25669.875498
533.664953	25666.760065
534.026025	25333.333108
534.387040	25580.115233
534.747999	25626.960155
535.108902	25787.689784
535.469748	25289.775018
535.830537	25457.405987
536.191270	25593.058396
536.551947	25420.817292
536.912567	25056.851026
537.273131	25477.933565
537.633638	25155.536653
537.994089	25361.818148
538.354483	24868.894125
538.714821	25383.616097
539.075103	25430.612254
539.435328	25210.152514
539.795497	24795.971314
540.155609	25148.438709
540.515665	25468.678007
540.875665	24672.891543
541.235609	25024.512024
541.595496	24939.505567
541.955328	25303.416381
542.315102	25216.907660
542.674821	24739.543158
543.034483	24619.641835
543.394090	24794.204390
543.753640	24606.038281
544.113134	25227.115997
544.472571	24812.566793
544.831953	25125.362827
545.191278	24767.733291
545.550548	24654.766074
545.909761	24851.439130
546.268918	25097.502890
546.628019	25061.977879
546.987064	24754.845581
547.346053	24499.707744
547.704986	24615.382060
548.063863	24761.764565
548.422684	24787.575272
548.781449	24289.524396
549.140158	24706.498395
549.498811	24272.255923
549.857408	24036.481158
550.215949	24423.135137
550.574434	24124.855105
550.932864	24338.179092
551.291237	24521.631722
551.649555	24355.669375
552.007817	24416.702625
552.366022	24269.563947
552.724173	24283.928715
553.082267	24261.477936
553.440305	24738.285391
553.798288	23979.848836
554.156215	24467.066273
554.514086	24605.718168
554.871902	23973.161745
555.229661	24259.600107
555.587365	24103.722588
555.945014	24016.765205
556.302606	24227.142638
556.660143	24209.856521
557.017625	24452.262924
557.375050	23966.918276
557.732421	24345.337531
558.089735	24168.466127
558.446994	24233.912907
558.804197	24261.298975
559.161345	24165.892618
559.518437	23948.762560
559.875474	24135.000427
560.232455	24316.429034
560.589381	24129.750066
560.946251	24126.264108
561.303065	24436.388331
561.659825	24521.525858
562.016528	24130.526403
562.373177	23856.660680
562.729770	24227.450148
563.086307	24079.759464
563.442789	24239.281736
563.799216	24088.838582
564.155587	24083.404218
564.511904	24066.349994
564.868164	24007.791951
565.224370	23974.931190
565.580520	23915.828702
565.936615	24015.497355
566.292654	23733.727102
566.648638	23976.733402
567.004567	23815.517303
567.360441	23757.841461
567.716260	23493.392613
568.072023	23798.170692
568.427732	23590.149999
568.783385	23335.435619
569.138982	23598.931689
569.494525	23634.524756
569.850013	23376.458008
570.205445	23480.666220
570.560823	23298.524290
570.916145	23053.793915
571.271412	23246.900354
571.626625	22995.737467
571.981782	23096.429474
572.336884	22900.520153
572.691931	23048.835940
573.046923	22775.537346
573.401860	22656.344305
573.756743	22683.606865
574.111570	22583.562646
574.466342	22494.820694
574.821059	22578.307243
575.175722	22283.026698
575.530330	22261.291763
575.884882	22273.728290
576.239380	22193.707534
576.593823	22080.004309
576.948211	22054.289383
577.302544	21912.743866
577.656823	21770.386722
578.011047	21871.232484
578.365216	21743.315726
578.719330	21618.771500
579.073389	21513.570181
579.427394	21665.392090
579.781344	21410.730642
580.135239	21301.559414
580.489080	21261.363774
580.842866	21035.547808
581.196597	21247.170406
581.550273	21203.856812
581.903895	21088.147208
582.257463	21397.903426
582.610975	20928.768608
582.964434	21261.668764
583.317837	20930.843043
583.671186	21022.047598
584.024481	21007.461020
584.377721	20770.408322
584.730906	20860.367712
585.084037	20842.469095
585.437113	20771.000657
585.790135	20976.646967
586.143103	20424.179355
586.496016	20452.442584
586.848874	20687.935045
587.201679	20595.868452
587.554428	20300.920623
587.907124	20628.653596
588.259765	20391.346320
588.612352	20466.978751
588.964884	20040.663494
589.317362	20209.922755
589.669786	20267.560787
590.022155	20268.258987
590.374470	20502.375213
590.726731	20267.969121
591.078937	20053.687315
591.431090	20136.226127
591.783188	19905.845396
592.135232	19873.483709
592.487222	19978.001952
592.839157	19965.787236
593.191038	19855.388487
593.542866	19746.587784
593.894639	19443.241393
594.246358	19670.579787
594.598022	19560.387726
594.949633	19312.914963
595.301190	19299.235792
595.652692	19457.843095
596.004141	19685.889771
596.355535	19013.258696
596.706876	19036.899187
597.058162	18933.623589
597.409395	19168.261574
597.760573	19224.281396
598.111698	18993.111725
598.462768	18938.919321
598.813785	18909.070649
599.164748	18712.132933
599.515657	18764.160161
599.866511	18564.777485
600.217312	18918.686650
600.568060	18416.401204
600.918753	18738.697293
601.269392	18647.540628
601.619978	18424.489735
601.970510	18618.488459
602.320988	18570.083300
602.671412	18771.540410
603.021783	18705.899546
603.372100	18413.931039
603.722363	18563.192042
604.072572	18508.714813
604.422728	18661.471857
604.772830	18403.972239
605.122878	18375.305718
605.472872	18349.076594
605.822813	18341.282971
606.172701	18324.448037
606.522534	18485.853181
606.872314	18520.483387
607.222041	18357.727214
607.571714	18580.117716
607.921333	18402.235562
608.270899	18479.503847
608.620411	18643.583323
608.969870	18422.415301
609.319276	18420.963448
609.668627	18454.769426
610.017926	18584.647193
610.367171	18699.683803
610.716362	18747.015197
611.065500	18564.812773
611.414585	18718.527636
611.763616	18695.698771
612.112594	18631.857599
612.461518	18607.720554
612.810389	18787.987175
613.159207	18650.499786
613.507971	18564.888391
613.856682	18824.391867
614.205340	18749.109796
614.553945	18900.558661
614.902496	18644.689856
615.250994	18857.615592
615.599439	18806.132808
615.947830	18798.838258
616.296169	18874.032109
616.644454	18819.817020
616.992686	18801.792374
617.340864	19015.285240
617.688990	18762.980531
618.037063	18941.404610
618.385082	18793.870201
618.733048	19068.177026
619.080961	18959.285582
619.428821	18976.165886
619.776628	18854.845477
620.124382	18781.219426
620.472083	18837.995421
620.819731	18850.134519
621.167326	18549.860711
621.514868	18588.415456
621.862357	18370.075521
622.209793	18363.108646
622.557176	18196.659828
622.904506	18033.865847
623.251783	17966.122822
623.599007	17692.660390
623.946179	17645.891086
624.293297	17575.541784
624.640363	17306.381977
624.987376	17352.100201
625.334336	17147.900703
625.681243	16989.321126
626.028097	16999.463928
626.374899	16924.842248
626.721647	16790.843338
627.068343	16617.011750
627.414987	16550.677727
627.761577	16529.396496
628.108115	16555.812143
628.454600	16288.862882
628.801032	16379.873353
629.147412	16324.650033
629.493739	16337.396590
629.840014	16145.673948
630.186236	16231.660909
630.532405	15999.024262
630.878521	16203.206116
631.224585	16103.240035
631.570597	15920.742704
631.916556	15951.912159
632.262462	15925.998107
632.608316	15848.316447
632.954117	15779.310613
633.299866	15780.281035
633.645562	15682.296128
633.991206	15465.612212
634.336797	15321.465459
634.682336	15294.724658
635.027823	15160.735830
635.373257	15038.021542
635.718639	14962.442043
636.063968	14895.946704
636.409245	14647.211132
636.754470	14679.139280
637.099642	14526.152863
637.444762	14304.079954
637.789829	14335.226723
638.134845	14172.039532
638.479808	14208.413977
638.824719	14125.678561
639.169577	14000.385723
639.514383	14037.221434
639.859137	13867.589128
640.203839	13967.202328
640.548489	13803.321978
640.893086	13792.796049
641.237632	13662.373837
641.582125	13816.393690
641.926566	13633.467861
642.270955	13650.973267
642.615292	13598.767078
642.959576	13617.346251
643.303809	13650.375891
643.647990	13578.390734
643.992118	13642.758707
644.336195	13415.034665
644.680219	13637.888953
645.024192	13539.470506
645.368112	13786.184575
645.711981	13830.317357
646.055797	14020.265513
646.399562	14006.440149
646.743274	14258.356689
647.086935	14527.965158
647.430544	14499.706970
647.774101	14533.291137
648.117606	14667.872301
648.461059	14651.617100
648.804460	14632.947187
649.147810	14359.661196
649.491108	14269.986631
649.834354	14289.858859
650.177548	13962.675372
650.520690	13775.900622
650.863781	13696.494887
651.206820	13746.359460
651.549807	13583.479779
651.892742	13365.878373
652.235626	13301.959063
652.578458	13307.179178
652.921238	13004.709947
653.263967	13204.563971
653.606644	13034.316644
653.949269	13013.468952
654.291843	12811.356492
654.634365	12973.863127
654.976836	12826.711846
655.319255	12819.825630
655.661622	12794.564408
656.003938	12705.925800
656.346203	12623.278603
656.688416	12713.936193
657.030577	12661.291424
657.372687	12577.545256
657.714746	12555.366699
658.056753	12751.399528
658.398708	12552.210937
658.740612	12562.464644
659.082465	12669.458093
659.424266	12634.938792
659.766016	12664.500118
660.107715	12573.313207
660.449362	12658.705312
660.790958	12602.824122
661.132503	12544.336655
661.473996	12616.689815
661.815438	12640.181592
662.156829	12666.887105
662.498168	12632.176240
662.839456	12630.132052
663.180693	12652.943273
663.521879	12740.830749
663.863013	12718.793345
664.204097	12693.998430
664.545129	12819.074498
664.886110	12796.454841
665.227040	12886.671330
665.567918	12880.725289
665.908746	12908.880133
666.249522	12895.609296
666.590248	12951.477883
666.930922	13063.583062
667.271545	13032.181715
667.612118	13123.540026
667.952639	13025.865149
668.293109	13050.491186
668.633528	12995.202331
668.973896	12972.610400
669.314213	13042.001883
669.654480	12780.479424
669.994695	12865.770706
670.334859	12888.997822
670.674973	12831.868947
671.015035	12859.537319
671.355047	12816.788335
671.695008	12786.760702
672.034918	12791.418728
672.374777	12835.531345
672.714585	12747.187644
673.054342	12791.043162
673.394049	12731.965880
673.733705	12832.050428
674.073310	12737.811098
674.412864	12749.350299
674.752368	12601.863782
675.091820	12647.965134
675.431223	12623.644087
675.770574	12484.583858
676.109875	12404.484965
676.449125	12360.727749
676.788324	12319.612098
677.127473	12136.230045
677.466571	12143.164152
677.805619	12028.762727
678.144616	11958.156327
678.483562	11931.168509
678.822458	11798.986935
679.161303	11777.819130
679.500098	11761.594176
679.838842	11710.197092
680.177535	11755.088567
680.516179	11816.971251
680.854771	11757.856161
681.193314	11973.199130
681.531805	12137.381949
681.870247	12584.164291
682.208638	12997.881704
682.546978	13294.029328
682.885268	13316.485148
683.223508	13023.652083
683.561697	12867.915717
683.899836	12773.719237
684.237925	12565.191908
684.575963	12484.437665
684.913951	12396.139334
685.251889	12356.578880
685.589776	12453.989095
685.927614	12373.950696
686.265401	12341.460459
686.603137	12397.664283
686.940824	12547.694063
687.278460	12683.538036
687.616046	12715.408210
687.953582	12873.715565
688.291068	12813.443529
688.628504	13042.024568
688.965889	13051.688460
689.303224	13011.901153
689.640510	12894.038976
689.977745	12576.947879
690.314930	12359.091895
690.652065	12263.761155
690.989150	11967.174951
691.326185	11742.626835
691.663170	11537.459435
692.000105	11301.089814
692.336990	11177.465598
692.673825	10917.440362
693.010610	10806.071191
693.347345	10601.614594
693.684030	10404.185365
694.020665	10343.378968
694.357251	10147.837651
694.693786	10077.054810
695.030272	9925.794989
695.366707	9809.752668
695.703093	9735.017563
696.039429	9725.394000
696.375716	9643.102205
696.711952	9520.609728
697.048139	9562.113547
697.384276	9522.119553
697.720363	9546.750631
698.056400	9476.106422
698.392388	9421.977032
698.728326	9380.475733
699.064214	9326.479934
699.400053	9360.895892
699.735842	9181.093057
700.071581	9137.507241
700.407270	9064.153412
700.742910	8984.404878
701.078501	8892.010611
701.414042	8756.045650
701.749533	8701.810397
702.084974	8563.418121
702.420366	8682.717027
702.755709	8557.797234
703.091002	8424.569620
703.426246	8454.433416
703.761440	8403.290910
704.096584	8361.587965
704.431679	8300.312740
704.766725	8283.568547
705.101721	8236.406033
705.436668	8290.817727
705.771565	8178.596601
706.106413	8256.394207
706.441212	8293.716390
706.775961	8255.718693
707.110661	8303.249212
707.445311	8432.257380
707.779913	8330.632760
708.114465	8463.933470
708.448967	8500.325560
708.783421	8655.366246
709.117825	8828.318152
709.452180	8872.355152
709.786485	8955.720713
710.120742	9241.738138
710.454949	9244.377182
710.789107	9346.601700
711.123216	9570.544877
711.457275	9747.169264
711.791286	9890.459021
712.125247	9896.223580
712.459159	9873.104849
712.793023	10110.666703
713.126837	9684.621148
713.460602	9848.060397
713.794318	9676.096557
714.127985	9700.992295
714.461602	9359.912867
714.795171	9309.125762
715.128691	9062.288185
715.462162	8821.210126
715.795584	8761.417000
716.128957	8597.826516
716.462281	8433.603368
716.795556	8479.404771
717.128782	8279.210470
717.461960	8014.496961
717.795088	8089.428672
718.128167	7993.550967
718.461198	7831.314033
718.794180	7771.142821
719.127113	7763.717201
719.459997	7596.665965
719.792833	7370.734053
720.125619	7440.617048
720.458357	7294.347969
720.791046	7285.001670
721.123686	7278.077645
721.456278	7114.633355
721.788821	7131.445603
722.121315	7034.829369
722.453761	7100.339163
722.786158	7044.503343
723.118506	7050.303191
723.450805	7014.745412
723.783056	7075.907211
724.115259	6991.364541
724.447412	6987.825651
724.779518	7044.125257
725.111574	7044.647016
725.443582	7122.058975
725.775542	7103.265553
726.107453	7294.123638
726.439315	7204.013013
726.771129	7277.502954
727.102895	7456.058102
727.434612	7553.818678
727.766281	7598.243847
728.097901	7672.996596
728.429473	7675.068511
728.760996	7665.021491
729.092471	7631.744834
729.423897	7565.720843
729.755276	7569.451296
730.086606	7495.094277
730.417887	7597.071778
730.749120	7815.683935
731.080305	8003.444231
731.411442	8113.054039
731.742530	8097.781863
732.073570	8212.878968
732.404562	8300.171587
732.735506	8149.909915
733.066401	8286.323538
733.397249	8211.006179
733.728048	7965.749003
734.058798	7636.375134
734.389501	7401.248157
734.720156	7221.841053
735.050762	6998.283524
735.381320	6914.217243
735.711831	6851.522933
736.042293	6744.819350
736.372707	6761.119921
736.703073	6620.582634
737.033391	6662.615775
737.363661	6673.857548
737.693883	6719.036369
738.024056	6799.152906
738.354182	6829.039387
738.684260	6863.258739
739.014290	6994.974007
739.344272	7101.296983
739.674207	7129.890407
740.004093	7205.338836
740.333931	7215.262348
740.663722	7219.731331
740.993464	7301.216541
741.323159	7272.698734
741.652806	7025.470467
741.982405	7063.321971
742.311956	7105.655060
742.641460	6922.704025
742.970915	6734.416929
743.300323	6726.023408
743.629683	6687.188879
743.958996	6548.978085
744.288260	6456.631708
744.617477	6404.463328
744.946647	6393.776082
745.275768	6239.141208
745.604842	6191.978693
745.933869	6173.548235
746.262847	6132.793026
746.591778	6121.851202
746.920662	6080.906950
747.249498	6072.803296
747.578286	6124.447396
747.907027	6200.621751
748.235720	6259.177274
748.564365	6233.096864
748.892963	6272.773266
749.221514	6411.573875
749.550017	6226.298868
749.878473	6116.056396
750.206881	6178.896899
750.535242	6126.042921
750.863555	6051.549791
751.191821	6059.804680
751.520039	6060.598662
751.848210	5969.031144
752.176334	6001.962481
752.504411	6039.453542
752.832440	5968.983253
753.160421	5896.909876
753.488356	5944.276558
753.816243	5969.749508
754.144082	5824.639895
754.471875	5798.940092
754.799620	5840.267472
755.127318	5850.498493
755.454969	5810.335621
755.782572	5774.452688
756.110129	5821.068237
756.437638	5795.620493
756.765100	5741.433130
757.092515	5749.196507
757.419882	5799.915556
757.747203	5771.271719
758.074477	5836.370660
758.401703	5822.825079
758.728882	5775.115599
759.056014	5844.839798
759.383099	5961.844979
759.710138	5968.819415
760.037129	5960.178877
760.364073	5963.266584
760.690970	6045.734820
761.017820	6027.511049
761.344623	5986.203834
761.671379	6091.543785
761.998088	6218.404422
762.324751	6480.824206
762.651366	7120.627287
762.977935	8481.844690
763.304456	10141.158122
763.630931	11002.681232
763.957359	10553.862264
764.283740	9595.357437
764.610074	8724.326710
764.936362	7723.950059
765.262602	7128.037783
765.588796	6594.482060
765.914943	6257.158292
766.241044	6089.653352
766.567097	5874.602770
766.893104	5619.043997
767.219064	5441.247542
767.544978	5379.848808
767.870845	5292.740191
768.196665	5189.598183
768.522438	5119.589159
768.848165	5084.180094
769.173846	5016.986555
769.499479	4967.928566
769.825066	4920.899642
770.150607	4856.025033
770.476101	4836.858566
770.801548	4826.337678
771.126949	4744.640739
771.452303	4690.264333
771.777611	4653.312675
772.102872	4678.447868
772.428087	4639.184841
772.753256	4593.960650
773.078378	4541.315881
773.403453	4473.618226
773.728482	4459.997028
774.053465	4409.739245
774.378401	4407.937032
774.703291	4397.625352
775.028135	4323.454855
775.352932	4276.894758
775.677683	4268.223974
776.002388	4284.176705
776.327046	4289.530411
776.651658	4217.305799
776.976224	4157.598373
777.300743	4165.830578
777.625216	4186.058207
777.949643	4177.740303
778.274024	4135.334117
778.598359	4092.602777
778.922647	4120.369452
779.246889	4108.043831
779.571086	4101.243314
779.895236	4082.490222
780.219339	4074.041248
780.543397	4067.858273
780.867409	4124.480513
781.191374	4129.856904
781.515294	4068.332142
781.839167	4061.372829
782.162995	4089.036160
782.486776	4072.886824
782.810511	4084.499122
783.134201	4072.685178
783.457844	4026.765307
783.781441	3974.896876
784.104993	3980.051455
784.428498	3996.904033
784.751958	3994.794310
785.075372	3974.760764
785.398739	3934.744085
785.722061	3950.195222
786.045337	3993.090400
786.368568	4021.240203
786.691752	3932.679733
787.014891	3993.223990
787.337983	4126.859938
787.661030	4287.488743
787.984031	4451.422025
788.306987	4617.812870
788.629897	4703.467115
788.952760	4652.044825
789.275579	4590.073921
789.598351	4517.985421
789.921078	4369.079818
790.243759	4170.171011
790.566395	4158.417561
790.888984	4151.967404
791.211529	4040.552863
791.534027	3981.939367
791.856480	3965.190134
792.178888	3902.062285
792.501249	3857.669884
792.823566	3868.944425
793.145836	3893.424268
793.468062	3839.786391
793.790241	3799.908343
794.112375	3829.268023
794.434464	3899.783683
794.756507	3917.644491
795.078505	3896.345616
795.400457	3935.013787
795.722364	4082.777568
796.044226	4185.029812
796.366042	4257.781224
796.687812	4231.703335
797.009538	4236.888162
797.331218	4201.317780
797.652852	4176.326260
797.974442	4153.250378
798.295986	4145.492042
798.617484	4058.937951
798.938938	3980.432062
799.260346	4022.568547
799.581709	4015.294162
799.903026	3936.672327
800.224299	3902.037079
800.545526	3894.797982
800.866708	3856.797764
801.187845	3800.387253
801.508936	3833.472346
801.829983	3825.162003
802.150984	3745.910024
802.471940	3742.676124
802.792851	3746.434304
803.113717	3751.805653
803.434538	3747.586208
803.755314	3691.042105
804.076045	3666.350534
804.396731	3688.156045
804.717372	3717.281311
805.037967	3698.881100
805.358518	3685.007844
805.679024	3717.931620
805.999485	3730.688260
806.319901	3737.748396
806.640272	3746.845158
806.960598	3761.449381
807.280879	3736.173035
807.601115	3747.414808
807.921306	3766.651851
808.241453	3805.728355
808.561554	3775.078140
808.881611	3709.580949
809.201623	3755.001745
809.521590	3760.725975
809.841513	3735.807552
810.161390	3765.946090
810.481223	3736.200762
810.801011	3686.893236
811.120755	3682.494829
811.440453	3713.313923
811.760107	3716.152093
812.079716	3669.213909
812.399281	3643.809014
812.718801	3670.575021
813.038276	3638.520844
813.357707	3636.113693
813.677093	3654.239162
813.996434	3598.904937
814.315731	3615.235754
814.634983	3615.041670
814.954191	3631.354844
815.273354	3657.465500
815.592473	3652.570540
815.911547	3662.725944
816.230577	3708.310578
816.549562	3761.477107
816.868502	3799.258034
817.187399	3825.126715
817.506250	3819.087413
817.825058	3798.842139
818.143821	3894.553486
818.462539	3995.311028
818.781213	4041.493038
819.099843	4104.545270
819.418429	4369.034448
819.736970	4611.778608
820.055466	4868.269996
820.373919	5240.498713
820.692327	5652.920551
821.010691	6146.187372
821.329011	7627.001109
821.647286	10519.912614
821.965517	15244.681124
822.283704	19261.412015
822.601847	21280.149634
822.919945	19366.867912
823.237999	16706.459463
823.556010	14190.648951
823.873976	12035.757328
824.191897	9909.907792
824.509775	8565.061537
824.827609	7431.883249
825.145398	6903.603093
825.463144	6788.014477
825.780845	6889.623974
826.098502	7114.633355
826.416116	8059.718631
826.733685	9431.484648
827.051210	10528.984170
827.368692	10480.977262
827.686129	9161.815685
828.003522	7640.307234
828.320872	6617.789835
828.638177	5898.119753
828.955439	5323.395447
829.272656	4820.711750
829.589830	4546.788053
829.906960	4365.563613
830.224046	4178.390612
830.541088	4053.964853
830.858086	4003.888551
831.175041	3924.177827
831.491952	3914.796239
831.808819	3921.886622
832.125642	4007.170342
832.442421	4160.786903
832.759157	4455.147438
833.075849	5034.834760
833.392497	5929.090082
833.709101	6724.037193
834.025662	7036.238372
834.342179	6619.410566
834.658653	5940.170538
834.975083	5277.624291
835.291469	4696.338923
835.607811	4291.970329
835.924110	4144.088081
836.240366	3938.761885
836.556578	3734.113724
836.872746	3628.791417
837.188871	3583.824325
837.504952	3515.826721
837.820990	3429.307918
838.136984	3389.830643
838.452935	3412.339394
838.768842	3408.034249
839.084706	3432.985440
839.400526	3601.886779
839.716303	3964.476811
840.032037	4510.118700
840.347727	4756.729426
840.663373	4442.156384
840.978977	4054.428639
841.294537	3744.160743
841.610054	3513.681710
841.925527	3410.519538
842.240957	3336.122189
842.556344	3281.055145
842.871687	3220.543655
843.186987	3174.023887
843.502244	3136.492497
843.817458	3097.526898
844.132629	3068.666293
844.447756	3075.330698
844.762840	3060.923080
845.077881	3027.631300
845.392879	3012.606141
845.707833	3008.374093
846.022745	3007.045749
846.337613	3005.737569
846.652438	2994.455467
846.967221	2991.582009
847.281960	2975.949391
847.596656	2974.663897
847.911309	2972.838999
848.225919	2968.163329
848.540485	2962.071095
848.855009	2961.604788
849.169490	2950.267233
849.483928	2943.098712
849.798323	2942.944957
850.112675	2937.661828
850.426984	2953.649847
850.741251	2948.371759
851.055474	2935.431117
851.369654	2933.066816
851.683792	2934.294337
851.997887	2945.440328
852.311938	2948.064249
852.625947	2933.921292
852.939914	2940.457148
853.253837	2943.330605
853.567718	2930.468101
853.881555	2927.839139
854.195350	2945.823456
854.509103	2937.813062
854.822812	2928.965837
855.136479	2926.351999
855.450103	2931.199068
855.763685	2923.952410
856.077224	2919.160793
856.390720	2934.095211
856.704173	2942.735749
857.017584	2937.281221
857.330953	2934.465736
857.644278	2943.491922
857.957561	2951.270423
858.270802	2953.450722
858.584000	2953.695218
858.897155	2939.700974
859.210268	2939.859771
859.523339	2936.658638
859.836367	2938.511262
860.149352	2932.272834
860.462295	2928.476845
860.775195	2935.065633
861.088054	2931.882145
861.400869	2915.183323
861.713642	2916.365473
862.026373	2930.415169
862.339062	2935.589913
862.651708	2941.394802
862.964312	2941.183074
863.276873	2933.313833
863.589392	2945.102571
863.901869	2957.405507
864.214303	2979.395020
864.526696	2996.476970
864.839045	2991.093017
865.151353	2990.740137
865.463619	2989.368943
865.775842	2990.084787
866.088023	3010.622447
866.400162	3015.545134
866.712258	2983.495998
867.024313	2974.784885
867.336325	2986.142604
867.648296	3007.837210
867.960224	2998.027124
868.272110	2982.906183
868.583954	2993.600991
868.895755	3002.334790
869.207515	2991.516474
869.519233	2998.110303
869.830909	3006.821417
870.142542	3017.596884
870.454134	3014.073117
870.765684	3018.315248
871.077191	3020.024199
871.388657	3029.420910
871.700081	3041.794422
872.011463	3052.451421
872.322803	3053.648695
872.634101	3052.428736
872.945357	3071.575038
873.256571	3095.699480
873.567744	3086.955599
873.878874	3084.016606
874.189963	3108.604834
874.501010	3105.096191
874.812015	3095.296188
875.122979	3095.308791
875.433900	3092.480703
875.744780	3101.269955
876.055618	3108.632560
876.366415	3103.518310
876.677169	3115.796040
876.987882	3110.444855
877.298554	3106.064092
877.609183	3132.633494
877.919771	3154.121412
878.230317	3184.756504
878.540822	3238.112076
878.851285	3273.324536
879.161707	3322.528718
879.472087	3436.047941
879.782425	3683.135056
880.092722	4141.572545
880.402977	4688.565464
880.713191	5347.161967
881.023363	6566.607000
881.333494	7873.533696
881.643583	8391.819764
881.953631	8070.058038
882.263637	7400.149186
882.573602	6779.283198
882.883526	6195.104208
883.193408	5613.549139
883.503248	5164.110109
883.813048	4847.490359
884.122806	4519.369217
884.432522	4194.492058
884.742197	3953.913073
885.051831	3759.611880
885.361424	3628.897281
885.670975	3554.487330
885.980485	3460.457208
886.289954	3381.268243
886.599382	3338.927592
886.908768	3299.311684
887.218113	3256.048502
887.527417	3197.394677
887.836680	3144.361738
888.145901	3139.214720
888.455082	3127.126033
888.764221	3075.721388
889.073319	3044.796429
889.382376	3043.110163
889.691392	3048.201729
890.000366	3045.683672
890.309300	3033.718494
890.618193	3044.496481
890.927044	3062.493400
891.235855	3062.594223
891.544625	3048.998231
891.853353	3062.490879
892.162041	3081.387644
892.470687	3122.571351
892.779293	3174.528003
893.087858	3222.650857
893.396381	3299.530974
893.704864	3430.399328
894.013306	3685.519521
894.321707	3996.815812
894.630068	4194.048436
894.938387	4186.582487
895.246665	4145.502125
895.554903	4009.990868
895.863100	3803.074188
896.171256	3633.351141
896.479371	3490.046260
896.787446	3362.691591
897.095480	3258.062443
897.403473	3194.342258
897.711425	3159.480159
898.019336	3148.099754
898.327207	3114.132459
898.635038	3077.168199
898.942827	3066.533885
899.250576	3053.530228
899.558284	3022.567461
899.865952	3001.871004
900.173579	2978.258240
900.481165	2972.413022
900.788711	2957.907102
901.096216	2931.418359
901.403681	2924.736309
901.711105	2933.702001
902.018489	2925.832760
902.325832	2928.239911
902.633135	2937.901283
902.940397	2977.829742
903.247619	3066.332238
903.554800	3271.907972
903.861941	3644.330774
904.169041	4088.622786
904.476101	4382.539699
904.783121	4310.741065
905.090100	4052.271025
905.397039	3768.186883
905.703938	3512.842358
906.010796	3326.917043
906.317614	3213.302038
906.624391	3113.305710
906.931129	3040.302241
907.237826	2977.295379
907.544483	2932.398863
907.851099	2898.212278
908.157675	2877.941799
908.464211	2857.308356
908.770707	2842.545337
909.077163	2828.102431
909.383578	2814.022488
909.689954	2803.463792
909.996289	2805.356745
910.302584	2802.266518
910.608839	2802.715180
910.915054	2797.376598
911.221229	2789.320835
911.527363	2791.397790
911.833458	2800.602937
912.139513	2805.434883
912.445527	2808.567960
912.751502	2817.281594
913.057436	2824.679488
913.363331	2838.280521
913.669186	2864.449150
913.975000	2902.751837
914.280775	2965.609985
914.586510	3037.713608
914.892205	3118.833335
915.197859	3259.234511
915.503475	3463.456694
915.809050	3685.786703
916.114585	3833.820185
916.420081	3847.592617
916.725536	3781.908903
917.030952	3657.946930
917.336328	3521.913914
917.641665	3391.688308
917.946961	3286.297945
918.252218	3212.525700
918.557435	3130.914460
918.862612	3066.687640
919.167750	3019.212573
919.472848	2977.383599
919.777906	2948.880916
920.082925	2920.688263
920.387904	2890.111144
920.692843	2874.773433
920.997743	2862.881352
921.302603	2848.025071
921.607423	2835.858246
921.912204	2823.048674
922.216946	2812.779844
922.521647	2804.358597
922.826310	2795.339972
923.130932	2787.470731
923.435516	2776.624689
923.740059	2772.264091
924.044564	2765.788728
924.349028	2756.265989
924.653454	2750.398086
924.957840	2741.563464
925.262186	2741.787795
925.566493	2736.683627
925.870761	2730.636763
926.174989	2727.060064
926.479178	2721.900443
926.783328	2716.788713
927.087438	2717.827191
927.391509	2715.984649
927.695541	2709.131200
927.999533	2708.801005
928.303486	2704.591641
928.607400	2702.307999
928.911275	2704.546271
929.215110	2703.205324
929.518906	2698.149047
929.822663	2699.192566
930.126381	2701.309850
930.430060	2701.773636
930.733699	2703.006198
931.037299	2705.867053
931.340861	2702.171887
931.644383	2703.860674
931.947866	2705.017619
932.251309	2701.309850
932.554714	2702.529809
932.858080	2697.992771
933.161407	2699.187524
933.464694	2694.446319
933.767943	2692.437419
934.071153	2696.298943
934.374323	2695.212575
934.677455	2696.500589
934.980548	2693.337265
935.283602	2693.980013
935.586617	2692.021524
935.889593	2694.133768
936.192530	2692.127388
936.495428	2694.229550
936.798287	2697.506300
937.101108	2699.633667
937.403890	2702.484439
937.706632	2707.185315
938.009336	2715.851058
938.312002	2723.616956
938.614628	2731.410580
938.917216	2740.850140
939.219765	2738.233782
939.522275	2739.799060
939.824747	2735.229254
940.127179	2730.392267
940.429573	2730.757750
940.731929	2727.249107
941.034246	2726.371947
941.336524	2720.665360
941.638763	2719.039588
941.940964	2717.910370
942.243126	2715.021789
942.545250	2713.063300
942.847335	2712.909545
943.149381	2707.432332
943.451389	2703.414532
943.753359	2702.915458
944.055290	2702.136599
944.357182	2698.388502
944.659036	2696.750127
944.960851	2696.548480
945.262628	2695.028573
945.564367	2696.694674
945.866067	2700.039479
946.167729	2694.900023
946.469352	2696.024200
946.770937	2695.441947
947.072484	2694.216947
947.373992	2693.911957
947.675462	2691.358612
947.976893	2687.847449
948.278286	2684.845442
948.579641	2687.033302
948.880958	2686.176306
949.182236	2687.658406
949.483476	2683.834690
949.784678	2687.532377
950.085841	2686.924918
950.386967	2686.599763
950.688054	2687.855011
950.989103	2689.516071
951.290114	2688.507840
951.591087	2692.235773
951.892021	2695.502441
952.192917	2698.080991
952.493776	2699.172401
952.794596	2697.710466
953.095378	2701.650128
953.396122	2697.763398
953.696828	2695.633511
953.997496	2695.358768
954.298126	2691.739220
954.598718	2692.240814
954.899272	2687.083714
955.199788	2684.006090
955.500266	2683.449042
955.800706	2680.411747
956.101108	2678.508711
956.401472	2675.375634
956.701798	2673.407064
957.002087	2671.657783
957.302337	2670.611744
957.602550	2670.798267
957.902724	2666.626712
958.202861	2669.467402
958.502960	2667.529078
958.803022	2665.565549
959.103045	2666.851043
959.403031	2663.735610
959.702979	2664.673265
960.002889	2664.635456
960.302762	2661.779642
960.602596	2660.035403
960.902393	2660.640342
961.202153	2661.058757
961.501875	2660.577327
961.801559	2662.077070
962.101205	2661.008346
962.400814	2659.584220
962.700385	2660.536998
962.999918	2657.093890
963.299414	2653.197078
963.598873	2657.449291
963.898293	2654.227994
964.197677	2656.700680
964.497022	2659.551452
964.796331	2657.928201
965.095601	2658.081956
965.394835	2658.535660
965.694030	2661.078922
965.993189	2659.100269
966.292309	2656.123468
966.591393	2658.097079
966.890439	2658.023983
967.189447	2656.178920
967.488419	2655.294198
967.787353	2658.477687
968.086249	2656.922491
968.385108	2659.289312
968.683930	2658.911226
968.982714	2655.397542
969.281462	2656.806544
969.580172	2657.502223
969.878844	2659.692605
970.177480	2658.611277
970.476078	2657.900474
970.774639	2658.825526
971.073162	2656.224291
971.371649	2657.217398
971.670098	2655.911739
971.968510	2659.130516
972.266885	2659.012049
972.565223	2660.473983
972.863524	2657.300577
973.161788	2660.027841
973.460014	2659.387615
973.758204	2654.918632
974.056356	2658.507933
974.354471	2656.647748
974.652550	2660.572286
974.950591	2659.725372
975.248595	2658.618839
975.546563	2659.680002
975.844493	2658.994405
976.142386	2657.144301
976.440243	2658.568427
976.738062	2656.758653
977.035845	2653.905360
977.333590	2658.613798
977.631299	2656.504075
977.928971	2654.991729
978.226606	2654.132212
978.524204	2653.323107
978.821765	2652.992911
979.119290	2653.784372
979.416777	2655.306801
979.714228	2656.216729
980.011642	2654.906029
980.309020	2653.726399
980.606360	2655.384939
980.903664	2656.312511
981.200931	2657.592964
981.498162	2655.742861
981.795356	2657.555155
982.092513	2661.517502
982.389633	2662.898778
982.686717	2666.818276
982.983764	2666.072185
983.280775	2674.939574
983.577749	2673.901097
983.874686	2675.007630
984.171587	2669.056548
984.468451	2668.849861
984.765279	2665.016063
985.062070	2662.142605
985.358824	2663.067657
985.655543	2658.941473
985.952224	2658.853252
986.248869	2659.241421
986.545478	2657.870227
986.842050	2655.495844
987.138586	2659.702687
987.435086	2653.900319
987.731549	2652.211532
988.027975	2652.282108
988.324366	2652.713127
988.620719	2652.093065
988.917037	2651.523415
989.213318	2654.553148
989.509563	2652.728251
989.805772	2655.122799
990.101944	2653.612973
990.398080	2652.229176
990.694180	2651.566265
990.990244	2654.117088
991.286271	2649.827067
991.582262	2652.627427
991.878217	2651.969557
992.174136	2654.384270
992.470019	2653.237407
992.765865	2652.473672
993.061676	2647.384627
993.357450	2648.133239
993.653188	2649.819505
993.948890	2653.665905
994.244556	2653.887716
994.540186	2653.582726
994.835780	2652.607263
995.131337	2656.514157
995.426859	2652.450987
995.722345	2653.774290
996.017795	2655.311842
996.313208	2656.909888
996.608586	2655.823519
996.903928	2657.277892
997.199234	2658.132367
997.494504	2656.436019
997.789738	2654.527942
998.084936	2655.924342
998.380099	2656.874600
998.675225	2653.038282
998.970316	2653.653302
999.265371	2656.683036
999.560390	2652.874444
999.855373	2653.912922
1000.150320	2652.844197
1000.445232	2654.359064
1000.740108	2649.784217
1001.034948	2652.511481
1001.329752	2649.242293
1001.624521	2649.075935
1001.919254	2653.524753
1002.213951	2652.682880
1002.508613	2652.289670
1002.803239	2651.039464
1003.097829	2651.936789
1003.392384	2650.623569
1003.686903	2650.474855
1003.981386	2652.022489
1004.275834	2651.982160
1004.570246	2650.714310
1004.864623	2651.505771
1005.158964	2647.475368
1005.453270	2649.073414
1005.747540	2650.492499
1006.041775	2650.363949
1006.335974	2649.960657
1006.630138	2649.542241
1006.924266	2650.616007
1007.218359	2650.946203
1007.512416	2646.106695
1007.806438	2647.956798
1008.100425	2646.699031
1008.394376	2646.141983
1008.688292	2649.325472
1008.982172	2646.840183
1009.276017	2648.183650
1009.569827	2649.080976
1009.863602	2650.429484
1010.157341	2648.642395
1010.451045	2651.344454
1010.744714	2649.270019
1011.038347	2649.804381
1011.331945	2649.456542
1011.625508	2649.963178
1011.919036	2646.845224
1012.212528	2648.632313
1012.505986	2647.805564
1012.799408	2648.773465
1013.092795	2649.557365
1013.386147	2650.552993
1013.679464	2648.397899
1013.972745	2649.743887
1014.265992	2647.571150
1014.559204	2648.367652
1014.852380	2649.943013
1015.145521	2646.699031
1015.438628	2650.149700
1015.731699	2648.914618
1016.024736	2650.489978
1016.317737	2646.439411
1016.610703	2648.375214
1016.903635	2648.037457
1017.196531	2646.509987
1017.489393	2645.993269
1017.782219	2648.115595
1018.075011	2646.260450
1018.367768	2652.372849
1018.660490	2649.033085
1018.953177	2649.033085
1019.245829	2649.033085
