Dividing Wavelength (nm)	Counts (n)	Blue Motor Position (mm): 9.000000	Red Motor Position (mm): 0.000000	
326.493990	2160.847746
326.888308	2160.847746
327.282561	2160.847746
327.676750	2121.060440
328.070874	2115.134563
328.464933	2115.857969
328.858929	2119.598505
329.252859	2125.015225
329.646726	2133.779271
330.040528	2144.191774
330.434265	2158.173414
330.827938	2178.998421
331.221547	2195.485514
331.615091	2210.936651
332.008571	2228.361399
332.401986	2247.457290
332.795338	2267.536206
333.188625	2284.267795
333.581847	2302.461320
333.975006	2321.431182
334.368100	2338.981959
334.761129	2361.488190
335.154095	2373.917155
335.546996	2391.062119
335.939833	2411.143555
336.332606	2429.465629
336.725315	2441.665221
337.117960	2455.014197
337.510540	2465.930815
337.903056	2478.957157
338.295508	2486.569299
338.687896	2494.436020
339.080220	2503.278204
339.472480	2510.474451
339.864676	2513.171468
340.256807	2517.131294
340.648875	2523.379805
341.040879	2525.106400
341.432818	2527.092614
341.824694	2530.684437
342.216506	2534.258615
342.608253	2531.773326
342.999937	2532.567307
343.391557	2536.007895
343.783113	2534.735004
344.174605	2531.158305
344.566033	2532.892462
344.957397	2533.623429
345.348697	2526.863242
345.739934	2528.483973
346.131106	2525.625639
346.522215	2523.921729
346.913260	2520.458456
347.304241	2519.198168
347.695159	2519.263703
348.086012	2518.116840
348.476802	2512.503515
348.867528	2511.341529
349.258191	2508.125273
349.648789	2507.437156
350.039324	2501.949860
350.429796	2508.377331
350.820203	2505.415653
351.210548	2503.757113
351.600828	2503.046311
351.991045	2501.939777
352.381198	2500.697133
352.771288	2501.977586
353.161314	2498.945332
353.551276	2497.385095
353.941175	2500.482884
354.331010	2496.160094
354.720782	2498.685713
355.110490	2501.196207
355.500135	2498.209323
355.889717	2499.177225
356.279235	2499.202431
356.668689	2501.549088
357.058080	2500.775271
357.447408	2498.176556
357.836672	2500.739983
358.225873	2498.360558
358.615010	2501.975065
359.004084	2499.872904
359.393095	2500.503048
359.782043	2502.718636
360.170927	2502.617813
360.559748	2505.299706
360.948505	2502.791732
361.337199	2503.013543
361.725830	2506.461692
362.114398	2505.009840
362.502903	2505.420694
362.891344	2507.185098
363.279722	2507.611075
363.668037	2508.016888
364.056289	2504.014212
364.444478	2507.507732
364.832603	2509.932527
365.220665	2507.951353
365.608665	2508.614265
365.996601	2509.670387
366.384474	2508.450427
366.772284	2511.981756
367.160031	2512.105264
367.547715	2510.817249
367.935336	2512.793382
368.322893	2511.575943
368.710388	2507.537979
369.097820	2507.815242
369.485189	2509.418329
369.872495	2513.466376
370.259738	2513.249606
370.646918	2515.157683
371.034035	2511.984276
371.421090	2513.486540
371.808081	2513.947806
372.195010	2515.475275
372.581875	2514.562827
372.968678	2514.343536
373.355418	2514.240193
373.742096	2514.462003
374.128710	2513.758762
374.515262	2514.315810
374.901751	2518.499968
375.288177	2513.927641
375.674540	2516.896881
376.060841	2517.307735
376.447079	2519.578775
376.833254	2517.214473
377.219367	2517.968126
377.605417	2518.578106
377.991404	2520.244207
378.377329	2514.678773
378.763191	2517.617766
379.148991	2517.075842
379.534727	2520.062725
379.920402	2516.614576
380.306013	2515.198012
380.691563	2519.546007
381.077049	2519.046933
381.462474	2520.125740
381.847835	2518.600791
382.233134	2518.232787
382.618371	2519.251100
383.003545	2519.296470
383.388657	2521.842253
383.773706	2521.007942
384.158693	2522.734537
384.543618	2520.206398
384.928480	2519.820750
385.313280	2521.791841
385.698017	2521.660771
386.082692	2522.555576
386.467305	2519.750174
386.851856	2521.900226
387.236344	2519.006604
387.620770	2519.455266
388.005133	2518.091634
388.389435	2520.466018
388.773674	2519.908970
389.157851	2521.743950
389.541965	2524.995494
389.926018	2524.466173
390.310008	2524.067922
390.693936	2523.407531
391.077802	2525.585309
391.461606	2524.095648
391.845348	2522.835360
392.229027	2525.600433
392.612645	2524.483817
392.996200	2528.448685
393.379694	2525.066071
393.763125	2523.586492
394.146494	2527.974816
394.529801	2526.674199
394.913047	2529.141843
395.296230	2525.756709
395.679351	2525.280320
396.062410	2530.475229
396.445408	2527.591689
396.828343	2527.884076
397.211217	2528.678057
397.594028	2528.917512
397.976778	2528.746113
398.359466	2525.577748
398.742092	2528.506658
399.124656	2526.701925
399.507158	2527.448016
399.889598	2530.787780
400.271977	2527.914322
400.654294	2530.502955
401.036549	2529.414066
401.418742	2529.406504
401.800874	2530.099663
402.182944	2529.247708
402.564952	2531.929602
402.946898	2530.528161
403.328783	2529.403983
403.710606	2530.623943
404.092367	2527.909281
404.474067	2528.660413
404.855705	2531.299457
405.237282	2529.966072
405.618797	2532.532019
406.000250	2529.116638
406.381642	2531.783408
406.762972	2528.546987
407.144240	2529.895496
407.525447	2529.789632
407.906593	2524.851822
408.287677	2532.577390
408.668700	2531.271731
409.049661	2531.612009
409.430560	2533.121834
409.811399	2532.463964
410.192176	2532.922709
410.572891	2533.557894
410.953545	2531.851464
411.334138	2532.176618
411.714669	2534.082174
412.095139	2536.103677
412.475547	2533.630991
412.855894	2535.607123
413.236180	2530.225692
413.616405	2534.808100
413.996568	2530.654190
414.376670	2535.312216
414.756711	2532.123686
415.136691	2536.600231
415.516609	2535.723070
415.896466	2534.296423
416.276262	2534.223327
416.655997	2535.266845
417.035670	2536.058307
417.415283	2536.355735
417.794834	2534.591331
418.174324	2537.658873
418.553753	2535.660055
418.933121	2535.869263
419.312428	2533.358769
419.691674	2538.039480
420.070859	2538.815818
420.449983	2537.598379
420.829045	2533.842719
421.208047	2538.344470
421.586988	2534.288862
421.965867	2537.452186
422.344686	2538.430169
422.723444	2539.350180
423.102141	2536.892617
423.480777	2537.875642
423.859352	2537.482432
424.237866	2534.263656
424.616319	2537.936136
424.994712	2539.534182
425.373044	2537.941177
425.751314	2536.532175
426.129524	2531.647297
426.507673	2538.772968
426.885762	2533.129396
427.263789	2538.142824
427.641756	2539.309851
428.019662	2538.004192
428.397508	2539.014943
428.775292	2539.284645
429.153016	2538.470499
429.530679	2539.443441
429.908282	2538.243647
430.285824	2538.024357
430.663305	2541.099460
431.040726	2539.390509
431.418086	2540.933102
431.795385	2540.146682
432.172624	2538.299099
432.549802	2541.717002
432.926920	2540.877650
433.303977	2539.708102
433.680974	2538.833462
434.057910	2540.713812
434.434786	2540.930582
434.811601	2539.491332
435.188355	2539.435880
435.565050	2542.427804
435.941683	2541.510314
436.318257	2539.148534
436.694770	2541.301107
437.071222	2542.218597
437.447614	2542.135417
437.823946	2544.023330
438.200218	2541.863195
438.576429	2540.774306
438.952580	2543.385624
439.328670	2542.579039
439.704700	2543.080634
440.080670	2540.232382
440.456580	2543.012578
440.832429	2541.631302
441.208218	2541.235572
441.583947	2543.385624
441.959616	2543.413350
442.335224	2545.860830
442.710773	2541.510314
443.086261	2541.217928
443.461689	2540.975952
443.837057	2542.707588
444.212365	2541.006199
444.587612	2542.339584
444.962800	2538.541075
445.337927	2541.056611
445.712995	2539.569470
446.088002	2544.582898
446.462949	2542.886549
446.837837	2543.226827
447.212664	2540.013092
447.587431	2543.342774
447.962139	2546.364946
448.336786	2545.407126
448.711374	2542.258926
449.085901	2547.393341
449.460369	2544.421581
449.834776	2544.920655
450.209124	2542.266487
450.583412	2543.294883
450.957640	2544.129194
451.331808	2543.325130
451.705917	2545.465100
452.079965	2545.321427
452.453954	2545.863351
452.827883	2542.190870
453.201752	2544.096426
453.575562	2546.296890
453.949311	2546.702703
454.323001	2544.061138
454.696632	2544.240099
455.070202	2546.007024
455.443713	2545.659184
455.817164	2545.013916
456.190556	2547.237065
456.563888	2546.407795
456.937160	2545.434853
457.310373	2547.088351
457.683526	2545.533155
458.056619	2548.278063
458.429653	2543.549461
458.802628	2547.983156
459.175542	2542.994934
459.548398	2549.165307
459.921194	2547.559699
460.293930	2549.243444
460.666607	2547.010213
461.039224	2546.208670
461.411782	2545.954092
461.784280	2546.312013
462.156719	2549.271171
462.529099	2548.852755
462.901419	2546.075079
463.273680	2543.922507
463.645882	2544.038453
464.018024	2545.271015
464.390106	2539.950077
464.762130	2547.761345
465.134094	2548.764535
465.505999	2547.005172
465.877845	2549.006510
466.249631	2547.214380
466.621358	2552.124464
466.993026	2546.962322
467.364634	2550.239072
467.736184	2549.205636
468.107674	2548.736808
468.479105	2550.281922
468.850477	2548.794782
469.221790	2549.084648
469.593043	2549.213198
469.964238	2551.370811
470.335373	2551.335523
470.706449	2549.498023
471.077467	2548.918290
471.448425	2549.825698
471.819324	2548.928372
472.190164	2547.715975
472.560945	2551.166645
472.931667	2545.825542
473.302330	2549.629093
473.672934	2550.014741
474.043479	2549.629093
474.413965	2552.247972
474.784393	2547.600028
475.154761	2552.005997
475.525070	2550.874258
475.895321	2550.793599
476.265513	2550.707900
476.635645	2552.489948
477.005719	2551.486758
477.375734	2548.136911
477.745691	2551.040616
478.115588	2547.295038
478.485427	2550.922149
478.855207	2550.473486
479.224928	2551.259906
479.594591	2550.019782
479.964194	2548.686397
480.333739	2549.848383
480.703226	2551.030533
481.072653	2553.034392
481.442022	2549.566078
481.811333	2549.298897
482.180584	2546.964843
482.549777	2550.735626
482.918912	2550.052550
483.287988	2552.464742
483.657005	2550.649926
484.025964	2552.873075
484.394864	2553.362067
484.763706	2553.362067
485.132489	2550.786037
485.501213	2551.448949
485.869879	2553.639331
486.238487	2554.879454
486.607036	2551.002807
486.975527	2554.365257
487.343959	2552.162273
487.712333	2551.423743
488.080648	2554.587067
488.448905	2556.621173
488.817104	2552.414330
489.185244	2554.067829
489.553326	2554.705535
489.921350	2552.903322
490.289315	2553.253682
490.657222	2552.966337
491.025070	2554.239228
491.392861	2552.749567
491.760593	2557.619322
492.128267	2551.723692
492.495883	2555.214691
492.863440	2553.233518
493.230939	2552.326110
493.598380	2556.119578
493.965763	2556.555638
494.333088	2553.309135
494.700354	2553.528425
495.067563	2555.774259
495.434713	2554.927345
495.801805	2551.980791
496.168839	2554.962633
496.535815	2555.993549
496.902733	2554.178734
497.269593	2556.626214
497.636395	2555.063457
498.003139	2558.309960
498.369825	2555.055895
498.736453	2555.875082
499.103023	2554.977757
499.469535	2555.683518
499.835989	2556.333827
500.202385	2552.552962
500.568723	2551.761501
500.935003	2551.519525
501.301226	2548.971222
501.667390	2556.054043
502.033497	2559.600495
502.399546	2555.925494
502.765537	2552.815102
503.131470	2555.910370
503.497345	2556.359033
503.863163	2555.920453
504.228923	2555.643189
504.594625	2557.284085
504.960269	2556.253169
505.325856	2554.080432
505.691385	2556.235525
506.056856	2556.180072
506.422270	2556.260731
506.787625	2555.431461
507.152924	2552.678991
507.518164	2556.119578
507.883347	2554.750905
508.248472	2556.152346
508.613540	2556.303580
508.978550	2556.727037
509.343503	2555.630586
509.708398	2556.719476
510.073236	2558.062943
510.438016	2555.464228
510.802738	2554.128322
511.167403	2556.348951
511.532010	2555.975905
511.896561	2557.150494
512.261053	2558.244425
512.625488	2555.837274
512.989866	2557.563869
513.354186	2556.792572
513.718449	2556.359033
514.082655	2559.824826
514.446803	2556.250648
514.810894	2558.499003
515.174927	2559.920608
515.538904	2558.118396
515.902822	2557.427758
516.266684	2557.498334
516.630488	2556.870710
516.994235	2557.195865
517.357925	2559.749209
517.721558	2559.013201
518.085133	2559.277861
518.448651	2556.112017
518.812112	2555.965823
519.175516	2555.759136
519.538863	2553.533466
519.902152	2558.695608
520.265385	2556.832902
520.628560	2554.072870
520.991678	2558.204095
521.354739	2559.701318
521.717743	2557.773077
522.080690	2557.611760
522.443580	2558.786349
522.806413	2558.952707
523.169189	2559.025803
523.531908	2558.050340
523.894569	2559.073694
524.257174	2558.912377
524.619722	2558.181410
524.982213	2560.946483
525.344647	2560.868345
525.707025	2561.208623
526.069345	2559.121585
526.431608	2559.955896
526.793815	2562.259704
527.155964	2561.395146
527.518057	2563.368758
527.880093	2560.460012
528.242072	2561.672409
528.603995	2563.114179
528.965860	2563.767009
529.327669	2562.594940
529.689421	2562.418500
530.051117	2563.706515
530.412755	2565.748182
530.774337	2565.977555
531.135862	2566.610219
531.497331	2567.338666
531.858743	2565.760785
532.220098	2568.677093
532.581396	2568.503173
532.942638	2568.425035
533.303824	2565.624674
533.664953	2569.055179
534.026025	2568.271280
534.387040	2569.455951
534.747999	2570.844789
535.108902	2571.532906
535.469748	2572.107598
535.830537	2571.845458
536.191270	2574.275294
536.551947	2570.522155
536.912567	2570.938050
537.273131	2574.270253
537.633638	2568.563667
537.994089	2574.013154
538.354483	2574.464337
538.714821	2577.083217
539.075103	2575.303689
539.435328	2578.023392
539.795497	2577.698237
540.155609	2580.309555
540.515665	2579.699575
540.875665	2580.382652
541.235609	2580.473393
541.595496	2583.830801
541.955328	2578.769483
542.315102	2581.317786
542.674821	2583.445153
543.034483	2583.208218
543.394090	2583.056984
543.753640	2585.696028
544.113134	2585.834660
544.472571	2585.307859
544.831953	2588.264496
545.191278	2587.226018
545.550548	2588.408169
545.909761	2585.663260
546.268918	2589.844897
546.628019	2589.151739
546.987064	2590.684250
547.346053	2590.285998
547.704986	2590.190217
548.063863	2592.574682
548.422684	2588.866914
548.781449	2589.754157
549.140158	2588.151070
549.498811	2595.203644
549.857408	2590.699373
550.215949	2594.104672
550.574434	2594.044179
550.932864	2592.683067
551.291237	2593.446802
551.649555	2594.427306
552.007817	2596.501741
552.366022	2595.516196
552.724173	2594.976792
553.082267	2594.404621
553.440305	2593.794642
553.798288	2594.359251
554.156215	2598.525764
554.514086	2596.988212
554.871902	2592.615012
555.229661	2592.849425
555.587365	2594.530650
555.945014	2597.278079
556.302606	2596.368151
556.660143	2600.940477
557.017625	2598.737493
557.375050	2599.591968
557.732421	2595.798500
558.089735	2598.407297
558.446994	2596.511823
558.804197	2601.333687
559.161345	2600.254880
559.518437	2597.726742
559.875474	2600.627926
560.232455	2598.445106
560.589381	2599.158429
560.946251	2600.670775
561.303065	2595.652307
561.659825	2600.446444
562.016528	2599.413007
562.373177	2599.715477
562.729770	2596.874787
563.086307	2598.518203
563.442789	2598.939139
563.799216	2601.578183
564.155587	2598.820672
564.511904	2600.612802
564.868164	2601.500045
565.224370	2601.232864
565.580520	2599.486104
565.936615	2599.770929
566.292654	2597.630960
566.648638	2599.168512
567.004567	2599.231526
567.360441	2596.053078
567.716260	2599.082812
568.072023	2599.546598
568.427732	2595.669951
568.783385	2598.031731
569.138982	2599.108018
569.494525	2599.851588
569.850013	2599.775971
570.205445	2597.535178
570.560823	2596.050558
570.916145	2598.364447
571.271412	2593.592995
571.626625	2596.990733
571.981782	2596.642893
572.336884	2592.146184
572.691931	2592.420927
573.046923	2589.209712
573.401860	2589.880186
573.756743	2594.026535
574.111570	2595.233891
574.466342	2593.477049
574.821059	2592.015114
575.175722	2593.572831
575.530330	2594.505444
575.884882	2595.249014
576.239380	2594.288675
576.593823	2597.598192
576.948211	2593.199785
577.302544	2591.311873
577.656823	2590.144846
578.011047	2593.275403
578.365216	2593.325814
578.719330	2594.530650
579.073389	2592.625094
579.427394	2591.543766
579.781344	2590.570824
580.135239	2588.456060
580.489080	2590.762387
580.842866	2587.581419
581.196597	2594.523088
581.550273	2591.780701
581.903895	2592.574682
582.257463	2591.785742
582.610975	2589.615525
582.964434	2590.626276
583.317837	2588.753488
583.671186	2592.909919
584.024481	2588.572006
584.377721	2589.376070
584.730906	2588.907243
585.084037	2589.769280
585.437113	2589.693663
585.790135	2588.582088
586.143103	2589.426482
586.496016	2589.565113
586.848874	2589.308015
587.201679	2591.891606
587.554428	2586.684094
587.907124	2588.612335
588.259765	2588.259455
588.612352	2589.514702
588.964884	2588.534197
589.317362	2588.375401
589.669786	2587.772983
590.022155	2584.402972
590.374470	2582.993969
590.726731	2584.859196
591.078937	2582.328537
591.431090	2588.302304
591.783188	2586.371542
592.135232	2588.796337
592.487222	2590.165011
592.839157	2590.480083
593.191038	2587.165524
593.542866	2589.320617
593.894639	2587.074783
594.246358	2588.488827
594.598022	2586.449680
594.949633	2591.626945
595.301190	2588.468663
595.652692	2588.627459
596.004141	2589.250041
596.355535	2588.519074
596.706876	2587.531008
597.058162	2589.756677
597.409395	2589.693663
597.760573	2590.177614
598.111698	2587.904053
598.462768	2588.360278
598.813785	2588.503951
599.164748	2587.301635
599.515657	2588.642582
599.866511	2591.974785
600.217312	2590.374219
600.568060	2592.438571
600.918753	2592.597368
601.269392	2589.250041
601.619978	2590.243149
601.970510	2593.963520
602.320988	2590.217943
602.671412	2591.591657
603.021783	2590.462439
603.372100	2589.862542
603.722363	2592.521750
604.072572	2592.615012
604.422728	2593.151894
604.772830	2595.818665
605.122878	2591.924373
605.472872	2594.152563
605.822813	2593.514857
606.172701	2597.144488
606.522534	2596.042996
606.872314	2596.403439
607.222041	2596.088367
607.571714	2593.358582
607.921333	2594.376895
608.270899	2598.689602
608.620411	2594.069384
608.969870	2599.420569
609.319276	2604.156733
609.668627	2607.446086
610.017926	2613.429936
610.367171	2613.064452
610.716362	2615.635441
611.065500	2611.874740
611.414585	2610.216200
611.763616	2612.739298
612.112594	2613.155193
612.461518	2608.726539
612.810389	2611.287445
613.159207	2608.416508
613.507971	2609.230655
613.856682	2613.306427
614.205340	2612.855244
614.553945	2616.308435
614.902496	2610.795933
615.250994	2613.250975
615.599439	2613.313989
615.947830	2615.315327
616.296169	2615.043105
616.644454	2614.692745
616.992686	2614.576798
617.340864	2619.350771
617.688990	2619.348250
618.037063	2623.250103
618.385082	2620.646348
618.733048	2624.013838
619.080961	2624.681791
619.428821	2626.322687
619.776628	2628.502986
620.124382	2629.286885
620.472083	2630.408542
620.819731	2632.994654
621.167326	2630.479118
621.514868	2631.036166
621.862357	2628.313942
622.209793	2631.542802
622.557176	2632.021711
622.904506	2632.997174
623.251783	2629.294447
623.599007	2633.657566
623.946179	2634.857360
624.293297	2633.415590
624.640363	2634.322998
624.987376	2629.992647
625.334336	2628.606329
625.681243	2635.346352
626.028097	2628.956690
626.374899	2638.416415
626.721647	2636.987248
627.068343	2637.753503
627.414987	2639.187711
627.761577	2644.017137
628.108115	2643.311375
628.454600	2642.406488
628.801032	2641.758700
629.147412	2645.998310
629.493739	2648.337406
629.840014	2650.910915
630.186236	2649.975781
630.532405	2652.987870
630.878521	2655.639517
631.224585	2653.091214
631.570597	2658.649086
631.916556	2658.843170
632.262462	2657.973571
632.608316	2665.767195
632.954117	2666.422545
633.299866	2671.947650
633.645562	2674.218689
633.991206	2669.714418
634.336797	2667.186280
634.682336	2672.779440
635.027823	2671.987979
635.373257	2674.032167
635.718639	2674.269101
636.063968	2672.600479
636.409245	2675.602486
636.754470	2674.231292
637.099642	2676.991324
637.444762	2674.712722
637.789829	2681.551048
638.134845	2680.121881
638.479808	2680.431912
638.824719	2686.244362
639.169577	2685.659588
639.514383	2686.443487
639.859137	2689.503468
640.203839	2689.813499
640.548489	2691.666123
640.893086	2698.368337
641.237632	2691.777028
641.582125	2701.861857
641.926566	2701.728266
642.270955	2699.958821
642.615292	2702.960828
642.959576	2706.913093
643.303809	2710.247816
643.647990	2715.334340
643.992118	2722.704507
644.336195	2716.710575
644.680219	2728.327914
645.024192	2733.800087
645.368112	2739.020202
645.711981	2744.298290
646.055797	2751.560072
646.399562	2761.050044
646.743274	2766.970879
647.086935	2782.255657
647.430544	2790.447532
647.774101	2797.568162
648.117606	2808.648618
648.461059	2809.210707
648.804460	2820.835608
649.147810	2818.486430
649.491108	2812.492498
649.834354	2820.066832
650.177548	2813.770431
650.520690	2818.718323
650.863781	2820.817964
651.206820	2822.993222
651.549807	2825.387770
651.892742	2828.702328
652.235626	2830.171825
652.578458	2835.800273
652.921238	2832.823472
653.263967	2841.542147
653.606644	2843.230934
653.949269	2846.830318
654.291843	2850.780062
654.634365	2860.023017
654.976836	2864.648276
655.319255	2866.120293
655.661622	2873.596324
656.003938	2878.458517
656.346203	2879.912890
656.688416	2890.156514
657.030577	2891.484858
657.372687	2897.113307
657.714746	2901.599934
658.056753	2907.732497
658.398708	2915.939496
658.740612	2923.438212
659.082465	2927.871907
659.424266	2930.216043
659.766016	2943.544854
660.107715	2948.996862
660.449362	2952.203036
660.790958	2968.914461
661.132503	2973.333032
661.473996	2982.318889
661.815438	2990.984633
662.156829	3003.287568
662.498168	3002.397805
662.839456	3016.167717
663.180693	3022.522091
663.521879	3031.949049
663.863013	3045.960936
664.204097	3051.097872
664.545129	3064.613205
664.886110	3071.953125
665.227040	3088.704879
665.567918	3103.107456
665.908746	3116.569857
666.249522	3112.539455
666.590248	3132.134420
666.930922	3154.396155
667.271545	3155.059067
667.612118	3175.450534
667.952639	3180.169054
668.293109	3188.567616
668.633528	3195.463915
668.973896	3202.720656
669.314213	3229.383318
669.654480	3206.748538
669.994695	3215.867985
670.334859	3230.570510
670.674973	3241.827407
671.015035	3257.744850
671.355047	3260.542690
671.695008	3264.477311
672.034918	3277.175978
672.374777	3298.074081
672.714585	3296.193730
673.054342	3319.619972
673.394049	3326.564162
673.733705	3338.176460
674.073310	3347.124508
674.412864	3371.112838
674.752368	3358.343596
675.091820	3360.460880
675.431223	3392.144532
675.770574	3371.579145
676.109875	3382.679766
676.449125	3386.609345
676.788324	3387.390724
677.127473	3381.280846
677.466571	3392.610839
677.805619	3398.945049
678.144616	3397.558731
678.483562	3418.658481
678.822458	3403.744227
679.161303	3407.356214
679.500098	3434.591048
679.838842	3437.209927
680.177535	3436.738579
680.516179	3453.787761
680.854771	3468.679330
681.193314	3504.907582
681.531805	3520.807381
681.870247	3602.529526
682.208638	3647.907472
682.546978	3716.492371
682.885268	3740.752923
683.223508	3701.792366
683.561697	3696.428578
683.899836	3706.135320
684.237925	3683.276208
684.575963	3690.696786
684.913951	3721.906570
685.251889	3701.986450
685.589776	3749.201897
685.927614	3761.340996
686.265401	3746.157040
686.603137	3787.345788
686.940824	3822.215449
687.278460	3856.323896
687.616046	3891.233886
687.953582	3929.281995
688.291068	3916.318668
688.628504	3972.280517
688.965889	3994.743898
689.303224	4018.487733
689.640510	4008.697812
689.977745	3960.206953
690.314930	3951.926858
690.652065	3955.737970
690.989150	3898.420051
691.326185	3884.642578
691.663170	3860.359340
692.000105	3826.306345
692.336990	3837.681709
692.673825	3789.639513
693.010610	3789.977270
693.347345	3757.083741
693.684030	3729.546438
694.020665	3733.788569
694.357251	3720.031261
694.693786	3739.449785
695.030272	3687.523380
695.366707	3692.138556
695.703093	3693.482024
696.039429	3703.226574
696.375716	3718.251733
696.711952	3679.533151
697.048139	3715.647977
697.384276	3724.152404
697.720363	3722.168710
698.056400	3723.565109
698.392388	3735.643714
698.728326	3730.287488
699.064214	3722.801375
699.400053	3765.026079
699.735842	3727.204823
700.071581	3724.336406
700.407270	3719.995973
700.742910	3717.145200
701.078501	3718.271898
701.414042	3690.971529
701.749533	3687.351981
702.084974	3663.414062
702.420366	3686.653781
702.755709	3682.850230
703.091002	3664.921367
703.426246	3675.948891
703.761440	3677.062986
704.096584	3677.143644
704.431679	3666.058147
704.766725	3679.989376
705.101721	3682.046166
705.436668	3695.248948
705.771565	3686.003472
706.106413	3712.424159
706.441212	3741.914909
706.775961	3731.409145
707.110661	3743.840630
707.445311	3796.419865
707.779913	3772.827265
708.114465	3821.045901
708.448967	3842.185980
708.783421	3864.102396
709.117825	3934.323149
709.452180	3946.673976
709.786485	3964.249959
710.120742	4055.462076
710.454949	4068.135537
710.789107	4087.133125
711.123216	4137.199344
711.457275	4210.217937
711.791286	4268.133233
712.125247	4250.829473
712.459159	4292.958395
712.793023	4354.510884
713.126837	4253.518928
713.460602	4302.014828
713.794318	4238.365220
714.127985	4300.865445
714.461602	4240.346393
714.795171	4210.921178
715.128691	4177.578987
715.462162	4116.838124
715.795584	4134.474601
716.128957	4091.047581
716.462281	4017.630737
716.795556	4088.905090
717.128782	4024.791696
717.461960	3935.452367
717.795088	3982.909790
718.128167	3971.693222
718.461198	3928.934155
718.794180	3915.260026
719.127113	3944.055096
719.459997	3907.138727
719.792833	3828.463959
720.125619	3869.360320
720.458357	3817.330571
720.791046	3827.271726
721.123686	3864.475442
721.456278	3811.061896
721.788821	3816.955005
722.121315	3793.458187
722.453761	3826.891119
722.786158	3830.314063
723.118506	3835.423272
723.450805	3833.701718
723.783056	3854.720809
724.115259	3824.221828
724.447412	3839.191535
724.779518	3846.034901
725.111574	3856.840614
725.443582	3893.525091
725.775542	3883.467989
726.107453	3953.492136
726.439315	3937.914971
726.771129	3944.317236
727.102895	3998.650792
727.434612	4049.558885
727.766281	4057.675142
728.097901	4092.900205
728.429473	4085.557764
728.760996	4096.887757
729.092471	4102.846401
729.423897	4106.672637
729.755276	4136.488542
730.086606	4116.777630
730.417887	4133.405876
730.749120	4197.244528
731.080305	4298.690187
731.411442	4339.652083
731.742530	4324.337057
732.073570	4409.623298
732.404562	4450.801963
732.735506	4355.496429
733.066401	4432.179941
733.397249	4424.507305
733.728048	4353.114484
734.058798	4245.727825
734.389501	4198.570351
734.720156	4145.086229
735.050762	4042.544119
735.381320	4018.273484
735.711831	4021.827497
736.042293	3985.523628
736.372707	4012.768544
736.703073	3959.047488
737.033391	3966.387408
737.363661	3978.844099
737.693883	4000.251359
738.024056	4043.126372
738.354182	4058.610276
738.684260	4064.841142
739.014290	4112.139768
739.344272	4158.888909
739.674207	4153.666273
740.004093	4183.598124
740.333931	4204.395404
740.663722	4203.616546
740.993464	4263.543263
741.323159	4291.655257
741.652806	4146.361641
741.982405	4152.373217
742.311956	4248.311416
742.641460	4178.531765
742.970915	4081.592897
743.300323	4118.884832
743.629683	4097.414558
743.958996	4046.728277
744.288260	4017.991179
744.617477	4019.390099
744.946647	4036.398952
745.275768	3957.303249
745.604842	3960.426243
745.933869	3955.679997
746.262847	3927.018517
746.591778	3943.215744
746.920662	3935.422120
747.249498	3929.438271
747.578286	3952.672949
747.907027	4001.660361
748.235720	4024.335471
748.564365	3991.991428
748.892963	3999.351513
749.221514	4114.088174
749.550017	4040.988923
749.878473	3961.401707
750.206881	4024.148949
750.535242	4000.044672
750.863555	3966.359682
751.191821	3997.337572
751.520039	4004.909385
751.848210	3955.932055
752.176334	3965.462356
752.504411	4018.744832
752.832440	3980.225375
753.160421	3916.336312
753.488356	3968.272799
753.816243	4013.701157
754.144082	3926.098506
754.471875	3896.675812
754.799620	3942.943522
755.127318	3953.804688
755.454969	3928.639248
755.782572	3907.920106
756.110129	3950.132207
756.437638	3963.047643
756.765100	3914.831528
757.092515	3912.822628
757.419882	3946.900828
757.747203	3941.269859
758.074477	3987.807271
758.401703	3986.889781
758.728882	3937.015125
759.056014	3962.188127
759.383099	4060.563723
759.710138	4056.654309
760.037129	4030.891492
760.364073	4031.642624
760.690970	4104.482256
761.017820	4114.461220
761.344623	4056.109864
761.671379	4115.555150
761.998088	4180.724667
762.324751	4291.251965
762.651366	4568.180189
762.977935	5132.073576
763.304456	5845.855591
763.630931	6258.983189
763.957359	6132.220855
764.283740	5801.238858
764.610074	5497.781562
764.936362	5010.667468
765.262602	4714.570256
765.588796	4447.479843
765.914943	4268.244138
766.241044	4223.776120
766.567097	4143.911641
766.893104	3998.393694
767.219064	3894.671953
767.544978	3887.460583
767.870845	3865.266903
768.196665	3797.886841
768.522438	3752.435797
768.848165	3750.484871
769.173846	3736.142788
769.499479	3713.855847
769.825066	3680.173378
770.150607	3653.054491
770.476101	3646.586690
770.801548	3655.960716
771.126949	3628.473824
771.452303	3595.696242
771.777611	3576.554981
772.102872	3588.956219
772.428087	3569.230184
772.753256	3565.378743
773.078378	3544.528531
773.403453	3507.355062
773.728482	3505.895648
774.053465	3481.146103
774.378401	3479.381699
774.703291	3491.989625
775.028135	3452.202318
775.352932	3411.530289
775.677683	3411.018612
776.002388	3436.872170
776.327046	3448.950774
776.651658	3391.935324
776.976224	3349.244313
777.300743	3363.291488
777.625216	3386.949623
777.949643	3391.153945
778.274024	3360.165973
778.598359	3328.956189
778.922647	3341.632171
779.246889	3347.437059
779.571086	3349.524097
779.895236	3339.023373
780.219339	3325.694563
780.543397	3315.163592
780.867409	3351.497709
781.191374	3370.540667
781.515294	3331.159173
781.839167	3325.923935
782.162995	3343.588138
782.486776	3337.432889
782.810511	3349.468644
783.134201	3356.304449
783.457844	3332.031293
783.781441	3291.795324
784.104993	3296.886889
784.428498	3318.001762
784.751958	3327.801765
785.075372	3309.056234
785.398739	3280.092285
785.722061	3290.280457
786.045337	3326.609532
786.368568	3357.504243
786.691752	3294.469656
787.014891	3318.155517
787.337983	3388.189747
787.661030	3470.395843
787.984031	3554.691497
788.306987	3656.590860
788.629897	3699.012170
788.952760	3677.713295
789.275579	3660.449863
789.598351	3653.472906
789.921078	3582.851382
790.243759	3450.001855
790.566395	3436.960390
790.888984	3451.095785
791.211529	3380.585166
791.534027	3351.782534
791.856480	3358.378884
792.178888	3308.660504
792.501249	3267.610388
792.823566	3282.239817
793.145836	3313.968839
793.468062	3284.180661
793.790241	3243.881677
794.112375	3265.866149
794.434464	3307.395174
794.756507	3335.383660
795.078505	3314.276349
795.400457	3312.758962
795.722364	3396.966396
796.044226	3458.617187
796.366042	3496.047754
796.687812	3499.601768
797.009538	3507.788601
797.331218	3482.318172
797.652852	3469.311995
797.974442	3467.189669
798.295986	3478.406236
798.617484	3430.220367
798.938938	3368.070502
799.260346	3403.386305
799.581709	3408.989548
799.903026	3363.596478
800.224299	3335.202179
800.545526	3338.312571
800.866708	3312.537151
801.187845	3266.803803
801.508936	3299.974596
801.829983	3311.065134
802.150984	3246.230855
802.471940	3233.305336
802.792851	3249.507605
803.113717	3251.990373
803.434538	3260.787186
803.755314	3217.902091
804.076045	3189.452339
804.396731	3207.552602
804.717372	3231.649317
805.037967	3220.745301
805.358518	3211.371276
805.679024	3227.550859
805.999485	3231.737537
806.319901	3231.850963
806.640272	3250.840990
806.960598	3257.848194
807.280879	3234.961355
807.601115	3239.909248
807.921306	3256.552617
808.241453	3289.892288
808.561554	3276.230761
808.881611	3230.608319
809.201623	3251.055239
809.521590	3271.648352
809.841513	3254.644540
810.161390	3276.329064
810.481223	3268.086777
810.801011	3226.305694
811.120755	3216.787996
811.440453	3250.026843
811.760107	3261.823143
812.079716	3234.295923
812.399281	3207.582849
812.718801	3223.097000
813.038276	3208.747355
813.357707	3209.886656
813.677093	3230.583113
813.996434	3189.469983
814.315731	3195.289995
814.634983	3198.619677
814.954191	3210.408415
815.273354	3236.816500
815.592473	3239.319433
815.911547	3233.559914
816.230577	3253.792585
816.549562	3298.058957
816.868502	3332.484997
817.187399	3357.012731
817.506250	3347.575691
817.825058	3325.858400
818.143821	3400.228022
818.462539	3486.267916
818.781213	3518.349819
819.099843	3549.647822
819.418429	3710.352245
819.736970	3867.447202
820.055466	4028.950648
820.373919	4304.091783
820.692327	4618.805977
821.010691	4886.163571
821.329011	5751.132310
821.647286	7335.219124
821.965517	9704.752996
822.283704	11678.712566
822.601847	13030.215665
822.919945	12457.374230
823.237999	11432.512694
823.556010	10151.084154
823.873976	9001.234771
824.191897	7610.939993
824.509775	6681.467170
824.827609	5908.330610
825.145398	5512.847050
825.463144	5443.740392
825.780845	5516.580024
826.098502	5575.863993
826.416116	6063.116718
826.733685	6893.382154
827.051210	7693.042745
827.368692	7879.547793
827.686129	7111.419620
828.003522	6084.803762
828.320872	5393.573350
828.638177	4918.086678
828.955439	4520.788302
829.272656	4147.150582
829.589830	3921.397630
829.906960	3799.114362
830.224046	3658.728309
830.541088	3566.749937
830.858086	3537.952345
831.175041	3488.266733
831.491952	3472.263590
831.808819	3483.638954
832.125642	3534.756254
832.442421	3638.334321
832.759157	3835.962676
833.075849	4212.234399
833.392497	4786.943581
833.709101	5287.114263
834.025662	5571.271502
834.342179	5411.277882
834.658653	4970.827229
834.975083	4518.078682
835.291469	4091.128239
835.607811	3770.820886
835.924110	3674.267666
836.240366	3523.743853
836.556578	3354.426619
836.872746	3273.747993
837.188871	3249.845362
837.504952	3200.600851
837.820990	3135.431334
838.136984	3093.851897
838.452935	3113.719085
838.768842	3116.990793
839.084706	3134.881848
839.400526	3240.070565
839.716303	3456.434367
840.032037	3811.205569
840.347727	4047.333215
840.663373	3894.361922
840.978977	3626.154894
841.294537	3397.967065
841.610054	3210.358004
841.925527	3123.025055
842.240957	3072.918506
842.556344	3033.030376
842.871687	2986.629076
843.186987	2947.121553
843.502244	2917.214908
843.817458	2884.800288
844.132629	2859.395394
844.447756	2870.680017
844.762840	2864.406301
845.077881	2834.308092
845.392879	2820.195381
845.707833	2816.396872
846.022745	2814.042653
846.337613	2819.154383
846.652438	2811.454021
846.967221	2807.935295
847.281960	2795.322328
847.596656	2792.605146
847.911309	2789.598098
848.225919	2784.919907
848.540485	2782.943775
848.855009	2782.537962
849.169490	2778.648712
849.483928	2767.563215
849.798323	2766.547422
850.112675	2761.685229
850.426984	2772.564039
850.741251	2774.416663
851.055474	2765.007350
851.369654	2759.351175
851.683792	2762.302771
851.997887	2768.689912
852.311938	2769.834254
852.625947	2762.837133
852.939914	2767.669079
853.253837	2770.751744
853.567718	2758.789086
853.881555	2753.758015
854.195350	2769.491456
854.509103	2765.985333
854.822812	2763.442071
855.136479	2759.842687
855.450103	2758.562234
855.763685	2752.331368
856.077224	2750.251892
856.390720	2762.506937
856.704173	2772.075047
857.017584	2765.672782
857.330953	2758.887389
857.644278	2766.287803
857.957561	2777.358177
858.270802	2778.870523
858.584000	2779.999741
858.897155	2770.000612
859.210268	2766.118924
859.523339	2769.448606
859.836367	2770.625716
860.149352	2764.130189
860.462295	2760.344282
860.775195	2766.466764
861.088054	2767.568256
861.400869	2753.919332
861.713642	2745.135121
862.026373	2762.537184
862.339062	2763.568100
862.651708	2770.300561
862.964312	2774.436828
863.276873	2768.478184
863.589392	2772.642177
863.901869	2783.210956
864.214303	2798.102525
864.526696	2810.503763
864.839045	2810.604586
865.151353	2808.482260
865.463619	2805.891107
865.775842	2808.535193
866.088023	2824.656802
866.400162	2833.642659
866.712258	2808.114256
867.024313	2799.561939
867.336325	2806.496046
867.648296	2824.054385
867.960224	2817.178251
868.272110	2807.209369
868.583954	2812.295893
868.895755	2826.736278
869.207515	2813.442756
869.519233	2816.159938
869.830909	2823.421720
870.142542	2833.647700
870.454134	2832.536126
870.765684	2838.303206
871.077191	2834.764316
871.388657	2839.175326
871.700081	2850.782582
872.011463	2858.707276
872.322803	2862.553677
872.634101	2862.813296
872.945357	2874.216386
873.256571	2894.373440
873.567744	2888.634086
873.878874	2877.203270
874.189963	2900.427865
874.501010	2903.467681
874.812015	2896.347051
875.122979	2900.279151
875.433900	2895.298491
875.744780	2894.872514
876.055618	2906.454565
876.366415	2902.093967
876.677169	2917.298087
876.987882	2916.509146
877.298554	2905.244688
877.609183	2922.871082
877.919771	2945.276491
878.230317	2965.257104
878.540822	3015.237624
878.851285	3050.051832
879.161707	3081.836307
879.472087	3162.131806
879.782425	3337.770647
880.092722	3690.033875
880.402977	4104.744396
880.713191	4524.261657
881.023363	5260.544862
881.333494	6090.366676
881.643583	6484.201779
881.953631	6371.390838
882.263637	6070.670888
882.573602	5734.809054
882.883526	5324.844779
883.193408	4870.198237
883.503248	4493.656812
883.813048	4262.146863
884.122806	4046.866908
884.432522	3792.472641
884.742197	3601.932149
885.051831	3433.240018
885.361424	3318.261381
885.670975	3258.742998
885.980485	3191.930066
886.289954	3130.702732
886.599382	3094.769387
886.908768	3062.846281
887.218113	3026.746578
887.527417	2979.362252
887.836680	2937.606375
888.145901	2935.955397
888.455082	2931.400715
888.764221	2890.539642
889.073319	2860.184334
889.382376	2862.200796
889.691392	2864.880169
890.000366	2860.080991
890.309300	2850.071780
890.618193	2862.762884
890.927044	2881.568909
891.235855	2881.367263
891.544625	2863.365302
891.853353	2872.073896
892.162041	2887.033520
892.470687	2918.386976
892.779293	2962.993626
893.087858	3004.101715
893.396381	3057.142215
893.704864	3151.300887
894.013306	3336.243177
894.321707	3578.291658
894.630068	3762.175307
894.938387	3767.743261
895.246665	3738.963314
895.554903	3650.912000
895.863100	3483.984273
896.171256	3344.770289
896.479371	3231.551015
896.787446	3130.715335
897.095480	3041.489432
897.403473	2981.293014
897.711425	2950.141204
898.019336	2945.132818
898.327207	2922.752615
898.635038	2894.804458
898.942827	2878.831562
899.250576	2871.221941
899.558284	2839.099708
899.865952	2824.848366
900.173579	2808.343629
900.481165	2801.112093
900.788711	2792.582461
901.096216	2771.762496
901.403681	2756.192892
901.711105	2766.108842
902.018489	2766.802000
902.325832	2765.385436
902.633135	2772.344749
902.940397	2795.188738
903.247619	2860.887575
903.554800	3011.408867
903.861941	3283.434570
904.169041	3626.590953
904.476101	3893.615832
904.783121	3885.847413
905.090100	3693.071170
905.397039	3465.626911
905.703938	3252.239910
906.010796	3097.698298
906.317614	3003.070799
906.624391	2924.184303
906.931129	2863.551825
907.237826	2810.269349
907.544483	2768.352155
907.851099	2744.638567
908.157675	2725.018397
908.464211	2709.521890
908.770707	2696.886238
909.077163	2687.340813
909.383578	2674.780778
909.689954	2662.384581
909.996289	2662.533295
910.302584	2663.269303
910.608839	2667.904644
910.915054	2661.686381
911.221229	2654.122130
911.527363	2654.853097
911.833458	2660.496669
912.139513	2663.715445
912.445527	2664.516989
912.751502	2675.700789
913.057436	2684.605987
913.363331	2694.065712
913.669186	2708.843855
913.975000	2736.391240
914.280775	2785.096348
914.586510	2845.431397
914.892205	2911.130235
915.197859	3009.221007
915.503475	3162.131806
915.809050	3327.806806
916.114585	3456.409161
916.420081	3487.697083
916.725536	3450.170733
917.030952	3356.614480
917.336328	3251.236720
917.641665	3137.392343
917.946961	3053.832698
918.252218	3000.540140
918.557435	2934.863987
918.862612	2885.284239
919.167750	2840.039883
919.472848	2805.029070
919.777906	2784.990483
920.082925	2762.126330
920.387904	2738.841241
920.692843	2725.714076
920.997743	2712.440718
921.302603	2701.577031
921.607423	2692.981864
921.912204	2681.908970
922.216946	2677.240861
922.521647	2667.859274
922.826310	2661.318377
923.130932	2655.016934
923.435516	2647.538383
923.740059	2638.565129
924.044564	2632.732514
924.349028	2626.874693
924.653454	2623.255145
924.957840	2618.027468
925.262186	2613.490430
925.566493	2609.591097
925.870761	2606.326950
926.174989	2602.041969
926.479178	2598.598861
926.783328	2593.141812
927.087438	2590.958992
927.391509	2591.447984
927.695541	2587.639393
927.999533	2586.273240
928.303486	2582.351222
928.607400	2581.496747
928.911275	2581.743763
929.215110	2581.058166
929.518906	2579.434915
929.822663	2581.335430
930.126381	2579.906263
930.430060	2579.560944
930.733699	2578.996334
931.037299	2580.682600
931.340861	2583.934145
931.644383	2584.004721
931.947866	2583.636717
932.251309	2582.414237
932.554714	2578.494740
932.858080	2578.469534
933.161407	2577.539441
933.464694	2572.180694
933.767943	2569.508883
934.071153	2571.404357
934.374323	2573.889646
934.677455	2576.117836
934.980548	2573.839234
935.283602	2573.672876
935.586617	2574.504666
935.889593	2572.689851
936.192530	2574.723957
936.495428	2575.298648
936.798287	2577.494071
937.101108	2579.694534
937.403890	2581.489185
937.706632	2587.256265
938.009336	2592.168869
938.312002	2599.740682
938.614628	2607.340222
938.917216	2612.333485
939.219765	2613.102261
939.522275	2614.755759
939.824747	2610.017075
940.127179	2609.969184
940.429573	2605.991713
940.731929	2607.239399
941.034246	2601.038780
941.336524	2597.157091
941.638763	2595.120465
941.940964	2592.892275
942.243126	2591.904209
942.545250	2591.803386
942.847335	2589.068560
943.149381	2585.968250
943.451389	2578.792168
943.753359	2578.691345
944.055290	2578.701427
944.357182	2579.883577
944.659036	2578.552713
944.960851	2579.424832
945.262628	2575.696899
945.564367	2577.410892
945.866067	2576.853844
946.167729	2579.820563
946.469352	2578.461972
946.770937	2577.080696
947.072484	2576.385017
947.373992	2574.557598
947.675462	2571.958884
947.976893	2569.216496
948.278286	2568.684654
948.579641	2568.407391
948.880958	2566.804304
949.182236	2568.467885
949.483476	2569.458471
949.784678	2565.228943
950.085841	2568.054510
950.386967	2569.115673
950.688054	2570.244891
950.989103	2571.303534
951.290114	2570.567525
951.591087	2575.265881
951.892021	2572.160530
952.192917	2577.942733
952.493776	2579.462641
952.794596	2581.176633
953.095378	2578.114132
953.396122	2576.357290
953.696828	2578.588001
953.997496	2578.845100
954.298126	2574.865109
954.598718	2574.895356
954.899272	2567.893193
955.199788	2569.700447
955.500266	2568.223389
955.800706	2565.226423
956.101108	2563.555280
956.401472	2560.913716
956.701798	2560.059240
957.002087	2557.447922
957.302337	2553.934238
957.602550	2554.476162
957.902724	2554.135884
958.202861	2549.674463
958.502960	2551.111192
958.803022	2555.118909
959.103045	2551.340564
959.403031	2546.415357
959.702979	2549.624052
960.002889	2551.136398
960.302762	2549.031716
960.602596	2549.871068
960.902393	2547.284956
961.202153	2547.852086
961.501875	2546.576674
961.801559	2546.143135
962.101205	2546.359904
962.400814	2549.558517
962.700385	2545.722198
962.999918	2544.451828
963.299414	2544.230017
963.598873	2545.689431
963.898293	2543.441076
964.197677	2545.240768
964.497022	2546.044832
964.796331	2546.301931
965.095601	2547.126160
965.394835	2544.860161
965.694030	2544.766900
965.993189	2545.598690
966.292309	2546.206149
966.591393	2545.180274
966.890439	2542.117773
967.189447	2548.615821
967.488419	2543.055428
967.787353	2543.262115
968.086249	2546.410316
968.385108	2546.556509
968.683930	2545.722198
968.982714	2545.694472
969.281462	2545.311344
969.580172	2546.168341
969.878844	2545.843186
970.177480	2549.823177
970.476078	2545.225645
970.774639	2544.666077
971.073162	2547.584905
971.371649	2546.375028
971.670098	2547.441232
971.968510	2547.784030
972.266885	2544.903011
972.565223	2546.397713
972.863524	2547.284956
973.161788	2547.093392
973.460014	2547.877292
973.758204	2548.998948
974.056356	2545.155069
974.354471	2547.980635
974.652550	2547.610111
974.950591	2544.756818
975.248595	2546.155738
975.546563	2546.725388
975.844493	2544.633309
976.142386	2547.443752
976.440243	2548.104144
976.738062	2543.720860
977.035845	2545.283618
977.333590	2546.506098
977.631299	2544.492157
977.928971	2543.912424
978.226606	2540.930582
978.524204	2538.505787
978.821765	2542.717671
979.119290	2545.409647
979.416777	2544.018288
979.714228	2546.133052
980.011642	2545.356715
980.309020	2546.780841
980.606360	2542.926879
980.903664	2545.880995
981.200931	2546.274205
981.498162	2546.841335
981.795356	2547.325285
982.092513	2548.991387
982.389633	2548.875440
982.686717	2556.028838
982.983764	2555.454146
983.280775	2560.064281
983.577749	2561.276679
983.874686	2557.705021
984.171587	2559.358520
984.468451	2555.355843
984.765279	2553.178065
985.062070	2552.615976
985.358824	2552.341233
985.655543	2550.130688
985.952224	2547.579864
986.248869	2545.765048
986.545478	2546.869061
986.842050	2543.010058
987.138586	2543.620037
987.435086	2545.172713
987.731549	2542.977290
988.027975	2544.197249
988.324366	2540.713812
988.620719	2544.860161
988.917037	2543.098278
989.213318	2544.635830
989.509563	2540.444110
989.805772	2544.444266
990.101944	2541.704399
990.398080	2544.267826
990.694180	2540.156765
990.990244	2542.871426
991.286271	2541.880839
991.582262	2543.667928
991.878217	2541.422094
992.174136	2542.226158
992.470019	2541.704399
992.765865	2541.500232
993.061676	2541.538041
993.357450	2538.465458
993.653188	2537.961342
993.948890	2543.607434
994.244556	2541.863195
994.540186	2544.988711
994.835780	2541.827907
995.131337	2544.046015
995.426859	2545.737322
995.722345	2542.727753
996.017795	2545.959133
996.313208	2548.419216
996.608586	2546.627086
996.903928	2548.668753
997.199234	2545.835624
997.494504	2551.128836
997.789738	2547.065666
998.084936	2546.783361
998.380099	2545.573484
998.675225	2545.875954
998.970316	2545.341591
999.265371	2545.089534
999.560390	2544.504760
999.855373	2546.990049
1000.150320	2545.611293
1000.445232	2544.434184
1000.740108	2545.328988
1001.034948	2542.213555
1001.329752	2543.494008
1001.624521	2543.715819
1001.919254	2545.618855
1002.213951	2543.360418
1002.508613	2540.174409
1002.803239	2542.289173
1003.097829	2542.447969
1003.392384	2540.784388
1003.686903	2541.006199
1003.981386	2541.553164
1004.275834	2543.045346
1004.570246	2540.060983
1004.864623	2541.901004
1005.158964	2541.104502
1005.453270	2541.119625
1005.747540	2542.470654
1006.041775	2542.324461
1006.335974	2543.665408
1006.630138	2544.091385
1006.924266	2544.950902
1007.218359	2540.915458
1007.512416	2538.130221
1007.806438	2536.045704
1008.100425	2540.459234
1008.394376	2538.304141
1008.688292	2542.700027
1008.982172	2539.922351
1009.276017	2543.304965
1009.569827	2539.622402
1009.863602	2542.934440
1010.157341	2543.728422
1010.451045	2542.926879
1010.744714	2540.986034
1011.038347	2544.852599
1011.331945	2541.296065
1011.625508	2540.408822
1011.919036	2540.368493
1012.212528	2540.746580
1012.505986	2542.228679
1012.799408	2540.519728
1013.092795	2542.442928
1013.386147	2542.294214
1013.679464	2538.203318
1013.972745	2542.866385
1014.265992	2542.538710
1014.559204	2543.844369
1014.852380	2542.604245
1015.145521	2542.994934
1015.438628	2541.999306
1015.731699	2539.445962
1016.024736	2540.794471
1016.317737	2539.670293
1016.610703	2542.067362
1016.903635	2540.154244
1017.196531	2542.639533
1017.489393	2541.981662
1017.782219	2543.289842
1018.075011	2539.987886
1018.367768	2542.871426
1018.660490	2542.873947
1018.953177	2542.873947
1019.245829	2542.873947
