Dividing Wavelength (nm)	Counts (n)	Blue Motor Position (mm): 35.800000	Red Motor Position (mm): 0.000000	
326.493990	2230.760988
326.888308	2230.760988
327.282561	2230.760988
327.676750	2192.160873
328.070874	2185.950172
328.464933	2187.102076
328.858929	2191.513085
329.252859	2196.226564
329.646726	2206.467668
330.040528	2217.132229
330.434265	2229.967007
330.827938	2250.683628
331.221547	2264.927409
331.615091	2285.485234
332.008571	2301.344704
332.401986	2320.899340
332.795338	2336.907524
333.188625	2359.512058
333.581847	2379.704399
333.975006	2396.385578
334.368100	2418.032292
334.761129	2433.508634
335.154095	2451.732406
335.546996	2476.660911
335.939833	2514.330933
336.332606	2531.853984
336.725315	2546.864020
337.117960	2557.639486
337.510540	2569.387895
337.903056	2579.369380
338.295508	2587.198292
338.687896	2598.992071
339.080220	2606.846189
339.472480	2611.242075
339.864676	2619.277674
340.256807	2624.298663
340.648875	2627.366206
341.040879	2627.842595
341.432818	2630.547174
341.824694	2638.431538
342.216506	2633.992802
342.608253	2634.086064
342.999937	2635.986579
343.391557	2634.380971
343.783113	2635.116980
344.174605	2635.661424
344.566033	2633.471043
344.957397	2633.818882
345.348697	2630.121196
345.739934	2628.518109
346.131106	2626.766308
346.522215	2627.101545
346.913260	2626.363016
347.304241	2621.014352
347.695159	2619.733899
348.086012	2620.908487
348.476802	2616.610904
348.867528	2613.707199
349.258191	2614.667539
349.648789	2609.704523
350.039324	2607.060438
350.429796	2607.320057
350.820203	2610.006992
351.210548	2608.494646
351.600828	2607.798967
351.991045	2605.555653
352.381198	2606.263936
352.771288	2603.521548
353.161314	2603.697988
353.551276	2603.788729
353.941175	2604.799480
354.331010	2604.025663
354.720782	2599.965014
355.110490	2602.324274
355.500135	2602.956939
355.889717	2603.382916
356.279235	2600.557349
356.668689	2604.411312
357.058080	2605.240581
357.447408	2605.119594
357.836672	2603.297217
358.225873	2604.088678
358.615010	2601.701691
359.004084	2602.120107
359.393095	2603.584562
359.782043	2604.252515
360.170927	2607.078082
360.559748	2604.522217
360.948505	2608.456837
361.337199	2609.097064
361.725830	2609.001282
362.114398	2608.494646
362.502903	2609.253340
362.891344	2612.709051
363.279722	2610.972373
363.668037	2606.432814
364.056289	2610.289297
364.444478	2611.630244
364.832603	2609.943978
365.220665	2614.017230
365.608665	2614.465893
365.996601	2614.811212
366.384474	2615.582508
366.772284	2613.704679
367.160031	2613.051849
367.547715	2614.334823
367.935336	2615.683332
368.322893	2614.039915
368.710388	2613.871037
369.097820	2611.962960
369.485189	2612.436828
369.872495	2618.297170
370.259738	2616.699124
370.646918	2620.046450
371.034035	2618.087962
371.421090	2617.525873
371.808081	2618.841614
372.195010	2621.558796
372.581875	2622.075515
372.968678	2619.486882
373.355418	2620.011162
373.742096	2622.627521
374.128710	2621.009311
374.515262	2622.924949
374.901751	2621.311780
375.288177	2624.666668
375.674540	2623.507202
376.060841	2623.953344
376.447079	2621.397479
376.833254	2626.214302
377.219367	2622.302367
377.605417	2623.850001
377.991404	2625.634569
378.377329	2626.395783
378.763191	2623.943262
379.148991	2627.134312
379.534727	2626.216822
379.920402	2625.195989
380.306013	2627.716566
380.691563	2629.155815
381.077049	2627.179683
381.462474	2627.525002
381.847835	2629.264200
382.233134	2630.728655
382.618371	2631.028604
383.003545	2632.414921
383.388657	2633.009777
383.773706	2633.783594
384.158693	2634.544809
384.543618	2632.888790
384.928480	2634.141516
385.313280	2635.061527
385.698017	2636.001702
386.082692	2637.624954
386.467305	2637.667803
386.851856	2641.095788
387.236344	2638.895324
387.620770	2637.871970
388.005133	2636.536064
388.389435	2639.102012
388.773674	2636.142854
389.157851	2642.744245
389.541965	2642.187198
389.926018	2641.725932
390.310008	2642.882877
390.693936	2645.960502
391.077802	2643.349184
391.461606	2644.765748
391.845348	2646.759524
392.229027	2648.544093
392.612645	2646.320944
392.996200	2646.091572
393.379694	2650.648775
393.763125	2650.535349
394.146494	2651.019299
394.529801	2650.295894
394.913047	2650.850421
395.296230	2650.207674
395.679351	2652.398055
396.062410	2652.980308
396.445408	2655.218581
396.828343	2658.759991
397.211217	2657.565238
397.594028	2656.428457
397.976778	2655.488282
398.359466	2657.860145
398.742092	2660.365599
399.124656	2660.471463
399.507158	2663.256700
399.889598	2667.050169
400.271977	2670.815911
400.654294	2673.815397
401.036549	2675.242044
401.418742	2681.412416
401.800874	2692.739889
402.182944	2704.145499
402.564952	2716.418188
402.946898	2730.863615
403.328783	2745.692169
403.710606	2763.253028
404.092367	2800.239974
404.474067	2828.220898
404.855705	2858.475383
405.237282	2892.709859
405.618797	2946.330092
406.000250	2995.660303
406.381642	3067.073288
406.762972	3129.359264
407.144240	3193.313863
407.525447	3256.295518
407.906593	3328.273113
408.287677	3429.557455
408.668700	3485.494098
409.049661	3588.845314
409.430560	3673.534178
409.811399	3708.156823
410.192176	3864.316645
410.572891	3950.094399
410.953545	4111.791929
411.334138	4101.848253
411.714669	4256.495729
412.095139	4262.499744
412.475547	4442.743679
412.855894	4563.096186
413.236180	4741.164863
413.616405	4684.577911
413.996568	4881.984455
414.376670	4984.435824
414.756711	5015.796842
415.136691	5155.759438
415.516609	5353.634808
415.896466	5448.526968
416.276262	5653.160005
416.655997	5726.428135
417.035670	5942.978461
417.415283	6258.985710
417.794834	6375.713627
418.174324	6373.193050
418.553753	6404.163379
418.933121	6731.258646
419.312428	6885.500310
419.691674	6796.138296
420.070859	7245.645382
420.449983	7068.063176
420.829045	7439.510515
421.208047	7329.230233
421.586988	7648.330231
421.965867	7723.551808
422.344686	7888.483238
422.723444	7967.357131
423.102141	7470.127963
423.480777	8192.908437
423.859352	7803.786812
424.237866	8425.782018
424.616319	8343.235644
424.994712	8755.415506
425.373044	8405.942557
425.751314	8863.679326
426.129524	8764.005632
426.507673	8932.281868
426.885762	9106.100853
427.263789	9042.022746
427.641756	8979.514959
428.019662	9106.531872
428.397508	9345.969035
428.775292	9077.915762
429.153016	9461.812230
429.530679	9305.871698
429.908282	9373.032470
430.285824	9094.486034
430.663305	9778.429459
431.040726	9241.168488
431.418086	9241.942305
431.795385	9565.135719
432.172624	9650.179985
432.549802	9576.339684
432.926920	9667.047685
433.303977	9546.392709
433.680974	9758.532025
434.057910	9841.264921
434.434786	9906.537781
434.811601	9765.261965
435.188355	10327.763994
435.565050	10052.406088
435.941683	9983.473351
436.318257	10484.831224
436.694770	10595.073697
437.071222	10672.684781
437.447614	10527.350836
437.823946	10411.031252
438.200218	10572.809441
438.576429	10376.063289
438.952580	10610.691192
439.328670	10673.808958
439.704700	10454.659918
440.080670	10445.641294
440.456580	11018.034066
440.832429	10762.235838
441.208218	10362.913439
441.583947	10701.951200
441.959616	10842.932108
442.335224	10640.963320
442.710773	10790.438573
443.086261	10997.705613
443.461689	10277.080233
443.837057	10921.606876
444.212365	11211.712677
444.587612	10845.614002
444.962800	11085.852709
445.337927	10858.468944
445.712995	10431.752915
446.088002	11526.492405
446.462949	11177.150526
446.837837	11147.727831
447.212664	11149.701443
447.587431	11652.556539
447.962139	12364.271680
448.336786	14626.567607
448.711374	15189.137691
449.085901	13046.405331
449.460369	12649.709373
449.834776	12102.759304
450.209124	12967.780975
450.583412	13369.129918
450.957640	14321.887830
451.331808	13477.272750
451.705917	12459.642749
452.079965	11778.305601
452.453954	12677.503775
452.827883	12296.994962
453.201752	12593.457658
453.575562	12104.853903
453.949311	12529.745035
454.323001	12483.729382
454.696632	12715.055330
455.070202	13001.856654
455.443713	13240.978746
455.817164	13700.913458
456.190556	13690.485831
456.563888	14063.410228
456.937160	14233.334922
457.310373	13563.174012
457.683526	13647.472186
458.056619	13202.209752
458.429653	13343.750229
458.802628	12786.375054
459.175542	13149.091114
459.548398	14105.776085
459.921194	14434.509728
460.293930	14498.330735
460.666607	15392.749895
461.039224	16432.351764
461.411782	17122.629399
461.784280	16997.328999
462.156719	17065.172848
462.529099	16746.211482
462.901419	15668.460681
463.273680	15468.536081
463.645882	15322.675336
464.018024	15059.574996
464.390106	15280.405261
464.762130	16006.926271
465.134094	16767.341478
465.505999	18750.594416
465.877845	22016.233713
466.249631	24859.666293
466.621358	24545.557038
466.993026	23114.191979
467.364634	22549.620557
467.736184	21078.349725
468.107674	20280.103178
468.479105	20401.589945
468.850477	19878.996211
469.221790	19453.870666
469.593043	18780.712790
469.964238	18220.922902
470.335373	17879.737610
470.706449	18319.578283
471.077467	17871.923821
471.448425	19704.758810
471.819324	23735.436053
472.190164	25767.076506
472.560945	22217.544630
472.931667	19832.998202
473.302330	19195.322488
473.672934	18719.412359
474.043479	19050.338903
474.413965	18846.456997
474.784393	18479.246748
475.154761	19173.716102
475.525070	19167.155041
475.895321	18835.648764
476.265513	19417.498741
476.635645	20002.784264
477.005719	19778.097516
477.375734	19972.313009
477.745691	20464.957248
478.115588	20975.830300
478.485427	21494.156697
478.855207	22564.991035
479.224928	24332.056611
479.594591	26554.718986
479.964194	26583.113285
480.333739	26801.561604
480.703226	26364.279317
481.072653	26033.264552
481.442022	26616.208460
481.811333	27523.969033
482.180584	27442.786291
482.549777	26499.241087
482.918912	26145.031974
483.287988	26287.338706
483.657005	25945.523270
484.025964	25681.621386
484.394864	25607.612207
484.763706	25285.270748
485.132489	24722.125972
485.501213	24900.764300
485.869879	24819.188348
486.238487	24626.817917
486.607036	24781.288953
486.975527	24474.060873
487.343959	24786.257011
487.712333	24738.484516
488.080648	24390.120621
488.448905	24874.232707
488.817104	24631.410408
489.185244	25304.313706
489.553326	25276.526866
489.921350	26269.177949
490.289315	28560.899091
490.657222	30350.228922
491.025070	30849.199809
491.392861	30632.490688
491.760593	29774.019996
492.128267	28869.712614
492.495883	27825.472883
492.863440	26952.808823
493.230939	26071.050521
493.598380	25913.968167
493.965763	25521.176583
494.333088	25069.562295
494.700354	25008.841597
495.067563	24871.379414
495.434713	24623.745334
495.801805	24777.039261
496.168839	24593.722742
496.535815	24413.478807
496.902733	24646.352388
497.269593	24315.128416
497.636395	24491.533513
498.003139	24460.548061
498.369825	24203.759245
498.736453	24404.339195
499.103023	24275.941007
499.469535	24293.728718
499.835989	24501.227652
500.202385	24541.508991
500.568723	24043.518609
500.935003	24272.490337
501.301226	23896.601742
501.667390	24748.682770
502.033497	24976.946217
502.399546	24695.178484
502.765537	24267.819708
503.131470	24650.029910
503.497345	24781.341886
503.863163	24010.325131
504.228923	24608.175730
504.594625	24803.359125
504.960269	24331.441590
505.325856	24830.213352
505.691385	24227.142637
506.056856	24842.218859
506.422270	24812.896988
506.787625	24387.088367
507.152924	24786.864470
507.518164	24825.933412
507.883347	24634.735049
508.248472	24313.076667
508.613540	25101.293838
508.978550	24883.347113
509.343503	24890.422373
509.708398	25143.160621
510.073236	25286.861232
510.438016	25502.630178
510.802738	25174.531721
511.167403	25435.008140
511.532010	25135.354394
511.896561	25926.949138
512.261053	25875.166406
512.625488	25707.663987
512.989866	25597.703819
513.354186	25450.915501
513.718449	25560.890793
514.082655	25937.797701
514.446803	25672.060838
514.810894	26135.952856
515.174927	25625.437727
515.538904	25657.325545
515.902822	26147.507181
516.266684	25901.508955
516.630488	25808.844986
516.994235	25782.192406
517.357925	26082.040236
517.721558	26259.713183
518.085133	26363.485335
518.448651	26267.511848
518.812112	26020.807861
519.175516	26210.423301
519.538863	26369.456582
519.902152	26152.780228
520.265385	26435.725070
520.628560	26225.945014
520.991678	26249.149445
521.354739	26296.606867
521.717743	26374.011264
522.080690	26174.303434
522.443580	26493.461405
522.806413	26482.746432
523.169189	26587.932628
523.531908	26625.045602
523.894569	26241.514618
524.257174	26313.283004
524.619722	26487.596022
524.982213	26184.163931
525.344647	26239.041932
525.707025	26384.091051
526.069345	26365.408535
526.431608	26317.537738
526.793815	26493.784038
527.155964	25973.337836
527.518057	26148.074311
527.880093	26057.668778
528.242072	26287.805013
528.603995	26002.891600
528.965860	25797.930888
529.327669	25854.774939
529.689421	25819.249928
530.051117	25674.546127
530.412755	25841.758679
530.774337	25641.660160
531.135862	25511.558061
531.497331	25722.739558
531.858743	25278.606342
532.220098	25753.770380
532.581396	25434.680465
532.942638	25365.767892
533.303824	25466.966535
533.664953	25476.272505
534.026025	25129.284845
534.387040	25370.045311
534.747999	25435.471926
535.108902	25598.591062
535.469748	25075.163017
535.830537	25262.885504
536.191270	25399.178139
536.551947	25259.767550
536.912567	24888.955397
537.273131	25269.635609
537.633638	24955.659944
537.994089	25183.162176
538.354483	24701.018661
538.714821	25207.518511
539.075103	25249.221456
539.435328	25025.782394
539.795497	24599.101653
540.155609	24985.238915
540.515665	25288.149246
540.875665	24517.601319
541.235609	24829.585728
541.595496	24780.958758
541.955328	25140.055270
542.315102	25056.702312
542.674821	24589.339459
543.034483	24464.109636
543.394090	24642.511029
543.753640	24445.908550
544.113134	25068.478447
544.472571	24659.719008
544.831953	24960.519617
545.191278	24584.915847
545.550548	24499.780840
545.909761	24701.855492
546.268918	24929.730770
546.628019	24905.641616
546.987064	24596.409677
547.346053	24345.317366
547.704986	24462.607372
548.063863	24622.253152
548.422684	24638.417612
548.781449	24153.105732
549.140158	24575.924949
549.498811	24143.895543
549.857408	23888.694692
550.215949	24314.788138
550.574434	23994.581608
550.932864	24208.152611
551.291237	24375.914649
551.649555	24230.305962
552.007817	24286.192193
552.366022	24150.053313
552.724173	24184.754095
553.082267	24134.796261
553.440305	24610.396359
553.798288	23857.585731
554.156215	24378.364650
554.514086	24487.119983
554.871902	23854.089691
555.229661	24131.224603
555.587365	23990.273942
555.945014	23861.417008
556.302606	24105.020686
556.660143	24071.428957
557.017625	24307.092817
557.375050	23835.361805
557.732421	24229.239757
558.089735	24048.718559
558.446994	24101.146559
558.804197	24126.458192
559.161345	24065.684562
559.518437	23830.280322
559.875474	24016.719835
560.232455	24199.844789
560.589381	24026.633264
560.946251	24015.174721
561.303065	24321.278624
561.659825	24421.358131
562.016528	24012.659185
562.373177	23752.349124
562.729770	24122.725218
563.086307	23971.183092
563.442789	24141.203567
563.799216	23966.842659
564.155587	23976.700635
564.511904	23964.861485
564.868164	23903.883688
565.224370	23869.205591
565.580520	23783.536223
565.936615	23925.200207
566.292654	23611.302681
566.648638	23902.845211
567.004567	23727.594538
567.360441	23671.867103
567.716260	23401.951123
568.072023	23729.941195
568.427732	23491.746676
568.783385	23268.219394
569.138982	23510.048585
569.494525	23542.246435
569.850013	23297.783241
570.205445	23392.239340
570.560823	23186.600593
570.916145	22950.309109
571.271412	23130.658908
571.626625	22891.617475
571.981782	23009.714066
572.336884	22813.129231
572.691931	22950.442700
573.046923	22675.273837
573.401860	22552.675497
573.756743	22564.313000
574.111570	22471.228094
574.466342	22401.244276
574.821059	22482.444662
575.175722	22186.425587
575.530330	22165.837515
575.884882	22187.058252
576.239380	22102.137495
576.593823	21993.752687
576.948211	21969.648410
577.302544	21827.291267
577.656823	21682.610151
578.011047	21781.326026
578.365216	21655.987818
578.719330	21532.035927
579.073389	21422.842014
579.427394	21571.606464
579.781344	21328.960606
580.135239	21217.871219
580.489080	21195.117972
580.842866	20953.016558
581.196597	21153.430150
581.550273	21131.843929
581.903895	21003.503714
582.257463	21327.438178
582.610975	20860.667661
582.964434	21169.647542
583.317837	20859.619101
583.671186	20948.882812
584.024481	20936.607602
584.377721	20707.461954
584.730906	20762.420613
585.084037	20782.118922
585.437113	20694.201199
585.790135	20892.678988
586.143103	20357.772235
586.496016	20378.743435
586.848874	20616.663212
587.201679	20532.254132
587.554428	20213.582632
587.907124	20545.829959
588.259765	20313.924279
588.612352	20402.668752
588.964884	19968.469130
589.317362	20133.050200
589.669786	20190.889878
590.022155	20223.730475
590.374470	20427.932494
590.726731	20206.409071
591.078937	19980.910697
591.431090	20073.320088
591.783188	19839.226548
592.135232	19795.638211
592.487222	19895.337111
592.839157	19912.242620
593.191038	19794.400608
593.542866	19684.495892
593.894639	19391.168794
594.246358	19616.982239
594.598022	19513.789820
594.949633	19275.005486
595.301190	19245.328213
595.652692	19421.589637
596.004141	19643.402927
596.355535	18967.842941
596.706876	18987.034614
597.058162	18882.052585
597.409395	19105.010217
597.760573	19168.390123
598.111698	18945.482903
598.462768	18889.518534
598.813785	18854.164922
599.164748	18667.349843
599.515657	18706.728816
599.866511	18495.746445
600.217312	18861.310757
600.568060	18383.444661
600.918753	18686.546556
601.269392	18594.633719
601.619978	18387.422131
601.970510	18582.242563
602.320988	18529.383544
602.671412	18742.979753
603.021783	18655.545981
603.372100	18377.659937
603.722363	18515.694291
604.072572	18452.674827
604.422728	18609.084186
604.772830	18366.203915
605.122878	18323.633891
605.472872	18299.887536
605.822813	18289.399415
606.172701	18264.607021
606.522534	18458.159602
606.872314	18486.039703
607.222041	18310.163928
607.571714	18534.838072
607.921333	18353.764867
608.270899	18432.293442
608.620411	18600.494060
608.969870	18384.740237
609.319276	18367.902783
609.668627	18412.338034
610.017926	18538.437456
610.367171	18657.355755
610.716362	18712.752995
611.065500	18513.753447
611.414585	18660.425818
611.763616	18652.591865
612.112594	18567.794616
612.461518	18545.295946
612.810389	18726.432166
613.159207	18600.494060
613.507971	18507.061315
613.856682	18783.495507
614.205340	18708.205874
614.553945	18866.982055
614.902496	18593.539788
615.250994	18826.378082
615.599439	18773.947561
615.947830	18763.519934
616.296169	18822.937494
616.644454	18775.326317
616.992686	18754.760930
617.340864	18965.899576
617.688990	18712.689980
618.037063	18887.595333
618.385082	18738.843486
618.733048	19025.100366
619.080961	18892.389471
619.428821	18931.856664
619.776628	18817.029262
620.124382	18750.430578
620.472083	18777.443601
620.819731	18807.619948
621.167326	18503.159462
621.514868	18538.175316
621.862357	18306.176375
622.209793	18320.810845
622.557176	18152.973189
622.904506	17970.617011
623.251783	17882.681643
623.599007	17643.274727
623.946179	17581.792814
624.293297	17536.624076
624.640363	17283.200231
624.987376	17303.609342
625.334336	17092.455572
625.681243	16935.166531
626.028097	16957.808874
626.374899	16878.937501
626.721647	16740.250318
627.068343	16568.898978
627.414987	16512.911923
627.761577	16484.678941
628.108115	16516.450813
628.454600	16246.688589
628.801032	16339.924729
629.147412	16267.203564
629.493739	16289.026719
629.840014	16093.858448
630.186236	16186.875298
630.532405	15958.241327
630.878521	16157.813046
631.224585	16049.297169
631.570597	15874.653955
631.916556	15903.859880
632.262462	15880.531941
632.608316	15793.085566
632.954117	15734.315794
633.299866	15726.260030
633.645562	15638.463295
633.991206	15392.548248
634.336797	15279.979283
634.682336	15246.490898
635.027823	15124.618483
635.373257	15005.342263
635.718639	14917.570733
636.063968	14860.620818
636.409245	14606.453403
636.754470	14640.919772
637.099642	14483.716430
637.444762	14251.591460
637.789829	14294.547132
638.134845	14137.507628
638.479808	14163.986289
638.824719	14100.808028
639.169577	13958.304691
639.514383	14005.237833
639.859137	13832.520341
640.203839	13908.319130
640.548489	13751.249379
640.893086	13734.570722
641.237632	13614.664357
641.582125	13767.338222
641.926566	13587.510182
642.270955	13605.940640
642.615292	13562.652252
642.959576	13574.425867
643.303809	13602.797481
643.647990	13536.292059
643.992118	13598.454527
644.336195	13366.405174
644.680219	13581.652361
645.024192	13499.761337
645.368112	13740.466351
645.711981	13790.668682
646.055797	13971.779695
646.399562	13944.650726
646.743274	14219.280185
647.086935	14492.457791
647.430544	14451.422799
647.774101	14487.260361
648.117606	14641.486902
648.461059	14608.517755
648.804460	14600.862763
649.147810	14317.035719
649.491108	14224.099528
649.834354	14236.841044
650.177548	13925.164146
650.520690	13740.040374
650.863781	13660.138085
651.206820	13704.336402
651.549807	13536.150906
651.892742	13335.941481
652.235626	13267.701902
652.578458	13273.622738
652.921238	12961.943319
653.263967	13163.067713
653.606644	12983.698418
653.949269	12975.251965
654.291843	12769.280501
654.634365	12924.517793
654.976836	12776.708641
655.319255	12781.807768
655.661622	12735.761869
656.003938	12659.332936
656.346203	12579.700349
656.688416	12664.449707
657.030577	12623.573511
657.372687	12530.231506
657.714746	12509.570337
658.056753	12701.053525
658.398708	12515.839012
658.740612	12518.999815
659.082465	12619.913633
659.424266	12579.811254
659.766016	12615.573200
660.107715	12525.427287
660.449362	12600.742125
660.790958	12554.635732
661.132503	12492.037204
661.473996	12565.474213
661.815438	12576.385790
662.156829	12604.833021
662.498168	12573.532497
662.839456	12583.672778
663.180693	12595.832041
663.521879	12695.246116
663.863013	12668.039008
664.204097	12638.515491
664.545129	12766.896035
664.886110	12733.349677
665.227040	12822.048779
665.567918	12835.828773
665.908746	12855.310312
666.249522	12852.247811
666.590248	12897.174574
666.930922	12999.089061
667.271545	12983.048109
667.612118	13067.679000
667.952639	12970.460348
668.293109	12991.582783
668.633528	12948.014611
668.973896	12920.683995
669.314213	12994.892300
669.654480	12735.522414
669.994695	12805.390286
670.334859	12832.168895
670.674973	12778.833487
671.015035	12806.849700
671.355047	12752.826175
671.695008	12719.310063
672.034918	12729.215931
672.374777	12770.923917
672.714585	12685.337728
673.054342	12721.427348
673.394049	12670.143690
673.733705	12772.406016
674.073310	12678.738857
674.412864	12690.298223
674.752368	12550.459136
675.091820	12576.486613
675.431223	12563.417422
675.770574	12421.413159
676.109875	12348.878517
676.449125	12307.301601
676.788324	12249.981161
677.127473	12084.621232
677.466571	12078.365161
677.805619	11969.065383
678.144616	11895.189794
678.483562	11872.529808
678.822458	11735.725495
679.161303	11712.826054
679.500098	11697.654702
679.838842	11654.683906
680.177535	11679.098214
680.516179	11742.092473
680.854771	11687.257322
681.193314	11902.746484
681.531805	12066.894015
681.870247	12499.409892
682.208638	12910.188313
682.546978	13210.048746
682.885268	13251.842432
683.223508	12952.067698
683.561697	12785.550825
683.899836	12696.639995
684.237925	12491.069303
684.575963	12414.753795
684.913951	12331.839417
685.251889	12281.427879
685.589776	12375.422713
685.927614	12299.845734
686.265401	12268.177206
686.603137	12316.607571
686.940824	12466.957464
687.278460	12596.235333
687.616046	12640.080769
687.953582	12810.197026
688.291068	12736.331519
688.628504	12968.194349
688.965889	12975.052839
689.303224	12940.815843
689.640510	12829.834841
689.977745	12520.645752
690.314930	12300.143162
690.652065	12198.601721
690.989150	11913.398442
691.326185	11685.485356
691.663170	11477.411731
692.000105	11235.839639
692.336990	11122.123811
692.673825	10866.121416
693.010610	10747.699671
693.347345	10539.149657
693.684030	10344.122538
694.020665	10281.473598
694.357251	10085.571839
694.693786	10023.558085
695.030272	9858.871151
695.366707	9745.692206
695.703093	9679.552267
696.039429	9672.265280
696.375716	9593.865255
696.711952	9466.182910
697.048139	9512.218727
697.384276	9455.679666
697.720363	9474.205907
698.056400	9405.074043
698.392388	9360.827836
698.728326	9322.136980
699.064214	9263.520964
699.400053	9305.155854
699.735842	9113.128221
700.071581	9078.326616
700.407270	9005.229885
700.742910	8929.330273
701.078501	8836.646139
701.414042	8711.547385
701.749533	8645.462900
702.084974	8502.397474
702.420366	8614.749670
702.755709	8495.831371
703.091002	8361.537553
703.426246	8396.936536
703.761440	8345.809153
704.096584	8300.761403
704.431679	8233.373778
704.766725	8217.612611
705.101721	8170.457658
705.436668	8216.596818
705.771565	8115.337682
706.106413	8188.469701
706.441212	8226.701811
706.775961	8189.276285
707.110661	8228.249446
707.445311	8374.841158
707.779913	8270.075899
708.114465	8398.343018
708.448967	8433.389119
708.783421	8583.678518
709.117825	8765.044110
709.452180	8793.400600
709.786485	8880.509218
710.120742	9171.905555
710.454949	9168.719545
710.789107	9269.139330
711.123216	9485.931631
711.457275	9653.854986
711.791286	9807.632863
712.125247	9813.397423
712.459159	9794.609042
712.793023	10044.408298
713.126837	9614.705385
713.460602	9770.532492
713.794318	9596.736192
714.127985	9633.483683
714.461602	9290.912073
714.795171	9244.684693
715.128691	8997.350562
715.462162	8749.698838
715.795584	8697.396867
716.128957	8538.376189
716.462281	8380.487251
716.795556	8430.445085
717.128782	8218.323414
717.461960	7956.206099
717.795088	8026.852829
718.128167	7936.114580
718.461198	7764.307016
718.794180	7708.322482
719.127113	7697.179011
719.459997	7536.961060
719.792833	7310.288098
720.125619	7376.606997
720.458357	7233.249185
720.791046	7219.194448
721.123686	7216.293264
721.456278	7051.550877
721.788821	7077.240597
722.121315	6974.085986
722.453761	7038.060749
722.786158	6979.643858
723.118506	6990.351269
723.450805	6957.490508
723.783056	7024.668924
724.115259	6935.707682
724.447412	6931.042094
724.779518	6977.871893
725.111574	6982.640824
725.443582	7063.997485
725.775542	7046.441667
726.107453	7235.769762
726.439315	7138.641850
726.771129	7209.671708
727.102895	7383.082359
727.434612	7487.303174
727.766281	7524.206941
728.097901	7599.670493
728.429473	7590.490552
728.760996	7572.418015
729.092471	7547.136629
729.423897	7496.770461
729.755276	7503.288673
730.086606	7430.368382
730.417887	7530.508383
730.749120	7735.874908
731.080305	7931.743900
731.411442	8043.965026
731.742530	8034.351545
732.073570	8146.872620
732.404562	8230.268428
732.735506	8081.035150
733.066401	8228.362872
733.397249	8148.458063
733.728048	7902.986638
734.058798	7575.314158
734.389501	7338.997469
734.720156	7164.119842
735.050762	6938.903773
735.381320	6845.191244
735.711831	6788.947090
736.042293	6682.792993
736.372707	6691.325146
736.703073	6557.210289
737.033391	6600.135714
737.363661	6611.347240
737.693883	6648.109855
738.024056	6726.827472
738.354182	6766.148472
738.684260	6802.497712
739.014290	6921.302585
739.344272	7029.568925
739.674207	7061.302989
740.004093	7126.394367
740.333931	7141.283415
740.663722	7150.601988
740.993464	7232.871098
741.323159	7212.376287
741.652806	6959.955632
741.982405	6982.482028
742.311956	7033.085130
742.641460	6872.584874
742.970915	6679.765780
743.300323	6665.660632
743.629683	6618.359485
743.958996	6478.714483
744.288260	6394.025619
744.617477	6344.075346
744.946647	6341.844635
745.275768	6176.081414
745.604842	6130.791688
745.933869	6118.450944
746.262847	6070.741464
746.591778	6056.094391
746.920662	6016.412949
747.249498	6010.489593
747.578286	6063.900618
747.907027	6136.909128
748.235720	6195.394075
748.564365	6169.467421
748.892963	6196.278797
749.221514	6345.809503
749.550017	6175.249624
749.878473	6060.205452
750.206881	6114.113031
750.535242	6054.692950
750.863555	5986.218958
751.191821	6004.961968
751.520039	6004.404920
751.848210	5906.175517
752.176334	5936.329179
752.504411	5980.673688
752.832440	5905.114354
753.160421	5835.760680
753.488356	5884.211210
753.816243	5912.499644
754.144082	5763.435246
754.471875	5738.955403
754.799620	5778.611639
755.127318	5790.382734
755.454969	5748.140385
755.782572	5713.789963
756.110129	5757.123721
756.437638	5735.444239
756.765100	5681.289644
757.092515	5684.508421
757.419882	5737.064970
757.747203	5711.055137
758.074477	5775.027379
758.401703	5759.251088
758.728882	5708.111103
759.056014	5774.485455
759.383099	5900.053036
759.710138	5911.214150
760.037129	5896.201594
760.364073	5902.860958
760.690970	5982.256611
761.017820	5961.713909
761.344623	5918.238998
761.671379	6018.794894
761.998088	6144.102855
762.324751	6391.590741
762.651366	7012.809609
762.977935	8351.379628
763.304456	9986.976953
763.630931	10870.691222
763.957359	10447.433424
764.283740	9504.825875
764.610074	8649.886512
764.936362	7650.452556
765.262602	7056.486166
765.588796	6519.920874
765.914943	6183.202044
766.241044	6023.339494
766.567097	5814.061033
766.893104	5557.952774
767.219064	5378.833016
767.544978	5316.446217
767.870845	5240.206326
768.196665	5132.708762
768.522438	5062.929110
768.848165	5031.247979
769.173846	4961.453204
769.499479	4921.297893
769.825066	4867.027351
770.150607	4807.443433
770.476101	4781.116007
770.801548	4778.144247
771.126949	4698.035271
771.452303	4643.139627
771.777611	4602.785190
772.102872	4621.450062
772.428087	4584.160647
772.753256	4544.582548
773.078378	4494.539014
773.403453	4427.945372
773.728482	4413.144544
774.053465	4367.020507
774.378401	4354.765462
774.703291	4357.298642
775.028135	4283.491108
775.352932	4232.330958
775.677683	4220.083475
776.002388	4239.375971
776.327046	4251.454576
776.651658	4172.542874
776.976224	4112.608596
777.300743	4118.564719
777.625216	4143.331908
777.949643	4133.985609
778.274024	4091.143363
778.598359	4046.357752
778.922647	4073.325404
779.246889	4063.724527
779.571086	4058.186819
779.895236	4037.054302
780.219339	4028.426368
780.543397	4019.196015
780.867409	4074.547884
781.191374	4086.608845
781.515294	4024.214484
781.839167	4013.439017
782.162995	4037.729817
782.486776	4023.581819
782.810511	4038.790980
783.134201	4030.039537
783.457844	3984.318792
783.781441	3928.997170
784.104993	3934.154270
784.428498	3953.066159
784.751958	3950.023822
785.075372	3930.872479
785.398739	3892.111047
785.722061	3905.717121
786.045337	3952.118422
786.368568	3979.713698
786.691752	3887.629461
787.014891	3944.319757
787.337983	4076.145930
787.661030	4234.481011
787.984031	4393.146287
788.306987	4565.770518
788.629897	4648.959639
788.952760	4601.731589
789.275579	4536.176424
789.598351	4470.170076
789.921078	4320.596521
790.243759	4123.026140
790.566395	4110.962659
790.888984	4101.339096
791.211529	3994.098631
791.534027	3935.036472
791.856480	3924.629010
792.178888	3860.636603
792.501249	3813.534582
792.823566	3822.873320
793.145836	3848.283256
793.468062	3802.736431
793.790241	3755.125253
794.112375	3782.927217
794.434464	3849.979604
794.756507	3872.740413
795.078505	3854.161241
795.400457	3890.134915
795.722364	4030.805792
796.044226	4135.150115
796.366042	4203.911454
796.687812	4182.680634
797.009538	4187.116850
797.331218	4149.991272
797.652852	4122.695945
797.974442	4102.932101
798.295986	4101.563428
798.617484	4017.456817
798.938938	3932.772994
799.260346	3975.174139
799.581709	3968.340855
799.903026	3894.160276
800.224299	3858.637786
800.545526	3852.984132
800.866708	3812.307061
801.187845	3754.069131
801.508936	3787.532311
801.829983	3781.203142
802.150984	3702.039382
802.471940	3699.120554
802.792851	3708.681103
803.113717	3707.259497
803.434538	3706.987275
803.755314	3648.998882
804.076045	3624.960140
804.396731	3647.864623
804.717372	3668.951769
805.037967	3654.652536
805.358518	3645.402019
805.679024	3672.581400
805.999485	3686.021116
806.319901	3690.747198
806.640272	3703.463508
806.960598	3715.448852
807.280879	3691.026982
807.601115	3706.019373
807.921306	3724.021334
808.241453	3761.774535
808.561554	3737.302254
808.881611	3669.944877
809.201623	3711.781412
809.521590	3722.191395
809.841513	3690.739636
810.161390	3724.522929
810.481223	3698.883620
810.801011	3645.701968
811.120755	3637.457161
811.440453	3676.392512
811.760107	3674.804549
812.079716	3630.013897
812.399281	3603.237808
812.718801	3625.068525
813.038276	3598.075667
813.357707	3595.083742
813.677093	3613.957822
813.996434	3559.924214
814.315731	3568.363106
814.634983	3575.186308
814.954191	3588.401692
815.273354	3616.105353
815.592473	3611.727111
815.911547	3618.958647
816.230577	3660.880882
816.549562	3708.608006
816.868502	3756.430912
817.187399	3777.172739
817.506250	3772.010598
817.825058	3750.502515
818.143821	3846.017257
818.462539	3943.566104
818.781213	3989.417919
819.099843	4048.880849
819.418429	4303.615394
819.736970	4544.307805
820.055466	4793.479437
820.373919	5163.338813
820.692327	5575.949693
821.010691	6033.983890
821.329011	7456.615150
821.647286	10262.896947
821.965517	14891.392021
822.283704	18913.055681
822.601847	21004.065802
822.919945	19136.393920
823.237999	16524.635127
823.556010	14028.694322
823.873976	11913.713514
824.191897	9813.556219
824.509775	8463.734345
824.827609	7334.914134
825.145398	6797.625437
825.463144	6684.615370
825.780845	6798.121990
826.098502	7003.627147
826.416116	7903.556288
826.733685	9249.312472
827.051210	10352.821049
827.368692	10350.567653
827.686129	9067.447806
828.003522	7554.529481
828.320872	6536.355036
828.638177	5834.878478
828.955439	5268.645996
829.272656	4769.859111
829.589830	4491.640351
829.906960	4315.220131
830.224046	4126.822129
830.541088	4003.727234
830.858086	3953.895429
831.175041	3880.405488
831.491952	3864.790514
831.808819	3877.116135
832.125642	3952.814101
832.442421	4099.970423
832.759157	4383.666397
833.075849	4947.877377
833.392497	5818.812321
833.709101	6599.364418
834.025662	6925.726197
834.342179	6539.964502
834.658653	5875.414396
834.975083	5221.518769
835.291469	4638.310201
835.607811	4237.745158
835.924110	4096.630659
836.240366	3897.679002
836.556578	3690.122095
836.872746	3580.108994
837.188871	3541.256822
837.504952	3477.433293
837.820990	3392.958678
838.136984	3346.484281
838.452935	3370.664176
838.768842	3369.373640
839.084706	3392.351219
839.400526	3558.197619
839.716303	3902.458015
840.032037	4436.916105
840.347727	4688.797357
840.663373	4391.263416
840.978977	4011.374665
841.294537	3705.424517
841.610054	3476.067141
841.925527	3371.448075
842.240957	3299.571303
842.556344	3248.030547
842.871687	3187.829087
843.186987	3137.795635
843.502244	3097.902464
843.817458	3066.523802
844.132629	3035.664379
844.447756	3044.975390
844.762840	3026.676002
845.077881	2995.340189
845.392879	2980.645226
845.707833	2975.770430
846.022745	2974.076603
846.337613	2972.851602
846.652438	2965.678040
846.967221	2959.195116
847.281960	2945.576439
847.596656	2943.176850
847.911309	2942.216510
848.225919	2936.346087
848.540485	2929.842998
848.855009	2930.848708
849.169490	2920.713468
849.483928	2909.345667
849.798323	2909.754000
850.112675	2907.586304
850.426984	2919.334713
850.741251	2917.381266
851.055474	2905.017836
851.369654	2901.552043
851.683792	2904.397774
851.997887	2916.816657
852.311938	2914.280956
852.625947	2905.479102
852.939914	2908.730646
853.253837	2912.133425
853.567718	2900.760582
853.881555	2897.640107
854.195350	2913.275246
854.509103	2906.383989
854.822812	2900.906775
855.136479	2895.588358
855.450103	2898.557597
855.763685	2893.208933
856.077224	2889.700290
856.390720	2899.948956
856.704173	2908.894483
857.017584	2905.050603
857.330953	2898.988616
857.644278	2909.234761
857.957561	2920.872265
858.270802	2922.863521
858.584000	2922.893768
858.897155	2909.176788
859.210268	2908.019843
859.523339	2905.027918
859.836367	2903.190418
860.149352	2898.981054
860.462295	2892.971999
860.775195	2902.207393
861.088054	2906.822569
861.400869	2885.533776
861.713642	2882.708210
862.026373	2898.202196
862.339062	2901.095818
862.651708	2906.169740
862.964312	2908.503794
863.276873	2901.098339
863.589392	2911.989752
863.901869	2926.944335
864.214303	2947.056018
864.526696	2965.284830
864.839045	2957.466001
865.151353	2959.575723
865.463619	2956.830815
865.775842	2958.869962
866.088023	2977.539875
866.400162	2982.240751
866.712258	2952.838221
867.024313	2943.973352
867.336325	2953.130608
867.648296	2973.050728
867.960224	2966.010756
868.272110	2948.840586
868.583954	2957.110599
868.895755	2972.455872
869.207515	2956.535908
869.519233	2964.516054
869.830909	2974.338743
870.142542	2981.204794
870.454134	2982.344095
870.765684	2982.976760
871.077191	2983.337202
871.388657	2996.915550
871.700081	3007.433918
872.011463	3017.450690
872.322803	3018.466483
872.634101	3018.559744
872.945357	3035.266128
873.256571	3060.708831
873.567744	3053.328582
873.878874	3048.942778
874.189963	3072.278279
874.501010	3071.587641
874.812015	3062.170766
875.122979	3060.595405
875.433900	3058.810837
875.744780	3063.184038
876.055618	3074.990420
876.366415	3067.310222
876.677169	3079.658529
876.987882	3074.975297
877.298554	3072.253074
877.609183	3093.254521
877.919771	3116.219497
878.230317	3142.899804
878.540822	3199.012887
878.851285	3237.247518
879.161707	3278.166564
879.472087	3385.785117
879.782425	3620.470993
880.092722	4068.213674
880.402977	4602.976754
880.713191	5243.596502
881.023363	6429.275887
881.333494	7720.164152
881.643583	8249.641582
881.953631	7940.147503
882.263637	7296.820655
882.573602	6699.527103
882.883526	6116.192507
883.193408	5537.158014
883.503248	5078.962500
883.813048	4773.055202
884.122806	4460.969971
884.432522	4146.207886
884.742197	3907.204262
885.051831	3713.097153
885.361424	3580.545054
885.670975	3507.211389
885.980485	3419.023964
886.289954	3341.450689
886.599382	3295.679533
886.908768	3259.824326
887.218113	3215.555433
887.527417	3153.282060
887.836680	3105.035697
888.145901	3100.894389
888.455082	3086.774117
888.764221	3040.070348
889.073319	3009.349556
889.382376	3006.549195
889.691392	3012.326357
890.000366	3008.991634
890.309300	2996.492093
890.618193	3012.631347
890.927044	3025.274561
891.235855	3023.936135
891.544625	3014.012623
891.853353	3024.326824
892.162041	3046.308775
892.470687	3085.879313
892.779293	3137.687251
893.087858	3184.605269
893.396381	3257.956578
893.704864	3379.660115
894.013306	3628.841829
894.321707	3933.350206
894.630068	4135.934015
894.938387	4127.353971
895.246665	4081.454265
895.554903	3956.650419
895.863100	3757.502157
896.171256	3587.895057
896.479371	3446.659570
896.787446	3320.976043
897.095480	3221.090620
897.403473	3152.422543
897.711425	3120.151597
898.019336	3109.287910
898.327207	3079.207345
898.635038	3046.928837
898.942827	3027.202802
899.250576	3015.794671
899.558284	2986.833242
899.865952	2966.368678
900.173579	2944.041408
900.481165	2940.663835
900.788711	2922.729930
901.096216	2900.886610
901.403681	2887.835063
901.711105	2898.086249
902.018489	2894.055847
902.325832	2894.766650
902.633135	2905.068248
902.940397	2941.049483
903.247619	3026.192051
903.554800	3222.071125
903.861941	3577.192687
904.169041	4012.178729
904.476101	4307.242505
904.783121	4248.618927
905.090100	4000.667254
905.397039	3722.171230
905.703938	3470.174032
906.010796	3289.171403
906.317614	3175.095133
906.624391	3078.725915
906.931129	3007.685975
907.237826	2944.863116
907.544483	2900.470715
907.851099	2868.570294
908.157675	2845.441480
908.464211	2824.616473
908.770707	2813.765390
909.077163	2799.171249
909.383578	2781.839762
909.689954	2771.943977
909.996289	2772.566560
910.302584	2773.335336
910.608839	2770.608072
910.915054	2767.011208
911.221229	2758.794127
911.527363	2762.390991
911.833458	2767.248142
912.139513	2774.484719
912.445527	2777.806839
912.751502	2786.802778
913.057436	2795.188738
913.363331	2809.634164
913.669186	2831.235508
913.975000	2867.294882
914.280775	2929.671599
914.586510	3000.595592
914.892205	3082.040474
915.197859	3213.055021
915.503475	3411.295876
915.809050	3627.485758
916.114585	3773.613685
916.420081	3790.070532
916.725536	3729.150708
917.030952	3608.715022
917.336328	3475.200062
917.641665	3340.762572
917.946961	3244.065679
918.252218	3172.539268
918.557435	3091.719489
918.862612	3032.523740
919.167750	2981.983652
919.472848	2942.642488
919.777906	2916.297418
920.082925	2890.096021
920.387904	2857.331041
920.692843	2843.263701
920.997743	2831.830364
921.302603	2816.812767
921.607423	2806.186015
921.912204	2793.928449
922.216946	2782.563168
922.521647	2772.969852
922.826310	2767.338883
923.130932	2762.378388
923.435516	2750.680390
923.740059	2744.401633
924.044564	2735.914851
924.349028	2727.362533
924.653454	2722.810371
924.957840	2717.005483
925.262186	2714.197560
925.566493	2707.870912
925.870761	2704.584080
926.174989	2700.828420
926.479178	2692.744930
926.783328	2689.826102
927.087438	2688.356605
927.391509	2687.739064
927.695541	2684.696728
927.999533	2679.300172
928.303486	2677.734894
928.607400	2676.184739
928.911275	2676.051149
929.215110	2673.817918
929.518906	2673.719615
929.822663	2674.231292
930.126381	2673.054183
930.430060	2675.657939
930.733699	2672.721467
931.037299	2677.031653
931.340861	2679.403516
931.644383	2678.975018
931.947866	2677.016530
932.251309	2673.583504
932.554714	2674.750531
932.858080	2673.424708
933.161407	2672.111487
933.464694	2669.898421
933.767943	2667.203924
934.071153	2670.521003
934.374323	2666.959428
934.677455	2666.964469
934.980548	2668.330622
935.283602	2667.004798
935.586617	2666.969510
935.889593	2667.002278
936.192530	2666.699808
936.495428	2666.402380
936.798287	2666.848523
937.101108	2671.335149
937.403890	2676.018381
937.706632	2680.794875
938.009336	2686.093127
938.312002	2694.857173
938.614628	2706.575335
938.917216	2712.128166
939.219765	2712.624720
939.522275	2713.106150
939.824747	2705.940150
940.127179	2705.967876
940.429573	2704.982331
940.731929	2700.205837
941.034246	2695.953624
941.336524	2693.652337
941.638763	2690.557069
941.940964	2689.697552
942.243126	2686.632531
942.545250	2686.806451
942.847335	2683.464166
943.149381	2680.721778
943.451389	2674.480829
943.753359	2674.591735
944.055290	2671.597289
944.357182	2669.837927
944.659036	2671.229285
944.960851	2670.551250
945.262628	2667.652587
945.564367	2669.172494
945.866067	2669.656445
946.167729	2668.416321
946.469352	2669.283400
946.770937	2671.304902
947.072484	2667.498831
947.373992	2665.794921
947.675462	2663.990188
947.976893	2661.162101
948.278286	2658.013900
948.579641	2661.275527
948.880958	2657.078766
949.182236	2661.270486
949.483476	2657.860145
949.784678	2659.513644
950.085841	2658.044147
950.386967	2658.991884
950.688054	2659.722852
950.989103	2664.118738
951.290114	2660.529436
951.591087	2663.294509
951.892021	2668.764161
952.192917	2669.255673
952.493776	2671.476302
952.794596	2672.862619
953.095378	2671.428411
953.396122	2668.595282
953.696828	2669.391785
953.997496	2668.822134
954.298126	2666.755261
954.598718	2662.692091
954.899272	2662.951711
955.199788	2658.843170
955.500266	2656.078097
955.800706	2654.827891
956.101108	2652.390493
956.401472	2649.267498
956.701798	2648.894453
957.002087	2647.898825
957.302337	2643.901190
957.602550	2645.108547
957.902724	2641.040335
958.202861	2638.451703
958.502960	2638.411374
958.803022	2640.319450
959.103045	2638.187042
959.403031	2637.163688
959.702979	2637.193935
960.002889	2636.657052
960.302762	2635.366517
960.602596	2637.839203
960.902393	2635.903400
961.202153	2633.458440
961.501875	2633.375261
961.801559	2633.208903
962.101205	2635.827782
962.400814	2635.376599
962.700385	2635.172432
962.999918	2630.322842
963.299414	2629.107924
963.598873	2630.418624
963.898293	2630.476597
964.197677	2630.065743
964.497022	2631.318470
964.796331	2633.307205
965.095601	2631.464664
965.394835	2632.293933
965.694030	2630.400980
965.993189	2629.579272
966.292309	2631.240332
966.591393	2632.079684
966.890439	2632.866104
967.189447	2630.912657
967.488419	2633.445837
967.787353	2630.587503
968.086249	2630.748820
968.385108	2631.908285
968.683930	2630.695888
968.982714	2630.680764
969.281462	2630.854684
969.580172	2631.633542
969.878844	2630.637914
970.177480	2629.617081
970.476078	2632.024232
970.774639	2632.228398
971.073162	2630.900054
971.371649	2631.147071
971.670098	2630.063223
971.968510	2629.911988
972.266885	2632.886269
972.565223	2633.115642
972.863524	2630.403501
973.161788	2633.982720
973.460014	2631.194962
973.758204	2633.554222
974.056356	2629.783439
974.354471	2629.309570
974.652550	2630.501803
974.950591	2630.438789
975.248595	2633.965076
975.546563	2632.977010
975.844493	2631.008439
976.142386	2629.596916
976.440243	2630.451392
976.738062	2632.271248
977.035845	2630.476597
977.333590	2630.960548
977.631299	2628.480301
977.928971	2627.590537
978.226606	2628.571041
978.524204	2627.923253
978.821765	2624.802779
979.119290	2628.581124
979.416777	2628.651700
979.714228	2630.209416
980.011642	2629.460805
980.309020	2627.005763
980.606360	2631.930970
980.903664	2627.358644
981.200931	2627.431741
981.498162	2629.425517
981.795356	2630.592544
982.092513	2633.942391
982.389633	2633.589510
982.686717	2638.925571
982.983764	2641.559574
983.280775	2648.700369
983.577749	2648.397899
983.874686	2647.024185
984.171587	2645.516880
984.468451	2642.630819
984.765279	2639.815335
985.062070	2635.442134
985.358824	2636.876342
985.655543	2631.084057
985.952224	2634.403656
986.248869	2633.652524
986.545478	2631.600775
986.842050	2628.681947
987.138586	2628.092132
987.435086	2627.363685
987.731549	2627.950979
988.027975	2626.909981
988.324366	2626.085752
988.620719	2627.225053
988.917037	2627.454426
989.213318	2626.829323
989.509563	2625.942080
989.805772	2624.094497
990.101944	2624.485186
990.398080	2628.356792
990.694180	2627.935856
990.990244	2624.772532
991.286271	2627.051133
991.582262	2626.584827
991.878217	2625.274127
992.174136	2625.039713
992.470019	2625.120372
992.765865	2621.553755
993.061676	2620.989146
993.357450	2623.174486
993.653188	2622.090638
993.948890	2625.405197
994.244556	2627.227574
994.540186	2628.238325
994.835780	2627.033489
995.131337	2626.148767
995.426859	2627.751854
995.722345	2628.833181
996.017795	2628.747482
996.313208	2628.051802
996.608586	2630.776546
996.903928	2629.692698
997.199234	2631.205044
997.494504	2631.139509
997.789738	2630.317801
998.084936	2629.092801
998.380099	2627.260341
998.675225	2627.051133
998.970316	2628.404683
999.265371	2626.345372
999.560390	2628.601288
999.855373	2626.718417
1000.150320	2627.814868
1000.445232	2624.712038
1000.740108	2625.523664
1001.034948	2624.911164
1001.329752	2624.555762
1001.624521	2623.068622
1001.919254	2623.474435
1002.213951	2624.308746
1002.508613	2624.044085
1002.803239	2622.274640
1003.097829	2626.811679
1003.392384	2623.600464
1003.686903	2622.572068
1003.981386	2622.463683
1004.275834	2623.391256
1004.570246	2623.769342
1004.864623	2624.084414
1005.158964	2626.390742
1005.453270	2626.317646
1005.747540	2620.762294
1006.041775	2623.166924
1006.335974	2625.637090
1006.630138	2624.018879
1006.924266	2625.253962
1007.218359	2622.907305
1007.512416	2620.341358
1007.806438	2620.195164
1008.100425	2622.030144
1008.394376	2621.163066
1008.688292	2623.446708
1008.982172	2623.534929
1009.276017	2623.784466
1009.569827	2620.737088
1009.863602	2622.922428
1010.157341	2621.994856
1010.451045	2623.222377
1010.744714	2622.899743
1011.038347	2621.452932
1011.331945	2622.521657
1011.625508	2623.673560
1011.919036	2622.193982
1012.212528	2621.868827
1012.505986	2624.210443
1012.799408	2623.628190
1013.092795	2623.890330
1013.386147	2621.868827
1013.679464	2622.425875
1013.972745	2623.524846
1014.265992	2622.254476
1014.559204	2623.673560
1014.852380	2623.144239
1015.145521	2622.675412
1015.438628	2622.304887
1015.731699	2620.976543
1016.024736	2622.990484
1016.317737	2620.737088
1016.610703	2623.824795
1016.903635	2624.197840
1017.196531	2624.568365
1017.489393	2622.561986
1017.782219	2620.694238
1018.075011	2621.689866
1018.367768	2622.322531
1018.660490	2624.054167
1018.953177	2624.054167
1019.245829	2624.054167
