Dividing Wavelength (nm)	Counts (n)	Blue Motor Position (mm): 36.100000	Red Motor Position (mm): 0.000000	
326.493990	2232.754765
326.888308	2232.754765
327.282561	2232.754765
327.676750	2193.360668
328.070874	2190.404031
328.464933	2188.528722
328.858929	2194.073991
329.252859	2198.394260
329.646726	2207.924562
330.040528	2217.323793
330.434265	2231.065978
330.827938	2252.238824
331.221547	2265.759199
331.615091	2283.514143
332.008571	2304.467699
332.401986	2323.382108
332.795338	2341.346260
333.188625	2361.619260
333.581847	2379.613659
333.975006	2398.575959
334.368100	2417.013979
334.761129	2438.189346
335.154095	2452.954885
335.546996	2479.642754
335.939833	2516.675070
336.332606	2533.630991
336.725315	2546.241437
337.117960	2558.942624
337.510540	2571.898390
337.903056	2581.922724
338.295508	2589.658375
338.687896	2601.593307
339.080220	2607.657815
339.472480	2613.089658
339.864676	2620.048971
340.256807	2620.815226
340.648875	2626.962913
341.040879	2630.678244
341.432818	2635.706795
341.824694	2635.540437
342.216506	2637.403143
342.608253	2636.102525
342.999937	2636.672176
343.391557	2637.695530
343.783113	2637.582104
344.174605	2637.443472
344.566033	2637.088071
344.957397	2633.672689
345.348697	2634.229737
345.739934	2633.052627
346.131106	2630.146402
346.522215	2627.837553
346.913260	2627.963582
347.304241	2624.316307
347.695159	2623.305556
348.086012	2621.430247
348.476802	2620.638786
348.867528	2615.874895
349.258191	2612.940944
349.648789	2612.857765
350.039324	2605.590942
350.429796	2613.845831
350.820203	2608.212342
351.210548	2606.142948
351.600828	2610.856427
351.991045	2607.244440
352.381198	2605.684203
352.771288	2605.520365
353.161314	2604.282762
353.551276	2605.200252
353.941175	2604.060951
354.331010	2603.435848
354.720782	2603.703029
355.110490	2604.265118
355.500135	2603.824017
355.889717	2604.655807
356.279235	2603.483739
356.668689	2603.322422
357.058080	2605.512804
357.447408	2603.887032
357.836672	2605.742176
358.225873	2608.542537
358.615010	2605.953905
359.004084	2606.158071
359.393095	2606.263936
359.782043	2606.445417
360.170927	2606.705037
360.559748	2608.353494
360.948505	2608.837445
361.337199	2612.192332
361.725830	2609.107146
362.114398	2608.943309
362.502903	2609.742332
362.891344	2611.902466
363.279722	2610.788371
363.668037	2610.846344
364.056289	2612.406582
364.444478	2612.991355
364.832603	2613.051849
365.220665	2613.629061
365.608665	2613.898763
365.996601	2615.920266
366.384474	2616.681480
366.772284	2616.031171
367.160031	2616.797427
367.547715	2618.806326
367.935336	2615.693414
368.322893	2615.937910
368.710388	2614.420522
369.097820	2617.228445
369.485189	2613.271139
369.872495	2617.097375
370.259738	2619.391100
370.646918	2619.680967
371.034035	2619.565020
371.421090	2620.101903
371.808081	2618.556789
372.195010	2623.461832
372.581875	2620.553086
372.968678	2623.567696
373.355418	2622.234311
373.742096	2621.876389
374.128710	2624.061729
374.515262	2623.592902
374.901751	2623.862604
375.288177	2627.030969
375.674540	2625.105248
376.060841	2624.568365
376.447079	2624.525515
376.833254	2625.248921
377.219367	2627.535084
377.605417	2629.150774
377.991404	2626.390742
378.377329	2627.066257
378.763191	2627.852677
379.148991	2629.302009
379.534727	2632.014149
379.920402	2628.654220
380.306013	2630.574900
380.691563	2632.793008
381.077049	2627.885444
381.462474	2631.890641
381.847835	2632.583800
382.233134	2633.259314
382.618371	2632.989613
383.003545	2633.581948
383.388657	2633.685292
383.773706	2634.925416
384.158693	2635.913482
384.543618	2637.249388
384.928480	2635.495066
385.313280	2638.189563
385.698017	2638.245016
386.082692	2639.318781
386.467305	2637.418266
386.851856	2640.697537
387.236344	2639.626292
387.620770	2637.579583
388.005133	2636.546147
388.389435	2639.200314
388.773674	2637.856847
389.157851	2645.433701
389.541965	2646.235244
389.926018	2645.557209
390.310008	2645.741211
390.693936	2646.701551
391.077802	2646.026037
391.461606	2647.220790
391.845348	2647.172899
392.229027	2650.013589
392.612645	2649.330513
392.996200	2649.539721
393.379694	2649.101140
393.763125	2651.024341
394.146494	2650.510143
394.529801	2652.909732
394.913047	2654.752274
395.296230	2654.532984
395.679351	2654.273364
396.062410	2655.079949
396.445408	2655.072387
396.828343	2659.906854
397.211217	2658.114723
397.594028	2657.101452
397.976778	2660.592451
398.359466	2663.541526
398.742092	2667.208965
399.124656	2666.394819
399.507158	2670.737773
399.889598	2676.164575
400.271977	2681.815708
400.654294	2690.055474
401.036549	2698.799356
401.418742	2708.024667
401.800874	2722.409600
402.182944	2740.668659
402.564952	2764.682195
402.946898	2786.701955
403.328783	2809.603917
403.710606	2839.056858
404.092367	2890.882441
404.474067	2932.570262
404.855705	2974.991572
405.237282	3015.363652
405.618797	3096.831219
406.000250	3155.779952
406.381642	3246.523242
406.762972	3319.506546
407.144240	3393.014131
407.525447	3464.185141
407.906593	3548.626989
408.287677	3660.807785
408.668700	3718.773493
409.049661	3836.287830
409.430560	3927.315945
409.811399	3959.488589
410.192176	4137.511896
410.572891	4224.756625
410.953545	4405.242535
411.334138	4382.373341
411.714669	4545.207651
412.095139	4541.396539
412.475547	4745.011263
412.855894	4868.980798
413.236180	5045.348086
413.616405	4973.662878
413.996568	5179.054610
414.376670	5275.938025
414.756711	5302.530111
415.136691	5444.115958
415.516609	5658.571684
415.896466	5742.358182
416.276262	5949.428617
416.655997	6019.165419
417.035670	6240.580457
417.415283	6571.917856
417.794834	6672.705644
418.174324	6661.350445
418.553753	6675.465676
418.933121	7007.629824
419.312428	7153.664489
419.691674	7043.684156
420.070859	7507.553489
420.449983	7303.399361
420.829045	7679.035899
421.208047	7549.526136
421.586988	7869.883901
421.965867	7934.876977
422.344686	8087.681912
422.723444	8156.050040
423.102141	7625.055223
423.480777	8355.170576
423.859352	7943.507432
424.237866	8567.735869
424.616319	8476.243968
424.994712	8879.478302
425.373044	8517.588991
425.751314	8971.083629
426.129524	8856.425106
426.507673	9020.650775
426.885762	9184.334519
427.263789	9113.438252
427.641756	9042.852016
428.019662	9158.080190
428.397508	9403.362572
428.775292	9119.439746
429.153016	9495.784566
429.530679	9336.020318
429.908282	9399.911902
430.285824	9124.561558
430.663305	9801.200351
431.040726	9257.489223
431.418086	9250.998738
431.795385	9575.328932
432.172624	9660.511829
432.549802	9584.438297
432.926920	9670.389970
433.303977	9554.564420
433.680974	9755.280481
434.057910	9836.218726
434.434786	9899.031503
434.811601	9756.568495
435.188355	10318.899125
435.565050	10046.394512
435.941683	9973.302823
436.318257	10471.046189
436.694770	10593.160579
437.071222	10667.562969
437.447614	10512.784422
437.823946	10400.588502
438.200218	10556.269415
438.576429	10364.206495
438.952580	10601.498647
439.328670	10667.631024
439.704700	10437.930849
440.080670	10431.289129
440.456580	11003.092086
440.832429	10742.429144
441.208218	10353.284835
441.583947	10685.625423
441.959616	10827.614562
442.335224	10624.186360
442.710773	10777.548343
443.086261	10971.640328
443.461689	10268.099417
443.837057	10908.688919
444.212365	11189.929851
444.587612	10837.679226
444.962800	11070.729247
445.337927	10841.437406
445.712995	10417.068034
446.088002	11514.902792
446.462949	11158.256281
446.837837	11129.627568
447.212664	11134.583023
447.587431	11640.999694
447.962139	12349.387674
448.336786	14610.564464
448.711374	15157.980839
449.085901	13019.195703
449.460369	12630.653811
449.834776	12077.858525
450.209124	12944.432871
450.583412	13351.309439
450.957640	14301.463595
451.331808	13457.879431
451.705917	12435.548555
452.079965	11764.752459
452.453954	12658.692709
452.827883	12288.488015
453.201752	12573.789596
453.575562	12087.182139
453.949311	12511.042354
454.323001	12465.445118
454.696632	12689.105990
455.070202	12972.151655
455.443713	13229.726890
455.817164	13678.487885
456.190556	13670.628726
456.563888	14041.609758
456.937160	14214.244072
457.310373	13548.277402
457.683526	13625.439823
458.056619	13185.342051
458.429653	13331.006192
458.802628	12765.691199
459.175542	13135.984114
459.548398	14078.848762
459.921194	14421.783335
460.293930	14487.083921
460.666607	15367.178642
461.039224	16403.486117
461.411782	17094.454390
461.784280	16976.176318
462.156719	17030.865275
462.529099	16714.711832
462.901419	15645.765406
463.273680	15438.947028
463.645882	15290.296004
464.018024	15042.087233
464.390106	15261.851294
464.762130	15988.463045
465.134094	16753.173316
465.505999	18735.607066
465.877845	21995.418789
466.249631	24817.355889
466.621358	24512.169476
466.993026	23065.512077
467.364634	22511.645545
467.736184	21057.819626
468.107674	20246.455997
468.479105	20389.274406
468.850477	19829.285393
469.221790	19420.304143
469.593043	18753.677082
469.964238	18183.504937
470.335373	17842.722938
470.706449	18297.530796
471.077467	17837.956527
471.448425	19677.420633
471.819324	23716.388053
472.190164	25723.394908
472.560945	22172.396056
472.931667	19794.773653
473.302330	19164.377365
473.672934	18698.620120
474.043479	19021.097690
474.413965	18830.645418
474.784393	18450.244990
475.154761	19152.036620
475.525070	19135.557088
475.895321	18802.107447
476.265513	19389.570748
476.635645	19966.150199
477.005719	19759.039434
477.375734	19944.127918
477.745691	20421.643655
478.115588	20954.211312
478.485427	21463.380453
478.855207	22530.083566
479.224928	24302.825480
479.594591	26516.479313
479.964194	26546.822018
480.333739	26756.508812
480.703226	26314.452552
481.072653	25993.293243
481.442022	26581.361484
481.811333	27485.502508
482.180584	27404.594510
482.549777	26462.556611
482.918912	26116.370494
483.287988	26223.225312
483.657005	25908.730408
484.025964	25640.004141
484.394864	25565.884056
484.763706	25257.292344
485.132489	24684.564335
485.501213	24843.123747
485.869879	24765.731953
486.238487	24585.364509
486.607036	24733.135852
486.975527	24437.469658
487.343959	24766.777992
487.712333	24697.789802
488.080648	24362.860581
488.448905	24840.948489
488.817104	24586.965076
489.185244	25271.531083
489.553326	25243.358594
489.921350	26235.268628
490.289315	28524.330561
490.657222	30299.487188
491.025070	30803.179116
491.392861	30576.054970
491.760593	29716.074453
492.128267	28818.802001
492.495883	27779.545450
492.863440	26908.948263
493.230939	26032.800766
493.598380	25880.139504
493.965763	25481.447249
494.333088	25022.558577
494.700354	24970.543951
495.067563	24839.874723
495.434713	24578.989970
495.801805	24736.783127
496.168839	24553.514499
496.535815	24388.830085
496.902733	24608.281595
497.269593	24269.775676
497.636395	24455.403563
498.003139	24412.621811
498.369825	24159.260980
498.736453	24373.532704
499.103023	24246.089814
499.469535	24255.012657
499.835989	24469.014678
500.202385	24493.542413
500.568723	23997.192925
500.935003	24245.182407
501.301226	23863.740980
501.667390	24699.491191
502.033497	24929.456027
502.399546	24659.988710
502.765537	24225.789088
503.131470	24610.328303
503.497345	24748.211422
503.863163	23964.296876
504.228923	24561.935747
504.594625	24777.429950
504.960269	24301.333299
505.325856	24803.553209
505.691385	24191.156361
506.056856	24802.469361
506.422270	24769.626244
506.787625	24349.637635
507.152924	24749.965744
507.518164	24784.232987
507.883347	24599.084009
508.248472	24263.408698
508.613540	25066.144393
508.978550	24852.268400
509.343503	24848.306053
509.708398	25094.828558
510.073236	25247.068884
510.438016	25460.244156
510.802738	25134.804908
511.167403	25385.630038
511.532010	25088.327990
511.896561	25864.343049
512.261053	25836.525962
512.625488	25669.686455
512.989866	25561.311729
513.354186	25399.047069
513.718449	25515.908577
514.082655	25889.818520
514.446803	25633.284283
514.810894	26097.355262
515.174927	25582.378711
515.538904	25613.747291
515.902822	26108.372703
516.266684	25858.235691
516.630488	25769.082885
516.994235	25740.305458
517.357925	26047.220987
517.721558	26218.012758
518.085133	26334.385274
518.448651	26236.239050
518.812112	25970.542516
519.175516	26180.778796
519.538863	26330.642218
519.902152	26106.313392
520.265385	26404.081747
520.628560	26185.998911
520.991678	26189.552924
521.354739	26248.151297
521.717743	26321.762225
522.080690	26112.909742
522.443580	26460.598123
522.806413	26433.552332
523.169189	26538.241974
523.531908	26583.413233
523.894569	26188.368253
524.257174	26275.562571
524.619722	26451.904653
524.982213	26141.959391
525.344647	26189.563007
525.707025	26341.359711
526.069345	26307.493239
526.431608	26270.632322
526.793815	26454.669726
527.155964	25917.814568
527.518057	26092.954334
527.880093	26011.085996
528.242072	26240.128300
528.603995	25946.685256
528.965860	25755.375988
529.327669	25803.582021
529.689421	25790.830423
530.051117	25619.721058
530.412755	25799.176053
530.774337	25596.002429
531.135862	25469.764375
531.497331	25669.668811
531.858743	25237.379786
532.220098	25707.953853
532.581396	25399.803242
532.942638	25318.050850
533.303824	25423.383239
533.664953	25428.278200
534.026025	25106.405568
534.387040	25330.484856
534.747999	25393.355607
535.108902	25560.235443
535.469748	25039.832090
535.830537	25220.219698
536.191270	25356.164494
536.551947	25206.651433
536.912567	24855.920716
537.273131	25225.049124
537.633638	24915.925570
537.994089	25135.498067
538.354483	24665.171016
538.714821	25168.507542
539.075103	25215.959923
539.435328	24987.431817
539.795497	24554.043820
540.155609	24942.545383
540.515665	25243.126701
540.875665	24473.125739
541.235609	24783.933039
541.595496	24744.541463
541.955328	25096.902993
542.315102	25012.360322
542.674821	24540.692324
543.034483	24423.387195
543.394090	24598.305151
543.753640	24400.790223
544.113134	25020.290057
544.472571	24619.102431
544.831953	24925.052579
545.191278	24540.790627
545.550548	24455.290137
545.909761	24663.204966
546.268918	24894.193156
546.628019	24861.629822
546.987064	24546.068715
547.346053	24308.872344
547.704986	24421.973151
548.063863	24588.553039
548.422684	24596.170223
548.781449	24121.298571
549.140158	24533.130594
549.498811	24098.051290
549.857408	23847.334545
550.215949	24277.413024
550.574434	23951.585607
550.932864	24165.902701
551.291237	24334.239430
551.649555	24187.395660
552.007817	24239.954730
552.366022	24094.928296
552.724173	24143.207426
553.082267	24099.573719
553.440305	24563.627054
553.798288	23828.687317
554.156215	24322.233923
554.514086	24450.440547
554.871902	23819.214989
555.229661	24105.938176
555.587365	23950.252221
555.945014	23826.431401
556.302606	24062.306989
556.660143	24029.103429
557.017625	24273.009576
557.375050	23788.547129
557.732421	24187.231823
558.089735	24012.492827
558.446994	24061.976793
558.804197	24083.656276
559.161345	24018.080946
559.518437	23786.785246
559.875474	23982.177849
560.232455	24158.784591
560.589381	23982.979392
560.946251	23971.951868
561.303065	24279.747078
561.659825	24372.151428
562.016528	23971.127639
562.373177	23714.820254
562.729770	24081.990174
563.086307	23939.365850
563.442789	24104.357774
563.799216	23927.234313
564.155587	23943.882723
564.511904	23930.742956
564.868164	23867.073183
565.224370	23837.660571
565.580520	23756.480350
565.936615	23877.455439
566.292654	23567.391710
566.648638	23853.913251
567.004567	23689.770761
567.360441	23624.026553
567.716260	23361.689948
568.072023	23682.871942
568.427732	23455.513383
568.783385	23226.090471
569.138982	23466.349343
569.494525	23500.856041
569.850013	23265.512294
570.205445	23355.529658
570.560823	23156.900635
570.916145	22910.670516
571.271412	23085.769954
571.626625	22857.133463
571.981782	22962.712868
572.336884	22784.908851
572.691931	22911.424169
573.046923	22642.428200
573.401860	22513.016739
573.756743	22541.915154
574.111570	22438.022014
574.466342	22361.351105
574.821059	22447.045679
575.175722	22157.189416
575.530330	22139.079070
575.884882	22166.323986
576.239380	22059.149056
576.593823	21961.567441
576.948211	21938.219337
577.302544	21790.631996
577.656823	21661.207933
578.011047	21750.239751
578.365216	21616.606324
578.719330	21498.998725
579.073389	21385.771889
579.427394	21539.181763
579.781344	21297.607150
580.135239	21199.100483
580.489080	21148.923358
580.842866	20929.797003
581.196597	21121.257506
581.550273	21094.710790
581.903895	20978.043366
582.257463	21295.973816
582.610975	20828.348823
582.964434	21139.292234
583.317837	20831.713794
583.671186	20927.044533
584.024481	20897.175697
584.377721	20671.894093
584.730906	20744.738766
585.084037	20743.788509
585.437113	20656.145529
585.790135	20863.848629
586.143103	20328.861218
586.496016	20350.785196
586.848874	20576.727191
587.201679	20499.663072
587.554428	20184.389311
587.907124	20526.729027
588.259765	20298.883997
588.612352	20366.687516
588.964884	19941.143555
589.317362	20111.133783
589.669786	20160.595064
590.022155	20196.349448
590.374470	20396.934439
590.726731	20180.845379
591.078937	19948.803588
591.431090	20047.917714
591.783188	19805.196239
592.135232	19769.066289
592.487222	19874.539831
592.839157	19881.161386
593.191038	19773.784809
593.542866	19654.115379
593.894639	19361.806593
594.246358	19590.294371
594.598022	19489.294854
594.949633	19244.753522
595.301190	19218.458863
595.652692	19387.153515
596.004141	19613.708010
596.355535	18937.296069
596.706876	18957.732907
597.058162	18850.862966
597.409395	19082.461135
597.760573	19149.969747
598.111698	18926.525644
598.462768	18865.257981
598.813785	18835.273198
599.164748	18641.090472
599.515657	18682.785856
599.866511	18480.759095
600.217312	18831.651129
600.568060	18346.245987
600.918753	18675.035082
601.269392	18571.076407
601.619978	18355.456175
601.970510	18553.530671
602.320988	18495.161671
602.671412	18704.704793
603.021783	18633.576632
603.372100	18352.802007
603.722363	18491.902565
604.072572	18436.666643
604.422728	18586.008305
604.772830	18335.717537
605.122878	18296.515004
605.472872	18269.380993
605.822813	18270.512732
606.172701	18240.351509
606.522534	18423.317667
606.872314	18450.920505
607.222041	18285.079146
607.571714	18508.616511
607.921333	18327.467688
608.270899	18395.934119
608.620411	18576.651923
608.969870	18346.329166
609.319276	18342.722220
609.668627	18388.064878
610.017926	18515.860649
610.367171	18630.428432
610.716362	18683.703346
611.065500	18497.478081
611.414585	18635.588053
611.763616	18615.930073
612.112594	18562.211538
612.461518	18518.678654
612.810389	18717.700887
613.159207	18580.309280
613.507971	18483.922419
613.856682	18765.922044
614.205340	18690.687864
614.553945	18831.920830
614.902496	18577.642510
615.250994	18797.698958
615.599439	18744.895392
615.947830	18734.193022
616.296169	18799.223907
616.644454	18748.850177
616.992686	18730.354183
617.340864	18949.659499
617.688990	18701.594401
618.037063	18875.055463
618.385082	18723.152895
618.733048	18997.197580
619.080961	18878.801041
619.428821	18906.832377
619.776628	18788.093039
620.124382	18716.992605
620.472083	18762.085726
620.819731	18783.742523
621.167326	18472.221901
621.514868	18513.791255
621.862357	18291.703223
622.209793	18287.887069
622.557176	18125.889590
622.904506	17954.439948
623.251783	17868.999952
623.599007	17626.407026
623.946179	17568.469045
624.293297	17502.999580
624.640363	17249.303512
624.987376	17280.170497
625.334336	17078.189107
625.681243	16917.351093
626.028097	16931.499092
626.374899	16856.025457
626.721647	16715.125207
627.068343	16541.911161
627.414987	16492.994324
627.761577	16458.069211
628.108115	16496.762587
628.454600	16220.981225
628.801032	16317.405895
629.147412	16252.939619
629.493739	16268.375632
629.840014	16077.807414
630.186236	16170.070612
630.532405	15935.505723
630.878521	16129.396062
631.224585	16034.634973
631.570597	15854.459093
631.916556	15878.825510
632.262462	15857.282139
632.608316	15774.143430
632.954117	15725.443363
633.299866	15718.209308
633.645562	15636.030938
633.991206	15390.945162
634.336797	15263.025883
634.682336	15231.385081
635.027823	15116.623213
635.373257	14993.034286
635.718639	14901.998609
636.063968	14843.574156
636.409245	14596.434110
636.754470	14622.660712
637.099642	14474.213855
637.444762	14242.678700
637.789829	14278.249082
638.134845	14117.693373
638.479808	14150.808713
638.824719	14082.518722
639.169577	13936.874746
639.514383	13988.617149
639.859137	13813.941168
640.203839	13896.495104
640.548489	13741.015837
640.893086	13726.267941
641.237632	13602.636164
641.582125	13759.746244
641.926566	13575.698758
642.270955	13594.194752
642.615292	13549.046178
642.959576	13557.918609
643.303809	13583.079008
643.647990	13523.364020
643.992118	13587.938680
644.336195	13352.143750
644.680219	13571.048294
645.024192	13485.472187
645.368112	13726.562849
645.711981	13778.058235
646.055797	13967.530003
646.399562	13935.717801
646.743274	14200.106156
647.086935	14474.506242
647.430544	14441.494246
647.774101	14474.145800
648.117606	14615.479589
648.461059	14593.149798
648.804460	14582.742336
649.147810	14302.315550
649.491108	14210.644688
649.834354	14227.635897
650.177548	13908.805602
650.520690	13726.930853
650.863781	13645.516218
651.206820	13686.079863
651.549807	13520.077187
651.892742	13322.272393
652.235626	13256.944080
652.578458	13261.657559
652.921238	12948.458232
653.263967	13146.613387
653.606644	12981.886123
653.949269	12951.014097
654.291843	12755.810538
654.634365	12915.680650
654.976836	12762.127104
655.319255	12768.080706
655.661622	12724.746948
656.003938	12646.588899
656.346203	12571.805902
656.688416	12652.925629
657.030577	12611.079011
657.372687	12517.086697
657.714746	12500.274449
658.056753	12692.879294
658.398708	12500.934841
658.740612	12502.064059
659.082465	12609.589350
659.424266	12577.885533
659.766016	12605.105244
660.107715	12512.244669
660.449362	12586.790732
660.790958	12544.220708
661.132503	12487.863129
661.473996	12559.313923
661.815438	12568.612331
662.156829	12589.858274
662.498168	12566.346332
662.839456	12570.621231
663.180693	12583.425762
663.521879	12679.505113
663.863013	12652.844971
664.204097	12626.572997
664.545129	12751.074374
664.886110	12733.231210
665.227040	12818.509889
665.567918	12818.809837
665.908746	12845.263292
666.249522	12833.446828
666.590248	12886.136968
666.930922	12994.967917
667.271545	12970.969505
667.612118	13056.447309
667.952639	12964.005151
668.293109	12977.696924
668.633528	12920.474787
668.973896	12896.272207
669.314213	12982.390239
669.654480	12718.954662
669.994695	12793.510807
670.334859	12822.530209
670.674973	12769.096499
671.015035	12798.062969
671.355047	12744.422571
671.695008	12716.366030
672.034918	12722.213768
672.374777	12762.684151
672.714585	12670.113443
673.054342	12709.013507
673.394049	12665.493226
673.733705	12759.099891
674.073310	12658.622133
674.412864	12676.508147
674.752368	12538.630068
675.091820	12563.382134
675.431223	12544.029144
675.770574	12414.912591
676.109875	12338.624810
676.449125	12295.233078
676.788324	12240.234090
677.127473	12074.853997
677.466571	12064.149107
677.805619	11960.344187
678.144616	11887.411294
678.483562	11853.990965
678.822458	11728.990514
679.161303	11704.041843
679.500098	11693.107581
679.838842	11641.216464
680.177535	11674.162925
680.516179	11738.152811
680.854771	11681.868328
681.193314	11895.852706
681.531805	12058.702140
681.870247	12485.647542
682.208638	12901.250347
682.546978	13201.635061
682.885268	13245.024272
683.223508	12938.547324
683.561697	12779.352726
683.899836	12685.337728
684.237925	12484.021769
684.575963	12400.298286
684.913951	12317.346100
685.251889	12271.025458
685.589776	12368.518853
685.927614	12283.857715
686.265401	12260.877615
686.603137	12318.974393
686.940824	12457.916154
687.278460	12594.397833
687.616046	12636.347795
687.953582	12782.594188
688.291068	12725.974469
688.628504	12955.911578
688.965889	12973.139721
689.303224	12936.036829
689.640510	12819.825630
689.977745	12495.394613
690.314930	12281.841253
690.652065	12189.003364
690.989150	11896.155175
691.326185	11681.535612
691.663170	11470.137346
692.000105	11232.653630
692.336990	11108.306008
692.673825	10858.284942
693.010610	10741.539381
693.347345	10528.757318
693.684030	10333.795734
694.020665	10276.341704
694.357251	10079.104039
694.693786	10007.197021
695.030272	9846.651394
695.366707	9736.754240
695.703093	9669.711935
696.039429	9666.982150
696.375716	9573.660310
696.711952	9456.042629
697.048139	9500.911419
697.384276	9446.809756
697.720363	9469.131985
698.056400	9406.346935
698.392388	9352.830046
698.728326	9318.784613
699.064214	9255.404706
699.400053	9294.879462
699.735842	9108.749979
700.071581	9069.350841
700.407270	8997.426179
700.742910	8919.351309
701.078501	8822.747677
701.414042	8699.040283
701.749533	8634.798339
702.084974	8491.170824
702.420366	8616.141028
702.755709	8497.187442
703.091002	8360.224333
703.426246	8385.503199
703.761440	8339.406888
704.096584	8292.793859
704.431679	8230.908654
704.766725	8211.530459
705.101721	8164.181421
705.436668	8212.268988
705.771565	8101.545085
706.106413	8184.903084
706.441212	8226.003612
706.775961	8184.356119
707.110661	8228.892193
707.445311	8359.321966
707.779913	8257.384794
708.114465	8392.207933
708.448967	8429.313346
708.783421	8575.002692
709.117825	8755.223942
709.452180	8792.493193
709.786485	8877.479485
710.120742	9156.260334
710.454949	9160.711673
710.789107	9266.114638
711.123216	9484.898194
711.457275	9650.235437
711.791286	9804.472060
712.125247	9802.279158
712.459159	9796.617942
712.793023	10031.102172
713.126837	9603.849260
713.460602	9767.711966
713.794318	9588.871992
714.127985	9621.223597
714.461602	9282.962174
714.795171	9242.779137
715.128691	8989.998039
715.462162	8746.041481
715.795584	8688.146349
716.128957	8529.723048
716.462281	8367.501238
716.795556	8420.733302
717.128782	8210.045839
717.461960	7946.398534
717.795088	8019.359154
718.128167	7924.978671
718.461198	7763.896162
718.794180	7698.988786
719.127113	7694.708846
719.459997	7527.466047
719.792833	7303.606048
720.125619	7369.682972
720.458357	7220.550518
720.791046	7217.858542
721.123686	7203.173661
721.456278	7049.436112
721.788821	7069.368835
722.121315	6964.628781
722.453761	7032.835593
722.786158	6973.571788
723.118506	6983.530588
723.450805	6954.974972
723.783056	7015.476380
724.115259	6928.430776
724.447412	6926.900786
724.779518	6979.185113
725.111574	6976.571275
725.443582	7058.432052
725.775542	7035.562857
726.107453	7232.084678
726.439315	7140.149155
726.771129	7203.430760
727.102895	7375.762604
727.434612	7481.488203
727.766281	7518.543204
728.097901	7594.707477
728.429473	7592.602795
728.760996	7576.337513
729.092471	7545.273923
729.423897	7491.227712
729.755276	7496.684761
730.086606	7420.376815
730.417887	7524.675768
730.749120	7733.936585
731.080305	7920.890296
731.411442	8033.008078
731.742530	8025.249742
732.073570	8133.836196
732.404562	8213.131025
732.735506	8069.533758
733.066401	8208.871250
733.397249	8136.505487
733.728048	7897.385916
734.058798	7565.277221
734.389501	7336.204670
734.720156	7154.892010
735.050762	6926.641167
735.381320	6843.399114
735.711831	6782.391070
736.042293	6677.721593
736.372707	6688.048396
736.703073	6551.662499
737.033391	6592.596669
737.363661	6610.603670
737.693883	6642.436036
738.024056	6725.630198
738.354182	6762.866681
738.684260	6795.447658
739.014290	6918.681185
739.344272	7021.583738
739.674207	7050.252779
740.004093	7120.208871
740.333931	7133.900645
740.663722	7147.594940
740.993464	7222.272072
741.323159	7210.064918
741.652806	6956.492359
741.982405	6981.541853
742.311956	7033.944647
742.641460	6861.874943
742.970915	6670.212794
743.300323	6660.863974
743.629683	6612.720955
743.958996	6475.195757
744.288260	6386.925153
744.617477	6334.459345
744.946647	6334.822308
745.275768	6169.084293
745.604842	6127.940916
745.933869	6109.744871
746.262847	6069.473613
746.591778	6052.288320
746.920662	6017.237177
747.249498	6004.309138
747.578286	6055.000461
747.907027	6133.771010
748.235720	6190.678075
748.564365	6169.008676
748.892963	6196.281318
749.221514	6345.557445
749.550017	6167.899622
749.878473	6050.418052
750.206881	6108.267813
750.535242	6051.169184
750.863555	5983.153936
751.191821	6000.379559
751.520039	5995.703889
751.848210	5904.678294
752.176334	5931.161996
752.504411	5975.635055
752.832440	5898.354167
753.160421	5830.623744
753.488356	5882.892948
753.816243	5908.645682
754.144082	5764.214104
754.471875	5729.440225
754.799620	5779.627432
755.127318	5792.999093
755.454969	5738.826853
755.782572	5707.193613
756.110129	5755.389564
756.437638	5736.152521
756.765100	5674.131205
757.092515	5677.546587
757.419882	5733.533642
757.747203	5708.131267
758.074477	5769.484630
758.401703	5753.335294
758.728882	5706.543304
759.056014	5771.526298
759.383099	5894.689248
759.710138	5903.901957
760.037129	5889.582559
760.364073	5892.143465
760.690970	5979.378112
761.017820	5955.873732
761.344623	5912.786990
761.671379	6019.793042
761.998088	6142.282998
762.324751	6390.075875
762.651366	7005.510018
762.977935	8340.097526
763.304456	9980.332712
763.630931	10861.773421
763.957359	10436.723493
764.283740	9488.512701
764.610074	8640.767065
764.936362	7639.094837
765.262602	7051.795372
765.588796	6511.189596
765.914943	6185.621798
766.241044	6020.161047
766.567097	5813.327545
766.893104	5556.090067
767.219064	5375.389908
767.544978	5314.409590
767.870845	5235.964195
768.196665	5130.488133
768.522438	5060.098502
768.848165	5024.901166
769.173846	4960.301300
769.499479	4916.660031
769.825066	4860.403275
770.150607	4801.182320
770.476101	4778.305564
770.801548	4770.027989
771.126949	4696.394376
771.452303	4641.773474
771.777611	4603.632104
772.102872	4620.202377
772.428087	4584.263991
772.753256	4543.246642
773.078378	4498.052698
773.403453	4427.879837
773.728482	4410.248401
774.053465	4366.115620
774.378401	4353.789999
774.703291	4353.908466
775.028135	4276.756127
775.352932	4228.734095
775.677683	4220.237230
776.002388	4242.665324
776.327046	4245.974841
776.651658	4175.383564
776.976224	4111.761682
777.300743	4122.872385
777.625216	4138.913337
777.949643	4131.893530
778.274024	4091.397941
778.598359	4049.425294
778.922647	4071.248449
779.246889	4061.571954
779.571086	4054.897467
779.895236	4041.273748
780.219339	4025.963764
780.543397	4020.736087
780.867409	4073.839602
781.191374	4087.387703
781.515294	4022.008979
781.839167	4015.026981
782.162995	4038.231412
782.486776	4021.025954
782.810511	4038.685116
783.134201	4027.602139
783.457844	3981.770489
783.781441	3927.237807
784.104993	3934.544960
784.428498	3954.147486
784.751958	3950.669090
785.075372	3927.525153
785.398739	3890.487796
785.722061	3905.480187
786.045337	3947.409984
786.368568	3978.460971
786.691752	3891.349833
787.014891	3939.732307
787.337983	4076.440837
787.661030	4233.064446
787.984031	4393.516812
788.306987	4558.183581
788.629897	4645.148526
788.952760	4599.999953
789.275579	4534.724572
789.598351	4461.269919
789.921078	4319.447138
790.243759	4119.129328
790.566395	4104.522585
790.888984	4104.605764
791.211529	3992.651819
791.534027	3933.937501
791.856480	3921.357301
792.178888	3863.144577
792.501249	3813.799243
792.823566	3822.001200
793.145836	3850.662680
793.468062	3796.563538
793.790241	3754.353957
794.112375	3784.560550
794.434464	3850.897094
794.756507	3873.799056
795.078505	3849.440200
795.400457	3890.243300
795.722364	4030.447870
796.044226	4132.448057
796.366042	4205.958162
796.687812	4181.458154
797.009538	4188.369576
797.331218	4145.323164
797.652852	4119.141931
797.974442	4101.913788
798.295986	4099.637707
798.617484	4015.931868
798.938938	3928.901388
799.260346	3977.999706
799.581709	3968.660968
799.903026	3892.395872
800.224299	3859.996377
800.545526	3849.299048
800.866708	3812.932164
801.187845	3754.235489
801.508936	3790.962816
801.829983	3781.677010
802.150984	3703.902089
802.471940	3700.131306
802.792851	3706.528530
803.113717	3707.544323
803.434538	3704.186914
803.755314	3648.305724
804.076045	3626.762353
804.396731	3646.619458
804.717372	3672.392357
805.037967	3653.329233
805.358518	3644.615599
805.679024	3670.527130
805.999485	3686.873071
806.319901	3692.211653
806.640272	3702.293961
806.960598	3719.547310
807.280879	3691.662167
807.601115	3705.316133
807.921306	3725.261458
808.241453	3763.743106
808.561554	3735.968868
808.881611	3669.526461
809.201623	3711.516752
809.521590	3718.677711
809.841513	3688.869368
810.161390	3724.129719
810.481223	3699.760781
810.801011	3646.238851
811.120755	3638.793066
811.440453	3671.923529
811.760107	3674.683561
812.079716	3631.304432
812.399281	3603.999022
812.718801	3622.013586
813.038276	3599.449381
813.357707	3597.208588
813.677093	3611.550671
813.996434	3556.788617
814.315731	3570.034248
814.634983	3572.678334
814.954191	3590.947475
815.273354	3616.768265
815.592473	3609.146041
815.911547	3619.649285
816.230577	3656.222856
816.549562	3712.411557
816.868502	3752.463524
817.187399	3775.743572
817.506250	3772.141668
817.825058	3750.484871
818.143821	3844.656145
818.462539	3943.941670
818.781213	3988.699555
819.099843	4048.790109
819.418429	4300.835198
819.736970	4543.672620
820.055466	4791.168068
820.373919	5159.202546
820.692327	5566.868054
821.010691	6032.801740
821.329011	7452.415869
821.647286	10260.714127
821.965517	14885.292225
822.283704	18893.808556
822.601847	20947.713264
822.919945	19097.844216
823.237999	16482.120556
823.556010	13994.648890
823.873976	11886.556818
824.191897	9793.207602
824.509775	8445.432436
824.827609	7330.041859
825.145398	6796.488657
825.463144	6682.505648
825.780845	6789.315095
826.098502	6998.510376
826.416116	7899.321719
826.733685	9238.748734
827.051210	10340.911323
827.368692	10339.093987
827.686129	9044.608858
828.003522	7540.066411
828.320872	6529.592328
828.638177	5827.672149
828.955439	5261.061580
829.272656	4764.651599
829.589830	4488.280422
829.906960	4315.094102
830.224046	4126.602839
830.541088	4003.898634
830.858086	3951.591621
831.175041	3877.789129
831.491952	3863.857900
831.808819	3872.687481
832.125642	3954.114719
832.442421	4102.884210
832.759157	4382.307806
833.075849	4947.653045
833.392497	5820.997661
833.709101	6602.588236
834.025662	6920.173366
834.342179	6533.698348
834.658653	5865.972315
834.975083	5215.335794
835.291469	4634.914984
835.607811	4234.065115
835.924110	4094.737705
836.240366	3894.167838
836.556578	3686.346271
836.872746	3580.655960
837.188871	3541.602141
837.504952	3473.140751
837.820990	3390.261661
838.136984	3347.903366
838.452935	3372.000081
838.768842	3368.246942
839.084706	3392.472207
839.400526	3554.472207
839.716303	3902.730238
840.032037	4441.269141
840.347727	4685.528169
840.663373	4392.432963
840.978977	4008.057586
841.294537	3700.597613
841.610054	3475.258036
841.925527	3367.319370
842.240957	3303.581541
842.556344	3248.973242
842.871687	3189.341433
843.186987	3134.478556
843.502244	3097.095880
843.817458	3066.463308
844.132629	3035.422404
844.447756	3043.420194
844.762840	3028.024510
845.077881	2997.578462
845.392879	2980.052890
845.707833	2976.619865
846.022745	2976.972745
846.337613	2974.409319
846.652438	2963.669140
846.967221	2958.643110
847.281960	2946.153651
847.596656	2941.795574
847.911309	2942.299689
848.225919	2936.129317
848.540485	2930.601692
848.855009	2927.360230
849.169490	2919.654826
849.483928	2911.036974
849.798323	2911.251223
850.112675	2907.644277
850.426984	2923.564241
850.741251	2915.178282
851.055474	2905.370717
851.369654	2900.828637
851.683792	2904.864081
851.997887	2911.825914
852.311938	2916.438570
852.625947	2903.064389
852.939914	2910.900863
853.253837	2912.987900
853.567718	2897.690519
853.881555	2896.450395
854.195350	2913.494536
854.509103	2908.402971
854.822812	2902.010788
855.136479	2899.230591
855.450103	2899.366703
855.763685	2892.974519
856.077224	2885.828684
856.390720	2903.608833
856.704173	2911.248702
857.017584	2903.460119
857.330953	2903.089595
857.644278	2912.708116
857.957561	2922.462749
858.270802	2924.333017
858.584000	2919.962337
858.897155	2908.450862
859.210268	2909.983373
859.523339	2905.161509
859.836367	2905.557239
860.149352	2900.284193
860.462295	2896.198337
860.775195	2901.736045
861.088054	2904.523803
861.400869	2885.319527
861.713642	2884.830535
862.026373	2897.128430
862.339062	2900.758061
862.651708	2909.086047
862.964312	2909.887591
863.276873	2904.533885
863.589392	2913.408837
863.901869	2928.181938
864.214303	2947.844958
864.526696	2963.822896
864.839045	2959.421968
865.151353	2958.542287
865.463619	2956.389714
865.775842	2956.069601
866.088023	2976.637509
866.400162	2983.874085
866.712258	2953.279322
867.024313	2942.965122
867.336325	2954.141360
867.648296	2976.655153
867.960224	2968.201138
868.272110	2954.610187
868.583954	2957.874334
868.895755	2973.973259
869.207515	2958.701083
869.519233	2965.511682
869.830909	2975.223465
870.142542	2980.526759
870.454134	2981.688745
870.765684	2987.947337
871.077191	2988.272492
871.388657	2995.435971
871.700081	3007.466685
872.011463	3020.528315
872.322803	3017.788448
872.634101	3015.093951
872.945357	3033.930222
873.256571	3062.879048
873.567744	3054.876216
873.878874	3045.484547
874.189963	3071.343145
874.501010	3070.264338
874.812015	3059.985426
875.122979	3063.841908
875.433900	3059.589695
875.744780	3064.325859
876.055618	3072.389185
876.366415	3066.811148
876.677169	3079.000658
876.987882	3076.270873
877.298554	3072.855492
877.609183	3094.466918
877.919771	3116.131277
878.230317	3143.648415
878.540822	3195.713452
878.851285	3236.876994
879.161707	3279.028602
879.472087	3386.586660
879.782425	3622.051394
880.092722	4068.380032
880.402977	4599.626907
880.713191	5240.551645
881.023363	6416.526809
881.333494	7704.579425
881.643583	8237.071465
881.953631	7928.918333
882.263637	7284.011083
882.573602	6687.075453
882.883526	6101.815136
883.193408	5533.198188
883.503248	5078.292027
883.813048	4769.793576
884.122806	4459.318993
884.432522	4140.975168
884.742197	3900.552459
885.051831	3708.575238
885.361424	3580.933223
885.670975	3507.624764
885.980485	3418.229983
886.289954	3338.781398
886.599382	3297.832105
886.908768	3257.999428
887.218113	3212.739949
887.527417	3155.079231
887.836680	3107.722632
888.145901	3103.172991
888.455082	3089.846701
888.764221	3036.654966
889.073319	3006.594565
889.382376	3008.290914
889.691392	3013.952129
890.000366	3010.869464
890.309300	2997.782628
890.618193	3011.749145
890.927044	3024.911598
891.235855	3026.739016
891.544625	3014.685617
891.853353	3025.428316
892.162041	3042.759803
892.470687	3086.718665
892.779293	3135.012918
893.087858	3185.636185
893.396381	3257.099582
893.704864	3381.880743
894.013306	3628.801499
894.321707	3932.157973
894.630068	4134.305722
894.938387	4125.632417
895.246665	4081.126590
895.554903	3954.833083
895.863100	3753.875047
896.171256	3586.997731
896.479371	3445.701751
896.787446	3324.121723
897.095480	3220.896536
897.403473	3154.018068
897.711425	3120.748974
898.019336	3109.978548
898.327207	3080.182809
898.635038	3044.309958
898.942827	3027.747247
899.250576	3019.172244
899.558284	2987.760815
899.865952	2963.961527
900.173579	2946.393106
900.481165	2938.289451
900.788711	2927.148501
901.096216	2899.820406
901.403681	2888.457646
901.711105	2900.059861
902.018489	2897.567011
902.325832	2893.226577
902.633135	2904.276786
902.940397	2938.584359
903.247619	3025.755991
903.554800	3225.294943
903.861941	3578.364755
904.169041	4010.356352
904.476101	4303.408707
904.783121	4250.295110
905.090100	3997.819002
905.397039	3720.880695
905.703938	3468.686892
906.010796	3287.616207
906.317614	3173.303002
906.624391	3077.039649
906.931129	3008.691685
907.237826	2945.871347
907.544483	2898.751682
907.851099	2865.384284
908.157675	2848.987932
908.464211	2825.559169
908.770707	2814.425781
909.077163	2799.892134
909.383578	2784.650206
909.689954	2775.576129
909.996289	2773.327774
910.302584	2775.923968
910.608839	2773.715943
910.915054	2771.069337
911.221229	2758.179107
911.527363	2762.264962
911.833458	2770.698812
912.139513	2776.266767
912.445527	2776.891870
912.751502	2787.188427
913.057436	2797.868111
913.363331	2809.924030
913.669186	2833.186435
913.975000	2868.774460
914.280775	2933.535643
914.586510	2999.589882
914.892205	3079.214907
915.197859	3212.117367
915.503475	3410.020464
915.809050	3627.160604
916.114585	3771.307357
916.420081	3789.019451
916.725536	3727.159452
917.030952	3607.676544
917.336328	3473.949856
917.641665	3341.160823
917.946961	3241.764392
918.252218	3172.279648
918.557435	3092.321907
918.862612	3033.342928
919.167750	2984.486585
919.472848	2942.128290
919.777906	2917.063673
920.082925	2890.852194
920.387904	2860.907740
920.692843	2842.079030
920.997743	2831.719459
921.302603	2819.088848
921.607423	2809.568629
921.912204	2796.471711
922.216946	2782.474948
922.521647	2774.880449
922.826310	2766.857453
923.130932	2756.225660
923.435516	2752.855648
923.740059	2742.760738
924.044564	2734.072309
924.349028	2726.808006
924.653454	2725.409086
924.957840	2715.959443
925.262186	2713.902652
925.566493	2709.378217
925.870761	2703.530478
926.174989	2699.263142
926.479178	2692.460105
926.783328	2689.939528
927.087438	2691.106555
927.391509	2687.683611
927.695541	2686.325020
927.999533	2682.450894
928.303486	2679.101047
928.607400	2678.702796
928.911275	2677.518125
929.215110	2676.121725
929.518906	2674.480829
929.822663	2676.363700
930.126381	2674.932013
930.430060	2678.158351
930.733699	2677.515604
931.037299	2680.956192
931.340861	2680.104237
931.644383	2680.406706
931.947866	2678.380162
932.251309	2677.024092
932.554714	2678.619617
932.858080	2673.071827
933.161407	2674.760613
933.464694	2670.374810
933.767943	2668.696105
934.071153	2672.676096
934.374323	2670.032011
934.677455	2671.105777
934.980548	2668.633091
935.283602	2668.348266
935.586617	2667.161074
935.889593	2668.136537
936.192530	2665.235353
936.495428	2667.375323
936.798287	2669.220385
937.101108	2675.383196
937.403890	2677.591221
937.706632	2680.668846
938.009336	2688.462470
938.312002	2697.982689
938.614628	2705.617516
938.917216	2711.283773
939.219765	2712.410471
939.522275	2712.498691
939.824747	2709.600028
940.127179	2705.025181
940.429573	2705.430993
940.731929	2702.968390
941.034246	2697.566793
941.336524	2693.014632
941.638763	2692.581092
941.940964	2689.248890
942.243126	2690.249559
942.545250	2686.982891
942.847335	2684.442149
943.149381	2681.422498
943.451389	2676.378824
943.753359	2674.957218
944.055290	2673.190294
944.357182	2673.228103
944.659036	2670.009326
944.960851	2671.206600
945.262628	2672.008143
945.564367	2668.207113
945.866067	2670.092505
946.167729	2671.246929
946.469352	2670.541168
946.770937	2669.951353
947.072484	2670.228616
947.373992	2669.686692
947.675462	2664.504386
947.976893	2661.285609
948.278286	2664.917761
948.579641	2661.260403
948.880958	2657.300577
949.182236	2663.193686
949.483476	2661.545229
949.784678	2662.066988
950.085841	2662.951711
950.386967	2663.067657
950.688054	2661.618325
950.989103	2662.258552
951.290114	2663.430620
951.591087	2666.001609
951.892021	2668.197031
952.192917	2671.355314
952.493776	2671.322547
952.794596	2673.969152
953.095378	2671.524193
953.396122	2673.278514
953.696828	2672.784481
953.997496	2669.444717
954.298126	2666.541012
954.598718	2665.827689
954.899272	2659.223777
955.199788	2658.520536
955.500266	2658.863335
955.800706	2656.047850
956.101108	2653.978457
956.401472	2650.182468
956.701798	2650.033754
957.002087	2646.262971
957.302337	2648.465955
957.602550	2648.317241
957.902724	2644.317085
958.202861	2642.973618
958.502960	2641.942702
958.803022	2640.384985
959.103045	2640.916827
959.403031	2637.672845
959.702979	2640.190901
960.002889	2637.566980
960.302762	2638.418935
960.602596	2636.102525
960.902393	2635.865591
961.202153	2633.730662
961.501875	2636.334418
961.801559	2636.780560
962.101205	2635.205200
962.400814	2635.207720
962.700385	2633.034983
962.999918	2631.663789
963.299414	2629.843933
963.598873	2634.862401
963.898293	2631.857874
964.197677	2636.349542
964.497022	2633.135806
964.796331	2631.499952
965.095601	2633.526496
965.394835	2635.036321
965.694030	2633.740745
965.993189	2632.228398
966.292309	2632.886269
966.591393	2632.397277
966.890439	2632.117493
967.189447	2633.236629
967.488419	2631.257976
967.787353	2631.079015
968.086249	2633.034983
968.385108	2632.356948
968.683930	2634.403656
968.982714	2633.541619
969.281462	2632.636732
969.580172	2633.607154
969.878844	2630.973151
970.177480	2632.109931
970.476078	2633.355096
970.774639	2631.520116
971.073162	2631.424334
971.371649	2632.677061
971.670098	2632.601444
971.968510	2634.360807
972.266885	2634.454068
972.565223	2634.454068
972.863524	2629.523819
973.161788	2631.515075
973.460014	2634.965745
973.758204	2634.711167
974.056356	2635.016157
974.354471	2632.485497
974.652550	2630.398460
974.950591	2635.963893
975.248595	2631.046248
975.546563	2632.815693
975.844493	2632.024232
976.142386	2634.794346
976.440243	2630.663120
976.738062	2631.101701
977.035845	2633.448358
977.333590	2631.273100
977.631299	2631.568007
977.928971	2629.286885
978.226606	2628.369395
978.524204	2629.004581
978.821765	2626.126082
979.119290	2632.160343
979.416777	2628.273613
979.714228	2631.799900
980.011642	2631.162194
980.309020	2632.833337
980.606360	2629.796042
980.903664	2632.263687
981.200931	2634.272586
981.498162	2632.142699
981.795356	2632.719911
982.092513	2634.181846
982.389633	2634.670837
982.686717	2637.861888
982.983764	2644.271715
983.280775	2648.980153
983.577749	2648.743218
983.874686	2645.567292
984.171587	2645.877322
984.468451	2641.249543
984.765279	2641.519245
985.062070	2638.497073
985.358824	2638.655870
985.655543	2635.177473
985.952224	2635.681589
986.248869	2631.232771
986.545478	2632.697226
986.842050	2627.376288
987.138586	2630.305198
987.435086	2630.244704
987.731549	2628.550877
988.027975	2628.354272
988.324366	2625.954682
988.620719	2628.054323
988.917037	2626.448716
989.213318	2629.753192
989.509563	2627.275465
989.805772	2626.247069
990.101944	2629.115486
990.398080	2627.787142
990.694180	2627.572893
990.990244	2626.484004
991.286271	2625.175824
991.582262	2626.925105
991.878217	2626.972996
992.174136	2628.462657
992.470019	2627.804786
992.765865	2625.248921
993.061676	2625.967285
993.357450	2624.467542
993.653188	2622.453601
993.948890	2628.520630
994.244556	2628.094652
994.540186	2627.363685
994.835780	2627.076339
995.131337	2630.809314
995.426859	2626.935187
995.722345	2630.481639
996.017795	2629.801083
996.313208	2630.831999
996.608586	2629.549025
996.903928	2634.282669
997.199234	2632.641773
997.494504	2631.845271
997.789738	2632.682102
998.084936	2632.054479
998.380099	2629.430558
998.675225	2630.015332
998.970316	2629.811165
999.265371	2628.608850
999.560390	2629.153295
999.855373	2628.492903
1000.150320	2628.082049
1000.445232	2628.656741
1000.740108	2626.000053
1001.034948	2626.153808
1001.329752	2624.659106
1001.624521	2623.383694
1001.919254	2626.098355
1002.213951	2626.761267
1002.508613	2625.765639
1002.803239	2624.071812
1003.097829	2626.123561
1003.392384	2627.066257
1003.686903	2624.984260
1003.981386	2623.882768
1004.275834	2625.324538
1004.570246	2625.359826
1004.864623	2624.167593
1005.158964	2626.219343
1005.453270	2624.838067
1005.747540	2622.715741
1006.041775	2623.471914
1006.335974	2624.089456
1006.630138	2623.343365
1006.924266	2624.739764
1007.218359	2626.277316
1007.512416	2621.619290
1007.806438	2621.001749
1008.100425	2621.929321
1008.394376	2619.297839
1008.688292	2623.028293
1008.982172	2624.780094
1009.276017	2623.683643
1009.569827	2626.206740
1009.863602	2628.240846
1010.157341	2624.298663
1010.451045	2625.697584
1010.744714	2625.506020
1011.038347	2621.558796
1011.331945	2623.872686
1011.625508	2627.467029
1011.919036	2623.514764
1012.212528	2623.532408
1012.505986	2623.260186
1012.799408	2623.343365
1013.092795	2624.588530
1013.386147	2625.072481
1013.679464	2623.527367
1013.972745	2624.752367
1014.265992	2623.292953
1014.559204	2620.757253
1014.852380	2623.771863
1015.145521	2621.959568
1015.438628	2623.610546
1015.731699	2627.429220
1016.024736	2622.975361
1016.317737	2622.088117
1016.610703	2624.530557
1016.903635	2622.393107
1017.196531	2625.107769
1017.489393	2623.252624
1017.782219	2621.364712
1018.075011	2624.853190
1018.367768	2622.030144
1018.660490	2620.933693
1018.953177	2620.933693
1019.245829	2620.933693
