Dividing Wavelength (nm)	Counts (n)	Blue Motor Position (mm): 31.700000	Red Motor Position (mm): 0.000000	
326.493990	2218.034596
326.888308	2218.034596
327.282561	2218.034596
327.676750	2177.014727
328.070874	2170.854437
328.464933	2175.363749
328.858929	2178.489264
329.252859	2184.899091
329.646726	2191.404700
330.040528	2204.579756
330.434265	2215.234235
330.827938	2235.592934
331.221547	2250.247569
331.615091	2267.805908
332.008571	2289.132509
332.401986	2305.569191
332.795338	2325.756492
333.188625	2345.989163
333.581847	2365.029601
333.975006	2381.252034
334.368100	2402.636608
334.761129	2422.085380
335.154095	2438.280087
335.546996	2464.085753
335.939833	2499.668737
336.332606	2515.490399
336.725315	2527.639580
337.117960	2541.943854
337.510540	2554.682849
337.903056	2564.147616
338.295508	2572.384861
338.687896	2580.639751
339.080220	2587.662078
339.472480	2595.506113
339.864676	2600.958121
340.256807	2606.440376
340.648875	2610.619492
341.040879	2613.273660
341.432818	2617.646861
341.824694	2619.814557
342.216506	2620.175000
342.608253	2620.782459
342.999937	2622.841770
343.391557	2621.163066
343.783113	2622.284722
344.174605	2618.902108
344.566033	2621.556276
344.957397	2620.306070
345.348697	2617.397324
345.739934	2615.516973
346.131106	2613.946654
346.522215	2613.132508
346.913260	2610.362394
347.304241	2610.727877
347.695159	2604.827207
348.086012	2605.119594
348.476802	2601.147164
348.867528	2597.550301
349.258191	2594.545773
349.648789	2594.364292
350.039324	2593.144333
350.429796	2592.433530
350.820203	2592.388160
351.210548	2593.345979
351.600828	2590.691811
351.991045	2590.316245
352.381198	2590.512850
352.771288	2589.981009
353.161314	2588.758529
353.551276	2588.372881
353.941175	2584.561768
354.331010	2588.032603
354.720782	2587.228539
355.110490	2586.666450
355.500135	2585.847263
355.889717	2586.653847
356.279235	2587.646954
356.668689	2587.362129
357.058080	2585.423806
357.447408	2587.868765
357.836672	2588.377922
358.225873	2586.376584
358.615010	2587.432705
359.004084	2587.639393
359.393095	2590.744743
359.782043	2590.280957
360.170927	2590.081832
360.559748	2590.240628
360.948505	2590.850608
361.337199	2593.240115
361.725830	2591.148036
362.114398	2596.090887
362.502903	2593.013263
362.891344	2593.305650
363.279722	2595.730445
363.668037	2593.857656
364.056289	2595.778336
364.444478	2596.360589
364.832603	2596.978130
365.220665	2599.594489
365.608665	2598.886207
365.996601	2597.212544
366.384474	2598.233377
366.772284	2599.344952
367.160031	2598.102307
367.547715	2600.189345
367.935336	2599.660024
368.322893	2597.338573
368.710388	2597.643562
369.097820	2598.059458
369.485189	2595.362440
369.872495	2601.495004
370.259738	2602.767895
370.646918	2602.296547
371.034035	2602.490632
371.421090	2604.088678
371.808081	2601.414346
372.195010	2602.523399
372.581875	2605.230499
372.968678	2605.222937
373.355418	2603.645056
373.742096	2604.295365
374.128710	2605.611106
374.515262	2604.620519
374.901751	2604.048348
375.288177	2605.434666
375.674540	2604.091198
376.060841	2605.888370
376.447079	2609.344081
376.833254	2608.093874
377.219367	2607.662856
377.605417	2604.590272
377.991404	2607.884667
378.377329	2608.580346
378.763191	2611.166458
379.148991	2607.609924
379.534727	2610.412805
379.920402	2609.553288
380.306013	2607.002465
380.691563	2609.429780
381.077049	2609.449945
381.462474	2610.306941
381.847835	2612.575460
382.233134	2612.469596
382.618371	2613.036726
383.003545	2611.174019
383.388657	2612.038577
383.773706	2612.497322
384.158693	2612.396499
384.543618	2613.021602
384.928480	2614.228959
385.313280	2616.051336
385.698017	2613.555965
386.082692	2617.679628
386.467305	2614.914556
386.851856	2614.846500
387.236344	2616.804988
387.620770	2612.983794
388.005133	2612.686366
388.389435	2614.135697
388.773674	2614.904473
389.157851	2620.774897
389.541965	2613.402209
389.926018	2621.735237
390.310008	2617.825822
390.693936	2617.336830
391.077802	2620.222891
391.461606	2619.640637
391.845348	2619.300359
392.229027	2621.042078
392.612645	2618.715586
392.996200	2620.951337
393.379694	2620.953858
393.763125	2623.119033
394.146494	2622.579630
394.529801	2621.432767
394.913047	2623.474435
395.296230	2621.405041
395.679351	2625.541308
396.062410	2627.822430
396.445408	2625.369909
396.828343	2625.183386
397.211217	2627.504837
397.594028	2627.346041
397.976778	2628.873511
398.359466	2630.201855
398.742092	2629.496093
399.124656	2625.616925
399.507158	2630.670682
399.889598	2631.048768
400.271977	2631.671351
400.654294	2630.985754
401.036549	2632.573717
401.418742	2632.906434
401.800874	2632.215796
402.182944	2633.269397
402.564952	2633.806280
402.946898	2632.273769
403.328783	2635.754686
403.710606	2635.550519
404.092367	2639.991775
404.474067	2640.059831
404.855705	2637.509007
405.237282	2637.682927
405.618797	2640.697537
406.000250	2641.252064
406.381642	2643.444966
406.762972	2641.680562
407.144240	2641.002527
407.525447	2641.120994
407.906593	2639.593524
408.287677	2644.659884
408.668700	2643.576036
409.049661	2643.765079
409.430560	2645.257261
409.811399	2645.995790
410.192176	2647.392189
410.572891	2646.469658
410.953545	2649.890081
411.334138	2651.624238
411.714669	2648.450832
412.095139	2651.394865
412.475547	2652.735812
412.855894	2653.063487
413.236180	2654.754794
413.616405	2654.046512
413.996568	2657.073725
414.376670	2659.090187
414.756711	2659.501041
415.136691	2662.999602
415.516609	2667.534119
415.896466	2674.780778
416.276262	2678.642302
416.655997	2683.464166
417.035670	2695.424303
417.415283	2708.488453
417.794834	2719.140411
418.174324	2728.852194
418.553753	2743.751324
418.933121	2767.217896
419.312428	2790.508026
419.691674	2807.940336
420.070859	2850.596060
420.449983	2869.734800
420.829045	2919.329672
421.208047	2950.955350
421.586988	3008.099350
421.965867	3056.441495
422.344686	3116.716051
422.723444	3173.013136
423.102141	3173.804597
423.480777	3312.585042
423.859352	3323.143739
424.237866	3469.357365
424.616319	3528.132178
424.994712	3662.529339
425.373044	3679.906197
425.751314	3842.828727
426.129524	3905.054210
426.507673	4023.682642
426.885762	4147.992455
427.263789	4227.572109
427.641756	4304.976506
428.019662	4437.193368
428.397508	4596.440898
428.775292	4616.683651
429.153016	4847.442468
429.530679	4898.705962
429.908282	5023.308162
430.285824	5030.131363
430.663305	5383.158326
431.040726	5300.296880
431.418086	5394.513525
431.795385	5638.676770
432.172624	5791.312827
432.549802	5866.607500
432.926920	6023.344535
433.303977	6072.765487
433.680974	6282.416993
434.057910	6452.906296
434.434786	6589.836637
434.811601	6642.627600
435.188355	7066.636529
435.565050	7029.813421
435.941683	7104.006603
436.318257	7535.874691
436.694770	7724.295378
437.071222	7904.183912
437.447614	7918.079852
437.823946	7956.062426
438.200218	8186.682612
438.576429	8157.905185
438.952580	8427.223788
439.328670	8593.511289
439.704700	8529.846557
440.080670	8614.442159
440.456580	9150.689859
440.832429	9049.939878
441.208218	8824.345723
441.583947	9186.933234
441.959616	9385.741218
442.335224	9308.722470
442.710773	9519.840952
443.086261	9773.012739
443.461689	9230.604750
443.837057	9850.636426
444.212365	10175.949646
444.587612	9932.850084
444.962800	10214.196880
445.337927	10076.480118
445.712995	9717.323113
446.088002	10786.067893
446.462949	10501.638431
446.837837	10531.063646
447.212664	10596.263409
447.587431	11091.176168
447.962139	11779.417176
448.336786	13940.877422
448.711374	14553.322162
449.085901	12556.044734
449.460369	12214.705687
449.834776	11726.200235
450.209124	12555.028942
450.583412	12984.593223
450.957640	13940.242237
451.331808	13179.360722
451.705917	12182.805265
452.079965	11542.528315
452.453954	12433.872371
452.827883	12081.525964
453.201752	12370.303421
453.575562	11906.779407
453.949311	12320.799290
454.323001	12281.432920
454.696632	12517.827747
455.070202	12804.427426
455.443713	13072.019433
455.817164	13527.059185
456.190556	13540.440928
456.563888	13911.164862
456.937160	14086.896964
457.310373	13433.024022
457.683526	13505.815763
458.056619	13077.995721
458.429653	13200.263867
458.802628	12671.330882
459.175542	13025.134182
459.548398	13965.281648
459.921194	14300.611640
460.293930	14355.794631
460.666607	15247.234468
461.039224	16278.669669
461.411782	16957.541692
461.784280	16889.685241
462.156719	16912.607368
462.529099	16616.837830
462.901419	15538.403953
463.273680	15334.383415
463.645882	15187.159038
464.018024	14933.619246
464.390106	15153.234593
464.762130	15883.133176
465.134094	16617.092409
465.505999	18587.298840
465.877845	21844.998320
466.249631	24667.575646
466.621358	24390.372678
466.993026	22931.520729
467.364634	22392.679356
467.736184	20944.852409
468.107674	20130.224633
468.479105	20260.999726
468.850477	19728.542974
469.221790	19307.155445
469.593043	18640.974526
469.964238	18085.141944
470.335373	17755.495853
470.706449	18161.273449
471.077467	17706.589098
471.448425	19522.392549
471.819324	23510.119161
472.190164	25602.082061
472.560945	22112.885235
472.931667	19705.600683
473.302330	19065.442200
473.672934	18555.363130
474.043479	18915.730013
474.413965	18728.640191
474.784393	18360.366258
475.154761	19023.063740
475.525070	19042.847748
475.895321	18691.295323
476.265513	19266.369989
476.635645	19839.034984
477.005719	19633.081164
477.375734	19833.426700
477.745691	20319.308232
478.115588	20817.611166
478.485427	21341.581135
478.855207	22376.744268
479.224928	24135.232321
479.594591	26352.150301
479.964194	26437.106346
480.333739	26616.115198
480.703226	26178.994228
481.072653	25854.374167
481.442022	26413.990135
481.811333	27318.839442
482.180584	27259.336182
482.549777	26308.035163
482.918912	25943.794154
483.287988	26046.631172
483.657005	25750.024803
484.025964	25476.627906
484.394864	25407.586784
484.763706	25108.991680
485.132489	24519.443861
485.501213	24686.684140
485.869879	24624.435972
486.238487	24417.599950
486.607036	24568.181736
486.975527	24262.115642
487.343959	24582.170938
487.712333	24550.857811
488.080648	24211.875503
488.448905	24685.295302
488.817104	24414.058540
489.185244	25088.461581
489.553326	25066.048611
489.921350	26040.533896
490.289315	28300.823443
490.657222	30110.010380
491.025070	30594.833268
491.392861	30381.915095
491.760593	29549.091273
492.128267	28649.782195
492.495883	27621.412016
492.863440	26741.471050
493.230939	25874.458124
493.598380	25711.238165
493.965763	25305.538707
494.333088	24870.610638
494.700354	24783.572596
495.067563	24673.662839
495.434713	24428.234264
495.801805	24572.290277
496.168839	24392.298399
496.535815	24222.540064
496.902733	24438.099803
497.269593	24104.957671
497.636395	24284.760505
498.003139	24269.931951
498.369825	24021.307285
498.736453	24210.766449
499.103023	24091.311268
499.469535	24108.604946
499.835989	24318.939528
500.202385	24353.317677
500.568723	23845.804555
500.935003	24102.154790
501.301226	23704.264078
501.667390	24532.573546
502.033497	24781.626711
502.399546	24505.293342
502.765537	24087.527882
503.131470	24461.924296
503.497345	24604.324289
503.863163	23813.445388
504.228923	24429.282824
504.594625	24623.591579
504.960269	24147.010977
505.325856	24643.811647
505.691385	24041.134143
506.056856	24649.019159
506.422270	24610.880309
506.787625	24208.074473
507.152924	24613.153870
507.518164	24644.209898
507.883347	24449.273520
508.248472	24137.939420
508.613540	24913.977164
508.978550	24699.954977
509.343503	24686.500138
509.708398	24941.842142
510.073236	25104.603355
510.438016	25320.258876
510.802738	24988.563556
511.167403	25241.085034
511.532010	24931.215389
511.896561	25711.880912
512.261053	25689.583889
512.625488	25522.530133
512.989866	25421.946511
513.354186	25262.978765
513.718449	25367.406267
514.082655	25739.037608
514.446803	25486.357333
514.810894	25942.208711
515.174927	25426.765854
515.538904	25456.916995
515.902822	25949.445287
516.266684	25699.767020
516.630488	25612.555058
516.994235	25585.347951
517.357925	25881.296449
517.721558	26075.577477
518.085133	26162.706260
518.448651	26075.585039
518.812112	25803.569418
519.175516	25994.445147
519.538863	26167.886045
519.902152	25944.487313
520.265385	26242.016212
520.628560	26015.577664
520.991678	26045.829628
521.354739	26105.854647
521.717743	26180.312489
522.080690	25957.972399
522.443580	26299.775233
522.806413	26299.770192
523.169189	26389.328810
523.531908	26428.677537
523.894569	26035.933843
524.257174	26116.839321
524.619722	26297.574769
524.982213	25986.548180
525.344647	26055.503602
525.707025	26184.511771
526.069345	26171.336715
526.431608	26127.309798
526.793815	26309.668497
527.155964	25776.929441
527.518057	25935.998009
527.880093	25856.937594
528.242072	26091.046258
528.603995	25805.338863
528.965860	25598.555774
529.327669	25647.066797
529.689421	25647.641489
530.051117	25471.301927
530.412755	25653.436295
530.774337	25449.844256
531.135862	25317.864328
531.497331	25526.986513
531.858743	25078.568316
532.220098	25554.808641
532.581396	25243.696352
532.942638	25184.891292
533.303824	25268.254333
533.664953	25285.479955
534.026025	24946.492606
534.387040	25195.747417
534.747999	25252.475521
535.108902	25406.379427
535.469748	24901.717078
535.830537	25094.203455
536.191270	25210.243255
536.551947	25071.419960
536.912567	24728.026643
537.273131	25075.722585
537.633638	24772.996255
537.994089	24993.622353
538.354483	24533.710326
538.714821	25046.365426
539.075103	25070.096657
539.435328	24864.853640
539.795497	24418.865280
540.155609	24826.941643
540.515665	25109.147956
540.875665	24353.431103
541.235609	24640.277798
541.595496	24609.604898
541.955328	24960.509534
542.315102	24888.695777
542.674821	24425.428862
543.034483	24307.917046
543.394090	24472.861079
543.753640	24269.006900
544.113134	24896.625512
544.472571	24506.236038
544.831953	24781.104951
545.191278	24406.012858
545.550548	24332.316230
545.909761	24529.687486
546.268918	24761.147023
546.628019	24726.080757
546.987064	24424.097998
547.346053	24185.197717
547.704986	24307.992663
548.063863	24460.777433
548.422684	24479.591019
548.781449	24011.419062
549.140158	24417.141205
549.498811	23987.181194
549.857408	23729.928593
550.215949	24170.422095
550.574434	23839.145191
550.932864	24056.023191
551.291237	24216.215937
551.649555	24077.846346
552.007817	24123.904848
552.366022	24004.807588
552.724173	24043.468197
553.082267	23979.571572
553.440305	24450.705208
553.798288	23715.553742
554.156215	24229.171702
554.514086	24328.668955
554.871902	23704.435478
555.229661	23983.775894
555.587365	23845.852446
555.945014	23703.838101
556.302606	23959.066679
556.660143	23909.802003
557.017625	24158.338449
557.375050	23683.497045
557.732421	24080.989505
558.089735	23894.338263
558.446994	23958.181956
558.804197	23975.629390
559.161345	23928.446710
559.518437	23667.786289
559.875474	23871.312793
560.232455	24055.269538
560.589381	23872.482341
560.946251	23857.084137
561.303065	24181.938611
561.659825	24269.417754
562.016528	23866.402709
562.373177	23612.487352
562.729770	23962.295538
563.086307	23830.771834
563.442789	24009.568958
563.799216	23829.476257
564.155587	23849.408980
564.511904	23823.810001
564.868164	23757.843982
565.224370	23734.422781
565.580520	23652.892200
565.936615	23780.766108
566.292654	23471.876968
566.648638	23743.743875
567.004567	23581.277568
567.360441	23538.523543
567.716260	23257.267487
568.072023	23586.361572
568.427732	23345.270910
568.783385	23125.020378
569.138982	23356.674000
569.494525	23399.992635
569.850013	23141.802379
570.205445	23244.591506
570.560823	23049.108163
570.916145	22812.441113
571.271412	22972.462460
571.626625	22742.656420
571.981782	22866.542776
572.336884	22656.722391
572.691931	22789.818935
573.046923	22532.674719
573.401860	22416.713057
573.756743	22423.576588
574.111570	22321.662101
574.466342	22259.628182
574.821059	22354.749714
575.175722	22050.689999
575.530330	22046.457951
575.884882	22057.369528
576.239380	21958.636010
576.593823	21864.167307
576.948211	21838.522958
577.302544	21679.653515
577.656823	21546.330119
578.011047	21652.625368
578.365216	21526.341944
578.719330	21402.347203
579.073389	21303.838016
579.427394	21447.548709
579.781344	21216.522711
580.135239	21113.484047
580.489080	21065.260369
580.842866	20841.972542
581.196597	21027.822240
581.550273	21020.041219
581.903895	20899.716438
582.257463	21206.715146
582.610975	20745.109291
582.964434	21055.331817
583.317837	20751.839232
583.671186	20846.968325
584.024481	20811.851648
584.377721	20581.743139
584.730906	20644.760083
585.084037	20668.493835
585.437113	20574.816594
585.790135	20777.533993
586.143103	20238.594317
586.496016	20255.348592
586.848874	20505.200780
587.201679	20429.880900
587.554428	20102.833524
587.907124	20434.735531
588.259765	20218.875844
588.612352	20290.389653
588.964884	19857.828406
589.317362	20030.495487
589.669786	20081.383414
590.022155	20116.212746
590.374470	20315.474434
590.726731	20102.357135
591.078937	19870.254850
591.431090	19968.819490
591.783188	19720.593074
592.135232	19686.590492
592.487222	19788.809968
592.839157	19807.593307
593.191038	19681.435912
593.542866	19579.221477
593.894639	19292.667168
594.246358	19512.703452
594.598022	19414.370705
594.949633	19174.915897
595.301190	19136.603128
595.652692	19300.995155
596.004141	19537.064827
596.355535	18866.114977
596.706876	18875.730978
597.058162	18769.171068
597.409395	18993.812445
597.760573	19075.751360
598.111698	18845.428602
598.462768	18789.239901
598.813785	18753.011649
599.164748	18566.579698
599.515657	18608.897664
599.866511	18405.484585
600.217312	18758.713194
600.568060	18286.997305
600.918753	18597.403833
601.269392	18495.441455
601.619978	18278.918856
601.970510	18485.759919
602.320988	18431.869985
602.671412	18634.917579
603.021783	18543.148415
603.372100	18275.271582
603.722363	18416.512109
604.072572	18357.810393
604.422728	18495.869953
604.772830	18253.287110
605.122878	18209.197178
605.472872	18197.816773
605.822813	18185.251697
606.172701	18157.679106
606.522534	18350.142798
606.872314	18371.227424
607.222041	18198.162092
607.571714	18429.067103
607.921333	18253.468591
608.270899	18326.769489
608.620411	18510.413682
608.969870	18278.576058
609.319276	18280.310215
609.668627	18308.843146
610.017926	18439.323331
610.367171	18556.061330
610.716362	18597.794522
611.065500	18415.950021
611.414585	18555.189211
611.763616	18534.613741
612.112594	18470.785172
612.461518	18444.394731
612.810389	18645.680443
613.159207	18494.213934
613.507971	18407.107837
613.856682	18683.869704
614.205340	18613.822871
614.553945	18759.345859
614.902496	18501.435387
615.250994	18727.432835
615.599439	18675.526594
615.947830	18662.974121
616.296169	18711.606132
616.644454	18673.091717
616.992686	18652.601947
617.340864	18853.290282
617.688990	18619.552142
618.037063	18794.908679
618.385082	18644.558786
618.733048	18924.524306
619.080961	18797.646025
619.428821	18840.213528
619.776628	18709.473724
620.124382	18642.227252
620.472083	18687.431279
620.819731	18708.455411
621.167326	18391.911279
621.514868	18437.810984
621.862357	18211.034679
622.209793	18215.788487
622.557176	18045.299184
622.904506	17870.655971
623.251783	17777.286240
623.599007	17543.593471
623.946179	17485.330336
624.293297	17431.074917
624.640363	17184.867484
624.987376	17203.544959
625.334336	16992.643247
625.681243	16839.001480
626.028097	16852.564705
626.374899	16775.762726
626.721647	16649.968293
627.068343	16475.405739
627.414987	16407.735810
627.761577	16385.590021
628.108115	16431.111640
628.454600	16142.566077
628.801032	16241.062661
629.147412	16168.328893
629.493739	16195.039447
629.840014	15998.711710
630.186236	16101.049654
630.532405	15862.686256
630.878521	16066.064046
631.224585	15957.651512
631.570597	15785.783454
631.916556	15806.195086
632.262462	15789.158507
632.608316	15711.577670
632.954117	15647.764224
633.299866	15641.135106
633.645562	15563.110648
633.991206	15321.094934
634.336797	15190.811354
634.682336	15163.952086
635.027823	15051.012596
635.373257	14923.826805
635.718639	14823.112113
636.063968	14781.777172
636.409245	14526.178069
636.754470	14557.660075
637.099642	14400.141661
637.444762	14176.906766
637.789829	14218.564341
638.134845	14050.779617
638.479808	14076.844903
638.824719	14031.116597
639.169577	13886.009504
639.514383	13924.334876
639.859137	13752.875151
640.203839	13835.628212
640.548489	13669.625537
640.893086	13655.527950
641.237632	13531.243343
641.582125	13682.278833
641.926566	13516.213143
642.270955	13518.211960
642.615292	13476.655209
642.959576	13494.024504
643.303809	13529.012633
643.647990	13464.621974
643.992118	13517.453267
644.336195	13288.158905
644.680219	13496.766892
645.024192	13423.125717
645.368112	13657.809072
645.711981	13713.859141
646.055797	13897.689857
646.399562	13864.869425
646.743274	14137.840344
647.086935	14408.177260
647.430544	14370.187125
647.774101	14405.576025
648.117606	14550.252099
648.461059	14517.799671
648.804460	14513.290359
649.147810	14246.986366
649.491108	14142.470644
649.834354	14155.630576
650.177548	13844.576260
650.520690	13653.892096
650.863781	13583.925921
651.206820	13631.688333
651.549807	13454.106128
651.892742	13253.952155
652.235626	13196.437631
652.578458	13201.619937
652.921238	12888.433213
653.263967	13081.335486
653.606644	12913.651585
653.949269	12891.772978
654.291843	12692.939788
654.634365	12852.789735
654.976836	12700.211652
655.319255	12704.892363
655.661622	12661.830827
656.003938	12578.281264
656.346203	12512.915143
656.688416	12579.513826
657.030577	12543.151983
657.372687	12461.596197
657.714746	12439.233638
658.056753	12627.883697
658.398708	12438.832866
658.740612	12444.420985
659.082465	12549.120710
659.424266	12514.281295
659.766016	12537.543700
660.107715	12449.704115
660.449362	12519.095597
660.790958	12481.385246
661.132503	12418.900144
661.473996	12493.776402
661.815438	12497.832010
662.156829	12522.644570
662.498168	12495.586176
662.839456	12497.635405
663.180693	12518.117613
663.521879	12612.815688
663.863013	12586.616812
664.204097	12561.849623
664.545129	12682.527284
664.886110	12656.134323
665.227040	12747.112027
665.567918	12751.205444
665.908746	12785.734827
666.249522	12764.015016
666.590248	12810.822129
666.930922	12925.909151
667.271545	12901.600707
667.612118	12989.631856
667.952639	12894.278431
668.293109	12906.377200
668.633528	12859.552443
668.973896	12838.621572
669.314213	12916.804827
669.654480	12656.373778
669.994695	12726.675189
670.334859	12739.641037
670.674973	12697.512114
671.015035	12732.439749
671.355047	12670.239472
671.695008	12645.588230
672.034918	12653.308757
672.374777	12690.837627
672.714585	12608.944082
673.054342	12640.176551
673.394049	12592.053696
673.733705	12690.051207
674.073310	12593.750045
674.412864	12617.907254
674.752368	12476.328969
675.091820	12497.045590
675.431223	12488.584014
675.770574	12353.400432
676.109875	12268.744336
676.449125	12236.400292
676.788324	12184.950276
677.127473	12012.121878
677.466571	12006.614418
677.805619	11903.704303
678.144616	11818.660038
678.483562	11793.918055
678.822458	11661.771768
679.161303	11642.680919
679.500098	11627.915379
679.838842	11579.636249
680.177535	11611.662699
680.516179	11665.860144
680.854771	11612.774274
681.193314	11829.914414
681.531805	11983.722538
681.870247	12402.319789
682.208638	12820.695229
682.546978	13124.346610
682.885268	13178.455835
683.223508	12865.266591
683.561697	12709.608363
683.899836	12616.793159
684.237925	12418.186821
684.575963	12336.321003
684.913951	12251.702715
685.251889	12200.424098
685.589776	12304.879326
685.927614	12219.232643
686.265401	12191.680217
686.603137	12241.088566
686.940824	12387.927295
687.278460	12516.292716
687.616046	12562.560426
687.953582	12726.670148
688.291068	12658.833861
688.628504	12891.289027
688.965889	12903.314699
689.303224	12861.853730
689.640510	12762.676589
689.977745	12444.388218
690.314930	12216.162580
690.652065	12126.921554
690.989150	11831.424239
691.326185	11616.938267
691.663170	11407.672409
692.000105	11167.274905
692.336990	11053.299458
692.673825	10795.716661
693.010610	10683.767758
693.347345	10476.324277
693.684030	10279.227764
694.020665	10217.894566
694.357251	10021.478609
694.693786	9960.344537
695.030272	9802.385022
695.366707	9681.745169
695.703093	9620.041446
696.039429	9606.780691
696.375716	9533.625987
696.711952	9400.826871
697.048139	9444.503428
697.384276	9402.694619
697.720363	9419.814377
698.056400	9357.853555
698.392388	9297.344586
698.728326	9269.177139
699.064214	9200.768681
699.400053	9249.607379
699.735842	9065.136437
700.071581	9021.225466
700.407270	8942.643960
700.742910	8866.295685
701.078501	8773.354452
701.414042	8652.263416
701.749533	8585.788241
702.084974	8446.402858
702.420366	8564.469201
702.755709	8442.753062
703.091002	8309.192732
703.426246	8340.702464
703.761440	8285.111140
704.096584	8250.644772
704.431679	8179.672887
704.766725	8162.432141
705.101721	8115.267106
705.436668	8161.388622
705.771565	8055.027838
706.106413	8136.263511
706.441212	8178.553751
706.775961	8136.732339
707.110661	8173.131990
707.445311	8313.762538
707.779913	8211.185140
708.114465	8342.461827
708.448967	8375.809060
708.783421	8519.676029
709.117825	8702.798463
709.452180	8740.244154
709.786485	8829.946445
710.120742	9113.465979
710.454949	9115.500084
710.789107	9210.011637
711.123216	9434.690822
711.457275	9598.694680
711.791286	9754.577240
712.125247	9749.815870
712.459159	9736.431606
712.793023	9985.668773
713.126837	9560.202950
713.460602	9709.539571
713.794318	9534.596409
714.127985	9567.321059
714.461602	9238.320236
714.795171	9191.243421
715.128691	8944.201677
715.462162	8693.235394
715.795584	8634.639542
716.128957	8492.063109
716.462281	8321.291502
716.795556	8373.164975
717.128782	8163.934405
717.461960	7900.445896
717.795088	7972.854509
718.128167	7879.512505
718.461198	7712.247020
718.794180	7651.614542
719.127113	7645.439129
719.459997	7497.967735
719.792833	7264.426201
720.125619	7328.844585
720.458357	7182.615835
720.791046	7171.593352
721.123686	7172.614186
721.456278	7014.558890
721.788821	7028.822834
722.121315	6927.593945
722.453761	6992.092987
722.786158	6939.244051
723.118506	6945.071625
723.450805	6916.636997
723.783056	6983.321380
724.115259	6886.528705
724.447412	6885.056688
724.779518	6932.060407
725.111574	6935.813546
725.443582	7016.293047
725.775542	6998.228072
726.107453	7189.802000
726.439315	7098.622651
726.771129	7162.920047
727.102895	7335.667787
727.434612	7439.986904
727.766281	7476.023592
728.097901	7553.004532
728.429473	7547.519757
728.760996	7521.547732
729.092471	7499.341449
729.423897	7449.650796
729.755276	7460.774102
730.086606	7378.366360
730.417887	7481.818398
730.749120	7681.735437
731.080305	7872.777523
731.411442	7994.276893
731.742530	7989.061819
732.073570	8096.503931
732.404562	8180.071138
732.735506	8027.871142
733.066401	8175.171137
733.397249	8096.541740
733.728048	7861.878549
734.058798	7525.195007
734.389501	7294.252187
734.720156	7124.125848
735.050762	6891.451392
735.381320	6798.149717
735.711831	6740.466314
736.042293	6633.077134
736.372707	6653.082953
736.703073	6522.391040
737.033391	6554.278858
737.363661	6565.576084
737.693883	6607.531087
738.024056	6680.418610
738.354182	6727.434931
738.684260	6754.742862
739.014290	6876.882458
739.344272	6986.404045
739.674207	7019.279930
740.004093	7083.549601
740.333931	7096.210458
740.663722	7106.854855
740.993464	7186.852925
741.323159	7172.936820
741.652806	6922.537667
741.982405	6942.772859
742.311956	6994.021229
742.641460	6828.366393
742.970915	6633.571167
743.300323	6620.633046
743.629683	6576.959009
743.958996	6444.132167
744.288260	6358.195618
744.617477	6302.558923
744.946647	6300.797040
745.275768	6134.968284
745.604842	6091.682417
745.933869	6072.281536
746.262847	6031.387696
746.591778	6021.481829
746.920662	5976.129088
747.249498	5968.499302
747.578286	6018.457137
747.907027	6099.544096
748.235720	6152.945039
748.564365	6129.055011
748.892963	6158.659187
749.221514	6307.453884
749.550017	6142.943390
749.878473	6017.592579
750.206881	6070.312966
750.535242	6016.123082
750.863555	5941.846722
751.191821	5962.452438
751.520039	5964.693231
751.848210	5872.283840
752.176334	5895.982304
752.504411	5937.818840
752.832440	5866.773858
753.160421	5795.996058
753.488356	5850.899265
753.816243	5878.577720
754.144082	5729.762859
754.471875	5700.884609
754.799620	5747.908492
755.127318	5756.521303
755.454969	5710.588830
755.782572	5676.293860
756.110129	5720.154419
756.437638	5699.420154
756.765100	5644.232122
757.092515	5642.452595
757.419882	5696.443352
757.747203	5673.647255
758.074477	5736.820474
758.401703	5721.507969
758.728882	5674.453839
759.056014	5732.946347
759.383099	5863.076172
759.710138	5873.347523
760.037129	5857.840934
760.364073	5862.327561
760.690970	5943.036434
761.017820	5923.141520
761.344623	5881.577207
761.671379	5982.246528
761.998088	6101.517708
762.324751	6348.526685
762.651366	6959.237267
762.977935	8265.874097
763.304456	9907.868646
763.630931	10796.888729
763.957359	10393.886288
764.283740	9448.526269
764.610074	8601.067978
764.936362	7609.142821
765.262602	7015.423448
765.588796	6484.027859
765.914943	6149.481766
766.241044	5988.958825
766.567097	5783.224295
766.893104	5526.248957
767.219064	5346.068037
767.544978	5282.904899
767.870845	5203.564700
768.196665	5099.346406
768.522438	5028.845869
768.848165	4994.946630
769.173846	4928.408440
769.499479	4881.573601
769.825066	4836.624152
770.150607	4773.501344
770.476101	4748.504783
770.801548	4741.898351
771.126949	4663.626876
771.452303	4612.991006
771.777611	4573.959872
772.102872	4598.132205
772.428087	4556.104105
772.753256	4511.653731
773.078378	4470.530519
773.403453	4399.722472
773.728482	4385.564391
774.053465	4340.746013
774.378401	4329.819312
774.703291	4328.884178
775.028135	4253.014813
775.352932	4210.414542
775.677683	4195.964075
776.002388	4210.704408
776.327046	4223.788723
776.651658	4153.487312
776.976224	4089.938527
777.300743	4093.641254
777.625216	4114.002475
777.949643	4110.488791
778.274024	4065.118406
778.598359	4021.724154
778.922647	4046.047721
779.246889	4037.364333
779.571086	4028.615411
779.895236	4017.953371
780.219339	4001.748582
780.543397	3994.398579
780.867409	4049.311868
781.191374	4060.382242
781.515294	3997.521574
781.839167	3993.045029
782.162995	4014.447248
782.486776	3999.258252
782.810511	4009.224613
783.134201	4005.000126
783.457844	3960.915235
783.781441	3905.835588
784.104993	3911.542175
784.428498	3930.370884
784.751958	3927.691511
785.075372	3907.300044
785.398739	3871.636401
785.722061	3879.062020
786.045337	3925.491047
786.368568	3954.601190
786.691752	3868.218498
787.014891	3918.146086
787.337983	4047.078637
787.661030	4206.260631
787.984031	4368.288357
788.306987	4536.735992
788.629897	4620.043580
788.952760	4573.347372
789.275579	4502.395652
789.598351	4441.415335
789.921078	4301.518274
790.243759	4101.422275
790.566395	4081.056014
790.888984	4077.784305
791.211529	3968.708859
791.534027	3909.233326
791.856480	3900.615474
792.178888	3840.096422
792.501249	3788.613638
792.823566	3800.906492
793.145836	3827.911953
793.468062	3775.201648
793.790241	3731.507447
794.112375	3758.094493
794.434464	3825.038495
794.756507	3849.432639
795.078505	3828.597550
795.400457	3865.425699
795.722364	4005.983151
796.044226	4111.691106
796.366042	4180.679296
796.687812	4160.600380
797.009538	4165.974250
797.331218	4123.673928
797.652852	4095.219136
797.974442	4074.575611
798.295986	4075.823296
798.617484	3994.534690
798.938938	3907.486566
799.260346	3950.351497
799.581709	3943.921506
799.903026	3871.152450
800.224299	3836.907892
800.545526	3829.464628
800.866708	3787.118936
801.187845	3728.374370
801.508936	3764.395935
801.829983	3762.134977
802.150984	3686.825180
802.471940	3675.588448
802.792851	3682.434335
803.113717	3685.267464
803.434538	3684.554140
803.755314	3629.575317
804.076045	3604.036831
804.396731	3626.343937
804.717372	3651.728667
805.037967	3633.278044
805.358518	3626.530460
805.679024	3652.278153
805.999485	3667.187365
806.319901	3671.863036
806.640272	3682.154551
806.960598	3697.149463
807.280879	3672.750279
807.601115	3683.059438
807.921306	3702.533416
808.241453	3742.081268
808.561554	3712.928275
808.881611	3651.337978
809.201623	3689.862475
809.521590	3701.429403
809.841513	3668.326666
810.161390	3699.294474
810.481223	3681.526927
810.801011	3626.578351
811.120755	3618.487299
811.440453	3650.803615
811.760107	3651.693379
812.079716	3609.120835
812.399281	3579.839293
812.718801	3603.441975
813.038276	3576.025660
813.357707	3577.427101
813.677093	3593.523505
813.996434	3539.114331
814.315731	3548.402657
814.634983	3552.357442
814.954191	3567.584248
815.273354	3594.357816
815.592473	3590.713062
815.911547	3596.770008
816.230577	3637.376502
816.549562	3692.241900
816.868502	3731.189855
817.187399	3756.027620
817.506250	3746.872884
817.825058	3724.780028
818.143821	3817.204542
818.462539	3919.096344
818.781213	3962.271306
819.099843	4023.390255
819.418429	4271.505765
819.736970	4509.299513
820.055466	4758.758490
820.373919	5123.317092
820.692327	5531.267426
821.010691	5983.002702
821.329011	7370.260184
821.647286	10137.437751
821.965517	14714.263519
822.283704	18742.011852
822.601847	20865.197138
822.919945	19031.522796
823.237999	16442.023218
823.556010	13945.359008
823.873976	11847.601302
824.191897	9757.266695
824.509775	8413.126201
824.827609	7285.457894
825.145398	6750.969558
825.463144	6634.231558
825.780845	6749.900833
826.098502	6947.846780
826.416116	7834.278231
826.733685	9164.573196
827.051210	10270.226784
827.368692	10298.338779
827.686129	9036.429586
828.003522	7516.955241
828.320872	6498.627040
828.638177	5793.876253
828.955439	5241.885031
829.272656	4742.901541
829.589830	4465.144046
829.906960	4285.217703
830.224046	4102.412862
830.541088	3979.156651
830.858086	3930.723765
831.175041	3855.524873
831.491952	3840.930733
831.808819	3848.648739
832.125642	3924.860903
832.442421	4068.254004
832.759157	4349.724308
833.075849	4903.752157
833.392497	5770.941524
833.709101	6548.539505
834.025662	6881.192644
834.342179	6515.192272
834.658653	5846.127813
834.975083	5193.552968
835.291469	4619.226913
835.607811	4209.255077
835.924110	4070.305753
836.240366	3870.751678
836.556578	3670.317922
836.872746	3563.936973
837.188871	3521.059439
837.504952	3453.376907
837.820990	3374.664331
838.136984	3326.705314
838.452935	3352.798326
838.768842	3345.758355
839.084706	3370.369268
839.400526	3527.665871
839.716303	3870.860063
840.032037	4398.915887
840.347727	4661.068490
840.663373	4374.627608
840.978977	3989.324658
841.294537	3684.922145
841.610054	3454.307000
841.925527	3349.420753
842.240957	3283.079169
842.556344	3228.601940
842.871687	3168.100532
843.186987	3119.193778
843.502244	3085.415526
843.817458	3048.632747
844.132629	3018.564785
844.447756	3024.924201
844.762840	3008.366531
845.077881	2979.193374
845.392879	2959.361474
845.707833	2958.290229
846.022745	2956.306535
846.337613	2956.666978
846.652438	2945.067283
846.967221	2941.125100
847.281960	2930.079932
847.596656	2925.820157
847.911309	2925.701690
848.225919	2915.604259
848.540485	2912.786254
848.855009	2911.573857
849.169490	2901.519275
849.483928	2894.643141
849.798323	2892.175497
850.112675	2892.228429
850.426984	2904.952301
850.741251	2901.604975
851.055474	2890.257338
851.369654	2882.690566
851.683792	2886.673077
851.997887	2894.620456
852.311938	2897.486352
852.625947	2887.041081
852.939914	2891.928480
853.253837	2895.404356
853.567718	2879.960781
853.881555	2879.660832
854.195350	2895.860580
854.509103	2890.083418
854.822812	2883.169475
855.136479	2882.861965
855.450103	2881.304248
855.763685	2876.923486
856.077224	2870.629605
856.390720	2885.974877
856.704173	2893.476114
857.017584	2887.709034
857.330953	2881.962119
857.644278	2895.555590
857.957561	2900.785787
858.270802	2904.324677
858.584000	2904.092784
858.897155	2890.327914
859.210268	2891.000908
859.523339	2892.261196
859.836367	2886.161400
860.149352	2880.253168
860.462295	2879.156717
860.775195	2886.476472
861.088054	2886.461349
861.400869	2871.093391
861.713642	2866.102649
862.026373	2882.539331
862.339062	2882.297356
862.651708	2888.157697
862.964312	2892.777914
863.276873	2886.300032
863.589392	2897.350241
863.901869	2910.353897
864.214303	2931.930036
864.526696	2947.151800
864.839045	2944.129628
865.151353	2941.467899
865.463619	2938.773402
865.775842	2940.981428
866.088023	2961.390539
866.400162	2966.986220
866.712258	2936.555294
867.024313	2928.421393
867.336325	2934.029676
867.648296	2956.977009
867.960224	2950.045422
868.272110	2933.969183
868.583954	2939.771551
868.895755	2956.314097
869.207515	2943.199535
869.519233	2947.199691
869.830909	2956.031792
870.142542	2968.075109
870.454134	2963.626291
870.765684	2968.178453
871.077191	2966.479584
871.388657	2974.759679
871.700081	2990.573778
872.011463	3001.190448
872.322803	3003.816890
872.634101	3000.003257
872.945357	3019.399096
873.256571	3043.826007
873.567744	3039.276366
873.878874	3028.377391
874.189963	3050.465207
874.501010	3053.134498
874.812015	3042.439690
875.122979	3044.060421
875.433900	3041.121428
875.744780	3048.317675
876.055618	3054.435115
876.366415	3050.394631
876.677169	3058.987277
876.987882	3060.774366
877.298554	3052.214487
877.609183	3072.731983
877.919771	3098.512444
878.230317	3123.143522
878.540822	3176.564629
878.851285	3212.114846
879.161707	3258.798451
879.472087	3358.459542
879.782425	3591.297835
880.092722	4027.995349
880.402977	4560.174837
880.713191	5194.727557
881.023363	6365.162492
881.333494	7644.017523
881.643583	8190.990277
881.953631	7887.124647
882.263637	7251.256186
882.573602	6661.773902
882.883526	6081.607671
883.193408	5504.947562
883.503248	5046.968817
883.813048	4738.344337
884.122806	4436.240590
884.432522	4122.280049
884.742197	3884.819018
885.051831	3690.104451
885.361424	3555.581260
885.670975	3484.717761
885.980485	3398.566962
886.289954	3317.043943
886.599382	3277.498611
886.908768	3237.396232
887.218113	3195.728575
887.527417	3136.353865
887.836680	3090.285281
888.145901	3080.596183
888.455082	3070.292065
888.764221	3019.421781
889.073319	2991.687873
889.382376	2986.150166
889.691392	2994.992350
890.000366	2991.483707
890.309300	2982.142449
890.618193	2993.036382
890.927044	3010.075482
891.235855	3008.490039
891.544625	2994.684839
891.853353	3007.527179
892.162041	3024.246166
892.470687	3066.493555
892.779293	3120.033130
893.087858	3166.237825
893.396381	3236.745924
893.704864	3358.492310
894.013306	3602.025411
894.321707	3903.297367
894.630068	4106.483594
894.938387	4102.211216
895.246665	4061.327458
895.554903	3941.637863
895.863100	3736.626739
896.171256	3565.729103
896.479371	3427.994698
896.787446	3304.932571
897.095480	3199.635470
897.403473	3133.757671
897.711425	3104.080398
898.019336	3090.562544
898.327207	3064.628328
898.635038	3025.319931
898.942827	3015.262829
899.250576	2999.559635
899.558284	2968.556539
899.865952	2948.074331
900.173579	2929.517844
900.481165	2924.396031
900.788711	2909.506983
901.096216	2883.051008
901.403681	2871.950387
901.711105	2881.057232
902.018489	2877.903990
902.325832	2877.268805
902.633135	2887.396483
902.940397	2918.129877
903.247619	3005.656911
903.554800	3199.630428
903.861941	3550.978687
904.169041	3979.774192
904.476101	4273.907875
904.783121	4227.241914
905.090100	3979.552381
905.397039	3703.178683
905.703938	3452.242648
906.010796	3268.500152
906.317614	3156.775580
906.624391	3063.000036
906.931129	2990.089828
907.237826	2927.912236
907.544483	2879.272663
907.851099	2850.538086
908.157675	2828.412462
908.464211	2811.660708
908.770707	2797.563121
909.077163	2785.212294
909.383578	2770.439193
909.689954	2759.651124
909.996289	2756.865886
910.302584	2759.608274
910.608839	2757.806061
910.915054	2752.772469
911.221229	2745.394741
911.527363	2746.498753
911.833458	2756.099631
912.139513	2758.499220
912.445527	2762.338059
912.751502	2769.804007
913.057436	2781.005451
913.363331	2793.782256
913.669186	2816.172541
913.975000	2849.814681
914.280775	2908.707961
914.586510	2979.526090
914.892205	3060.008111
915.197859	3190.581557
915.503475	3384.996176
915.809050	3603.157150
916.114585	3746.706526
916.420081	3767.816358
916.725536	3705.742110
917.030952	3586.118050
917.336328	3457.082155
917.641665	3325.770180
917.946961	3224.269068
918.252218	3156.699962
918.557435	3075.431521
918.862612	3014.562109
919.167750	2964.148050
919.472848	2925.918460
919.777906	2899.165056
920.082925	2872.048690
920.387904	2843.054493
920.692843	2826.653099
920.997743	2814.030050
921.302603	2801.152423
921.607423	2790.462656
921.912204	2780.279525
922.216946	2768.415170
922.521647	2758.322780
922.826310	2752.172572
923.130932	2743.279977
923.435516	2733.502659
923.740059	2728.390929
924.044564	2720.602346
924.349028	2713.113712
924.653454	2707.770089
924.957840	2701.423276
925.262186	2699.003522
925.566493	2693.367512
925.870761	2690.625125
926.174989	2685.783096
926.479178	2681.364525
926.783328	2674.924451
927.087438	2672.494615
927.391509	2674.130469
927.695541	2670.616785
927.999533	2666.861125
928.303486	2663.579334
928.607400	2661.094045
928.911275	2661.341062
929.215110	2663.294509
929.518906	2659.750578
929.822663	2661.169663
930.126381	2662.432472
930.430060	2663.072698
930.733699	2660.758809
931.037299	2662.256031
931.340861	2664.590086
931.644383	2665.371464
931.947866	2661.073881
932.251309	2661.477173
932.554714	2660.862152
932.858080	2658.424754
933.161407	2656.239414
933.464694	2652.309835
933.767943	2652.403096
934.071153	2651.142808
934.374323	2652.294711
934.677455	2654.185144
934.980548	2654.913591
935.283602	2651.687252
935.586617	2653.008035
935.889593	2654.487613
936.192530	2650.888229
936.495428	2652.125833
936.798287	2652.665236
937.101108	2657.126657
937.403890	2664.070847
937.706632	2663.478511
938.009336	2671.685510
938.312002	2682.256809
938.614628	2691.298119
938.917216	2699.726928
939.219765	2696.853470
939.522275	2696.314067
939.824747	2691.991277
940.127179	2691.474559
940.429573	2686.806451
940.731929	2685.200843
941.034246	2680.315965
941.336524	2677.313958
941.638763	2678.440656
941.940964	2674.138031
942.243126	2672.781961
942.545250	2673.366734
942.847335	2669.555622
943.149381	2664.990857
943.451389	2663.102945
943.753359	2658.586071
944.055290	2657.124137
944.357182	2656.148673
944.659036	2657.126657
944.960851	2658.223108
945.262628	2652.118271
945.564367	2654.170021
945.866067	2656.171359
946.167729	2655.624393
946.469352	2655.526091
946.770937	2656.320073
947.072484	2654.086842
947.373992	2654.187665
947.675462	2650.157262
947.976893	2646.913280
948.278286	2645.955460
948.579641	2647.364463
948.880958	2648.138280
949.182236	2645.423619
949.483476	2643.248361
949.784678	2645.605100
950.085841	2644.705254
950.386967	2644.947230
950.688054	2644.707775
950.989103	2647.818167
951.290114	2647.495533
951.591087	2649.242293
951.892021	2653.045843
952.192917	2656.136071
952.493776	2655.039620
952.794596	2656.186482
953.095378	2657.383756
953.396122	2657.764363
953.696828	2656.294867
953.997496	2652.350164
954.298126	2653.549959
954.598718	2649.156593
954.899272	2646.560399
955.199788	2645.239617
955.500266	2644.246509
955.800706	2638.925571
956.101108	2636.979686
956.401472	2637.398102
956.701798	2633.602113
957.002087	2633.539098
957.302337	2631.179838
957.602550	2629.644807
957.902724	2627.260341
958.202861	2623.368571
958.502960	2625.740433
958.803022	2628.795373
959.103045	2625.528705
959.403031	2622.115844
959.702979	2623.988632
960.002889	2623.650875
960.302762	2623.182048
960.602596	2623.343365
960.902393	2623.809672
961.202153	2620.447222
961.501875	2619.980915
961.801559	2621.261368
962.101205	2618.617283
962.400814	2618.609721
962.700385	2619.063425
962.999918	2618.912191
963.299414	2615.884978
963.598873	2615.947992
963.898293	2613.563526
964.197677	2617.876233
964.497022	2618.539145
964.796331	2619.386059
965.095601	2618.997890
965.394835	2616.628548
965.694030	2617.722478
965.993189	2616.817591
966.292309	2617.122581
966.591393	2618.645009
966.890439	2617.903960
967.189447	2618.002262
967.488419	2617.732561
967.787353	2615.524535
968.086249	2615.330451
968.385108	2616.310955
968.683930	2617.054525
968.982714	2615.723661
969.281462	2618.864300
969.580172	2617.299021
969.878844	2617.651902
970.177480	2617.563682
970.476078	2618.496295
970.774639	2617.296501
971.073162	2619.146604
971.371649	2617.195678
971.670098	2618.468569
971.968510	2618.481172
972.266885	2616.429422
972.565223	2618.040071
972.863524	2617.518312
973.161788	2616.842797
973.460014	2617.566202
973.758204	2618.992849
974.056356	2619.963271
974.354471	2618.556789
974.652550	2617.951851
974.950591	2618.027468
975.248595	2621.079887
975.546563	2614.816253
975.844493	2618.589557
976.142386	2619.335647
976.440243	2614.163424
976.738062	2619.514608
977.035845	2618.216511
977.333590	2618.231635
977.631299	2616.348764
977.928971	2612.174688
978.226606	2610.760645
978.524204	2615.602673
978.821765	2609.447424
979.119290	2616.550410
979.416777	2615.532097
979.714228	2616.338682
980.011642	2615.658126
980.309020	2614.607045
980.606360	2614.544031
980.903664	2617.288939
981.200931	2616.275667
981.498162	2615.945472
981.795356	2615.610235
982.092513	2615.224587
982.389633	2620.026286
982.686717	2623.234980
982.983764	2630.325363
983.280775	2632.820734
983.577749	2634.325518
983.874686	2634.764099
984.171587	2629.052472
984.468451	2626.665485
984.765279	2625.458129
985.062070	2624.848149
985.358824	2619.570061
985.655543	2620.847994
985.952224	2616.409258
986.248869	2613.984463
986.545478	2617.079731
986.842050	2615.469082
987.138586	2612.971191
987.435086	2614.929679
987.731549	2613.329113
988.027975	2611.519338
988.324366	2612.441870
988.620719	2609.434821
988.917037	2613.089658
989.213318	2611.950357
989.509563	2614.047477
989.805772	2611.211828
990.101944	2611.579832
990.398080	2612.227621
990.694180	2611.325254
990.990244	2611.879781
991.286271	2613.954216
991.582262	2610.501025
991.878217	2611.133690
992.174136	2613.750049
992.470019	2610.813577
992.765865	2608.671087
993.061676	2605.321240
993.357450	2609.414657
993.653188	2605.187649
993.948890	2611.456324
994.244556	2612.998917
994.540186	2611.710902
994.835780	2611.209307
995.131337	2609.591097
995.426859	2613.679473
995.722345	2613.109822
996.017795	2614.085286
996.313208	2616.512601
996.608586	2615.837087
996.903928	2619.620473
997.199234	2617.944289
997.494504	2616.875564
997.789738	2612.469596
998.084936	2615.892539
998.380099	2615.345574
998.675225	2613.140069
998.970316	2614.201232
999.265371	2610.251488
999.560390	2612.991355
999.855373	2613.195522
1000.150320	2610.193515
1000.445232	2611.962960
1000.740108	2612.976232
1001.034948	2612.194853
1001.329752	2613.606376
1001.624521	2610.506067
1001.919254	2610.952209
1002.213951	2610.395161
1002.508613	2609.959101
1002.803239	2611.332816
1003.097829	2609.175202
1003.392384	2612.406582
1003.686903	2608.489605
1003.981386	2609.492795
1004.275834	2608.875253
1004.570246	2609.613782
1004.864623	2610.987497
1005.158964	2608.298041
1005.453270	2609.197887
1005.747540	2611.496653
1006.041775	2610.478340
1006.335974	2608.502208
1006.630138	2609.515480
1006.924266	2608.000613
1007.218359	2609.757455
1007.512416	2605.747217
1007.806438	2605.288472
1008.100425	2605.071703
1008.394376	2605.401898
1008.688292	2607.052876
1008.982172	2610.649739
1009.276017	2607.761158
1009.569827	2608.232506
1009.863602	2608.456837
1010.157341	2609.865840
1010.451045	2608.953391
1010.744714	2608.532455
1011.038347	2608.761827
1011.331945	2610.019595
1011.625508	2608.562702
1011.919036	2610.806015
1012.212528	2605.953905
1012.505986	2607.861981
1012.799408	2608.983638
1013.092795	2606.866353
1013.386147	2609.268463
1013.679464	2609.558330
1013.972745	2608.154368
1014.265992	2608.600510
1014.559204	2608.804677
1014.852380	2609.424739
1015.145521	2607.199070
1015.438628	2607.856940
1015.731699	2607.980448
1016.024736	2609.628906
1016.317737	2607.814090
1016.610703	2608.920624
1016.903635	2607.551950
1017.196531	2607.355345
1017.489393	2610.017075
1017.782219	2606.657146
1018.075011	2607.824173
1018.367768	2609.586056
1018.660490	2608.073710
1018.953177	2608.073710
1019.245829	2608.073710
