Dividing Wavelength (nm)	Counts (n)	Blue Motor Position (mm): 24.700000	Red Motor Position (mm): 0.000000	
326.493990	2197.892665
326.888308	2197.892665
327.282561	2197.892665
327.676750	2158.173414
328.070874	2155.216778
328.464933	2152.338279
328.858929	2157.896151
329.252859	2165.004178
329.646726	2171.534993
330.040528	2185.219205
330.434265	2197.176822
330.827938	2217.664071
331.221547	2231.673437
331.615091	2248.654564
332.008571	2266.913623
332.401986	2289.752571
332.795338	2305.826290
333.188625	2324.501244
333.581847	2342.601507
333.975006	2359.781759
334.368100	2381.579709
334.761129	2396.718294
335.154095	2418.145718
335.546996	2442.900304
335.939833	2476.885243
336.332606	2491.403766
336.725315	2506.108812
337.117960	2518.010976
337.510540	2526.328880
337.903056	2541.490150
338.295508	2547.426108
338.687896	2559.519837
339.080220	2564.465208
339.472480	2571.510221
339.864676	2577.758731
340.256807	2583.346850
340.648875	2586.119485
341.040879	2588.103179
341.432818	2592.277254
341.824694	2595.707759
342.216506	2592.849425
342.608253	2596.784046
342.999937	2596.680702
343.391557	2595.599375
343.783113	2597.220106
344.174605	2595.009560
344.566033	2594.654158
344.957397	2592.564600
345.348697	2592.148705
345.739934	2589.151739
346.131106	2591.571493
346.522215	2585.141501
346.913260	2586.676532
347.304241	2581.842066
347.695159	2581.093454
348.086012	2580.871644
348.476802	2577.718402
348.867528	2571.933678
349.258191	2570.479305
349.648789	2568.886300
350.039324	2567.825137
350.429796	2570.081054
350.820203	2566.287586
351.210548	2567.177349
351.600828	2563.845147
351.991045	2566.232133
352.381198	2563.726679
352.771288	2564.019066
353.161314	2559.925649
353.551276	2563.162070
353.941175	2559.265258
354.331010	2562.547049
354.720782	2563.593089
355.110490	2562.116031
355.500135	2560.593602
355.889717	2563.512430
356.279235	2561.072512
356.668689	2564.860939
357.058080	2561.284240
357.447408	2562.161401
357.836672	2560.999415
358.225873	2561.984961
358.615010	2562.862122
359.004084	2564.268603
359.393095	2559.144271
359.782043	2566.474108
360.170927	2567.106773
360.559748	2566.436300
360.948505	2566.181721
361.337199	2567.719273
361.725830	2567.242884
362.114398	2569.334963
362.502903	2565.105435
362.891344	2566.471588
363.279722	2567.689026
363.668037	2571.666497
364.056289	2567.784808
364.444478	2572.183215
364.832603	2574.083730
365.220665	2574.086251
365.608665	2572.591548
365.996601	2574.895356
366.384474	2572.526013
366.772284	2573.327557
367.160031	2574.371076
367.547715	2575.396951
367.935336	2570.139027
368.322893	2571.812690
368.710388	2571.805128
369.097820	2571.772361
369.485189	2573.357804
369.872495	2575.618761
370.259738	2576.281673
370.646918	2575.326374
371.034035	2577.332754
371.421090	2575.868298
371.808081	2579.500450
372.195010	2578.910635
372.581875	2576.647157
372.968678	2579.233269
373.355418	2577.766293
373.742096	2576.221179
374.128710	2578.005748
374.515262	2580.985070
374.901751	2580.095306
375.288177	2580.450707
375.674540	2581.902560
376.060841	2581.300142
376.447079	2579.949113
376.833254	2581.249730
377.219367	2580.664956
377.605417	2580.924576
377.991404	2581.809298
378.377329	2581.945409
378.763191	2582.212591
379.148991	2581.416088
379.534727	2581.700913
379.920402	2580.702765
380.306013	2583.349371
380.691563	2582.608321
381.077049	2580.871644
381.462474	2584.145873
381.847835	2583.243507
382.233134	2584.425657
382.618371	2586.749629
383.003545	2586.265678
383.388657	2584.985225
383.773706	2584.347519
384.158693	2584.055132
384.543618	2586.011100
384.928480	2587.278950
385.313280	2585.610328
385.698017	2584.513877
386.082692	2587.142839
386.467305	2588.456060
386.851856	2588.934969
387.236344	2586.956316
387.620770	2586.616038
388.005133	2585.116295
388.389435	2585.207036
388.773674	2586.331213
389.157851	2589.822212
389.541965	2587.752819
389.926018	2590.079311
390.310008	2589.040833
390.693936	2588.879517
391.077802	2591.488314
391.461606	2590.525453
391.845348	2588.072932
392.229027	2591.150556
392.612645	2591.337079
392.996200	2592.284816
393.379694	2589.673498
393.763125	2593.197265
394.146494	2593.890423
394.529801	2592.287337
394.913047	2592.330186
395.296230	2595.856473
395.679351	2591.521081
396.062410	2593.724065
396.445408	2592.804055
396.828343	2594.868407
397.211217	2594.185331
397.594028	2594.870928
397.976778	2596.048037
398.359466	2596.751278
398.742092	2596.421083
399.124656	2591.684919
399.507158	2597.003336
399.889598	2597.376381
400.271977	2595.125506
400.654294	2597.666248
401.036549	2597.877976
401.418742	2597.472163
401.800874	2599.733121
402.182944	2598.034252
402.564952	2597.331011
402.946898	2600.275045
403.328783	2596.320260
403.710606	2601.179932
404.092367	2601.467278
404.474067	2596.932760
404.855705	2599.745724
405.237282	2597.172215
405.618797	2599.256732
406.000250	2600.176742
406.381642	2596.622729
406.762972	2597.837647
407.144240	2599.402925
407.525447	2597.986361
407.906593	2598.976948
408.287677	2602.215889
408.668700	2598.545929
409.049661	2606.132866
409.430560	2603.803852
409.811399	2604.938112
410.192176	2604.103801
410.572891	2603.932402
410.953545	2603.695468
411.334138	2604.086157
411.714669	2603.881990
412.095139	2605.401898
412.475547	2605.759820
412.855894	2604.292844
413.236180	2605.154882
413.616405	2606.856271
413.996568	2604.204624
414.376670	2603.914758
414.756711	2607.214193
415.136691	2607.589759
415.516609	2608.356014
415.896466	2605.699326
416.276262	2607.264605
416.655997	2606.185798
417.035670	2608.918103
417.415283	2610.558999
417.794834	2608.756786
418.174324	2606.906683
418.553753	2607.882146
418.933121	2608.512290
419.312428	2608.078751
419.691674	2612.298197
420.070859	2612.512446
420.449983	2609.923813
420.829045	2610.087651
421.208047	2609.530603
421.586988	2610.919441
421.965867	2614.309617
422.344686	2610.644698
422.723444	2612.456993
423.102141	2610.954729
423.480777	2610.080089
423.859352	2612.421705
424.237866	2612.152003
424.616319	2613.296345
424.994712	2615.413630
425.373044	2612.948506
425.751314	2611.562188
426.129524	2611.030347
426.507673	2612.013372
426.885762	2611.655450
427.263789	2615.378342
427.641756	2615.806840
428.019662	2614.705348
428.397508	2614.415481
428.775292	2615.174175
429.153016	2617.540997
429.530679	2616.517642
429.908282	2617.561161
430.285824	2617.072169
430.663305	2616.691562
431.040726	2616.459669
431.418086	2617.621655
431.795385	2617.805657
432.172624	2618.516460
432.549802	2619.007973
432.926920	2619.091152
433.303977	2622.279681
433.680974	2621.122737
434.057910	2622.816564
434.434786	2621.604167
434.811601	2625.052316
435.188355	2623.877727
435.565050	2622.072994
435.941683	2621.876389
436.318257	2627.807307
436.694770	2623.890330
437.071222	2625.702625
437.447614	2624.775052
437.823946	2623.718931
438.200218	2624.522995
438.576429	2627.363685
438.952580	2626.378139
439.328670	2626.514251
439.704700	2628.664303
440.080670	2627.494755
440.456580	2629.848974
440.832429	2630.317801
441.208218	2631.381485
441.583947	2631.232771
441.959616	2633.823924
442.335224	2631.305867
442.710773	2631.996505
443.086261	2631.772174
443.461689	2631.071454
443.837057	2635.001033
444.212365	2634.779222
444.587612	2630.864766
444.962800	2635.593369
445.337927	2634.627988
445.712995	2630.824437
446.088002	2639.442290
446.462949	2640.228710
446.837837	2643.381951
447.212664	2643.875984
447.587431	2645.814308
447.962139	2648.067704
448.336786	2653.771769
448.711374	2657.824857
449.085901	2656.430978
449.460369	2657.479538
449.834776	2657.305618
450.209124	2663.223933
450.583412	2668.983451
450.957640	2674.475788
451.331808	2679.398475
451.705917	2677.631551
452.079965	2682.765966
452.453954	2688.207891
452.827883	2693.523788
453.201752	2702.585262
453.575562	2706.928216
453.949311	2717.796944
454.323001	2728.582492
454.696632	2739.408370
455.070202	2755.580392
455.443713	2775.515635
455.817164	2794.215795
456.190556	2814.428301
456.563888	2838.462002
456.937160	2862.359592
457.310373	2870.347300
457.683526	2892.692215
458.056619	2908.115625
458.429653	2934.342228
458.802628	2953.511215
459.175542	2989.404231
459.548398	3061.016342
459.921194	3118.354426
460.293930	3169.103721
460.666607	3266.297167
461.039224	3389.588667
461.411782	3501.290554
461.784280	3547.603634
462.156719	3613.282307
462.529099	3643.176350
462.901419	3634.495483
463.273680	3680.828728
463.645882	3734.385946
464.018024	3782.952422
464.390106	3884.251888
464.762130	4049.349677
465.134094	4225.124629
465.505999	4590.976287
465.877845	5189.840158
466.249631	5723.375717
466.621358	5782.795797
466.993026	5687.210479
467.364634	5713.628646
467.736184	5643.874200
468.107674	5633.491944
468.479105	5787.605058
468.850477	5850.541343
469.221790	5897.222428
469.593043	5882.114090
469.964238	5924.525317
470.335373	5976.461804
470.706449	6203.404468
471.077467	6222.949022
471.448425	6795.334232
471.819324	7995.264959
472.190164	8749.658508
472.560945	8031.341976
472.931667	7520.955396
473.302330	7497.771130
473.672934	7480.099365
474.043479	7782.442567
474.413965	7887.943835
474.784393	7936.656504
475.154761	8328.213006
475.525070	8499.503852
475.895321	8525.354889
476.265513	8911.464423
476.635645	9286.251527
477.005719	9405.058920
477.375734	9657.134256
477.745691	10060.965967
478.115588	10431.543707
478.485427	10875.208096
478.855207	11506.315187
479.224928	12466.216414
479.594591	13768.452317
479.964194	14023.328014
480.333739	14475.968177
480.703226	14437.584831
481.072653	14559.409355
481.442022	15098.142343
481.811333	15794.305525
482.180584	16047.996551
482.549777	15753.588125
482.918912	15844.028946
483.287988	16129.146525
483.657005	16204.932711
484.025964	16251.029022
484.394864	16478.422869
484.763706	16532.136363
485.132489	16452.256760
485.501213	16725.154583
485.869879	16957.766024
486.238487	16951.323429
486.607036	17351.369234
486.975527	17319.620047
487.343959	17760.310154
487.712333	17990.164085
488.080648	17905.966733
488.448905	18478.162900
488.817104	18481.732037
489.185244	19163.386778
489.553326	19389.336335
489.921350	20225.537729
490.289315	22088.027305
490.657222	23702.542524
491.025070	24317.646472
491.392861	24385.959148
491.760593	23931.143728
492.128267	23515.563608
492.495883	22873.807079
492.863440	22368.227239
493.230939	21784.161675
493.598380	21853.364114
493.965763	21639.727576
494.333088	21439.419849
494.700354	21498.865135
495.067563	21570.441958
495.434713	21465.553190
495.801805	21687.104340
496.168839	21699.308973
496.535815	21648.874750
496.902733	21949.309875
497.269593	21741.866394
497.636395	22043.513917
498.003139	22129.899129
498.369825	22021.408457
498.736453	22272.276437
499.103023	22243.332653
499.469535	22362.036702
499.835989	22625.404223
500.202385	22745.479467
500.568723	22361.739274
500.935003	22679.639477
501.301226	22366.120037
501.667390	23185.030273
502.033497	23505.471218
502.399546	23294.987921
502.765537	22982.045693
503.131470	23401.615887
503.497345	23586.071706
503.863163	22870.235421
504.228923	23531.531462
504.594625	23746.002312
504.960269	23299.900525
505.325856	23844.138453
505.691385	23314.845026
506.056856	23918.389608
506.422270	23933.140025
506.787625	23576.538884
507.152924	23991.549354
507.518164	24046.870976
507.883347	23869.006465
508.248472	23604.222380
508.613540	24391.275045
508.978550	24201.205901
509.343503	24196.971332
509.708398	24500.627754
510.073236	24662.363093
510.438016	24889.416662
510.802738	24595.978659
511.167403	24851.771846
511.532010	24548.823706
511.896561	25349.636200
512.261053	25337.187070
512.625488	25192.873959
512.989866	25106.869354
513.354186	24963.899710
513.718449	25055.121910
514.082655	25447.462311
514.446803	25190.852457
514.810894	25643.641333
515.174927	25142.122143
515.538904	25189.710635
515.902822	25664.736042
516.266684	25427.403560
516.630488	25351.052764
516.994235	25344.499264
517.357925	25635.572967
517.721558	25819.388559
518.085133	25918.243066
518.448651	25833.788615
518.812112	25555.461470
519.175516	25751.143939
519.538863	25925.895537
519.902152	25697.589241
520.265385	26019.444229
520.628560	25790.333869
520.991678	25816.056357
521.354739	25895.948563
521.717743	25960.407276
522.080690	25748.341057
522.443580	26066.284110
522.806413	26087.623314
523.169189	26167.840675
523.531908	26240.241726
523.894569	25828.283675
524.257174	25899.550467
524.619722	26116.801513
524.982213	25777.796519
525.344647	25872.083740
525.707025	25980.350081
526.069345	25981.824618
526.431608	25934.520951
526.793815	26133.913709
527.155964	25575.764717
527.518057	25752.794917
527.880093	25666.795353
528.242072	25905.037763
528.603995	25607.594563
528.965860	25407.939665
529.327669	25462.537881
529.689421	25459.495545
530.051117	25285.870645
530.412755	25465.812111
530.774337	25274.875888
531.135862	25142.442256
531.497331	25343.662433
531.858743	24876.413006
532.220098	25371.764345
532.581396	25042.755959
532.942638	25009.996021
533.303824	25088.852270
533.664953	25109.722647
534.026025	24778.055053
534.387040	24998.635781
534.747999	25074.250568
535.108902	25236.913479
535.469748	24725.848864
535.830537	24925.884369
536.191270	25035.342943
536.551947	24917.032103
536.912567	24591.648307
537.273131	24898.004268
537.633638	24621.076043
537.994089	24825.210006
538.354483	24399.020778
538.714821	24869.163827
539.075103	24919.282978
539.435328	24708.456883
539.795497	24258.854016
540.155609	24669.082951
540.515665	24947.636948
540.875665	24209.796027
541.235609	24471.976356
541.595496	24451.738644
541.955328	24801.879546
542.315102	24714.649941
542.674821	24298.399347
543.034483	24166.265664
543.394090	24328.482433
543.753640	24106.928762
544.113134	24745.758901
544.472571	24350.781977
544.831953	24632.269925
545.191278	24251.657769
545.550548	24187.108314
545.909761	24396.008688
546.268918	24621.605364
546.628019	24576.489558
546.987064	24290.149499
547.346053	24046.848291
547.704986	24170.263299
548.063863	24330.284645
548.422684	24325.596372
548.781449	23887.227716
549.140158	24282.912923
549.498811	23856.756462
549.857408	23592.801646
550.215949	24040.262023
550.574434	23717.396284
550.932864	23941.039513
551.291237	24069.422578
551.649555	23960.974756
552.007817	24002.322299
552.366022	23869.684501
552.724173	23922.127624
553.082267	23840.163504
553.440305	24329.049563
553.798288	23592.647891
554.156215	24127.660508
554.514086	24203.025758
554.871902	23570.716351
555.229661	23869.445046
555.587365	23719.879052
555.945014	23572.911774
556.302606	23842.905891
556.660143	23767.901084
557.017625	24031.992010
557.375050	23568.243665
557.732421	23948.452529
558.089735	23767.971660
558.446994	23833.272246
558.804197	23840.987732
559.161345	23816.550739
559.518437	23542.369943
559.875474	23757.241564
560.232455	23928.333284
560.589381	23760.057048
560.946251	23720.221851
561.303065	24059.360435
561.659825	24141.107785
562.016528	23747.020625
562.373177	23485.379699
562.729770	23830.736546
563.086307	23708.145767
563.442789	23880.321335
563.799216	23706.073852
564.155587	23728.159148
564.511904	23701.337688
564.868164	23631.565599
565.224370	23616.510193
565.580520	23524.345297
565.936615	23669.986753
566.292654	23333.822450
566.648638	23642.953565
567.004567	23458.729639
567.360441	23414.755654
567.716260	23136.252069
568.072023	23468.295228
568.427732	23223.557292
568.783385	23012.769005
569.138982	23241.813830
569.494525	23277.275827
569.850013	23031.529659
570.205445	23125.214462
570.560823	22925.854472
570.916145	22694.616745
571.271412	22860.455583
571.626625	22634.684987
571.981782	22738.890678
572.336884	22555.995096
572.691931	22672.140760
573.046923	22406.242580
573.401860	22299.496147
573.756743	22291.218573
574.111570	22210.280327
574.466342	22151.349239
574.821059	22228.758677
575.175722	21931.844797
575.530330	21921.018920
575.884882	21954.882871
576.239380	21844.300120
576.593823	21747.487281
576.948211	21719.561809
577.302544	21559.124567
577.656823	21442.293306
578.011047	21539.713604
578.365216	21415.282804
578.719330	21292.324021
579.073389	21196.809279
579.427394	21336.524857
579.781344	21112.188470
580.135239	21002.500524
580.489080	20965.160698
580.842866	20739.359855
581.196597	20927.599060
581.550273	20907.497459
581.903895	20797.650717
582.257463	21123.551231
582.610975	20641.851337
582.964434	20951.254675
583.317837	20665.554842
583.671186	20751.521639
584.024481	20710.819363
584.377721	20491.009932
584.730906	20535.155316
585.084037	20576.611244
585.437113	20480.743622
585.790135	20668.861839
586.143103	20150.018724
586.496016	20160.007770
586.848874	20401.625233
587.201679	20349.071204
587.554428	20008.662249
587.907124	20341.244812
588.259765	20123.598036
588.612352	20195.205106
588.964884	19769.288100
589.317362	19929.352296
589.669786	19978.274174
590.022155	20038.352125
590.374470	20211.046932
590.726731	20016.859165
591.078937	19768.121073
591.431090	19870.141424
591.783188	19620.697570
592.135232	19598.055227
592.487222	19691.810607
592.839157	19711.191323
593.191038	19605.301886
593.542866	19499.656945
593.894639	19206.760866
594.246358	19436.080434
594.598022	19335.446400
594.949633	19086.214274
595.301190	19050.298574
595.652692	19213.276557
596.004141	19454.798238
596.355535	18786.484911
596.706876	18798.208114
597.058162	18688.600827
597.409395	18906.655936
597.760573	18999.834103
598.111698	18780.773283
598.462768	18706.643116
598.813785	18671.138270
599.164748	18494.004726
599.515657	18529.907824
599.866511	18322.363520
600.217312	18674.919135
600.568060	18210.296150
600.918753	18522.250311
601.269392	18422.034693
601.619978	18192.866360
601.970510	18409.482220
602.320988	18352.875104
602.671412	18566.042815
603.021783	18465.985993
603.372100	18206.396817
603.722363	18331.853492
604.072572	18279.511192
604.422728	18413.807530
604.772830	18175.050922
605.122878	18128.024519
605.472872	18114.403321
605.822813	18106.095500
606.172701	18073.771621
606.522534	18268.725643
606.872314	18298.286969
607.222041	18124.881359
607.571714	18342.608794
607.921333	18166.596907
608.270899	18245.954751
608.620411	18429.561136
608.969870	18193.519190
609.319276	18187.684054
609.668627	18229.631495
610.017926	18365.150313
610.367171	18474.225759
610.716362	18517.662861
611.065500	18333.504470
611.414585	18465.774265
611.763616	18456.090208
612.112594	18409.212519
612.461518	18367.980921
612.810389	18565.616837
613.159207	18418.712573
613.507971	18323.744796
613.856682	18604.680738
614.205340	18533.315644
614.553945	18680.603036
614.902496	18416.617974
615.250994	18659.891455
615.599439	18595.294110
615.947830	18587.253470
616.296169	18634.274832
616.644454	18598.144882
616.992686	18572.039267
617.340864	18775.563251
617.688990	18540.980718
618.037063	18717.428665
618.385082	18577.907170
618.733048	18844.974898
619.080961	18721.683399
619.428821	18748.550228
619.776628	18640.377149
620.124382	18572.014062
620.472083	18597.217310
620.819731	18627.413822
621.167326	18322.522317
621.514868	18371.698772
621.862357	18124.059651
622.209793	18136.806209
622.557176	17970.430488
622.904506	17782.138351
623.251783	17705.558182
623.599007	17468.588664
623.946179	17422.023526
624.293297	17361.086058
624.640363	17111.672451
624.987376	17137.417623
625.334336	16919.470899
625.681243	16774.920853
626.028097	16776.029907
626.374899	16709.022890
626.721647	16578.046152
627.068343	16400.426137
627.414987	16345.616192
627.761577	16316.397664
628.108115	16357.573809
628.454600	16077.119297
628.801032	16173.135633
629.147412	16105.783298
629.493739	16125.043026
629.840014	15939.946980
630.186236	16043.131838
630.532405	15793.047757
630.878521	15993.002604
631.224585	15883.329781
631.570597	15713.886518
631.916556	15748.912455
632.262462	15736.438120
632.608316	15645.384799
632.954117	15586.647795
633.299866	15588.455049
633.645562	15506.783315
633.991206	15265.475883
634.336797	15129.851201
634.682336	15097.648310
635.027823	14989.321476
635.373257	14870.725811
635.718639	14766.837712
636.063968	14716.655547
636.409245	14470.130521
636.754470	14501.181508
637.099642	14349.596532
637.444762	14113.814205
637.789829	14153.936748
638.134845	14002.687010
638.479808	14029.402604
638.824719	13985.453825
639.169577	13819.209174
639.514383	13874.195560
639.859137	13688.716386
640.203839	13774.950364
640.548489	13622.639462
640.893086	13604.259415
641.237632	13477.902894
641.582125	13625.512920
641.926566	13466.807315
642.270955	13463.328918
642.615292	13432.900514
642.959576	13443.794447
643.303809	13479.989932
643.647990	13407.750197
643.992118	13467.195483
644.336195	13235.415832
644.680219	13447.784521
645.024192	13368.114125
645.368112	13607.757976
645.711981	13666.691585
646.055797	13845.188761
646.399562	13803.286690
646.743274	14072.043204
647.086935	14354.625083
647.430544	14313.685873
647.774101	14346.627292
648.117606	14500.266538
648.461059	14469.318895
648.804460	14458.772801
649.147810	14192.052913
649.491108	14086.859155
649.834354	14110.436632
650.177548	13801.257625
650.520690	13608.781330
650.863781	13527.286037
651.206820	13582.738730
651.549807	13414.177668
651.892742	13213.799365
652.235626	13150.603460
652.578458	13154.207885
652.921238	12840.451511
653.263967	13051.310373
653.606644	12866.325233
653.949269	12841.978981
654.291843	12646.372129
654.634365	12797.904172
654.976836	12649.038899
655.319255	12677.254238
655.661622	12616.236111
656.003938	12548.210781
656.346203	12466.566774
656.688416	12541.374977
657.030577	12502.608504
657.372687	12417.811255
657.714746	12392.613047
658.056753	12574.729771
658.398708	12403.995973
658.740612	12396.640929
659.082465	12499.470385
659.424266	12463.801701
659.766016	12487.021256
660.107715	12397.933985
660.449362	12472.475007
660.790958	12426.915579
661.132503	12381.393959
661.473996	12434.741970
661.815438	12461.281124
662.156829	12471.146662
662.498168	12451.347531
662.839456	12450.551028
663.180693	12469.586425
663.521879	12556.949622
663.863013	12542.327755
664.204097	12513.187365
664.545129	12631.125159
664.886110	12595.108636
665.227040	12690.739324
665.567918	12689.025332
665.908746	12726.768451
666.249522	12706.278681
666.590248	12760.818924
666.930922	12873.481151
667.271545	12859.633101
667.612118	12936.102364
667.952639	12848.063653
668.293109	12850.556504
668.633528	12815.676760
668.973896	12785.777677
669.314213	12863.376158
669.654480	12605.576592
669.994695	12673.430522
670.334859	12707.753218
670.674973	12646.654434
671.015035	12681.642562
671.355047	12627.966876
671.695008	12590.957245
672.034918	12598.549223
672.374777	12646.334320
672.714585	12563.530848
673.054342	12585.162439
673.394049	12538.498998
673.733705	12625.073254
674.073310	12543.588043
674.412864	12566.442114
674.752368	12436.408071
675.091820	12445.270420
675.431223	12438.593412
675.770574	12306.094244
676.109875	12225.632388
676.449125	12193.489991
676.788324	12130.089920
677.127473	11964.724950
677.466571	11954.103239
677.805619	11855.117663
678.144616	11771.973912
678.483562	11742.833522
678.822458	11617.051693
679.161303	11592.070255
679.500098	11583.623802
679.838842	11535.503467
680.177535	11556.898124
680.516179	11619.226951
680.854771	11564.099413
681.193314	11779.729727
681.531805	11936.681011
681.870247	12342.302332
682.208638	12754.310795
682.546978	13064.603896
682.885268	13127.598155
683.223508	12811.658961
683.561697	12662.067762
683.899836	12563.631671
684.237925	12364.183460
684.575963	12278.816561
684.913951	12210.846684
685.251889	12151.628249
685.589776	12250.883527
685.927614	12179.765450
686.265401	12139.065694
686.603137	12179.049606
686.940824	12333.762617
687.278460	12455.882049
687.616046	12497.897545
687.953582	12672.989421
688.291068	12595.859768
688.628504	12829.421466
688.965889	12834.734842
689.303224	12810.711224
689.640510	12704.554606
689.977745	12389.472408
690.314930	12166.134170
690.652065	12084.013773
690.989150	11790.694237
691.326185	11571.567882
691.663170	11361.623989
692.000105	11122.597679
692.336990	11008.438230
692.673825	10762.782803
693.010610	10640.988526
693.347345	10434.142422
693.684030	10235.210930
694.020665	10171.009315
694.357251	9982.286159
694.693786	9920.829452
695.030272	9759.567982
695.366707	9642.610692
695.703093	9575.540661
696.039429	9564.709742
696.375716	9499.625925
696.711952	9366.471408
697.048139	9400.458867
697.384276	9360.416982
697.720363	9379.550682
698.056400	9313.667842
698.392388	9266.472560
698.728326	9230.788752
699.064214	9159.179162
699.400053	9211.607162
699.735842	9020.098768
700.071581	8984.609045
700.407270	8911.678672
700.742910	8825.847987
701.078501	8739.233402
701.414042	8610.817570
701.749533	8546.240389
702.084974	8407.081858
702.420366	8522.995629
702.755709	8408.536231
703.091002	8275.048997
703.426246	8299.183521
703.761440	8256.071574
704.096584	8207.681538
704.431679	8141.171075
704.766725	8126.801266
705.101721	8076.288904
705.436668	8121.094679
705.771565	8014.988473
706.106413	8096.705577
706.441212	8143.946230
706.775961	8097.713808
707.110661	8127.610371
707.445311	8274.232330
707.779913	8170.006475
708.114465	8302.866084
708.448967	8341.110798
708.783421	8477.864699
709.117825	8660.364550
709.452180	8691.947379
709.786485	8783.550186
710.120742	9066.590810
710.454949	9070.578362
710.789107	9165.674688
711.123216	9375.563129
711.457275	9542.074961
711.791286	9706.653511
712.125247	9701.156132
712.459159	9688.039050
712.793023	9938.052554
713.126837	9511.956587
713.460602	9663.241614
713.794318	9488.807609
714.127985	9521.454121
714.461602	9205.179691
714.795171	9154.299325
715.128691	8905.296572
715.462162	8660.656937
715.795584	8604.193494
716.128957	8459.983726
716.462281	8282.676263
716.795556	8338.292793
717.128782	8123.995863
717.461960	7862.969958
717.795088	7932.094260
718.128167	7844.176537
718.461198	7683.923297
718.794180	7615.885364
719.127113	7618.133719
719.459997	7457.293185
719.792833	7229.606951
720.125619	7297.937271
720.458357	7148.754405
720.791046	7140.159238
721.123686	7139.324927
721.456278	6982.219888
721.788821	6998.006261
722.121315	6891.506845
722.453761	6959.703574
722.786158	6899.078658
723.118506	6912.283960
723.450805	6877.305914
723.783056	6946.175638
724.115259	6851.356575
724.447412	6853.524271
724.779518	6896.016157
725.111574	6897.939357
725.443582	6977.284598
725.775542	6956.671320
726.107453	7148.595609
726.439315	7061.217289
726.771129	7121.673327
727.102895	7293.561549
727.434612	7409.344250
727.766281	7428.805625
728.097901	7518.646548
728.429473	7507.984508
728.760996	7479.282698
729.092471	7462.110007
729.423897	7407.536997
729.755276	7421.942094
730.086606	7342.778334
730.417887	7447.455373
730.749120	7630.275338
731.080305	7823.303639
731.411442	7950.423895
731.742530	7944.245961
732.073570	8054.811068
732.404562	8134.937688
732.735506	7984.577713
733.066401	8125.120041
733.397249	8058.284423
733.728048	7821.624935
734.058798	7487.358627
734.389501	7270.087416
734.720156	7091.834737
735.050762	6853.564600
735.381320	6757.452482
735.711831	6709.448094
736.042293	6600.644871
736.372707	6621.001050
736.703073	6486.243446
737.033391	6517.352406
737.363661	6531.134921
737.693883	6560.892852
738.024056	6647.409134
738.354182	6692.451844
738.684260	6724.836216
739.014290	6833.710016
739.344272	6940.960564
739.674207	6976.863662
740.004093	7041.531583
740.333931	7056.309726
740.663722	7065.855151
740.993464	7142.561347
741.323159	7137.094216
741.652806	6887.983078
741.982405	6892.767133
742.311956	6954.216278
742.641460	6796.488657
742.970915	6595.593635
743.300323	6593.748572
743.629683	6540.592126
743.958996	6406.981384
744.288260	6315.610471
744.617477	6266.076093
744.946647	6270.040960
745.275768	6102.583912
745.604842	6056.028856
745.933869	6041.026382
746.262847	5996.986862
746.591778	5990.564432
746.920662	5948.632115
747.249498	5933.987563
747.578286	5984.421786
747.907027	6061.342232
748.235720	6121.064782
748.564365	6090.681748
748.892963	6116.033710
749.221514	6273.105982
749.550017	6106.178255
749.878473	5986.705429
750.206881	6039.168717
750.535242	5978.011959
750.863555	5909.101907
751.191821	5928.540596
751.520039	5931.373724
751.848210	5835.987532
752.176334	5854.259194
752.504411	5909.757257
752.832440	5832.365463
753.160421	5762.149752
753.488356	5808.745137
753.816243	5841.472307
754.144082	5695.515780
754.471875	5663.282642
754.799620	5714.185693
755.127318	5720.882866
755.454969	5672.583571
755.782572	5637.913036
756.110129	5688.130490
756.437638	5670.834291
756.765100	5610.002687
757.092515	5607.207367
757.419882	5654.926930
757.747203	5639.150639
758.074477	5702.865782
758.401703	5688.760634
758.728882	5635.256347
759.056014	5687.296179
759.383099	5823.853475
759.710138	5836.123643
760.037129	5815.628832
760.364073	5827.011758
760.690970	5905.704169
761.017820	5892.798815
761.344623	5841.573130
761.671379	5942.043327
761.998088	6055.784360
762.324751	6302.395086
762.651366	6887.597430
762.977935	8179.872013
763.304456	9811.950612
763.630931	10720.845444
763.957359	10352.349701
764.283740	9412.260208
764.610074	8575.605110
764.936362	7588.443843
765.262602	6990.550394
765.588796	6448.883455
765.914943	6113.913905
766.241044	5952.768381
766.567097	5754.794708
766.893104	5493.665459
767.219064	5314.243232
767.544978	5250.575980
767.870845	5173.859701
768.196665	5070.639555
768.522438	4993.068800
768.848165	4966.960664
769.173846	4898.262340
769.499479	4853.859857
769.825066	4803.670130
770.150607	4741.696705
770.476101	4712.556315
770.801548	4714.708888
771.126949	4639.860356
771.452303	4585.279783
771.777611	4543.171025
772.102872	4562.786155
772.428087	4525.423643
772.753256	4484.766737
773.078378	4436.570786
773.403453	4370.272051
773.728482	4361.306359
774.053465	4310.418432
774.378401	4295.836894
774.703291	4302.541629
775.028135	4226.069845
775.352932	4180.124769
775.677683	4166.644724
776.002388	4182.509235
776.327046	4197.491544
776.651658	4123.454638
776.976224	4059.764701
777.300743	4069.025300
777.625216	4087.095316
777.949643	4085.119184
778.274024	4040.797359
778.598359	3993.740709
778.922647	4015.841127
779.246889	4009.537164
779.571086	4005.234539
779.895236	3984.918689
780.219339	3975.811845
780.543397	3968.648365
780.867409	4014.732073
781.191374	4037.966751
781.515294	3973.566011
781.839167	3963.687870
782.162995	3984.492712
782.486776	3973.147595
782.810511	3983.960870
783.134201	3976.951146
783.457844	3933.163683
783.781441	3876.463306
784.104993	3886.918659
784.428498	3902.838622
784.751958	3898.835946
785.075372	3880.103019
785.398739	3842.924509
785.722061	3853.465562
786.045337	3893.673805
786.368568	3928.349382
786.691752	3841.681865
787.014891	3889.315727
787.337983	4014.437166
787.661030	4174.743338
787.984031	4332.291998
788.306987	4508.008977
788.629897	4588.773303
788.952760	4544.038104
789.275579	4476.668124
789.598351	4413.494904
789.921078	4275.924336
790.243759	4071.634097
790.566395	4053.402764
790.888984	4049.498391
791.211529	3942.789767
791.534027	3883.934296
791.856480	3874.509858
792.178888	3815.810663
792.501249	3764.416100
792.823566	3773.686782
793.145836	3802.028148
793.468062	3750.353801
793.790241	3704.912840
794.112375	3735.779825
794.434464	3797.642345
794.756507	3819.659584
795.078505	3803.883293
795.400457	3833.139629
795.722364	3971.708346
796.044226	4080.206579
796.366042	4152.877333
796.687812	4132.604333
797.009538	4138.479797
797.331218	4093.706789
797.652852	4070.174683
797.974442	4048.412022
798.295986	4051.663566
798.617484	3967.130978
798.938938	3885.716343
799.260346	3923.371242
799.581709	3918.632557
799.903026	3846.985158
800.224299	3808.929488
800.545526	3799.323569
800.866708	3763.102879
801.187845	3700.456460
801.508936	3739.016246
801.829983	3738.439034
802.150984	3658.236797
802.471940	3651.360663
802.792851	3656.895850
803.113717	3659.315604
803.434538	3663.535049
803.755314	3603.615895
804.076045	3574.215886
804.396731	3594.148608
804.717372	3620.934779
805.037967	3607.472377
805.358518	3599.192282
805.679024	3623.654481
805.999485	3638.808190
806.319901	3643.841782
806.640272	3656.028771
806.960598	3672.369672
807.280879	3645.679282
807.601115	3655.920387
807.921306	3671.268179
808.241453	3710.957184
808.561554	3688.067825
808.881611	3623.871251
809.201623	3661.561438
809.521590	3672.026873
809.841513	3643.289776
810.161390	3675.177594
810.481223	3651.927793
810.801011	3598.088270
811.120755	3587.814398
811.440453	3624.282105
811.760107	3628.408289
812.079716	3585.127463
812.399281	3554.157134
812.718801	3576.499528
813.038276	3552.218811
813.357707	3547.500291
813.677093	3565.033424
813.996434	3510.994775
814.315731	3519.781506
814.634983	3526.445912
814.954191	3539.976369
815.273354	3572.423755
815.592473	3566.999474
815.911547	3570.810586
816.230577	3609.655197
816.549562	3661.768125
816.868502	3703.095504
817.187399	3726.950244
817.506250	3725.281622
817.825058	3697.698949
818.143821	3785.911580
818.462539	3891.382600
818.781213	3938.610650
819.099843	3986.650326
819.418429	4229.701997
819.736970	4477.089060
820.055466	4714.814752
820.373919	5077.321604
820.692327	5486.663297
821.010691	5918.226395
821.329011	7269.553054
821.647286	9984.441252
821.965517	14498.973482
822.283704	18541.270585
822.601847	20745.026112
822.919945	18959.600654
823.237999	16394.258285
823.556010	13909.702927
823.873976	11828.084475
824.191897	9739.204241
824.509775	8384.563023
824.827609	7256.965293
825.145398	6710.965482
825.463144	6586.489311
825.780845	6706.806530
826.098502	6887.158850
826.416116	7749.299501
826.733685	9067.122651
827.051210	10184.018012
827.368692	10242.560932
827.686129	9011.473354
828.003522	7492.215778
828.320872	6477.812116
828.638177	5775.982678
828.955439	5218.831834
829.272656	4720.702820
829.589830	4434.783697
829.906960	4261.521760
830.224046	4077.517124
830.541088	3952.519194
830.858086	3903.841812
831.175041	3830.278775
831.491952	3806.182059
831.808819	3820.360304
832.125642	3895.120616
832.442421	4035.781411
832.759157	4306.897186
833.075849	4850.855330
833.392497	5715.980344
833.709101	6482.855791
834.025662	6827.763975
834.342179	6482.407128
834.658653	5815.989275
834.975083	5173.738713
835.291469	4595.959468
835.607811	4187.447045
835.924110	4044.185015
836.240366	3850.392978
836.556578	3643.892193
836.872746	3535.714073
837.188871	3495.062208
837.504952	3432.524174
837.820990	3349.771113
838.136984	3301.814617
838.452935	3326.523833
838.768842	3321.974191
839.084706	3343.855319
839.400526	3497.360975
839.716303	3828.332889
840.032037	4353.946274
840.347727	4622.755721
840.663373	4349.149617
840.978977	3970.478304
841.294537	3664.303825
841.610054	3435.569031
841.925527	3328.822599
842.240957	3257.661671
842.556344	3204.905996
842.871687	3144.770072
843.186987	3097.390787
843.502244	3060.129099
843.817458	3027.969058
844.132629	2994.294150
844.447756	3002.397805
844.762840	2988.345588
845.077881	2953.677573
845.392879	2936.925819
845.707833	2935.010181
846.022745	2932.315684
846.337613	2936.217537
846.652438	2926.167997
846.967221	2921.797317
847.281960	2907.220820
847.596656	2901.052968
847.911309	2900.218658
848.225919	2895.883265
848.540485	2888.371946
848.855009	2892.798079
849.169490	2883.880278
849.483928	2873.402240
849.798323	2872.484750
850.112675	2867.189017
850.426984	2878.801315
850.741251	2877.951881
851.055474	2866.611805
851.369654	2864.227340
851.683792	2865.235570
851.997887	2877.475492
852.311938	2874.997765
852.625947	2868.224975
852.939914	2867.415869
853.253837	2873.470295
853.567718	2859.609643
853.881555	2857.918336
854.195350	2871.819317
854.509103	2868.305633
854.822812	2859.758357
855.136479	2858.707276
855.450103	2858.936649
855.763685	2853.343488
856.077224	2850.157479
856.390720	2861.069057
856.704173	2873.530789
857.017584	2866.193390
857.330953	2861.898327
857.644278	2871.035418
857.957561	2882.801471
858.270802	2883.933210
858.584000	2884.560834
858.897155	2870.543905
859.210268	2867.970396
859.523339	2866.984851
859.836367	2867.173894
860.149352	2861.348841
860.462295	2855.571678
860.775195	2864.237422
861.088054	2864.945704
861.400869	2847.707478
861.713642	2842.459637
862.026373	2859.140815
862.339062	2863.211547
862.651708	2867.062989
862.964312	2872.348638
863.276873	2863.692977
863.589392	2874.453320
863.901869	2884.765000
864.214303	2907.901376
864.526696	2923.249169
864.839045	2918.397058
865.151353	2919.095258
865.463619	2916.322623
865.775842	2918.795309
866.088023	2935.683175
866.400162	2945.226079
866.712258	2916.859506
867.024313	2901.932650
867.336325	2910.938671
867.648296	2935.400870
867.960224	2923.211360
868.272110	2911.992272
868.583954	2918.868406
868.895755	2933.147474
869.207515	2917.030906
869.519233	2923.004673
869.830909	2931.360385
870.142542	2943.345729
870.454134	2941.634257
870.765684	2947.124073
871.077191	2941.903959
871.388657	2951.356122
871.700081	2965.738534
872.011463	2978.467448
872.322803	2978.822849
872.634101	2975.415029
872.945357	2992.623008
873.256571	3020.636699
873.567744	3011.993641
873.878874	3003.625326
874.189963	3027.971578
874.501010	3028.679860
874.812015	3020.276257
875.122979	3021.400434
875.433900	3017.390196
875.744780	3021.783562
876.055618	3029.020138
876.366415	3025.813964
876.677169	3038.568084
876.987882	3034.643545
877.298554	3029.100797
877.609183	3048.083262
877.919771	3076.076789
878.230317	3096.828699
878.540822	3152.246103
878.851285	3189.643903
879.161707	3234.618557
879.472087	3329.992146
879.782425	3555.051939
880.092722	3986.864575
880.402977	4512.442672
880.713191	5132.890243
881.023363	6276.564213
881.333494	7562.618012
881.643583	8121.843291
881.953631	7832.266811
882.263637	7207.975360
882.573602	6630.790971
882.883526	6046.301950
883.193408	5475.252645
883.503248	5012.779712
883.813048	4704.377043
884.122806	4407.127927
884.432522	4093.989094
884.742197	3857.077548
885.051831	3664.762570
885.361424	3528.779966
885.670975	3456.436888
885.980485	3371.528733
886.289954	3294.746919
886.599382	3251.640013
886.908768	3213.755742
887.218113	3168.392919
887.527417	3112.269753
887.836680	3063.652865
888.145901	3058.473080
888.455082	3047.369938
888.764221	2997.679285
889.073319	2970.814976
889.382376	2969.148875
889.691392	2970.121817
890.000366	2968.818679
890.309300	2956.140177
890.618193	2968.175932
890.927044	2983.375011
891.235855	2987.221411
891.544625	2972.034935
891.853353	2982.492809
892.162041	3000.958555
892.470687	3041.081099
892.779293	3089.622369
893.087858	3137.243629
893.396381	3208.729711
893.704864	3325.472752
894.013306	3565.958476
894.321707	3865.861759
894.630068	4070.729210
894.938387	4071.908840
895.246665	4026.561141
895.554903	3906.561515
895.863100	3704.111297
896.171256	3541.211451
896.479371	3404.233219
896.787446	3276.714712
897.095480	3177.149403
897.403473	3114.026595
897.711425	3076.790112
898.019336	3064.862742
898.327207	3040.403064
898.635038	3004.048783
898.942827	2986.520691
899.250576	2975.291521
899.558284	2944.800102
899.865952	2926.054571
900.173579	2909.496901
900.481165	2900.957187
900.788711	2885.495968
901.096216	2861.865559
901.403681	2848.461131
901.711105	2858.591330
902.018489	2855.543952
902.325832	2855.009590
902.633135	2864.187010
902.940397	2897.960221
903.247619	2975.543578
903.554800	3166.431910
903.861941	3508.839682
904.169041	3931.699228
904.476101	4234.546546
904.783121	4195.127243
905.090100	3953.507260
905.397039	3677.045342
905.703938	3429.872527
906.010796	3247.042480
906.317614	3134.155922
906.624391	3039.465409
906.931129	2969.403453
907.237826	2907.026736
907.544483	2859.092924
907.851099	2830.968327
908.157675	2809.054431
908.464211	2790.142543
908.770707	2776.904473
909.077163	2761.876793
909.383578	2747.897673
909.689954	2738.107753
909.996289	2735.093143
910.302584	2733.734552
910.608839	2737.797722
910.915054	2731.907133
911.221229	2726.054354
911.527363	2726.588716
911.833458	2731.579458
912.139513	2736.489542
912.445527	2740.540109
912.751502	2749.160482
913.057436	2759.923346
913.363331	2773.284924
913.669186	2791.385187
913.975000	2827.764674
914.280775	2885.067470
914.586510	2952.271092
914.892205	3033.405942
915.197859	3160.619459
915.503475	3353.352853
915.809050	3566.528126
916.114585	3712.824931
916.420081	3733.110534
916.725536	3671.578210
917.030952	3555.558575
917.336328	3431.914195
917.641665	3296.213895
917.946961	3198.579348
918.252218	3129.444964
918.557435	3052.847152
918.862612	2993.185096
919.167750	2948.129784
919.472848	2905.083371
919.777906	2874.644884
920.082925	2852.428519
920.387904	2822.380722
920.692843	2806.619554
920.997743	2793.384005
921.302603	2781.081069
921.607423	2769.304933
921.912204	2757.932090
922.216946	2747.259967
922.521647	2738.379975
922.826310	2726.944117
923.130932	2722.729713
923.435516	2714.431974
923.740059	2708.407795
924.044564	2699.575693
924.349028	2694.970599
924.653454	2687.055988
924.957840	2681.687159
925.262186	2673.822959
925.566493	2672.308092
925.870761	2667.687875
926.174989	2665.603358
926.479178	2659.725372
926.783328	2653.749084
927.087438	2655.420227
927.391509	2652.362767
927.695541	2649.683394
927.999533	2644.838845
928.303486	2642.971097
928.607400	2645.348001
928.911275	2643.238278
929.215110	2641.506642
929.518906	2638.580252
929.822663	2639.563277
930.126381	2639.243164
930.430060	2641.267187
930.733699	2640.884060
931.037299	2645.322796
931.340861	2645.045532
931.644383	2645.514359
931.947866	2641.146200
932.251309	2642.308186
932.554714	2640.954636
932.858080	2637.826600
933.161407	2636.175622
933.464694	2636.190745
933.767943	2632.309057
934.071153	2635.658904
934.374323	2636.142854
934.677455	2634.365848
934.980548	2631.820065
935.283602	2632.334263
935.586617	2632.583800
935.889593	2631.197482
936.192530	2632.326701
936.495428	2631.270579
936.798287	2633.730662
937.101108	2635.570683
937.403890	2640.334574
937.706632	2647.407313
938.009336	2651.634320
938.312002	2662.145126
938.614628	2670.548729
938.917216	2677.185408
939.219765	2676.950995
939.522275	2676.628361
939.824747	2674.354801
940.127179	2674.009482
940.429573	2668.537309
940.731929	2666.772905
941.034246	2661.338541
941.336524	2659.052378
941.638763	2657.663540
941.940964	2654.240597
942.243126	2653.348312
942.545250	2653.060967
942.847335	2650.656336
943.149381	2647.939154
943.451389	2638.078657
943.753359	2638.265180
944.055290	2637.748462
944.357182	2637.950108
944.659036	2637.110756
944.960851	2636.031949
945.262628	2634.267545
945.564367	2632.795528
945.866067	2634.895169
946.167729	2635.147227
946.469352	2636.657052
946.770937	2636.369706
947.072484	2632.944242
947.373992	2632.359468
947.675462	2630.784108
947.976893	2629.644807
948.278286	2626.380660
948.579641	2625.180865
948.880958	2620.081738
949.182236	2628.008953
949.483476	2623.391256
949.784678	2626.688170
950.085841	2622.740947
950.386967	2627.590537
950.688054	2627.441823
950.989103	2626.741102
951.290114	2627.252780
951.591087	2629.982564
951.892021	2631.585651
952.192917	2636.599079
952.493776	2635.890797
952.794596	2640.342136
953.095378	2639.215438
953.396122	2636.415077
953.696828	2634.602782
953.997496	2633.143368
954.298126	2629.526340
954.598718	2629.120527
954.899272	2629.077677
955.199788	2622.385546
955.500266	2622.700618
955.800706	2620.336317
956.101108	2617.699793
956.401472	2615.025461
956.701798	2613.671911
957.002087	2611.549585
957.302337	2610.977414
957.602550	2609.878443
957.902724	2606.694954
958.202861	2610.102774
958.502960	2606.483226
958.803022	2605.268308
959.103045	2602.914089
959.403031	2606.241250
959.702979	2602.288986
960.002889	2601.880652
960.302762	2600.915271
960.602596	2601.817638
960.902393	2602.064654
961.202153	2603.788729
961.501875	2597.451999
961.801559	2601.736979
962.101205	2600.975765
962.400814	2600.448965
962.700385	2597.809921
962.999918	2596.968048
963.299414	2594.439909
963.598873	2595.180959
963.898293	2593.295567
964.197677	2595.753130
964.497022	2598.145157
964.796331	2598.172884
965.095601	2597.825044
965.394835	2597.777153
965.694030	2596.905033
965.993189	2596.642893
966.292309	2599.803697
966.591393	2596.688264
966.890439	2596.685743
967.189447	2596.610126
967.488419	2597.124324
967.787353	2596.990733
968.086249	2596.814293
968.385108	2597.520054
968.683930	2596.516865
968.982714	2595.581731
969.281462	2600.368306
969.580172	2594.898654
969.878844	2599.975096
970.177480	2597.008377
970.476078	2595.380084
970.774639	2599.584407
971.073162	2597.464602
971.371649	2596.625249
971.670098	2595.115424
971.968510	2597.777153
972.266885	2599.085332
972.565223	2598.646752
972.863524	2598.755137
973.161788	2599.118100
973.460014	2597.129365
973.758204	2597.991402
974.056356	2597.734303
974.354471	2596.892431
974.652550	2596.337904
974.950591	2596.388315
975.248595	2594.762543
975.546563	2598.435024
975.844493	2596.395877
976.142386	2593.502255
976.440243	2596.272369
976.738062	2596.892431
977.035845	2598.167842
977.333590	2600.466609
977.631299	2593.202306
977.928971	2593.114086
978.226606	2588.579568
978.524204	2592.620053
978.821765	2590.089393
979.119290	2593.252717
979.416777	2592.231884
979.714228	2594.003849
980.011642	2595.624580
980.309020	2594.260948
980.606360	2593.726586
980.903664	2595.085177
981.200931	2596.511823
981.498162	2598.145157
981.795356	2597.094077
982.092513	2601.053903
982.389633	2599.644901
982.686717	2603.992896
982.983764	2609.054214
983.280775	2612.383896
983.577749	2614.072683
983.874686	2612.280553
984.171587	2606.563884
984.468451	2605.800149
984.765279	2603.266970
985.062070	2601.797473
985.358824	2599.879314
985.655543	2599.450816
985.952224	2598.855960
986.248869	2596.100969
986.545478	2593.887903
986.842050	2594.296236
987.138586	2595.881679
987.435086	2592.075608
987.731549	2594.392018
988.027975	2590.812799
988.324366	2590.480083
988.620719	2592.907398
988.917037	2590.802717
989.213318	2592.083170
989.509563	2590.623756
989.805772	2592.337748
990.101944	2593.666092
990.398080	2592.675505
990.694180	2590.414548
990.990244	2593.290526
991.286271	2591.521081
991.582262	2589.058477
991.878217	2590.555700
992.174136	2592.599888
992.470019	2592.017635
992.765865	2589.527305
993.061676	2586.442119
993.357450	2588.196440
993.653188	2586.699218
993.948890	2591.715166
994.244556	2590.699373
994.540186	2592.395721
994.835780	2590.621235
995.131337	2592.567121
995.426859	2593.719024
995.722345	2595.191041
996.017795	2595.100300
996.313208	2596.262286
996.608586	2595.150712
996.903928	2596.471494
997.199234	2596.751278
997.494504	2596.584920
997.789738	2595.261617
998.084936	2594.817996
998.380099	2591.523602
998.675225	2593.885382
998.970316	2593.109045
999.265371	2592.206678
999.560390	2589.698704
999.855373	2592.806575
1000.150320	2591.823550
1000.445232	2593.779518
1000.740108	2591.402614
1001.034948	2588.844228
1001.329752	2591.531163
1001.624521	2589.386152
1001.919254	2591.916812
1002.213951	2591.306832
1002.508613	2587.243662
1002.803239	2591.720207
1003.097829	2589.025710
1003.392384	2590.381780
1003.686903	2588.083014
1003.981386	2592.834302
1004.275834	2590.386822
1004.570246	2590.364136
1004.864623	2590.659044
1005.158964	2589.469332
1005.453270	2588.340113
1005.747540	2591.498396
1006.041775	2589.199630
1006.335974	2591.732810
1006.630138	2585.103692
1006.924266	2591.901688
1007.218359	2589.310535
1007.512416	2587.629310
1007.806438	2587.674681
1008.100425	2586.061512
1008.394376	2585.454052
1008.688292	2586.205184
1008.982172	2586.414392
1009.276017	2588.909763
1009.569827	2587.727613
1009.863602	2589.381111
1010.157341	2590.328848
1010.451045	2587.873806
1010.744714	2586.858014
1011.038347	2590.409507
1011.331945	2588.589650
1011.625508	2587.659557
1011.919036	2588.614856
1012.212528	2587.273909
1012.505986	2589.522264
1012.799408	2589.348344
1013.092795	2587.067222
1013.386147	2588.622418
1013.679464	2588.786255
1013.972745	2586.474886
1014.265992	2589.184506
1014.559204	2586.134608
1014.852380	2589.325659
1015.145521	2587.641913
1015.438628	2586.726944
1015.731699	2586.653847
1016.024736	2588.566965
1016.317737	2587.445308
1016.610703	2588.100658
1016.903635	2586.495051
1017.196531	2589.557552
1017.489393	2587.689804
1017.782219	2589.494537
1018.075011	2585.759042
1018.367768	2586.253075
1018.660490	2587.967068
1018.953177	2587.967068
1019.245829	2587.967068
