Dividing Wavelength (nm)	Counts (n)	Blue Motor Position (mm): 27.100000	Red Motor Position (mm): 0.000000	
326.493990	2205.711495
326.888308	2205.711495
327.282561	2205.711495
327.676750	2165.956956
328.070874	2161.530823
328.464933	2161.024187
328.858929	2165.538540
329.252859	2169.679848
329.646726	2180.092351
330.040528	2193.292613
330.434265	2205.663604
330.827938	2221.102138
331.221547	2240.026629
331.615091	2258.404156
332.008571	2275.075251
332.401986	2291.713580
332.795338	2310.343164
333.188625	2329.766729
333.581847	2350.359843
333.975006	2370.867257
334.368100	2389.161604
334.761129	2406.127607
335.154095	2422.385328
335.546996	2448.551437
335.939833	2485.130050
336.332606	2499.126813
336.725315	2512.687517
337.117960	2525.481966
337.510540	2538.951929
337.903056	2552.000956
338.295508	2556.628735
338.687896	2568.440158
339.080220	2574.653380
339.472480	2581.060687
339.864676	2586.447160
340.256807	2591.233735
340.648875	2596.862184
341.040879	2599.365117
341.432818	2602.399891
341.824694	2602.263780
342.216506	2604.469285
342.608253	2605.686723
342.999937	2606.528596
343.391557	2605.578339
343.783113	2604.660849
344.174605	2601.250508
344.566033	2603.748400
344.957397	2604.416353
345.348697	2602.352000
345.739934	2600.764037
346.131106	2599.652462
346.522215	2596.801690
346.913260	2594.497882
347.304241	2591.730289
347.695159	2591.206009
348.086012	2590.585947
348.476802	2589.423961
348.867528	2585.532190
349.258191	2578.099009
349.648789	2581.350553
350.039324	2574.043401
350.429796	2579.495409
350.820203	2577.262178
351.210548	2579.780234
351.600828	2575.822928
351.991045	2574.461817
352.381198	2574.066086
352.771288	2573.942578
353.161314	2569.778585
353.551276	2572.573904
353.941175	2571.989131
354.331010	2571.427042
354.720782	2572.147927
355.110490	2571.578277
355.500135	2572.057186
355.889717	2568.626681
356.279235	2571.109449
356.668689	2572.878894
357.058080	2572.175653
357.447408	2573.163719
357.836672	2572.349573
358.225873	2572.573904
358.615010	2573.433421
359.004084	2570.837227
359.393095	2574.532393
359.782043	2576.372414
360.170927	2574.262691
360.559748	2574.771847
360.948505	2575.901066
361.337199	2576.745459
361.725830	2577.814184
362.114398	2578.504822
362.502903	2575.906107
362.891344	2578.756880
363.279722	2581.632858
363.668037	2578.724112
364.056289	2579.961715
364.444478	2580.700244
364.832603	2579.210583
365.220665	2582.205029
365.608665	2579.376942
365.996601	2579.475244
366.384474	2581.600090
366.772284	2583.475400
367.160031	2582.777200
367.547715	2584.982705
367.935336	2584.748291
368.322893	2578.847620
368.710388	2579.807960
369.097820	2579.586149
369.485189	2578.719071
369.872495	2587.168045
370.259738	2586.174937
370.646918	2587.470514
371.034035	2588.861873
371.421090	2585.653178
371.808081	2583.659402
372.195010	2586.132088
372.581875	2584.710482
372.968678	2588.072932
373.355418	2585.781727
373.742096	2592.131061
374.128710	2588.080494
374.515262	2588.861872
374.901751	2588.536718
375.288177	2591.531163
375.674540	2590.432192
376.060841	2588.471183
376.447079	2589.139136
376.833254	2590.278437
377.219367	2588.347675
377.605417	2593.547625
377.991404	2590.601071
378.377329	2588.425813
378.763191	2591.379929
379.148991	2593.119127
379.534727	2592.085690
379.920402	2592.410845
380.306013	2591.440423
380.691563	2596.257245
381.077049	2594.944025
381.462474	2594.845722
381.847835	2591.387491
382.233134	2595.846391
382.618371	2594.356730
383.003545	2594.233222
383.388657	2595.387646
383.773706	2594.195413
384.158693	2596.867225
384.543618	2598.603902
384.928480	2596.463932
385.313280	2597.421752
385.698017	2597.280599
386.082692	2597.840168
386.467305	2597.444437
386.851856	2600.436362
387.236344	2598.704725
387.620770	2595.864035
388.005133	2594.959148
388.389435	2595.778336
388.773674	2596.194231
389.157851	2599.544078
389.541965	2601.197576
389.926018	2599.841506
390.310008	2597.414190
390.693936	2600.595158
391.077802	2603.347628
391.461606	2602.341918
391.845348	2602.167998
392.229027	2601.830241
392.612645	2599.806217
392.996200	2600.191866
393.379694	2605.127155
393.763125	2604.653287
394.146494	2601.928543
394.529801	2605.611106
394.913047	2602.115066
395.296230	2602.409973
395.679351	2602.740169
396.062410	2606.647063
396.445408	2604.257556
396.828343	2604.978441
397.211217	2607.171343
397.594028	2604.423914
397.976778	2606.261415
398.359466	2606.732763
398.742092	2606.102619
399.124656	2604.781836
399.507158	2606.274018
399.889598	2607.630088
400.271977	2607.451127
400.654294	2607.158740
401.036549	2612.073865
401.418742	2610.122939
401.800874	2609.230655
402.182944	2609.868361
402.564952	2607.993051
402.946898	2612.366252
403.328783	2609.651591
403.710606	2607.887187
404.092367	2610.342229
404.474067	2609.971704
404.855705	2609.838114
405.237282	2611.171499
405.618797	2612.824997
406.000250	2611.403392
406.381642	2613.755090
406.762972	2610.561519
407.144240	2611.741149
407.525447	2610.362394
407.906593	2605.253184
408.287677	2615.481685
408.668700	2615.721140
409.049661	2616.331120
409.430560	2616.391614
409.811399	2615.073352
410.192176	2615.824484
410.572891	2617.712396
410.953545	2617.435132
411.334138	2618.632407
411.714669	2617.881275
412.095139	2613.414812
412.475547	2614.843979
412.855894	2617.919083
413.236180	2616.419340
413.616405	2618.277005
413.996568	2618.702983
414.376670	2617.379680
414.756711	2621.523508
415.136691	2619.474279
415.516609	2620.840432
415.896466	2620.467387
416.276262	2616.762138
416.655997	2620.971502
417.035670	2622.514095
417.415283	2621.271451
417.794834	2622.259517
418.174324	2620.923611
418.553753	2622.496451
418.933121	2624.429733
419.312428	2620.036368
419.691674	2621.566358
420.070859	2625.143057
420.449983	2626.932666
420.829045	2624.119702
421.208047	2626.801596
421.586988	2625.110289
421.965867	2629.188583
422.344686	2631.333594
422.723444	2630.264869
423.102141	2626.052985
423.480777	2628.659262
423.859352	2626.831843
424.237866	2627.502317
424.616319	2631.215127
424.994712	2632.540950
425.373044	2627.640948
425.751314	2629.770836
426.129524	2626.736061
426.507673	2630.174128
426.885762	2628.795373
427.263789	2634.060858
427.641756	2634.723770
428.019662	2637.584624
428.397508	2636.137813
428.775292	2637.950108
429.153016	2637.912299
429.530679	2636.488173
429.908282	2636.238636
430.285824	2637.312402
430.663305	2639.230561
431.040726	2641.204173
431.418086	2642.663587
431.795385	2641.728453
432.172624	2643.636530
432.549802	2644.944709
432.926920	2643.470172
433.303977	2646.900677
433.680974	2648.130718
434.057910	2648.226500
434.434786	2648.367652
434.811601	2650.026192
435.188355	2651.447797
435.565050	2652.922335
435.941683	2657.446771
436.318257	2660.733603
436.694770	2663.831392
437.071222	2665.686537
437.447614	2669.452278
437.823946	2673.517969
438.200218	2678.554082
438.576429	2680.537776
438.952580	2688.714527
439.328670	2694.955476
439.704700	2701.864377
440.080670	2708.422918
440.456580	2722.780124
440.832429	2729.489900
441.208218	2740.479616
441.583947	2759.424272
441.959616	2775.210645
442.335224	2785.461831
442.710773	2808.487302
443.086261	2831.888338
443.461689	2837.463854
443.837057	2877.604041
444.212365	2918.071904
444.587612	2929.273348
444.962800	2971.094760
445.337927	2999.937722
445.712995	3018.378263
446.088002	3110.545678
446.462949	3143.706388
446.837837	3188.882688
447.212664	3241.419073
447.587431	3334.675378
447.962139	3452.088893
448.336786	3731.434351
448.711374	3893.794792
449.085901	3745.627719
449.460369	3766.135133
449.834776	3787.484420
450.209124	3978.012309
450.583412	4133.489055
450.957640	4384.047004
451.331808	4358.430381
451.705917	4287.776089
452.079965	4263.714662
452.453954	4534.835477
452.827883	4565.067277
453.201752	4726.653902
453.575562	4736.388370
453.949311	4930.220735
454.323001	5029.970046
454.696632	5199.430953
455.070202	5398.639709
455.443713	5575.314508
455.817164	5846.871383
456.190556	5974.828471
456.563888	6222.069340
456.937160	6418.628970
457.310373	6337.675601
457.683526	6481.655996
458.056619	6470.111754
458.429653	6642.257075
458.802628	6599.011537
459.175542	6862.288317
459.548398	7359.643514
459.921194	7673.777975
460.293930	7835.873757
460.666607	8386.186275
461.039224	9011.831276
461.411782	9527.508547
461.784280	9672.277883
462.156719	9892.969516
462.529099	9891.394155
462.901419	9539.937512
463.273680	9599.067726
463.645882	9680.913379
464.018024	9683.859933
464.390106	9976.236774
464.762130	10565.371218
465.134094	11122.746393
465.505999	12393.061710
465.877845	14519.553993
466.249631	16540.819751
466.621358	16686.567070
466.993026	16064.879375
467.364634	15954.752849
467.736184	15257.213432
468.107674	14888.329520
468.479105	15158.409338
468.850477	14972.526872
469.221790	14859.869686
469.593043	14540.890677
469.964238	14336.857536
470.335373	14234.862391
470.706449	14679.189691
471.077467	14462.137771
471.448425	15963.274919
471.819324	19273.881309
472.190164	21194.006397
472.560945	18629.180746
472.931667	16773.332890
473.302330	16363.529932
473.672934	16034.387956
474.043479	16497.415416
474.413965	16457.388655
474.784393	16255.659322
475.154761	16936.739371
475.525070	17071.925473
475.895321	16848.766195
476.265513	17450.760623
476.635645	18082.197910
477.005719	17998.081217
477.375734	18268.564326
477.745691	18815.237132
478.115588	19335.668211
478.485427	19907.163658
478.855207	20953.077052
479.224928	22604.435544
479.594591	24749.209571
479.964194	24959.834020
480.333739	25285.447188
480.703226	24965.490194
481.072653	24723.108997
481.442022	25302.652646
481.811333	26219.630969
482.180584	26244.166265
482.549777	25394.946091
482.918912	25104.789878
483.287988	25258.477015
483.657005	25020.577403
484.025964	24777.624035
484.394864	24777.397183
484.763706	24534.937847
485.132489	24013.155739
485.501213	24195.635426
485.869879	24160.601927
486.238487	23966.298214
486.607036	24148.702284
486.975527	23847.523588
487.343959	24202.269584
487.712333	24205.994997
488.080648	23896.982349
488.448905	24362.248081
488.817104	24127.587411
489.185244	24784.285919
489.553326	24798.212107
489.921350	25738.561219
490.289315	27977.849319
490.657222	29803.483020
491.025070	30301.473403
491.392861	30120.070002
491.760593	29301.089189
492.128267	28426.542258
492.495883	27408.670282
492.863440	26545.551647
493.230939	25675.677866
493.598380	25520.107858
493.965763	25127.152437
494.333088	24689.575242
494.700354	24617.542194
495.067563	24514.175855
495.434713	24275.681387
495.801805	24402.219390
496.168839	24247.965123
496.535815	24058.188366
496.902733	24275.890595
497.269593	23937.959368
497.636395	24139.277847
498.003139	24125.921309
498.369825	23873.500654
498.736453	24064.890580
499.103023	23947.524957
499.469535	23971.949347
499.835989	24177.245297
500.202385	24206.516757
500.568723	23697.728222
500.935003	23985.167253
501.301226	23558.841913
501.667390	24379.660227
502.033497	24628.884790
502.399546	24362.966446
502.765537	23943.139153
503.131470	24346.502037
503.497345	24459.965807
503.863163	23675.501775
504.228923	24301.373628
504.594625	24489.660724
504.960269	24000.704089
505.325856	24503.914587
505.691385	23906.197578
506.056856	24517.913871
506.422270	24486.283151
506.787625	24088.130300
507.152924	24481.068077
507.518164	24502.185471
507.883347	24326.639891
508.248472	23994.558923
508.613540	24780.273161
508.978550	24568.728702
509.343503	24547.981833
509.708398	24834.856254
510.073236	24993.372816
510.438016	25193.599885
510.802738	24871.240782
511.167403	25128.243846
511.532010	24809.622759
511.896561	25594.767347
512.261053	25571.595683
512.625488	25410.145169
512.989866	25301.331864
513.354186	25167.872357
513.718449	25246.854635
514.082655	25638.665714
514.446803	25379.802464
514.810894	25827.411556
515.174927	25313.997763
515.538904	25340.461300
515.902822	25835.739542
516.266684	25582.905512
516.630488	25493.515772
516.994235	25479.692928
517.357925	25760.064261
517.721558	25959.061288
518.085133	26042.033639
518.448651	25963.094211
518.812112	25698.468922
519.175516	25880.290739
519.538863	26053.638376
519.902152	25815.723640
520.265385	26126.583872
520.628560	25911.878609
520.991678	25920.468735
521.354739	25989.842574
521.717743	26043.404833
522.080690	25838.514697
522.443580	26182.906163
522.806413	26190.414962
523.169189	26273.089885
523.531908	26320.801885
523.894569	25917.403713
524.257174	25997.066547
524.619722	26209.387344
524.982213	25865.469747
525.344647	25951.106348
525.707025	26070.705202
526.069345	26078.150986
526.431608	26014.992890
526.793815	26211.918003
527.155964	25659.616750
527.518057	25828.074467
527.880093	25751.164104
528.242072	25992.085887
528.603995	25699.351124
528.965860	25497.561298
529.327669	25538.984459
529.689421	25546.831015
530.051117	25379.623503
530.412755	25545.283381
530.774337	25344.925242
531.135862	25225.452416
531.497331	25413.132053
531.858743	24969.543282
532.220098	25444.241013
532.581396	25126.875173
532.942638	25074.401803
533.303824	25152.811910
533.664953	25177.911815
534.026025	24845.432595
534.387040	25072.894498
534.747999	25148.451312
535.108902	25300.590814
535.469748	24799.389216
535.830537	24997.909855
536.191270	25094.274031
536.551947	24998.192159
536.912567	24653.175590
537.273131	24965.943898
537.633638	24692.272259
537.994089	24887.178390
538.354483	24436.884884
538.714821	24941.756442
539.075103	24987.767053
539.435328	24770.740339
539.795497	24315.665299
540.155609	24730.753907
540.515665	25021.757033
540.875665	24265.677218
541.235609	24546.260279
541.595496	24516.865311
541.955328	24875.608942
542.315102	24784.948831
542.674821	24350.265258
543.034483	24224.990065
543.394090	24387.098449
543.753640	24177.376367
544.113134	24815.173069
544.472571	24408.147787
544.831953	24703.458579
545.191278	24308.330420
545.550548	24250.841102
545.909761	24451.010198
546.268918	24681.489231
546.628019	24647.973119
546.987064	24348.296688
547.346053	24097.930303
547.704986	24231.031888
548.063863	24387.111052
548.422684	24387.925198
548.781449	23933.376959
549.140158	24331.202135
549.498811	23905.368308
549.857408	23641.839470
550.215949	24095.802936
550.574434	23759.835238
550.932864	23981.537622
551.291237	24131.632937
551.649555	23994.886597
552.007817	24057.313726
552.366022	23915.856429
552.724173	23960.062307
553.082267	23893.556885
553.440305	24377.631162
553.798288	23655.490915
554.156215	24171.488299
554.514086	24255.254632
554.871902	23637.163800
555.229661	23904.349995
555.587365	23770.393934
555.945014	23611.486683
556.302606	23884.752509
556.660143	23816.432272
557.017625	24080.621501
557.375050	23613.377116
557.732421	24006.188864
558.089735	23805.767711
558.446994	23877.727662
558.804197	23898.204828
559.161345	23855.786039
559.518437	23596.690896
559.875474	23799.592297
560.232455	23970.615962
560.589381	23803.441218
560.946251	23768.122895
561.303065	24102.805098
561.659825	24192.134345
562.016528	23783.319453
562.373177	23528.443756
562.729770	23879.620615
563.086307	23741.588781
563.442789	23928.968470
563.799216	23751.671089
564.155587	23761.461010
564.511904	23753.415328
564.868164	23677.079656
565.224370	23675.254758
565.580520	23561.927099
565.936615	23704.780797
566.292654	23370.958109
566.648638	23679.854811
567.004567	23505.060363
567.360441	23450.200007
567.716260	23186.098998
568.072023	23505.672864
568.427732	23264.120936
568.783385	23053.345252
569.138982	23285.896200
569.494525	23331.493437
569.850013	23063.704824
570.205445	23180.427700
570.560823	22970.675371
570.916145	22748.171443
571.271412	22917.155961
571.626625	22673.602695
571.981782	22785.717957
572.336884	22596.125202
572.691931	22728.987332
573.046923	22461.160910
573.401860	22337.120799
573.756743	22346.472140
574.111570	22252.099219
574.466342	22197.077545
574.821059	22269.846601
575.175722	21975.564204
575.530330	21961.448973
575.884882	21998.342658
576.239380	21897.607801
576.593823	21791.627624
576.948211	21761.781472
577.302544	21604.210127
577.656823	21483.446766
578.011047	21584.030388
578.365216	21464.373560
578.719330	21334.699960
579.073389	21235.898386
579.427394	21382.969008
579.781344	21163.288126
580.135239	21047.356711
580.489080	21016.593070
580.842866	20784.110178
581.196597	20970.816872
581.550273	20946.329468
581.903895	20841.778457
582.257463	21149.813122
582.610975	20679.110505
582.964434	20989.769090
583.317837	20694.959893
583.671186	20793.587547
584.024481	20748.628017
584.377721	20528.460663
584.730906	20583.832697
585.084037	20619.188830
585.437113	20514.698313
585.790135	20717.146011
586.143103	20182.657674
586.496016	20189.102789
586.848874	20442.272056
587.201679	20372.562981
587.554428	20043.751201
587.907124	20381.377438
588.259765	20157.472070
588.612352	20226.503110
588.964884	19805.549120
589.317362	19973.908535
589.669786	20021.716317
590.022155	20079.974412
590.374470	20255.212481
590.726731	20062.035466
591.078937	19814.537497
591.431090	19917.414844
591.783188	19652.643362
592.135232	19637.144334
592.487222	19731.658407
592.839157	19765.746689
593.191038	19645.673967
593.542866	19531.854795
593.894639	19243.684797
594.246358	19470.345156
594.598022	19374.913593
594.949633	19131.874525
595.301190	19078.619776
595.652692	19255.294574
596.004141	19501.471761
596.355535	18822.292227
596.706876	18839.817798
597.058162	18729.192197
597.409395	18946.430640
597.760573	19033.511532
598.111698	18811.995670
598.462768	18749.301360
598.813785	18704.399803
599.164748	18527.001599
599.515657	18557.142658
599.866511	18360.119242
600.217312	18714.345999
600.568060	18245.674967
600.918753	18554.082677
601.269392	18453.725907
601.619978	18229.462617
601.970510	18443.694011
602.320988	18394.993944
602.671412	18591.152802
603.021783	18498.375407
603.372100	18238.524091
603.722363	18374.511736
604.072572	18314.033013
604.422728	18450.335731
604.772830	18210.860759
605.122878	18170.622269
605.472872	18160.013161
605.822813	18141.708731
606.172701	18110.864431
606.522534	18304.878278
606.872314	18326.598089
607.222041	18156.386050
607.571714	18381.080360
607.921333	18196.422894
608.270899	18287.385474
608.620411	18465.156723
608.969870	18236.976456
609.319276	18230.954798
609.668627	18270.147249
610.017926	18399.972084
610.367171	18505.619545
610.716362	18552.671154
611.065500	18376.858393
611.414585	18508.195574
611.763616	18485.081884
612.112594	18444.924053
612.461518	18397.025529
612.810389	18596.761086
613.159207	18457.305126
613.507971	18365.062093
613.856682	18645.619949
614.205340	18572.717302
614.553945	18718.746927
614.902496	18455.906206
615.250994	18694.645170
615.599439	18638.539648
615.947830	18625.601527
616.296169	18666.712137
616.644454	18639.265574
616.992686	18609.903374
617.340864	18821.825920
617.688990	18583.588551
618.037063	18753.740096
618.385082	18606.382128
618.733048	18890.005005
619.080961	18757.190766
619.428821	18792.188976
619.776628	18680.172017
620.124382	18605.378938
620.472083	18637.042426
620.819731	18662.638884
621.167326	18355.201596
621.514868	18393.239623
621.862357	18157.606010
622.209793	18181.065019
622.557176	18008.428185
622.904506	17834.510898
623.251783	17745.443792
623.599007	17504.307759
623.946179	17453.024101
624.293297	17389.288793
624.640363	17157.219276
624.987376	17165.741346
625.334336	16962.209801
625.681243	16804.784649
626.028097	16813.533571
626.374899	16751.834889
626.721647	16605.472549
627.068343	16442.822241
627.414987	16373.430758
627.761577	16350.198601
628.108115	16392.521608
628.454600	16113.387878
628.801032	16210.258690
629.147412	16138.520551
629.493739	16154.826163
629.840014	15973.042155
630.186236	16072.524285
630.532405	15832.220043
630.878521	16031.685898
631.224585	15922.771769
631.570597	15751.329688
631.916556	15780.795232
632.262462	15755.158445
632.608316	15683.556416
632.954117	15622.235821
633.299866	15612.667711
633.645562	15531.288364
633.991206	15292.040244
634.336797	15163.654658
634.682336	15135.313291
635.027823	15014.970867
635.373257	14896.423093
635.718639	14790.785714
636.063968	14749.105454
636.409245	14498.078677
636.754470	14526.525909
637.099642	14380.082910
637.444762	14147.952899
637.789829	14189.691132
638.134845	14030.113407
638.479808	14057.822109
638.824719	14004.869829
639.169577	13854.068753
639.514383	13906.897525
639.859137	13727.298857
640.203839	13812.035612
640.548489	13648.460252
640.893086	13636.338798
641.237632	13502.423067
641.582125	13656.324452
641.926566	13483.889264
642.270955	13503.131349
642.615292	13458.738948
642.959576	13464.422849
643.303809	13500.260412
643.647990	13434.286831
643.992118	13494.228671
644.336195	13264.493208
644.680219	13469.106081
645.024192	13391.011046
645.368112	13635.817038
645.711981	13694.135627
646.055797	13861.010422
646.399562	13840.697092
646.743274	14110.151807
647.086935	14380.740781
647.430544	14344.446993
647.774101	14369.914903
648.117606	14523.254200
648.461059	14494.862421
648.804460	14478.496315
649.147810	14213.871027
649.491108	14117.388383
649.834354	14137.111897
650.177548	13832.157378
650.520690	13638.209066
650.863781	13561.276017
651.206820	13603.218417
651.549807	13431.783898
651.892742	13237.482706
652.235626	13177.823170
652.578458	13173.160103
652.921238	12862.506559
653.263967	13073.972881
653.606644	12886.779715
653.949269	12861.649563
654.291843	12660.439469
654.634365	12819.651710
654.976836	12671.834997
655.319255	12693.375847
655.661622	12646.979588
656.003938	12560.390209
656.346203	12486.131492
656.688416	12556.059858
657.030577	12522.193386
657.372687	12443.823609
657.714746	12415.033579
658.056753	12598.622320
658.398708	12417.249166
658.740612	12426.141762
659.082465	12523.446113
659.424266	12485.939928
659.766016	12513.300791
660.107715	12414.836974
660.449362	12494.519972
660.790958	12457.918675
661.132503	12400.091599
661.473996	12464.147020
661.815438	12476.686891
662.156829	12491.288593
662.498168	12474.718320
662.839456	12469.336888
663.180693	12489.057882
663.521879	12579.881830
663.863013	12555.298644
664.204097	12525.460054
664.545129	12655.776402
664.886110	12620.974796
665.227040	12718.513561
665.567918	12720.585475
665.908746	12755.175352
666.249522	12739.346129
666.590248	12778.747788
666.930922	12896.940160
667.271545	12879.691852
667.612118	12961.645891
667.952639	12865.937064
668.293109	12882.189744
668.633528	12828.168740
668.973896	12797.926858
669.314213	12892.917320
669.654480	12629.312864
669.994695	12697.623020
670.334859	12720.645969
670.674973	12664.842917
671.015035	12699.019419
671.355047	12645.613435
671.695008	12614.605298
672.034918	12617.650155
672.374777	12669.080007
672.714585	12573.673649
673.054342	12609.543980
673.394049	12562.222668
673.733705	12658.959890
674.073310	12565.627968
674.412864	12578.382087
674.752368	12451.604630
675.091820	12464.278090
675.431223	12452.002881
675.770574	12325.144765
676.109875	12249.920667
676.449125	12206.922145
676.788324	12145.893937
677.127473	11984.584576
677.466571	11974.928245
677.805619	11873.938810
678.144616	11793.860082
678.483562	11765.342274
678.822458	11632.734722
679.161303	11610.062133
679.500098	11601.535021
679.838842	11549.464943
680.177535	11578.897720
680.516179	11643.931125
680.854771	11586.663617
681.193314	11800.463993
681.531805	11945.979419
681.870247	12362.731608
682.208638	12771.826284
682.546978	13098.538423
682.885268	13147.906443
683.223508	12843.103158
683.561697	12673.342302
683.899836	12578.157756
684.237925	12381.630894
684.575963	12300.163327
684.913951	12221.455792
685.251889	12166.608038
685.589776	12264.045980
685.927614	12190.674507
686.265401	12152.422231
686.603137	12201.671784
686.940824	12353.700381
687.278460	12474.950213
687.616046	12525.245805
687.953582	12699.180736
688.291068	12619.051596
688.628504	12845.442253
688.965889	12858.579500
689.303224	12829.315602
689.640510	12727.312895
689.977745	12411.719020
690.314930	12186.964217
690.652065	12100.604211
690.989150	11811.801548
691.326185	11587.583628
691.663170	11377.087728
692.000105	11138.784824
692.336990	11025.658812
692.673825	10780.878025
693.010610	10656.860599
693.347345	10453.190422
693.684030	10250.561243
694.020665	10188.494557
694.357251	9998.291822
694.693786	9936.638511
695.030272	9770.262790
695.366707	9652.025047
695.703093	9587.205891
696.039429	9589.693700
696.375716	9507.492646
696.711952	9373.332418
697.048139	9416.104088
697.384276	9372.999702
697.720363	9388.536538
698.056400	9319.513060
698.392388	9272.269887
698.728326	9237.266635
699.064214	9172.510493
699.400053	9221.896157
699.735842	9038.413280
700.071581	8989.796393
700.407270	8920.820805
700.742910	8839.285183
701.078501	8751.107840
701.414042	8628.612843
701.749533	8558.830671
702.084974	8422.326307
702.420366	8534.892752
702.755709	8414.300790
703.091002	8286.169783
703.426246	8312.676170
703.761440	8261.284127
704.096584	8218.494813
704.431679	8152.657344
704.766725	8143.989080
705.101721	8090.033610
705.436668	8133.697564
705.771565	8039.780868
706.106413	8106.291331
706.441212	8151.412179
706.775961	8105.643543
707.110661	8140.419943
707.445311	8287.140205
707.779913	8182.037188
708.114465	8309.956467
708.448967	8353.262499
708.783421	8487.062284
709.117825	8674.641098
709.452180	8706.468423
709.786485	8801.385788
710.120742	9082.924148
710.454949	9077.071368
710.789107	9181.118263
711.123216	9391.909070
711.457275	9554.869409
711.791286	9725.320903
712.125247	9710.273059
712.459159	9701.864414
712.793023	9948.061765
713.126837	9526.941417
713.460602	9679.625364
713.794318	9504.288992
714.127985	9536.149085
714.461602	9215.022543
714.795171	9162.997836
715.128691	8918.254858
715.462162	8669.325201
715.795584	8613.217159
716.128957	8470.676013
716.462281	8296.602451
716.795556	8345.365532
717.128782	8141.874316
717.461960	7869.004220
717.795088	7948.747712
718.128167	7855.476283
718.461198	7683.688884
718.794180	7626.512117
719.127113	7619.507433
719.459997	7476.752039
719.792833	7236.263795
720.125619	7306.267777
720.458357	7159.169429
720.791046	7143.887171
721.123686	7147.277347
721.456278	6988.533933
721.788821	7002.994483
722.121315	6896.132103
722.453761	6963.885211
722.786158	6909.730616
723.118506	6922.303254
723.450805	6886.251442
723.783056	6949.709487
724.115259	6863.823348
724.447412	6856.526278
724.779518	6905.798516
725.111574	6903.431694
725.443582	6990.154664
725.775542	6969.150696
726.107453	7160.515417
726.439315	7071.002169
726.771129	7132.358052
727.102895	7298.388454
727.434612	7412.651247
727.766281	7443.077131
728.097901	7522.492948
728.429473	7513.842328
728.760996	7495.487487
729.092471	7469.112170
729.423897	7420.281033
729.755276	7422.436127
730.086606	7352.908533
730.417887	7453.600540
730.749120	7643.084910
731.080305	7837.761669
731.411442	7950.940614
731.742530	7952.347096
732.073570	8061.714928
732.404562	8147.598546
732.735506	7997.006677
733.066401	8136.639077
733.397249	8067.741628
733.728048	7833.088519
734.058798	7497.612333
734.389501	7274.175792
734.720156	7096.094512
735.050762	6863.236054
735.381320	6770.400685
735.711831	6720.014353
736.042293	6609.726509
736.372707	6627.781402
736.703073	6494.742831
737.033391	6530.008223
737.363661	6544.627569
737.693883	6574.463638
738.024056	6654.985989
738.354182	6697.248502
738.684260	6729.249747
739.014290	6846.640576
739.344272	6954.488500
739.674207	6984.863973
740.004093	7057.353245
740.333931	7065.739204
740.663722	7077.785041
740.993464	7156.961403
741.323159	7147.499158
741.652806	6892.217648
741.982405	6906.050574
742.311956	6958.448327
742.641460	6802.822866
742.970915	6609.139215
743.300323	6597.247133
743.629683	6548.191665
743.958996	6418.787766
744.288260	6324.684547
744.617477	6273.388287
744.946647	6275.878617
745.275768	6111.741168
745.604842	6071.026289
745.933869	6055.355862
746.262847	6008.480693
746.591778	5992.782540
746.920662	5954.885666
747.249498	5949.098421
747.578286	5992.780019
747.907027	6068.790537
748.235720	6130.693386
748.564365	6098.251040
748.892963	6123.653414
749.221514	6280.791221
749.550017	6115.022959
749.878473	5996.825545
750.206881	6048.504934
750.535242	5992.180122
750.863555	5921.402322
751.191821	5938.123829
751.520039	5939.726916
751.848210	5849.326425
752.176334	5869.654878
752.504411	5917.845788
752.832440	5840.766546
753.160421	5772.955465
753.488356	5815.331404
753.816243	5856.394123
754.144082	5704.680598
754.471875	5673.417882
754.799620	5717.351538
755.127318	5728.600873
755.454969	5684.644532
755.782572	5647.433255
756.110129	5696.791192
756.437638	5683.782494
756.765100	5618.638184
757.092515	5614.890086
757.419882	5666.675339
757.747203	5649.540457
758.074477	5709.235280
758.401703	5695.495615
758.728882	5645.013501
759.056014	5702.878385
759.383099	5837.525084
759.710138	5844.398697
760.037129	5829.086192
760.364073	5836.365618
760.690970	5914.193472
761.017820	5895.886522
761.344623	5850.357341
761.671379	5956.612261
761.998088	6068.528397
762.324751	6313.858670
762.651366	6905.216263
762.977935	8205.221455
763.304456	9837.262245
763.630931	10742.255225
763.957359	10355.744918
764.283740	9417.079551
764.610074	8584.921163
764.936362	7598.269052
765.262602	6992.650035
765.588796	6458.161698
765.914943	6121.815914
766.241044	5958.543023
766.567097	5761.151603
766.893104	5502.890771
767.219064	5325.916024
767.544978	5262.788175
767.870845	5183.768088
768.196665	5077.581224
768.522438	5007.567159
768.848165	4971.235563
769.173846	4906.522271
769.499479	4865.699007
769.825066	4812.189680
770.150607	4752.880505
770.476101	4727.498295
770.801548	4722.724322
771.126949	4649.786388
771.452303	4597.000466
771.777611	4556.686359
772.102872	4571.973658
772.428087	4532.972771
772.753256	4494.967512
773.078378	4447.023618
773.403453	4382.451479
773.728482	4367.358264
774.053465	4320.054597
774.378401	4309.004388
774.703291	4310.448678
775.028135	4235.695929
775.352932	4187.603321
775.677683	4176.482536
776.002388	4191.379145
776.327046	4204.455898
776.651658	4132.677429
776.976224	4068.949683
777.300743	4075.266249
777.625216	4092.849793
777.949643	4090.901387
778.274024	4044.011095
778.598359	4002.048530
778.922647	4027.284546
779.246889	4017.040922
779.571086	4013.413812
779.895236	3997.539218
780.219339	3984.543123
780.543397	3978.713029
780.867409	4026.714896
781.191374	4044.237947
781.515294	3982.166219
781.839167	3974.208758
782.162995	3991.535204
782.486776	3982.950119
782.810511	3990.882374
783.134201	3991.157117
783.457844	3945.005354
783.781441	3885.965881
784.104993	3891.977457
784.428498	3913.568718
784.751958	3907.229467
785.075372	3890.689442
785.398739	3854.284749
785.722061	3857.495964
786.045337	3901.492634
786.368568	3933.113272
786.691752	3849.896425
787.014891	3898.019279
787.337983	4023.065101
787.661030	4184.558464
787.984031	4341.792053
788.306987	4513.478629
788.629897	4595.036937
788.952760	4552.028333
789.275579	4486.483250
789.598351	4420.786933
789.921078	4284.660656
790.243759	4082.109615
790.566395	4060.084814
790.888984	4058.708579
791.211529	3953.524904
791.534027	3893.298239
791.856480	3883.972104
792.178888	3817.527176
792.501249	3772.411370
792.823566	3781.740025
793.145836	3810.381340
793.468062	3758.956530
793.790241	3716.759552
794.112375	3743.228130
794.434464	3802.454126
794.756507	3829.532684
795.078505	3815.951815
795.400457	3843.642873
795.722364	3982.115808
796.044226	4087.780913
796.366042	4157.187519
796.687812	4141.451558
797.009538	4147.821055
797.331218	4103.673151
797.652852	4079.253801
797.974442	4057.652457
798.295986	4060.276378
798.617484	3978.251763
798.938938	3890.722209
799.260346	3932.904064
799.581709	3925.758228
799.903026	3857.700131
800.224299	3817.073472
800.545526	3809.761278
800.866708	3773.550670
801.187845	3712.184705
801.508936	3745.393306
801.829983	3748.569233
802.150984	3666.688291
802.471940	3656.275788
802.792851	3665.158301
803.113717	3665.392715
803.434538	3669.546625
803.755314	3611.790126
804.076045	3584.860282
804.396731	3602.995833
804.717372	3633.764515
805.037967	3616.622072
805.358518	3606.070937
805.679024	3632.037920
805.999485	3644.444200
806.319901	3648.996362
806.640272	3662.720903
806.960598	3678.330836
807.280879	3654.660098
807.601115	3668.155267
807.921306	3679.581042
808.241453	3723.797003
808.561554	3698.203064
808.881611	3633.126809
809.201623	3666.653003
809.521590	3682.946012
809.841513	3654.423164
810.161390	3680.727905
810.481223	3662.632683
810.801011	3609.115794
811.120755	3600.134978
811.440453	3633.404073
811.760107	3636.632932
812.079716	3595.177003
812.399281	3564.645255
812.718801	3585.442535
813.038276	3559.195768
813.357707	3555.677042
813.677093	3571.256728
813.996434	3522.481044
814.315731	3530.473794
814.634983	3533.727858
814.954191	3548.175805
815.273354	3577.235537
815.592473	3571.604568
815.911547	3579.133531
816.230577	3616.405302
816.549562	3668.550997
816.868502	3714.153275
817.187399	3734.501893
817.506250	3731.585585
817.825058	3705.532902
818.143821	3794.920122
818.462539	3899.014907
818.781213	3946.923513
819.099843	4002.058612
819.418429	4242.219182
819.736970	4483.272035
820.055466	4730.817895
820.373919	5092.992031
820.692327	5497.816850
821.010691	5933.427995
821.329011	7296.447610
821.647286	10017.455769
821.965517	14565.768771
822.283704	18591.321681
822.601847	20785.809047
822.919945	18989.819851
823.237999	16411.562046
823.556010	13927.346965
823.873976	11841.239366
824.191897	9748.500129
824.509775	8396.364365
824.827609	7273.497757
825.145398	6721.561987
825.463144	6608.229287
825.780845	6715.578137
826.098502	6905.879174
826.416116	7773.204652
826.733685	9089.487730
827.051210	10203.542401
827.368692	10265.233521
827.686129	9009.078806
828.003522	7497.357755
828.320872	6484.045503
828.638177	5786.042300
828.955439	5225.075303
829.272656	4729.638265
829.589830	4447.588228
829.906960	4268.334879
830.224046	4087.584308
830.541088	3957.182261
830.858086	3913.384716
831.175041	3835.463601
831.491952	3819.561282
831.808819	3829.162159
832.125642	3898.714959
832.442421	4047.902866
832.759157	4321.277077
833.075849	4867.564234
833.392497	5724.814966
833.709101	6499.710888
834.025662	6842.733681
834.342179	6486.124979
834.658653	5823.215769
834.975083	5179.651986
835.291469	4605.835088
835.607811	4194.103889
835.924110	4054.133732
836.240366	3858.242055
836.556578	3652.988956
836.872746	3544.909138
837.188871	3509.613499
837.504952	3439.042386
837.820990	3352.994931
838.136984	3308.330308
838.452935	3336.767457
838.768842	3327.287567
839.084706	3350.350846
839.400526	3507.213910
839.716303	3846.271835
840.032037	4364.257955
840.347727	4631.618069
840.663373	4360.189743
840.978977	3979.617916
841.294537	3671.432017
841.610054	3443.443314
841.925527	3337.672344
842.240957	3267.640635
842.556344	3209.876574
842.871687	3154.310455
843.186987	3104.150975
843.502244	3070.755851
843.817458	3034.162115
844.132629	3000.446878
844.447756	3013.395082
844.762840	2996.933194
845.077881	2965.494038
845.392879	2949.417798
845.707833	2945.568878
846.022745	2939.080913
846.337613	2942.340018
846.652438	2929.487597
846.967221	2930.452978
847.281960	2917.875299
847.596656	2912.811460
847.911309	2911.190729
848.225919	2902.799728
848.540485	2899.462484
848.855009	2900.735376
849.169490	2889.428068
849.483928	2880.575802
849.798323	2879.824670
850.112675	2877.667056
850.426984	2887.880433
850.741251	2883.910525
851.055474	2873.808052
851.369654	2870.107846
851.683792	2874.828886
851.997887	2882.110833
852.311938	2886.257182
852.625947	2873.356869
852.939914	2876.641181
853.253837	2881.216028
853.567718	2867.126003
853.881555	2863.831609
854.195350	2879.285266
854.509103	2876.759648
854.822812	2869.878473
855.136479	2865.631301
855.450103	2865.981661
855.763685	2860.244828
856.077224	2855.589322
856.390720	2872.073896
856.704173	2881.372304
857.017584	2871.103473
857.330953	2868.240098
857.644278	2878.536655
857.957561	2888.140053
858.270802	2891.104251
858.584000	2892.677091
858.897155	2877.288969
859.210268	2877.951881
859.523339	2874.465923
859.836367	2875.398537
860.149352	2868.809748
860.462295	2863.335055
860.775195	2871.380737
861.088054	2873.054400
861.400869	2857.593181
861.713642	2853.114116
862.026373	2867.980479
862.339062	2869.828062
862.651708	2877.122611
862.964312	2878.241747
863.276873	2874.241592
863.589392	2879.643188
863.901869	2892.157853
864.214303	2913.965884
864.526696	2932.320725
864.839045	2926.039448
865.151353	2923.014755
865.463619	2925.114396
865.775842	2921.885537
866.088023	2944.921089
866.400162	2951.179682
866.712258	2920.108530
867.024313	2911.803229
867.336325	2919.513674
867.648296	2940.681479
867.960224	2933.553287
868.272110	2921.429312
868.583954	2926.624221
868.895755	2940.527724
869.207515	2925.996598
869.519233	2930.989861
869.830909	2939.852209
870.142542	2951.698921
870.454134	2949.992490
870.765684	2955.802420
871.077191	2953.576750
871.388657	2960.762915
871.700081	2975.823362
872.011463	2984.907522
872.322803	2985.590598
872.634101	2983.783344
872.945357	3002.599451
873.256571	3027.981661
873.567744	3019.840197
873.878874	3012.948940
874.189963	3036.430634
874.501010	3037.259904
874.812015	3030.708925
875.122979	3027.202802
875.433900	3024.034437
875.744780	3030.880324
876.055618	3037.980789
876.366415	3036.821324
876.677169	3045.950853
876.987882	3043.447921
877.298554	3035.447609
877.609183	3058.432750
877.919771	3080.036615
878.230317	3107.611727
878.540822	3159.419665
878.851285	3199.333000
879.161707	3238.013774
879.472087	3338.312571
879.782425	3567.485945
880.092722	4001.310001
880.402977	4525.905073
880.713191	5151.993696
881.023363	6301.941382
881.333494	7585.250273
881.643583	8145.002352
881.953631	7850.979574
882.263637	7226.970427
882.573602	6638.282125
882.883526	6057.223610
883.193408	5485.735724
883.503248	5025.110374
883.813048	4720.569229
884.122806	4419.279628
884.432522	4104.885548
884.742197	3869.105742
885.051831	3673.519055
885.361424	3540.198179
885.670975	3470.680668
885.980485	3381.759755
886.289954	3306.202941
886.599382	3261.432454
886.908768	3222.502143
887.218113	3177.557736
887.527417	3121.086731
887.836680	3072.573187
888.145901	3065.757547
888.455082	3059.662792
888.764221	3005.220851
889.073319	2975.364617
889.382376	2973.958135
889.691392	2979.410143
890.000366	2978.101964
890.309300	2963.515385
890.618193	2973.466623
890.927044	2994.556290
891.235855	2995.935046
891.544625	2979.642036
891.853353	2990.561176
892.162041	3008.658918
892.470687	3046.573436
892.779293	3099.313987
893.087858	3143.774444
893.396381	3216.528376
893.704864	3338.481449
894.013306	3575.115732
894.321707	3878.517576
894.630068	4084.100871
894.938387	4079.147937
895.246665	4039.710991
895.554903	3914.831527
895.863100	3717.956826
896.171256	3550.595559
896.479371	3412.120104
896.787446	3287.890950
897.095480	3187.382945
897.403473	3122.087400
897.711425	3085.090372
898.019336	3070.924730
898.327207	3045.209804
898.635038	3009.888959
898.942827	2998.059892
899.250576	2985.220073
899.558284	2955.275619
899.865952	2933.036569
900.173579	2914.359094
900.481165	2906.920872
900.788711	2894.746485
901.096216	2869.581045
901.403681	2858.351875
901.711105	2865.696836
902.018489	2864.244984
902.325832	2863.181300
902.633135	2869.240767
902.940397	2905.688309
903.247619	2984.980618
903.554800	3178.019002
903.861941	3519.368132
904.169041	3945.695992
904.476101	4244.550715
904.783121	4208.014953
905.090100	3960.794248
905.397039	3686.699151
905.703938	3437.068775
906.010796	3254.256372
906.317614	3142.864516
906.624391	3048.418498
906.931129	2975.014257
907.237826	2918.283632
907.544483	2865.641383
907.851099	2837.204234
908.157675	2816.691779
908.464211	2795.554221
908.770707	2784.614917
909.077163	2771.339039
909.383578	2755.529980
909.689954	2744.600759
909.996289	2744.177302
910.302584	2744.860378
910.608839	2747.322982
910.915054	2740.358628
911.221229	2729.568038
911.527363	2734.110118
911.833458	2741.742425
912.139513	2745.319123
912.445527	2747.935482
912.751502	2757.324631
913.057436	2764.170518
913.363331	2779.346912
913.669186	2799.813996
913.975000	2835.041579
914.280775	2896.888975
914.586510	2962.600416
914.892205	3041.078578
915.197859	3168.329904
915.503475	3361.436343
915.809050	3574.160433
916.114585	3720.938668
916.420081	3745.962956
916.725536	3684.211342
917.030952	3567.581727
917.336328	3437.421655
917.641665	3308.521872
917.946961	3208.318857
918.252218	3139.741521
918.557435	3058.314283
918.862612	2999.282372
919.167750	2951.769497
919.472848	2912.829104
919.777906	2886.496637
920.082925	2860.683408
920.387904	2831.301043
920.692843	2810.163485
920.997743	2801.452371
921.302603	2786.822943
921.607423	2775.124945
921.912204	2765.082967
922.216946	2753.332037
922.521647	2746.163517
922.826310	2737.701940
923.130932	2730.911506
923.435516	2720.153683
923.740059	2716.375338
924.044564	2707.419729
924.349028	2702.862526
924.653454	2697.032431
924.957840	2689.732840
925.262186	2684.676563
925.566493	2680.830163
925.870761	2677.480316
926.174989	2671.577125
926.479178	2667.526558
926.783328	2660.945331
927.087438	2659.906854
927.391509	2661.638490
927.695541	2657.159425
927.999533	2652.640030
928.303486	2650.852941
928.607400	2648.917138
928.911275	2647.787920
929.215110	2648.702889
929.518906	2649.849752
929.822663	2648.513846
930.126381	2647.762714
930.430060	2647.581232
930.733699	2649.156593
931.037299	2650.250523
931.340861	2652.030051
931.644383	2648.876809
931.947866	2650.837818
932.251309	2649.816984
932.554714	2647.838331
932.858080	2648.125677
933.161407	2644.664925
933.464694	2645.279946
933.767943	2638.005561
934.071153	2644.196098
934.374323	2642.809780
934.677455	2640.074954
934.980548	2640.442959
935.283602	2640.299286
935.586617	2638.597896
935.889593	2638.310551
936.192530	2640.102681
936.495428	2639.396919
936.798287	2640.800881
937.101108	2642.925727
937.403890	2649.506953
937.706632	2651.619197
938.009336	2661.454488
938.312002	2667.367761
938.614628	2677.646674
938.917216	2683.738908
939.219765	2685.256296
939.522275	2684.358970
939.824747	2679.993331
940.127179	2679.587518
940.429573	2675.670542
940.731929	2671.998061
941.034246	2667.879438
941.336524	2667.997906
941.638763	2664.040600
941.940964	2662.102276
942.243126	2658.397028
942.545250	2660.156391
942.847335	2656.592295
943.149381	2651.120122
943.451389	2649.857313
943.753359	2643.777682
944.055290	2644.385141
944.357182	2645.194246
944.659036	2641.763741
944.960851	2645.421098
945.262628	2640.253915
945.564367	2641.889770
945.866067	2643.790285
946.167729	2642.701396
946.469352	2644.191057
946.770937	2642.721560
947.072484	2639.984214
947.373992	2641.902373
947.675462	2639.197794
947.976893	2632.813172
948.278286	2634.081022
948.579641	2633.171094
948.880958	2629.906947
949.182236	2632.563635
949.483476	2632.490538
949.784678	2632.205713
950.085841	2634.113790
950.386967	2634.713687
950.688054	2634.738893
950.989103	2636.079840
951.290114	2633.995323
951.591087	2637.428349
951.892021	2639.139820
952.192917	2640.697537
952.493776	2641.864564
952.794596	2644.526293
953.095378	2644.717857
953.396122	2644.957312
953.696828	2644.967394
953.997496	2640.692496
954.298126	2639.028915
954.598718	2636.369706
954.899272	2634.680920
955.199788	2629.160856
955.500266	2628.268572
955.800706	2630.317801
956.101108	2623.608025
956.401472	2622.594753
956.701798	2622.138529
957.002087	2617.412447
957.302337	2619.260030
957.602550	2616.459669
957.902724	2615.559823
958.202861	2615.882457
958.502960	2613.762652
958.803022	2613.427415
959.103045	2614.629730
959.403031	2611.310131
959.702979	2610.619492
960.002889	2611.274842
960.302762	2609.349122
960.602596	2607.917434
960.902393	2606.483226
961.202153	2609.177722
961.501875	2607.287290
961.801559	2607.352825
962.101205	2605.021291
962.400814	2608.915582
962.700385	2608.204780
962.999918	2603.728235
963.299414	2601.787391
963.598873	2605.540530
963.898293	2602.180601
964.197677	2603.445931
964.497022	2606.097577
964.796331	2602.888883
965.095601	2604.229830
965.394835	2607.521703
965.694030	2605.235540
965.993189	2606.243771
966.292309	2603.196393
966.591393	2604.716301
966.890439	2603.876949
967.189447	2605.233020
967.488419	2604.529779
967.787353	2603.125817
968.086249	2607.864502
968.385108	2604.963318
968.683930	2605.205293
968.982714	2605.817793
969.281462	2604.431476
969.580172	2605.250664
969.878844	2604.063472
970.177480	2601.419387
970.476078	2603.720673
970.774639	2604.617999
971.073162	2604.660849
971.371649	2605.200252
971.670098	2605.714450
971.968510	2607.025150
972.266885	2606.737804
972.565223	2604.101281
972.863524	2605.737135
973.161788	2604.169336
973.460014	2608.023298
973.758204	2603.493822
974.056356	2603.564398
974.354471	2602.082298
974.652550	2605.963987
974.950591	2604.633122
975.248595	2605.134717
975.546563	2606.216045
975.844493	2602.079778
976.142386	2603.594645
976.440243	2602.823348
976.738062	2603.082967
977.035845	2603.697988
977.333590	2602.909048
977.631299	2600.615323
977.928971	2600.189345
978.226606	2599.947370
978.524204	2601.058944
978.821765	2596.537029
979.119290	2603.322422
979.416777	2600.844695
979.714228	2599.861670
980.011642	2603.216558
980.309020	2601.094232
980.606360	2601.573142
980.903664	2602.286465
981.200931	2600.741352
981.498162	2602.934253
981.795356	2604.741507
982.092513	2604.249995
982.389633	2609.777620
982.686717	2613.054370
982.983764	2615.249792
983.280775	2619.665843
983.577749	2619.547376
983.874686	2620.724485
984.171587	2615.741305
984.468451	2614.599483
984.765279	2611.844493
985.062070	2612.351129
985.358824	2608.597990
985.655543	2607.690582
985.952224	2605.583380
986.248869	2604.081116
986.545478	2603.413163
986.842050	2600.844695
987.138586	2599.740682
987.435086	2603.340066
987.731549	2599.738162
988.027975	2598.790425
988.324366	2597.968717
988.620719	2599.833944
988.917037	2597.245311
989.213318	2600.852257
989.509563	2598.331680
989.805772	2598.490476
990.101944	2598.563573
990.398080	2599.244129
990.694180	2598.203131
990.990244	2598.692122
991.286271	2600.133892
991.582262	2598.636670
991.878217	2597.562904
992.174136	2597.167173
992.470019	2599.171032
992.765865	2594.782708
993.061676	2595.077615
993.357450	2596.042996
993.653188	2593.885382
993.948890	2600.799325
994.244556	2600.229674
994.540186	2598.692122
994.835780	2601.711774
995.131337	2601.774788
995.426859	2602.548605
995.722345	2601.230343
996.017795	2602.344438
996.313208	2603.060282
996.608586	2602.767895
996.903928	2606.442897
997.199234	2603.680344
997.494504	2601.328646
997.789738	2601.978955
998.084936	2602.117587
998.380099	2600.161619
998.675225	2602.225971
998.970316	2602.339397
999.265371	2601.595827
999.560390	2598.268666
999.855373	2598.056937
1000.150320	2600.176742
1000.445232	2599.148347
1000.740108	2598.490476
1001.034948	2597.003336
1001.329752	2600.262442
1001.624521	2596.695826
1001.919254	2598.850919
1002.213951	2599.286979
1002.508613	2595.866556
1002.803239	2597.159612
1003.097829	2596.622729
1003.392384	2596.733634
1003.686903	2596.143819
1003.981386	2597.678851
1004.275834	2597.774632
1004.570246	2596.632811
1004.864623	2596.771443
1005.158964	2597.832606
1005.453270	2596.290013
1005.747540	2595.022162
1006.041775	2596.985692
1006.335974	2594.921339
1006.630138	2597.673809
1006.924266	2599.004674
1007.218359	2595.080136
1007.512416	2593.086359
1007.806438	2593.290526
1008.100425	2592.514188
1008.394376	2592.057964
1008.688292	2595.894282
1008.982172	2594.417224
1009.276017	2595.027204
1009.569827	2596.690784
1009.863602	2595.221288
1010.157341	2592.526791
1010.451045	2595.057451
1010.744714	2596.347986
1011.038347	2595.619539
1011.331945	2595.029724
1011.625508	2595.838829
1011.919036	2596.799169
1012.212528	2596.345465
1012.505986	2594.928901
1012.799408	2596.595002
1013.092795	2595.337235
1013.386147	2598.132554
1013.679464	2595.047368
1013.972745	2597.267997
1014.265992	2595.904364
1014.559204	2596.652976
1014.852380	2594.555856
1015.145521	2593.489652
1015.438628	2593.363623
1015.731699	2596.658017
1016.024736	2593.713983
1016.317737	2593.449323
1016.610703	2596.411000
1016.903635	2595.972420
1017.196531	2594.649117
1017.489393	2596.705908
1017.782219	2594.981833
1018.075011	2596.829416
1018.367768	2596.607605
1018.660490	2594.364292
1018.953177	2594.364292
1019.245829	2594.364292
