Dividing Wavelength (nm)	Counts (n)	Blue Motor Position (mm): 37.200000	Red Motor Position (mm): 0.000000	
326.493990	2236.243243
326.888308	2236.243243
327.282561	2236.243243
327.676750	2196.103056
328.070874	2194.905782
328.464933	2195.220854
328.858929	2197.993488
329.252859	2205.305682
329.646726	2210.750128
330.040528	2224.799824
330.434265	2239.356156
330.827938	2257.002715
331.221547	2271.934613
331.615091	2289.576130
332.008571	2309.571867
332.401986	2325.131388
332.795338	2345.424553
333.188625	2365.069930
333.581847	2385.143804
333.975006	2405.308420
334.368100	2426.216605
334.761129	2441.340067
335.154095	2455.858590
335.546996	2486.002169
335.939833	2523.410052
336.332606	2539.085519
336.725315	2551.915256
337.117960	2565.632236
337.510540	2576.584142
337.903056	2588.965216
338.295508	2597.699015
338.687896	2607.599841
339.080220	2613.528238
339.472480	2620.351440
339.864676	2626.037862
340.256807	2630.670682
340.648875	2635.288379
341.040879	2639.011271
341.432818	2640.160654
341.824694	2642.986221
342.216506	2641.315078
342.608253	2643.576036
342.999937	2642.761889
343.391557	2642.923206
343.783113	2644.062507
344.174605	2642.151910
344.566033	2641.675521
344.957397	2639.868267
345.348697	2640.057310
345.739934	2637.786271
346.131106	2636.899027
346.522215	2633.677730
346.913260	2633.544140
347.304241	2630.935342
347.695159	2628.066926
348.086012	2627.119189
348.476802	2625.823612
348.867528	2622.224229
349.258191	2619.806995
349.648789	2619.471759
350.039324	2611.668052
350.429796	2618.385390
350.820203	2618.461007
351.210548	2615.307766
351.600828	2613.064452
351.991045	2615.446397
352.381198	2613.891201
352.771288	2611.358022
353.161314	2607.816611
353.551276	2610.490943
353.941175	2610.564040
354.331010	2611.063114
354.720782	2611.746190
355.110490	2612.731736
355.500135	2609.243257
355.889717	2612.300717
356.279235	2607.456168
356.668689	2610.362394
357.058080	2609.795264
357.447408	2609.008844
357.836672	2613.109822
358.225873	2610.546396
358.615010	2614.428084
359.004084	2611.670573
359.393095	2612.131839
359.782043	2614.927158
360.170927	2614.203753
360.559748	2615.154010
360.948505	2616.651233
361.337199	2617.777931
361.725830	2616.961264
362.114398	2618.014865
362.502903	2614.410440
362.891344	2618.123250
363.279722	2614.140738
363.668037	2618.420678
364.056289	2618.052674
364.444478	2618.531583
364.832603	2620.595936
365.220665	2621.500823
365.608665	2621.863786
365.996601	2620.089300
366.384474	2624.006277
366.772284	2620.593415
367.160031	2623.401338
367.547715	2625.011987
367.935336	2625.269086
368.322893	2622.277161
368.710388	2620.328755
369.097820	2620.485031
369.485189	2619.983436
369.872495	2626.657923
370.259738	2626.993160
370.646918	2624.371760
371.034035	2629.465846
371.421090	2629.352420
371.808081	2627.537605
372.195010	2627.885444
372.581875	2629.486011
372.968678	2627.872842
373.355418	2632.316619
373.742096	2630.146402
374.128710	2629.909468
374.515262	2629.488531
374.901751	2630.842081
375.288177	2631.557925
375.674540	2631.144550
376.060841	2632.624129
376.447079	2633.435755
376.833254	2634.330560
377.219367	2631.068933
377.605417	2630.852163
377.991404	2634.895169
378.377329	2635.810138
378.763191	2634.764099
379.148991	2635.744603
379.534727	2637.652680
379.920402	2635.762247
380.306013	2635.953811
380.691563	2640.785757
381.077049	2639.979172
381.462474	2640.251395
381.847835	2641.730973
382.233134	2638.907927
382.618371	2640.924389
383.003545	2641.499080
383.388657	2641.559574
383.773706	2643.475213
384.158693	2645.660553
384.543618	2644.440594
384.928480	2645.413536
385.313280	2644.433032
385.698017	2645.181643
386.082692	2647.092241
386.467305	2647.004020
386.851856	2649.587612
387.236344	2649.776655
387.620770	2645.927734
388.005133	2646.462096
388.389435	2647.699700
388.773674	2645.710964
389.157851	2648.710451
389.541965	2650.278250
389.926018	2653.842346
390.310008	2653.166831
390.693936	2654.215391
391.077802	2654.467449
391.461606	2656.430978
391.845348	2656.884682
392.229027	2655.775628
392.612645	2657.063643
392.996200	2660.889879
393.379694	2659.372491
393.763125	2661.257883
394.146494	2661.956083
394.529801	2665.923471
394.913047	2666.810714
395.296230	2667.970179
395.679351	2671.546878
396.062410	2674.748011
396.445408	2678.657425
396.828343	2684.742098
397.211217	2695.530167
397.594028	2705.577187
397.976778	2716.256871
398.359466	2732.431413
398.742092	2748.890781
399.124656	2766.504572
399.507158	2794.382153
399.889598	2828.467915
400.271977	2870.042311
400.654294	2908.733166
401.036549	2956.044395
401.418742	2993.328769
401.800874	3066.425500
402.182944	3134.564256
402.564952	3211.434290
402.946898	3286.421454
403.328783	3324.961075
403.710606	3388.114130
404.092367	3537.435627
404.474067	3616.566619
404.855705	3664.520595
405.237282	3720.520253
405.618797	3880.229047
406.000250	3956.358032
406.381642	4110.871918
406.762972	4201.993295
407.144240	4310.514213
407.525447	4387.031367
407.906593	4496.104292
408.287677	4657.539683
408.668700	4699.164490
409.049661	4845.620091
409.430560	4948.376451
409.811399	4939.816572
410.192176	5186.117266
410.572891	5273.477942
410.953545	5494.283001
411.334138	5395.088217
411.714669	5592.976190
412.095139	5523.206621
412.475547	5772.065701
412.855894	5886.545264
413.236180	6092.567139
413.616405	5926.430873
413.996568	6161.983828
414.376670	6239.547021
414.756711	6214.426951
415.136691	6347.672209
415.516609	6566.410395
415.896466	6621.051462
416.276262	6837.039698
416.655997	6865.494491
417.035670	7083.542039
417.415283	7429.095491
417.794834	7511.755291
418.174324	7425.838906
418.553753	7384.335086
418.933121	7723.544246
419.312428	7847.670057
419.691674	7667.337901
420.070859	8146.428998
420.449983	7866.682768
420.829045	8233.832523
421.208047	8047.720685
421.586988	8345.017692
421.965867	8375.004996
422.344686	8505.701950
422.723444	8534.618009
423.102141	7945.498688
423.480777	8685.966050
423.859352	8226.447233
424.237866	8846.494033
424.616319	8722.025424
424.994712	9127.651786
425.373044	8712.616110
425.751314	9162.491200
426.129524	9030.692753
426.507673	9171.328343
426.885762	9323.392228
427.263789	9235.983661
427.641756	9160.862907
428.019662	9268.612529
428.397508	9503.328653
428.775292	9203.364875
429.153016	9575.238192
429.530679	9409.306092
429.908282	9459.342065
430.285824	9179.038787
430.663305	9855.281849
431.040726	9303.769536
431.418086	9300.288620
431.795385	9613.356876
432.172624	9710.557884
432.549802	9628.442529
432.926920	9705.466319
433.303977	9582.973842
433.680974	9789.451942
434.057910	9875.393533
434.434786	9934.347306
434.811601	9786.510429
435.188355	10348.755358
435.565050	10074.771167
435.941683	10007.728862
436.318257	10503.407876
436.694770	10622.737029
437.071222	10691.737822
437.447614	10546.620647
437.823946	10429.436505
438.200218	10578.758002
438.576429	10386.188446
438.952580	10628.289860
439.328670	10689.607934
439.704700	10473.571807
440.080670	10453.931472
440.456580	11017.847544
440.832429	10768.862435
441.208218	10369.030879
441.583947	10701.545387
441.959616	10844.026038
442.335224	10654.362707
442.710773	10792.288677
443.086261	10995.777372
443.461689	10287.792685
443.837057	10931.013669
444.212365	11207.284023
444.587612	10851.895280
444.962800	11085.167112
445.337927	10852.006185
445.712995	10441.873032
446.088002	11525.642971
446.462949	11188.420025
446.837837	11153.076496
447.212664	11143.309260
447.587431	11657.638022
447.962139	12373.854914
448.336786	14637.065810
448.711374	15200.868456
449.085901	13049.303994
449.460369	12663.103719
449.834776	12103.225611
450.209124	12981.813027
450.583412	13386.796641
450.957640	14344.651160
451.331808	13478.459942
451.705917	12469.795633
452.079965	11777.120930
452.453954	12678.426306
452.827883	12310.737147
453.201752	12601.851179
453.575562	12120.342849
453.949311	12533.871219
454.323001	12502.358967
454.696632	12725.109911
455.070202	13008.775638
455.443713	13242.362543
455.817164	13707.731619
456.190556	13696.696533
456.563888	14070.924068
456.937160	14228.631525
457.310373	13576.331423
457.683526	13658.419052
458.056619	13206.023385
458.429653	13361.038866
458.802628	12789.876135
459.175542	13169.820339
459.548398	14113.221869
459.921194	14448.960195
460.293930	14503.807949
460.666607	15390.004986
461.039224	16431.086435
461.411782	17138.458622
461.784280	17000.734299
462.156719	17063.602528
462.529099	16750.937564
462.901419	15678.422001
463.273680	15465.899558
463.645882	15337.622357
464.018024	15070.937757
464.390106	15294.376818
464.762130	16016.227199
465.134094	16777.527130
465.505999	18765.944729
465.877845	22021.098426
466.249631	24859.250398
466.621358	24554.462236
466.993026	23115.578297
467.364634	22559.619686
467.736184	21092.553176
468.107674	20274.134452
468.479105	20411.447921
468.850477	19878.141735
469.221790	19473.251382
469.593043	18785.559859
469.964238	18226.165702
470.335373	17888.935195
470.706449	18321.990475
471.077467	17884.015029
471.448425	19724.658765
471.819324	23757.397840
472.190164	25764.686999
472.560945	22197.644675
472.931667	19835.619602
473.302330	19199.423466
473.672934	18748.996370
474.043479	19053.207320
474.413965	18867.171099
474.784393	18493.465323
475.154761	19188.733700
475.525070	19172.261729
475.895321	18831.358742
476.265513	19436.503891
476.635645	20006.479430
477.005719	19792.217788
477.375734	19981.838270
477.745691	20459.094387
478.115588	20994.222950
478.485427	21515.989934
478.855207	22580.260690
479.224928	24354.784653
479.594591	26573.260349
479.964194	26589.465138
480.333739	26808.142831
480.703226	26376.695679
481.072653	26060.816979
481.442022	26652.290518
481.811333	27564.394045
482.180584	27470.220250
482.549777	26521.853183
482.918912	26174.805029
483.287988	26304.796222
483.657005	25954.526770
484.025964	25706.083585
484.394864	25625.760361
484.763706	25304.790095
485.132489	24742.038530
485.501213	24920.271044
485.869879	24818.432175
486.238487	24651.446474
486.607036	24789.987464
486.975527	24499.397713
487.343959	24814.709283
487.712333	24762.152733
488.080648	24408.147787
488.448905	24915.429016
488.817104	24664.132538
489.185244	25346.329203
489.553326	25305.261443
489.921350	26306.628681
490.289315	28605.137736
490.657222	30370.504443
491.025070	30863.017612
491.392861	30652.186476
491.760593	29801.154007
492.128267	28898.293435
492.495883	27852.256533
492.863440	26977.979304
493.230939	26104.385151
493.598380	25945.941685
493.965763	25551.015172
494.333088	25084.078297
494.700354	25026.767940
495.067563	24895.647528
495.434713	24651.448995
495.801805	24814.991587
496.168839	24615.651762
496.535815	24457.805673
496.902733	24667.172354
497.269593	24350.035886
497.636395	24527.653380
498.003139	24489.675847
498.369825	24231.465427
498.736453	24435.322127
499.103023	24316.416431
499.469535	24310.180524
499.835989	24527.383678
500.202385	24552.793614
500.568723	24063.007709
500.935003	24299.775582
501.301226	23927.977883
501.667390	24772.237562
502.033497	25000.009495
502.399546	24722.698143
502.765537	24293.058245
503.131470	24669.473641
503.497345	24806.315762
503.863163	24036.380335
504.228923	24626.908658
504.594625	24832.529762
504.960269	24357.980744
505.325856	24862.459092
505.691385	24259.300158
506.056856	24870.983683
506.422270	24839.189126
506.787625	24399.035901
507.152924	24821.013246
507.518164	24856.051786
507.883347	24660.341590
508.248472	24344.092366
508.613540	25128.150585
508.978550	24915.852473
509.343503	24897.855554
509.708398	25159.093187
510.073236	25323.331459
510.438016	25526.273189
510.802738	25190.769277
511.167403	25448.936848
511.532010	25165.792881
511.896561	25931.420642
512.261053	25891.565279
512.625488	25729.635856
512.989866	25617.848270
513.354186	25462.835309
513.718449	25576.314203
514.082655	25945.009072
514.446803	25694.423397
514.810894	26165.564594
515.174927	25646.550079
515.538904	25684.532653
515.902822	26175.205801
516.266684	25929.510044
516.630488	25830.370713
516.994235	25807.451107
517.357925	26111.137776
517.721558	26277.417715
518.085133	26387.513995
518.448651	26292.226105
518.812112	26039.618927
519.175516	26243.687355
519.538863	26404.563177
519.902152	26185.184765
520.265385	26450.591432
520.628560	26242.200215
520.991678	26251.322183
521.354739	26324.023183
521.717743	26398.324749
522.080690	26184.826843
522.443580	26509.590576
522.806413	26502.031366
523.169189	26603.497190
523.531908	26649.243141
523.894569	26249.653561
524.257174	26339.696130
524.619722	26511.697779
524.982213	26204.631016
525.344647	26254.379642
525.707025	26394.904326
526.069345	26378.278601
526.431608	26332.094070
526.793815	26512.892532
527.155964	25989.041030
527.518057	26166.678689
527.880093	26078.304741
528.242072	26300.269266
528.603995	26016.999269
528.965860	25800.854757
529.327669	25858.709559
529.689421	25851.556162
530.051117	25687.438878
530.412755	25869.666507
530.774337	25652.440667
531.135862	25538.109819
531.497331	25724.808951
531.858743	25294.420442
532.220098	25777.962878
532.581396	25460.123169
532.942638	25371.668563
533.303824	25490.564176
533.664953	25494.965103
534.026025	25155.917260
534.387040	25398.245526
534.747999	25440.913852
535.108902	25623.388498
535.469748	25106.292142
535.830537	25281.583143
536.191270	25417.354019
536.551947	25265.443889
536.912567	24918.478914
537.273131	25298.965042
537.633638	24986.607588
537.994089	25196.614495
538.354483	24720.686723
538.714821	25220.726334
539.075103	25260.571614
539.435328	25047.345930
539.795497	24618.074036
540.155609	24999.475133
540.515665	25300.190042
540.875665	24524.812690
541.235609	24841.538304
541.595496	24786.957731
541.955328	25145.114068
542.315102	25070.298303
542.674821	24599.288176
543.034483	24468.903773
543.394090	24656.172556
543.753640	24455.917761
544.113134	25085.419244
544.472571	24680.952348
544.831953	24971.768952
545.191278	24602.048208
545.550548	24513.533108
545.909761	24710.435536
546.268918	24951.022083
546.628019	24910.576906
546.987064	24603.684062
547.346053	24357.673234
547.704986	24475.449711
548.063863	24619.155363
548.422684	24651.459077
548.781449	24153.287213
549.140158	24582.327214
549.498811	24151.288396
549.857408	23900.511156
550.215949	24307.181037
550.574434	23996.504808
550.932864	24198.556775
551.291237	24377.689135
551.649555	24221.635177
552.007817	24282.020638
552.366022	24145.581809
552.724173	24169.318082
553.082267	24139.953361
553.440305	24606.423929
553.798288	23858.611606
554.156215	24374.372056
554.514086	24486.051258
554.871902	23861.056566
555.229661	24136.721982
555.587365	23994.324509
555.945014	23885.249063
556.302606	24106.008752
556.660143	24074.783845
557.017625	24324.814993
557.375050	23831.396937
557.732421	24229.577515
558.089735	24050.992119
558.446994	24104.977836
558.804197	24135.801971
559.161345	24061.520569
559.518437	23828.639426
559.875474	24015.988867
560.232455	24202.325037
560.589381	24017.927191
560.946251	24004.943699
561.303065	24308.191788
561.659825	24400.253340
562.016528	24010.350337
562.373177	23755.928343
562.729770	24106.157466
563.086307	23966.250323
563.442789	24136.230469
563.799216	23975.662157
564.155587	23975.190809
564.511904	23957.012409
564.868164	23909.570110
565.224370	23866.652247
565.580520	23791.191215
565.936615	23924.159209
566.292654	23624.356749
566.648638	23884.881059
567.004567	23712.970151
567.360441	23654.175174
567.716260	23383.175346
568.072023	23701.740981
568.427732	23485.493125
568.783385	23247.684254
569.138982	23500.556093
569.494525	23528.698334
569.850013	23276.486886
570.205445	23374.192010
570.560823	23192.937323
570.916145	22955.846817
571.271412	23136.362974
571.626625	22882.548440
571.981782	23003.649558
572.336884	22815.128048
572.691931	22943.629580
573.046923	22677.169311
573.401860	22556.358059
573.756743	22584.969128
574.111570	22467.946303
574.466342	22405.423393
574.821059	22482.084219
575.175722	22194.899767
575.530330	22165.131753
575.884882	22178.397550
576.239380	22102.621446
576.593823	21989.608859
576.948211	21974.029173
577.302544	21818.711223
577.656823	21689.955113
578.011047	21785.278291
578.365216	21646.563381
578.719330	21521.656191
579.073389	21426.564906
579.427394	21575.417577
579.781344	21333.111996
580.135239	21219.786858
580.489080	21179.074499
580.842866	20954.791044
581.196597	21147.174078
581.550273	21122.290942
581.903895	21005.822645
582.257463	21322.762507
582.610975	20854.769511
582.964434	21182.734377
583.317837	20863.541118
583.671186	20945.154879
584.024481	20931.873959
584.377721	20692.711538
584.730906	20768.096953
585.084037	20776.961822
585.437113	20687.289777
585.790135	20897.735265
586.143103	20345.454176
586.496016	20365.923781
586.848874	20612.567274
587.201679	20524.382370
587.554428	20223.672502
587.907124	20545.842562
588.259765	20314.577109
588.612352	20385.939683
588.964884	19954.263158
589.317362	20121.377408
589.669786	20189.362409
590.022155	20207.071982
590.374470	20421.822616
590.726731	20197.818944
591.078937	19982.591922
591.431090	20063.930939
591.783188	19830.374282
592.135232	19789.659403
592.487222	19899.060003
592.839157	19905.961342
593.191038	19776.796899
593.542866	19682.973464
593.894639	19380.665550
594.246358	19612.863617
594.598022	19500.922275
594.949633	19254.765253
595.301190	19228.715091
595.652692	19398.077695
596.004141	19635.034611
596.355535	18956.202917
596.706876	18976.753180
597.058162	18874.813488
597.409395	19108.481051
597.760573	19166.517335
598.111698	18938.720195
598.462768	18881.926556
598.813785	18848.836422
599.164748	18655.122524
599.515657	18705.312252
599.866511	18502.836828
600.217312	18855.775570
600.568060	18378.716058
600.918753	18686.496145
601.269392	18582.860104
601.619978	18375.754381
601.970510	18569.231345
602.320988	18517.544394
602.671412	18714.872800
603.021783	18643.686666
603.372100	18349.442078
603.722363	18507.406634
604.072572	18445.982695
604.422728	18592.108101
604.772830	18355.622533
605.122878	18310.408424
605.472872	18289.472512
605.822813	18277.595553
606.172701	18245.942148
606.522534	18442.267364
606.872314	18469.953381
607.222041	18297.515673
607.571714	18515.417027
607.921333	18337.484461
608.270899	18422.352286
608.620411	18590.822607
608.969870	18370.582157
609.319276	18357.762502
609.668627	18401.650788
610.017926	18539.864103
610.367171	18640.992170
610.716362	18697.354790
611.065500	18503.202312
611.414585	18654.237801
611.763616	18636.460172
612.112594	18568.601200
612.461518	18541.686480
612.810389	18730.606241
613.159207	18594.190097
613.507971	18509.065173
613.856682	18770.620400
614.205340	18684.545218
614.553945	18843.144959
614.902496	18588.012163
615.250994	18802.054514
615.599439	18756.462319
615.947830	18744.988653
616.296169	18807.657757
616.644454	18756.810159
616.992686	18734.850893
617.340864	18957.311971
617.688990	18704.626655
618.037063	18878.861534
618.385082	18735.569257
618.733048	19008.842645
619.080961	18890.103308
619.428821	18919.553728
619.776628	18790.477505
620.124382	18732.839472
620.472083	18777.378066
620.819731	18788.299726
621.167326	18484.408890
621.514868	18524.004633
621.862357	18299.471641
622.209793	18303.141601
622.557176	18136.869223
622.904506	17962.054611
623.251783	17892.950474
623.599007	17637.530332
623.946179	17583.481601
624.293297	17511.955190
624.640363	17261.772807
624.987376	17291.114842
625.334336	17085.677741
625.681243	16930.281653
626.028097	16943.905371
626.374899	16869.361829
626.721647	16729.805047
627.068343	16560.303811
627.414987	16504.367167
627.761577	16472.902806
628.108115	16503.875655
628.454600	16231.053450
628.801032	16324.816391
629.147412	16273.560459
629.493739	16279.950122
629.840014	16085.724546
630.186236	16196.682863
630.532405	15944.158864
630.878521	16155.574774
631.224585	16042.809204
631.570597	15871.793101
631.916556	15892.600463
632.262462	15870.515168
632.608316	15787.008455
632.954117	15737.713532
633.299866	15727.013683
633.645562	15643.975797
633.991206	15411.795374
634.336797	15274.111380
634.682336	15242.004271
635.027823	15115.743532
635.373257	14998.682898
635.718639	14903.594134
636.063968	14856.116547
636.409245	14603.907620
636.754470	14637.816942
637.099642	14478.524042
637.444762	14254.049023
637.789829	14292.492862
638.134845	14131.231392
638.479808	14151.033044
638.824719	14094.196555
639.169577	13944.164255
639.514383	13995.636956
639.859137	13815.561899
640.203839	13906.075817
640.548489	13743.614552
640.893086	13736.957708
641.237632	13614.356847
641.582125	13761.561059
641.926566	13586.312908
642.270955	13602.086678
642.615292	13556.560018
642.959576	13570.982759
643.303809	13597.416049
643.647990	13522.544832
643.992118	13596.947222
644.336195	13364.116490
644.680219	13578.020210
645.024192	13495.045338
645.368112	13733.131472
645.711981	13789.070636
646.055797	13973.407988
646.399562	13943.365232
646.743274	14206.793247
647.086935	14483.923117
647.430544	14449.580257
647.774101	14484.487727
648.117606	14621.377739
648.461059	14608.600934
648.804460	14582.109671
649.147810	14306.855109
649.491108	14219.058374
649.834354	14230.673192
650.177548	13915.991766
650.520690	13729.723652
650.863781	13657.758661
651.206820	13702.488819
651.549807	13530.020863
651.892742	13322.751302
652.235626	13264.296603
652.578458	13264.702416
652.921238	12967.105460
653.263967	13159.848936
653.606644	12984.280671
653.949269	12968.017909
654.291843	12761.804470
654.634365	12926.977876
654.976836	12780.048406
655.319255	12775.077828
655.661622	12730.826579
656.003938	12655.904951
656.346203	12583.975247
656.688416	12663.070951
657.030577	12615.137140
657.372687	12520.050896
657.714746	12522.737831
658.056753	12699.347094
658.398708	12510.301304
658.740612	12520.003005
659.082465	12626.172226
659.424266	12587.183942
659.766016	12613.954989
660.107715	12519.153571
660.449362	12602.524173
660.790958	12548.379660
661.132503	12495.979386
661.473996	12573.540059
661.815438	12582.074732
662.156829	12601.941920
662.498168	12578.556007
662.839456	12574.986870
663.180693	12597.011671
663.521879	12699.563864
663.863013	12665.100016
664.204097	12633.754121
664.545129	12759.760282
664.886110	12738.942837
665.227040	12827.752844
665.567918	12828.282166
665.908746	12856.419366
666.249522	12843.556862
666.590248	12901.333526
666.930922	13012.680012
667.271545	12985.442657
667.612118	13071.389289
667.952639	12969.905821
668.293109	12988.235457
668.633528	12943.258282
668.973896	12919.844643
669.314213	13002.254905
669.654480	12729.087381
669.994695	12809.955051
670.334859	12834.545799
670.674973	12780.872634
671.015035	12808.306593
671.355047	12759.052000
671.695008	12728.482443
672.034918	12737.836304
672.374777	12778.468004
672.714585	12689.466433
673.054342	12721.913819
673.394049	12675.661233
673.733705	12775.700410
674.073310	12690.388964
674.412864	12697.794419
674.752368	12555.086915
675.091820	12580.806882
675.431223	12561.345508
675.770574	12428.637133
676.109875	12349.848939
676.449125	12306.230356
676.788324	12259.365269
677.127473	12092.051893
677.466571	12077.427506
677.805619	11973.239459
678.144616	11900.135166
678.483562	11873.399407
678.822458	11745.860735
679.161303	11720.453320
679.500098	11706.128881
679.838842	11657.136427
680.177535	11691.996006
680.516179	11756.416911
680.854771	11694.178826
681.193314	11913.138823
681.531805	12075.763925
681.870247	12504.125891
682.208638	12912.509764
682.546978	13229.361407
682.885268	13261.405501
683.223508	12960.567084
683.561697	12802.113536
683.899836	12705.701469
684.237925	12507.626972
684.575963	12419.106831
684.913951	12335.481651
685.251889	12289.949949
685.589776	12384.501831
685.927614	12307.349492
686.265401	12277.591561
686.603137	12328.177019
686.940824	12481.755771
687.278460	12604.422167
687.616046	12644.075883
687.953582	12805.914566
688.291068	12745.055236
688.628504	12971.758445
688.965889	12984.257986
689.303224	12941.438425
689.640510	12832.955315
689.977745	12524.333356
690.314930	12302.328503
690.652065	12204.719161
690.989150	11913.829461
691.326185	11689.803104
691.663170	11488.580407
692.000105	11244.107131
692.336990	11131.011365
692.673825	10871.797755
693.010610	10763.007134
693.347345	10550.164578
693.684030	10352.264001
694.020665	10289.393251
694.357251	10100.917112
694.693786	10034.242811
695.030272	9871.768943
695.366707	9759.464638
695.703093	9691.749339
696.039429	9690.874699
696.375716	9597.275596
696.711952	9473.185073
697.048139	9514.457000
697.384276	9475.277152
697.720363	9494.304987
698.056400	9426.708155
698.392388	9370.078353
698.728326	9338.989558
699.064214	9275.095453
699.400053	9316.813522
699.735842	9133.023135
700.071581	9093.150129
700.407270	9020.814612
700.742910	8938.237992
701.078501	8839.701078
701.414042	8709.674597
701.749533	8660.157863
702.084974	8517.891460
702.420366	8634.251373
702.755709	8515.396089
703.091002	8374.090026
703.426246	8398.746310
703.761440	8353.247376
704.096584	8313.578536
704.431679	8248.862724
704.766725	8237.071465
705.101721	8180.701282
705.436668	8234.021567
705.771565	8120.920760
706.106413	8208.341929
706.441212	8246.974812
706.775961	8200.984365
707.110661	8243.471210
707.445311	8379.789051
707.779913	8276.634440
708.114465	8414.003362
708.448967	8442.324564
708.783421	8600.026980
709.117825	8773.815718
709.452180	8811.662180
709.786485	8900.930932
710.120742	9187.447432
710.454949	9183.845528
710.789107	9282.979818
711.123216	9507.091874
711.457275	9678.806177
711.791286	9832.568931
712.125247	9824.561058
712.459159	9812.921034
712.793023	10058.165607
713.126837	9631.142067
713.460602	9789.532600
713.794318	9611.899983
714.127985	9639.013829
714.461602	9313.917379
714.795171	9261.507023
715.128691	9007.435390
715.462162	8763.108307
715.795584	8712.177530
716.128957	8552.980412
716.462281	8383.252323
716.795556	8432.496835
717.128782	8221.963127
717.461960	7965.617933
717.795088	8038.427318
718.128167	7942.852082
718.461198	7777.366125
718.794180	7722.281437
719.127113	7712.156279
719.459997	7545.793161
719.792833	7321.736558
720.125619	7395.705408
720.458357	7248.967502
720.791046	7234.794298
721.123686	7233.135759
721.456278	7068.889925
721.788821	7089.578821
722.121315	6985.080743
722.453761	7051.805455
722.786158	6989.890003
723.118506	7000.519276
723.450805	6971.189843
723.783056	7030.090685
724.115259	6946.778056
724.447412	6943.191275
724.779518	6992.670200
725.111574	6996.791343
725.443582	7073.230359
725.775542	7054.247894
726.107453	7251.538491
726.439315	7156.984089
726.771129	7227.908082
727.102895	7397.671458
727.434612	7505.988211
727.766281	7541.230917
728.097901	7614.851928
728.429473	7620.629090
728.760996	7601.664269
729.092471	7576.768531
729.423897	7514.066660
729.755276	7519.526229
730.086606	7440.838859
730.417887	7547.844911
730.749120	7754.078515
731.080305	7943.429294
731.411442	8058.009680
731.742530	8043.796147
732.073570	8155.629104
732.404562	8242.432732
732.735506	8094.734486
733.066401	8229.134168
733.397249	8159.311667
733.728048	7917.061539
734.058798	7585.552742
734.389501	7354.257042
734.720156	7179.329003
735.050762	6954.367513
735.381320	6861.431321
735.711831	6805.441746
736.042293	6693.795312
736.372707	6713.140739
736.703073	6577.014462
737.033391	6610.291119
737.363661	6628.663604
737.693883	6660.632081
738.024056	6744.698363
738.354182	6785.763602
738.684260	6816.502037
739.014290	6935.334636
739.344272	7045.851852
739.674207	7076.068528
740.004093	7146.402707
740.333931	7164.649163
740.663722	7175.086872
740.993464	7246.509940
741.323159	7230.499235
741.652806	6979.192675
741.982405	7010.147880
742.311956	7053.756381
742.641460	6883.128447
742.970915	6686.636873
743.300323	6683.027407
743.629683	6636.522763
743.958996	6499.521845
744.288260	6408.236631
744.617477	6359.100505
744.946647	6348.768660
745.275768	6192.659249
745.604842	6145.037989
745.933869	6126.849506
746.262847	6084.576910
746.591778	6073.627524
746.920662	6033.159662
747.249498	6028.448703
747.578286	6080.143216
747.907027	6148.670140
748.235720	6210.953596
748.564365	6179.247259
748.892963	6221.040945
749.221514	6368.668615
749.550017	6182.823958
749.878473	6068.082255
750.206881	6128.288755
750.535242	6077.824285
750.863555	6001.067676
751.191821	6016.745665
751.520039	6011.230643
751.848210	5921.533392
752.176334	5950.993895
752.504411	5993.042159
752.832440	5923.048259
753.160421	5851.047979
753.488356	5902.767697
753.816243	5930.047901
754.144082	5782.873935
754.471875	5754.693885
754.799620	5792.323578
755.127318	5809.932328
755.454969	5765.688642
755.782572	5725.137600
756.110129	5776.128871
756.437638	5754.535089
756.765100	5693.516962
757.092515	5697.496953
757.419882	5756.339822
757.747203	5731.204629
758.074477	5787.479029
758.401703	5773.157111
758.728882	5727.249843
759.056014	5793.228465
759.383099	5909.795065
759.710138	5922.276962
760.037129	5908.804479
760.364073	5914.528709
760.690970	5996.444938
761.017820	5980.257793
761.344623	5936.470331
761.671379	6038.873810
761.998088	6162.160268
762.324751	6412.501447
762.651366	7033.317023
762.977935	8374.720171
763.304456	10020.026757
763.630931	10898.079811
763.957359	10474.713628
764.283740	9528.708342
764.610074	8675.709823
764.936362	7672.152203
765.262602	7083.715959
765.588796	6541.023144
765.914943	6210.280602
766.241044	6043.176434
766.567097	5834.543241
766.893104	5575.959775
767.219064	5395.020161
767.544978	5335.269885
767.870845	5258.314151
768.196665	5151.141741
768.522438	5075.713476
768.848165	5040.828692
769.173846	4976.730421
769.499479	4926.467596
769.825066	4880.542685
770.150607	4813.427283
770.476101	4796.143687
770.801548	4787.510711
771.126949	4707.132033
771.452303	4659.767872
771.777611	4616.141727
772.102872	4640.097290
772.428087	4597.812092
772.753256	4556.078900
773.078378	4511.119369
773.403453	4439.633287
773.728482	4427.390845
774.053465	4382.620358
774.378401	4367.312894
774.703291	4367.406155
775.028135	4295.110968
775.352932	4242.360334
775.677683	4231.330289
776.002388	4249.501128
776.327046	4257.443466
776.651658	4184.296324
776.976224	4128.606698
777.300743	4131.502840
777.625216	4153.613341
777.949643	4145.968431
778.274024	4101.697018
778.598359	4062.925504
778.922647	4088.476592
779.246889	4072.725507
779.571086	4072.097883
779.895236	4053.594328
780.219339	4039.148902
780.543397	4038.158315
780.867409	4088.574895
781.191374	4098.624435
781.515294	4037.097152
781.839167	4029.837891
782.162995	4052.265984
782.486776	4040.104201
782.810511	4050.355387
783.134201	4039.590003
783.457844	3993.546624
783.781441	3941.955456
784.104993	3946.540385
784.428498	3967.168787
784.751958	3960.025472
785.075372	3942.580559
785.398739	3903.095721
785.722061	3918.143566
786.045337	3959.909525
786.368568	3988.243330
786.691752	3900.126482
787.014891	3956.012713
787.337983	4084.168926
787.661030	4245.707660
787.984031	4406.694388
788.306987	4574.252259
788.629897	4656.692769
788.952760	4614.185759
789.275579	4547.534144
789.598351	4479.128207
789.921078	4332.917101
790.243759	4134.303201
790.566395	4120.934061
790.888984	4114.428452
791.211529	4007.414838
791.534027	3949.771765
791.856480	3935.535546
792.178888	3870.907954
792.501249	3829.205009
792.823566	3837.366637
793.145836	3865.498796
793.468062	3808.609375
793.790241	3768.847274
794.112375	3797.254176
794.434464	3862.358157
794.756507	3886.563257
795.078505	3860.422354
795.400457	3902.369795
795.722364	4045.798184
796.044226	4142.570694
796.366042	4217.767065
796.687812	4195.666647
797.009538	4200.730486
797.331218	4161.590967
797.652852	4132.793376
797.974442	4112.170015
798.295986	4110.317391
798.617484	4028.673384
798.938938	3944.896969
799.260346	3990.589987
799.581709	3980.457268
799.903026	3902.848705
800.224299	3868.420145
800.545526	3860.286243
800.866708	3825.217456
801.187845	3766.556069
801.508936	3800.782983
801.829983	3794.133702
802.150984	3714.899366
802.471940	3709.482646
802.792851	3717.427505
803.113717	3717.195612
803.434538	3718.236610
803.755314	3658.995490
804.076045	3636.592603
804.396731	3659.013134
804.717372	3683.102288
805.037967	3667.820030
805.358518	3655.295283
805.679024	3683.424922
805.999485	3698.026624
806.319901	3704.048282
806.640272	3714.884242
806.960598	3727.469483
807.280879	3701.328580
807.601115	3716.656208
807.921306	3734.101121
808.241453	3774.032101
808.561554	3747.606372
808.881611	3676.856298
809.201623	3722.277095
809.521590	3727.892940
809.841513	3702.984599
810.161390	3734.075915
810.481223	3708.658418
810.801011	3656.207732
811.120755	3652.941065
811.440453	3686.903318
811.760107	3683.913914
812.079716	3640.406236
812.399281	3613.052935
812.718801	3639.012357
813.038276	3608.871298
813.357707	3605.513889
813.677093	3621.451497
813.996434	3566.855801
814.315731	3582.044798
814.634983	3585.518152
814.954191	3599.351079
815.273354	3627.644555
815.592473	3622.167341
815.911547	3630.021459
816.230577	3673.501411
816.549562	3725.758011
816.868502	3765.086573
817.187399	3784.679018
817.506250	3787.658339
817.825058	3764.446347
818.143821	3856.858258
818.462539	3959.944813
818.781213	4000.533663
819.099843	4066.005649
819.418429	4314.796674
819.736970	4558.700300
820.055466	4810.110204
820.373919	5180.130896
820.692327	5598.990287
821.010691	6055.486932
821.329011	7485.934501
821.647286	10310.167846
821.965517	14951.442246
822.283704	18949.699828
822.601847	21014.851351
822.919945	19154.388318
823.237999	16547.574897
823.556010	14053.557293
823.873976	11935.090527
824.191897	9829.372839
824.509775	8483.047005
824.827609	7362.332970
825.145398	6824.446896
825.463144	6713.571758
825.780845	6817.091852
826.098502	7027.433997
826.416116	7936.192718
826.733685	9287.952916
827.051210	10381.172498
827.368692	10372.597495
827.686129	9079.397861
828.003522	7574.595794
828.320872	6555.990330
828.638177	5846.037072
828.955439	5281.886586
829.272656	4779.306233
829.589830	4504.840612
829.906960	4332.816278
830.224046	4139.785456
830.541088	4015.677290
830.858086	3969.190289
831.175041	3890.392014
831.491952	3876.667472
831.808819	3886.006210
832.125642	3963.607212
832.442421	4118.713433
832.759157	4400.952513
833.075849	4963.121826
833.392497	5845.893399
833.709101	6628.250229
834.025662	6949.628828
834.342179	6557.880763
834.658653	5890.227827
834.975083	5234.799689
835.291469	4655.011544
835.607811	4248.896190
835.924110	4109.062144
836.240366	3907.388264
836.556578	3700.390925
836.872746	3595.706324
837.188871	3550.000703
837.504952	3486.088955
837.820990	3398.083011
838.136984	3358.545242
838.452935	3384.227400
838.768842	3376.816904
839.084706	3399.615522
839.400526	3563.909247
839.716303	3917.271446
840.032037	4454.852530
840.347727	4704.102300
840.663373	4408.857043
840.978977	4023.722971
841.294537	3714.478430
841.610054	3484.841269
841.925527	3379.529045
842.240957	3310.440031
842.556344	3252.474324
842.871687	3196.008359
843.186987	3147.792243
843.502244	3107.949484
843.817458	3074.902200
844.132629	3042.396840
844.447756	3051.236503
844.762840	3036.690254
845.077881	3005.367044
845.392879	2990.135198
845.707833	2984.189157
846.022745	2982.386945
846.337613	2982.906183
846.652438	2970.820017
846.967221	2966.766929
847.281960	2954.680763
847.596656	2953.700259
847.911309	2951.071297
848.225919	2944.023764
848.540485	2939.887497
848.855009	2940.540327
849.169490	2928.063471
849.483928	2921.877975
849.798323	2920.776483
850.112675	2915.314393
850.426984	2928.244952
850.741251	2923.871751
851.055474	2914.835483
851.369654	2907.152765
851.683792	2914.215421
851.997887	2922.394693
852.311938	2923.165990
852.625947	2911.163003
852.939914	2914.041501
853.253837	2917.920669
853.567718	2903.049265
853.881555	2903.228226
854.195350	2920.284970
854.509103	2913.494536
854.822812	2906.782240
855.136479	2902.736714
855.450103	2905.922723
855.763685	2897.952659
856.077224	2895.658934
856.390720	2908.960018
856.704173	2914.122160
857.017584	2910.101840
857.330953	2906.371386
857.644278	2917.678694
857.957561	2929.354006
858.270802	2930.936928
858.584000	2926.130188
858.897155	2916.536873
859.210268	2915.180802
859.523339	2913.250040
859.836367	2910.268198
860.149352	2907.079668
860.462295	2903.107239
860.775195	2911.357087
861.088054	2911.694844
861.400869	2893.607184
861.713642	2891.494941
862.026373	2907.515728
862.339062	2910.520255
862.651708	2915.533683
862.964312	2918.369332
863.276873	2908.092940
863.589392	2922.722368
863.901869	2932.348452
864.214303	2954.093469
864.526696	2970.573001
864.839045	2963.286013
865.151353	2963.422124
865.463619	2964.246353
865.775842	2963.838019
866.088023	2985.716627
866.400162	2990.533449
866.712258	2959.255610
867.024313	2951.540124
867.336325	2958.814509
867.648296	2984.226966
867.960224	2976.123311
868.272110	2960.470528
868.583954	2964.944552
868.895755	2979.871409
869.207515	2965.317598
869.519233	2972.347487
869.830909	2982.487768
870.142542	2990.011690
870.454134	2989.313490
870.765684	2993.033862
871.077191	2995.352792
871.388657	3001.185407
871.700081	3013.546317
872.011463	3024.231042
872.322803	3024.939324
872.634101	3026.449150
872.945357	3044.541851
873.256571	3069.646797
873.567744	3065.213102
873.878874	3057.734551
874.189963	3080.235741
874.501010	3077.611820
874.812015	3067.393401
875.122979	3068.300809
875.433900	3066.125551
875.744780	3072.162333
876.055618	3081.362439
876.366415	3075.933116
876.677169	3089.042637
876.987882	3081.866554
877.298554	3082.506781
877.609183	3102.542847
877.919771	3124.721403
878.230317	3155.434633
878.540822	3207.267777
878.851285	3243.163312
879.161707	3288.052267
879.472087	3395.587640
879.782425	3637.011018
880.092722	4083.362342
880.402977	4618.107777
880.713191	5259.077886
881.023363	6441.851045
881.333494	7734.760813
881.643583	8271.005992
881.953631	7957.836912
882.263637	7305.133518
882.573602	6704.926179
882.883526	6124.331450
883.193408	5552.480601
883.503248	5102.487044
883.813048	4787.286380
884.122806	4474.003874
884.432522	4155.907066
884.742197	3915.887649
885.051831	3725.400089
885.361424	3590.642485
885.670975	3517.843183
885.980485	3429.300357
886.289954	3349.647605
886.599382	3305.739155
886.908768	3265.137702
887.218113	3223.580950
887.527417	3165.627846
887.836680	3113.623303
888.145901	3110.981738
888.455082	3099.054368
888.764221	3047.750545
889.073319	3018.411030
889.382376	3015.421626
889.691392	3021.639889
890.000366	3021.082842
890.309300	3005.815707
890.618193	3017.372552
890.927044	3035.447609
891.235855	3034.923329
891.544625	3020.573685
891.853353	3034.409132
892.162041	3053.003428
892.470687	3094.144284
892.779293	3147.396513
893.087858	3192.192206
893.396381	3265.122579
893.704864	3395.728793
894.013306	3643.234323
894.321707	3943.848409
894.630068	4145.655880
894.938387	4136.775887
895.246665	4094.662088
895.554903	3970.236329
895.863100	3766.876183
896.171256	3599.721603
896.479371	3458.788586
896.787446	3333.498269
897.095480	3229.244687
897.403473	3163.316477
897.711425	3127.746095
898.019336	3118.311576
898.327207	3090.444077
898.635038	3052.368242
898.942827	3035.281251
899.250576	3024.732637
899.558284	2996.265241
899.865952	2974.772282
900.173579	2953.710341
900.481165	2946.977880
900.788711	2932.681168
901.096216	2908.886922
901.403681	2897.866959
901.711105	2903.858371
902.018489	2903.203021
902.325832	2902.018349
902.633135	2913.161820
902.940397	2950.486523
903.247619	3033.446271
903.554800	3231.863566
903.861941	3592.863114
904.169041	4026.520812
904.476101	4318.028053
904.783121	4261.057974
905.090100	4013.073534
905.397039	3733.183631
905.703938	3480.415136
906.010796	3297.368319
906.317614	3185.071576
906.624391	3088.467945
906.931129	3014.345339
907.237826	2954.065742
907.544483	2906.409194
907.851099	2876.212683
908.157675	2856.196782
908.464211	2832.732731
908.770707	2816.943837
909.077163	2806.322126
909.383578	2790.502985
909.689954	2781.076027
909.996289	2779.954371
910.302584	2781.451593
910.608839	2779.936727
910.915054	2776.690224
911.221229	2769.284769
911.527363	2769.947680
911.833458	2778.131994
912.139513	2781.648198
912.445527	2784.118364
912.751502	2792.388377
913.057436	2804.265335
913.363331	2818.728406
913.669186	2838.726663
913.975000	2874.808722
914.280775	2939.005295
914.586510	3008.540451
914.892205	3091.769901
915.197859	3224.800910
915.503475	3420.806012
915.809050	3641.117038
916.114585	3783.537196
916.420081	3799.512613
916.725536	3741.078078
917.030952	3615.840693
917.336328	3486.401506
917.641665	3354.633306
917.946961	3251.682862
918.252218	3182.316586
918.557435	3101.932867
918.862612	3041.774258
919.167750	2989.989005
919.472848	2950.325206
919.777906	2921.961154
920.082925	2898.217319
920.387904	2867.277238
920.692843	2850.316276
920.997743	2840.397805
921.302603	2823.119251
921.607423	2816.185143
921.912204	2802.904224
922.216946	2792.017852
922.521647	2781.444032
922.826310	2771.938936
923.130932	2766.701177
923.435516	2758.867224
923.740059	2749.795668
924.044564	2739.327712
924.349028	2735.012484
924.653454	2729.063923
924.957840	2723.995042
925.262186	2719.886502
925.566493	2715.599001
925.870761	2708.790922
926.174989	2705.098277
926.479178	2702.849923
926.783328	2694.388346
927.087438	2695.288192
927.391509	2693.493541
927.695541	2690.683098
927.999533	2687.497089
928.303486	2683.685976
928.607400	2683.640606
928.911275	2683.902746
929.215110	2685.052129
929.518906	2683.257478
929.822663	2682.362673
930.126381	2680.273115
930.430060	2681.104906
930.733699	2681.984587
931.037299	2685.256296
931.340861	2683.867458
931.644383	2683.020544
931.947866	2684.900894
932.251309	2681.359484
932.554714	2680.739422
932.858080	2680.010975
933.161407	2678.208763
933.464694	2675.461334
933.767943	2671.937567
934.071153	2676.051149
934.374323	2674.997548
934.677455	2675.831859
934.980548	2675.917558
935.283602	2673.112156
935.586617	2672.557629
935.889593	2673.278514
936.192530	2673.273473
936.495428	2674.516117
936.798287	2676.343536
937.101108	2681.268743
937.403890	2680.996521
937.706632	2689.634538
938.009336	2693.579241
938.312002	2700.473019
938.614628	2712.234031
938.917216	2717.885164
939.219765	2718.842983
939.522275	2716.350133
939.824747	2716.208980
940.127179	2712.140769
940.429573	2709.683207
940.731929	2705.693133
941.034246	2706.610623
941.336524	2700.089891
941.638763	2697.826413
941.940964	2695.378933
942.243126	2694.821885
942.545250	2695.517564
942.847335	2689.228725
943.149381	2686.750998
943.451389	2681.621624
943.753359	2680.230265
944.055290	2678.281859
944.357182	2678.685152
944.659036	2678.002075
944.960851	2677.077024
945.262628	2675.688186
945.564367	2674.506035
945.866067	2673.565860
946.167729	2675.877229
946.469352	2675.569719
946.770937	2673.840603
947.072484	2673.855726
947.373992	2675.607527
947.675462	2670.853719
947.976893	2668.817093
948.278286	2666.490601
948.579641	2667.798780
948.880958	2664.154026
949.182236	2667.093018
949.483476	2664.421207
949.784678	2665.011022
950.085841	2667.846671
950.386967	2665.928512
950.688054	2668.933040
950.989103	2667.473626
951.290114	2670.112670
951.591087	2671.715757
951.892021	2672.711384
952.192917	2677.077024
952.493776	2678.438135
952.794596	2681.049453
953.095378	2677.755059
953.396122	2676.078875
953.696828	2676.852692
953.997496	2673.301199
954.298126	2670.699964
954.598718	2669.177536
954.899272	2668.602844
955.199788	2665.263080
955.500266	2663.987668
955.800706	2663.758295
956.101108	2657.913077
956.401472	2657.479538
956.701798	2655.717655
957.002087	2652.826553
957.302337	2651.041985
957.602550	2649.983342
957.902724	2650.432005
958.202861	2647.049391
958.502960	2645.743732
958.803022	2647.404792
959.103045	2642.661066
959.403031	2642.245171
959.702979	2644.692651
960.002889	2642.961015
960.302762	2642.590490
960.602596	2639.202835
960.902393	2640.591673
961.202153	2641.153761
961.501875	2639.815335
961.801559	2640.962197
962.101205	2641.264667
962.400814	2641.247023
962.700385	2639.648977
962.999918	2635.933647
963.299414	2635.686630
963.598873	2637.335087
963.898293	2636.377268
964.197677	2639.283493
964.497022	2640.868936
964.796331	2640.929430
965.095601	2636.538585
965.394835	2641.496560
965.694030	2638.250057
965.993189	2638.005561
966.292309	2637.319964
966.591393	2639.913637
966.890439	2638.421456
967.189447	2639.835500
967.488419	2637.884573
967.787353	2639.432207
968.086249	2638.481950
968.385108	2635.452216
968.683930	2638.343318
968.982714	2637.546816
969.281462	2639.495222
969.580172	2639.197794
969.878844	2637.456075
970.177480	2639.270890
970.476078	2638.434059
970.774639	2636.788122
971.073162	2636.982207
971.371649	2639.351549
971.670098	2639.777526
971.968510	2638.834831
972.266885	2639.021353
972.565223	2639.648977
972.863524	2639.212917
973.161788	2638.348359
973.460014	2639.611168
973.758204	2639.583442
974.056356	2638.718884
974.354471	2636.626805
974.652550	2638.633184
974.950591	2638.234933
975.248595	2639.583442
975.546563	2637.705612
975.844493	2636.669655
976.142386	2635.638739
976.440243	2638.459265
976.738062	2637.650159
977.035845	2637.952629
977.333590	2636.757875
977.631299	2637.264511
977.928971	2632.127575
978.226606	2635.308543
978.524204	2636.778040
978.821765	2633.304685
979.119290	2636.934316
979.416777	2635.616054
979.714228	2636.525982
980.011642	2635.245529
980.309020	2634.595220
980.606360	2636.369706
980.903664	2633.942391
981.200931	2635.936167
981.498162	2636.437762
981.795356	2638.053452
982.092513	2639.739718
982.389633	2644.208701
982.686717	2643.573515
982.983764	2650.031233
983.280775	2654.023827
983.577749	2653.219763
983.874686	2653.489465
984.171587	2651.861172
984.468451	2646.477220
984.765279	2645.509318
985.062070	2643.674338
985.358824	2641.647794
985.655543	2641.153761
985.952224	2640.745428
986.248869	2637.279635
986.545478	2638.509676
986.842050	2636.591517
987.138586	2636.619243
987.435086	2635.200159
987.731549	2632.908954
988.027975	2634.101187
988.324366	2634.872484
988.620719	2632.805611
988.917037	2632.639252
989.213318	2635.545478
989.509563	2630.411062
989.805772	2633.488687
990.101944	2631.273100
990.398080	2631.618419
990.694180	2631.764612
990.990244	2632.009108
991.286271	2630.963069
991.582262	2629.531381
991.878217	2630.201855
992.174136	2633.503810
992.470019	2630.489200
992.765865	2630.970631
993.061676	2629.896865
993.357450	2629.521299
993.653188	2627.625825
993.948890	2636.107566
994.244556	2632.104890
994.540186	2630.809314
994.835780	2634.507000
995.131337	2633.486166
995.426859	2633.503810
995.722345	2634.454068
996.017795	2634.658235
996.313208	2636.767957
996.608586	2635.981537
996.903928	2638.340797
997.199234	2638.242495
997.494504	2637.249388
997.789738	2636.397433
998.084936	2639.462454
998.380099	2634.882566
998.675225	2635.041362
998.970316	2632.339304
999.265371	2634.544809
999.560390	2631.706639
999.855373	2632.016670
1000.150320	2633.889459
1000.445232	2633.715539
1000.740108	2630.209416
1001.034948	2631.570528
1001.329752	2631.933491
1001.624521	2630.751340
1001.919254	2630.748820
1002.213951	2632.745117
1002.508613	2631.237812
1002.803239	2631.126906
1003.097829	2630.902575
1003.392384	2631.661269
1003.686903	2630.032976
1003.981386	2629.175980
1004.275834	2628.298819
1004.570246	2629.506175
1004.864623	2630.138840
1005.158964	2629.909468
1005.453270	2628.805455
1005.747540	2629.329735
1006.041775	2628.197996
1006.335974	2631.598254
1006.630138	2629.057513
1006.924266	2631.469705
1007.218359	2631.953656
1007.512416	2628.679426
1007.806438	2627.799745
1008.100425	2627.981226
1008.394376	2625.241359
1008.688292	2631.038686
1008.982172	2631.847791
1009.276017	2631.749489
1009.569827	2630.406021
1009.863602	2630.952987
1010.157341	2628.427368
1010.451045	2627.698922
1010.744714	2629.622122
1011.038347	2630.073305
1011.331945	2628.109776
1011.625508	2632.049437
1011.919036	2628.573562
1012.212528	2626.998201
1012.505986	2629.206227
1012.799408	2629.450723
1013.092795	2628.845784
1013.386147	2630.398460
1013.679464	2628.157667
1013.972745	2629.854015
1014.265992	2627.928294
1014.559204	2629.904427
1014.852380	2631.668830
1015.145521	2629.574231
1015.438628	2628.699591
1015.731699	2630.484159
1016.024736	2627.275465
1016.317737	2631.510034
1016.610703	2628.220681
1016.903635	2632.399798
1017.196531	2626.370578
1017.489393	2629.402832
1017.782219	2630.466515
1018.075011	2630.441309
1018.367768	2628.757564
1018.660490	2626.786473
1018.953177	2626.786473
1019.245829	2626.786473
