Dividing Wavelength (nm)	Counts (n)	Blue Motor Position (mm): 44.100000	Red Motor Position (mm): 0.000000	
326.493990	2263.077305
326.888308	2263.077305
327.282561	2263.077305
327.676750	2223.350492
328.070874	2220.207333
328.464933	2221.704556
328.858929	2223.065667
329.252859	2229.714949
329.646726	2239.686351
330.040528	2253.231932
330.434265	2265.839858
330.827938	2280.171858
331.221547	2299.073664
331.615091	2320.377580
332.008571	2335.853923
332.401986	2353.475276
332.795338	2374.045704
333.188625	2393.391132
333.581847	2416.519946
333.975006	2432.366813
334.368100	2451.684515
334.761129	2468.683285
335.154095	2489.352016
335.546996	2511.974194
335.939833	2554.960113
336.332606	2565.128120
336.725315	2583.798033
337.117960	2594.752461
337.510540	2604.938112
337.903056	2615.905142
338.295508	2624.137347
338.687896	2630.590023
339.080220	2641.025212
339.472480	2648.738177
339.864676	2653.272695
340.256807	2656.156235
340.648875	2659.584220
341.040879	2663.188645
341.432818	2666.977072
341.824694	2669.510252
342.216506	2669.895900
342.608253	2667.859274
342.999937	2667.912206
343.391557	2671.047804
343.783113	2672.179543
344.174605	2669.928667
344.566033	2668.996054
344.957397	2669.162412
345.348697	2666.238543
345.739934	2664.640497
346.131106	2666.241063
346.522215	2662.369457
346.913260	2661.043634
347.304241	2661.126813
347.695159	2657.655978
348.086012	2656.209167
348.476802	2654.976605
348.867528	2648.992756
349.258191	2647.556027
349.648789	2644.488485
350.039324	2643.386992
350.429796	2643.187867
350.820203	2646.290697
351.210548	2642.517393
351.600828	2643.727270
351.991045	2642.419091
352.381198	2638.242495
352.771288	2640.400109
353.161314	2638.539923
353.551276	2637.549336
353.941175	2639.144862
354.331010	2640.914307
354.720782	2637.433390
355.110490	2636.672176
355.500135	2640.049749
355.889717	2640.170736
356.279235	2639.714512
356.668689	2639.926240
357.058080	2638.686117
357.447408	2640.780716
357.836672	2640.019502
358.225873	2637.982876
358.615010	2639.477578
359.004084	2638.718884
359.393095	2640.977321
359.782043	2644.899339
360.170927	2644.664925
360.559748	2643.258443
360.948505	2644.629637
361.337199	2645.577374
361.725830	2644.279277
362.114398	2644.526293
362.502903	2648.143321
362.891344	2647.619041
363.279722	2648.949906
363.668037	2647.782879
364.056289	2653.030720
364.444478	2650.729433
364.832603	2650.429484
365.220665	2650.510143
365.608665	2655.329486
365.996601	2655.490803
366.384474	2653.459218
366.772284	2653.242448
367.160031	2656.206647
367.547715	2656.370484
367.935336	2658.276040
368.322893	2653.570123
368.710388	2654.366626
369.097820	2656.867038
369.485189	2654.326296
369.872495	2656.758653
370.259738	2659.377532
370.646918	2661.076401
371.034035	2660.680671
371.421090	2661.217554
371.808081	2660.723521
372.195010	2663.037410
372.581875	2659.680002
372.968678	2663.211330
373.355418	2660.776453
373.742096	2664.965652
374.128710	2663.743172
374.515262	2663.750733
374.901751	2666.725014
375.288177	2669.689213
375.674540	2667.143430
376.060841	2671.415808
376.447079	2673.649039
376.833254	2675.809173
377.219367	2676.593073
377.605417	2685.011800
377.991404	2688.341482
378.377329	2698.028059
378.763191	2709.015254
379.148991	2724.617625
379.534727	2741.177815
379.920402	2763.464757
380.306013	2778.981428
380.691563	2813.561223
381.077049	2836.304388
381.462474	2868.640870
381.847835	2908.007240
382.233134	2945.241203
382.618371	2981.683704
383.003545	3028.952083
383.388657	3067.537074
383.773706	3125.336424
384.158693	3167.760254
384.543618	3210.103426
384.928480	3266.932353
385.313280	3328.638597
385.698017	3371.412787
386.082692	3457.893781
386.467305	3489.688338
386.851856	3539.535268
387.236344	3625.358391
387.620770	3671.568128
388.005133	3740.014394
388.389435	3797.702838
388.773674	3833.691636
389.157851	3920.341509
389.541965	4005.267307
389.926018	3994.103672
390.310008	4105.586268
390.693936	4174.198893
391.077802	4225.328796
391.461606	4240.479984
391.845348	4315.905727
392.229027	4388.531110
392.612645	4401.199530
392.996200	4515.500132
393.379694	4581.340122
393.763125	4689.694682
394.146494	4727.500816
394.529801	4795.556392
394.913047	4885.730032
395.296230	4845.340307
395.679351	4955.643274
396.062410	5012.207541
396.445408	4992.428574
396.828343	5053.996186
397.211217	5112.894507
397.594028	4999.539121
397.976778	5122.760045
398.359466	5165.274616
398.742092	5191.498698
399.124656	5106.625832
399.507158	5227.870623
399.889598	5290.748935
400.271977	5412.903654
400.654294	5413.125465
401.036549	5456.547444
401.418742	5368.223908
401.800874	5576.892389
402.182944	5636.705679
402.564952	5747.222895
402.946898	5801.891688
403.328783	5646.440147
403.710606	5654.417773
404.092367	5981.187886
404.474067	6001.019785
404.855705	5908.769191
405.237282	5841.195044
405.618797	6091.473209
406.000250	6078.046096
406.381642	6276.576816
406.762972	6299.307379
407.144240	6358.132603
407.525447	6340.463359
407.906593	6363.065372
408.287677	6520.414907
408.668700	6431.425939
409.049661	6546.071860
409.430560	6573.609163
409.811399	6436.494819
410.192176	6702.813936
410.572891	6713.468414
410.953545	6913.660195
411.334138	6640.956458
411.714669	6813.487427
412.095139	6606.480006
412.475547	6858.492328
412.855894	6922.285610
413.236180	7102.446366
413.616405	6775.300687
413.996568	6995.916703
414.376670	7036.266098
414.756711	6933.514780
415.136691	7026.766044
415.516609	7230.597538
415.896466	7219.169242
416.276262	7423.661127
416.655997	7410.639827
417.035670	7590.253618
417.415283	7931.426307
417.794834	7988.257755
418.174324	7851.226591
418.553753	7772.403109
418.933121	8070.088285
419.312428	8174.251126
419.691674	7949.019934
420.070859	8425.575331
420.449983	8112.625541
420.829045	8470.817166
421.208047	8245.008762
421.586988	8551.231131
421.965867	8569.253256
422.344686	8669.015170
422.723444	8725.692863
423.102141	8078.083555
423.480777	8839.852312
423.859352	8353.398610
424.237866	8981.019744
424.616319	8843.842386
424.994712	9267.871480
425.373044	8816.473962
425.751314	9294.738309
426.129524	9169.110235
426.507673	9272.247201
426.885762	9419.658102
427.263789	9342.697326
427.641756	9269.625801
428.019662	9362.264565
428.397508	9620.598494
428.775292	9290.591960
429.153016	9670.941977
429.530679	9506.469291
429.908282	9529.086428
430.285824	9251.875899
430.663305	9938.513820
431.040726	9388.692814
431.418086	9373.738231
431.795385	9701.940032
432.172624	9796.025607
432.549802	9705.057985
432.926920	9778.711764
433.303977	9653.882712
433.680974	9857.943579
434.057910	9952.704668
434.434786	10025.060349
434.811601	9850.205408
435.188355	10425.726216
435.565050	10159.699486
435.941683	10082.776520
436.318257	10563.904243
436.694770	10723.469365
437.071222	10776.716552
437.447614	10607.537950
437.823946	10524.736998
438.200218	10631.160797
438.576429	10469.957300
438.952580	10710.064937
439.328670	10748.009702
439.704700	10540.092352
440.080670	10530.660354
440.456580	11062.728936
440.832429	10840.345996
441.208218	10436.216857
441.583947	10744.158260
441.959616	10922.191649
442.335224	10731.893133
442.710773	10840.706439
443.086261	11075.132695
443.461689	10340.717238
443.837057	11022.830724
444.212365	11264.163362
444.587612	10893.283153
444.962800	11114.738521
445.337927	10865.143432
445.712995	10523.310351
446.088002	11571.076370
446.462949	11259.066755
446.837837	11224.938144
447.212664	11165.928917
447.587431	11740.706155
447.962139	12486.708704
448.336786	14777.305668
448.711374	15270.708601
449.085901	13093.093977
449.460369	12733.715161
449.834776	12179.709997
450.209124	13099.450872
450.583412	13516.984439
450.957640	14451.541266
451.331808	13519.943597
451.705917	12566.469841
452.079965	11826.690596
452.453954	12742.950554
452.827883	12398.102864
453.201752	12680.031913
453.575562	12219.920761
453.949311	12637.560192
454.323001	12609.697735
454.696632	12858.745858
455.070202	13132.815749
455.443713	13337.773941
455.817164	13817.180110
456.190556	13798.787460
456.563888	14162.118541
456.937160	14309.925172
457.310373	13661.098425
457.683526	13768.563222
458.056619	13297.353969
458.429653	13489.321108
458.802628	12863.416487
459.175542	13271.921348
459.548398	14225.455598
459.921194	14575.498198
460.293930	14651.612059
460.666607	15502.435320
461.039224	16568.979636
461.411782	17283.414480
461.784280	17077.982420
462.156719	17176.599992
462.529099	16834.600553
462.901419	15796.087573
463.273680	15560.970678
463.645882	15460.692046
464.018024	15181.197873
464.390106	15405.115845
464.762130	16128.506298
465.134094	16924.300324
465.505999	18974.580443
465.877845	22237.474832
466.249631	25050.189141
466.621358	24665.523897
466.993026	23234.206729
467.364634	22665.027692
467.736184	21186.789985
468.107674	20388.835825
468.479105	20521.642503
468.850477	19978.238886
469.221790	19586.211036
469.593043	18889.180776
469.964238	18320.520978
470.335373	17962.871278
470.706449	18460.770920
471.077467	18045.183238
471.448425	19911.867054
471.819324	24034.414285
472.190164	25887.272737
472.560945	22246.004464
472.931667	19936.273801
473.302330	19315.465787
473.672934	18936.212221
474.043479	19177.464200
474.413965	18986.827926
474.784393	18584.773222
475.154761	19336.222738
475.525070	19268.676317
475.895321	18981.839705
476.265513	19584.335727
476.635645	20171.015129
477.005719	19934.567370
477.375734	20122.645258
477.745691	20599.656879
478.115588	21154.309831
478.485427	21702.497503
478.855207	22792.309265
479.224928	24590.138482
479.594591	26802.136296
479.964194	26735.222540
480.333739	26963.584289
480.703226	26541.995113
481.072653	26247.085093
481.442022	26862.239453
481.811333	27780.888918
482.180584	27673.555191
482.549777	26711.924848
482.918912	26382.979477
483.287988	26528.726796
483.657005	26158.670816
484.025964	25946.148373
484.394864	25814.107951
484.763706	25470.729756
485.132489	24927.134575
485.501213	25131.361800
485.869879	25041.500712
486.238487	24871.873447
486.607036	25003.064435
486.975527	24743.623972
487.343959	25033.195411
487.712333	24951.329593
488.080648	24619.528409
488.448905	25118.189265
488.817104	24884.070519
489.185244	25577.788741
489.553326	25530.749734
489.921350	26581.318634
490.289315	28925.329143
490.657222	30645.766566
491.025070	31161.552222
491.392861	30902.537737
491.760593	30028.189932
492.128267	29122.796181
492.495883	28057.560044
492.863440	27194.413682
493.230939	26332.331004
493.598380	26172.791088
493.965763	25793.658510
494.333088	25290.500945
494.700354	25256.906695
495.067563	25108.485044
495.434713	24860.712332
495.801805	25031.534351
496.168839	24810.394055
496.535815	24671.462376
496.902733	24887.969851
497.269593	24581.944086
497.636395	24741.133642
498.003139	24687.465519
498.369825	24438.472848
498.736453	24651.252390
499.103023	24514.039744
499.469535	24513.308777
499.835989	24739.215483
500.202385	24763.097950
500.568723	24289.531957
500.935003	24486.535209
501.301226	24161.902545
501.667390	25012.337637
502.033497	25218.377157
502.399546	24948.725837
502.765537	24474.224711
503.131470	24862.935481
503.497345	25008.029971
503.863163	24255.907461
504.228923	24816.327493
504.594625	25045.243769
504.960269	24607.210349
505.325856	25078.964047
505.691385	24476.810823
506.056856	25080.857000
506.422270	25056.964452
506.787625	24595.761889
507.152924	25017.199830
507.518164	25056.727517
507.883347	24882.303594
508.248472	24556.342587
508.613540	25341.396434
508.978550	25131.515555
509.343503	25140.811443
509.708398	25359.126172
510.073236	25513.393041
510.438016	25738.730098
510.802738	25380.409923
511.167403	25655.480483
511.532010	25384.331941
511.896561	26135.317671
512.261053	26096.684788
512.625488	25929.623470
512.989866	25807.284749
513.354186	25658.522819
513.718449	25790.016276
514.082655	26155.618397
514.446803	25878.894339
514.810894	26371.788115
515.174927	25865.905806
515.538904	25888.583437
515.902822	26385.552986
516.266684	26141.694730
516.630488	26042.257971
516.994235	25998.538564
517.357925	26333.573649
517.721558	26482.859858
518.085133	26610.280063
518.448651	26491.124830
518.812112	26256.325528
519.175516	26475.119166
519.538863	26618.497143
519.902152	26411.492243
520.265385	26673.533941
520.628560	26467.933002
520.991678	26468.351417
521.354739	26516.403696
521.717743	26618.671063
522.080690	26397.659317
522.443580	26724.005973
522.806413	26693.300305
523.169189	26812.906721
523.531908	26845.918717
523.894569	26471.242519
524.257174	26559.775263
524.619722	26699.508486
524.982213	26418.277636
525.344647	26436.387981
525.707025	26614.852389
526.069345	26573.935864
526.431608	26535.791973
526.793815	26718.029685
527.155964	26210.362807
527.518057	26373.771809
527.880093	26297.491590
528.242072	26513.338674
528.603995	26234.557825
528.965860	26035.568360
529.327669	26067.052886
529.689421	26051.884054
530.051117	25911.611428
530.412755	26077.604021
530.774337	25853.849887
531.135862	25743.355356
531.497331	25928.854694
531.858743	25527.888879
532.220098	25976.400337
532.581396	25668.406002
532.942638	25564.041514
533.303824	25687.935432
533.664953	25691.479363
534.026025	25342.180333
534.387040	25586.031027
534.747999	25630.330167
535.108902	25800.857278
535.469748	25304.502749
535.830537	25476.136394
536.191270	25601.033501
536.551947	25433.904127
536.912567	25058.794390
537.273131	25492.290771
537.633638	25166.405381
537.994089	25391.298816
538.354483	24872.901842
538.714821	25385.362857
539.075103	25436.192811
539.435328	25201.423756
539.795497	24806.469517
540.155609	25147.778318
540.515665	25480.444060
540.875665	24681.002759
541.235609	25021.212588
541.595496	24945.519663
541.955328	25313.982639
542.315102	25232.570525
542.674821	24737.758590
543.034483	24626.759944
543.394090	24801.206552
543.753640	24601.884370
544.113134	25227.599948
544.472571	24820.468801
544.831953	25134.935978
545.191278	24773.389465
545.550548	24655.527288
545.909761	24855.424162
546.268918	25089.719349
546.628019	25074.225362
546.987064	24754.270889
547.346053	24496.050387
547.704986	24598.166519
548.063863	24756.501600
548.422684	24793.959894
548.781449	24290.474653
549.140158	24702.336923
549.498811	24271.217446
549.857408	24040.156159
550.215949	24433.920686
550.574434	24132.008503
550.932864	24325.520755
551.291237	24509.074208
551.649555	24340.470297
552.007817	24411.701800
552.366022	24268.790130
552.724173	24292.216372
553.082267	24268.243165
553.440305	24739.739763
553.798288	23988.446523
554.156215	24470.196829
554.514086	24595.900521
554.871902	23991.065403
555.229661	24258.367544
555.587365	24102.742084
555.945014	24011.119113
556.302606	24218.033273
556.660143	24215.767274
557.017625	24440.524597
557.375050	23957.251863
557.732421	24341.917108
558.089735	24185.832902
558.446994	24226.386464
558.804197	24273.397745
559.161345	24162.270549
559.518437	23969.975736
559.875474	24133.437670
560.232455	24327.350694
560.589381	24123.539364
560.946251	24125.381906
561.303065	24432.441107
561.659825	24533.485995
562.016528	24124.053562
562.373177	23858.717470
562.729770	24235.994904
563.086307	24068.358894
563.442789	24242.326593
563.799216	24090.539971
564.155587	24083.467232
564.511904	24056.479415
564.868164	24020.034393
565.224370	23958.968376
565.580520	23909.451643
565.936615	24030.522514
566.292654	23729.399271
566.648638	23976.075532
567.004567	23817.934536
567.360441	23757.932202
567.716260	23497.329754
568.072023	23799.481392
568.427732	23587.654628
568.783385	23334.865968
569.138982	23588.090688
569.494525	23622.005050
569.850013	23384.912023
570.205445	23478.332166
570.560823	23297.831132
570.916145	23064.715575
571.271412	23242.317946
571.626625	22991.596159
571.981782	23109.420527
572.336884	22896.865317
572.691931	23043.628428
573.046923	22779.494652
573.401860	22659.363956
573.756743	22682.351618
574.111570	22570.919432
574.466342	22490.996979
574.821059	22572.646027
575.175722	22302.074698
575.530330	22252.946133
575.884882	22265.196137
576.239380	22196.273481
576.593823	22075.386612
576.948211	22046.916696
577.302544	21906.873442
577.656823	21760.138056
578.011047	21872.782639
578.365216	21741.163153
578.719330	21622.292746
579.073389	21501.647852
579.427394	21666.586844
579.781344	21409.709808
580.135239	21293.155811
580.489080	21242.719067
580.842866	21027.895337
581.196597	21244.165878
581.550273	21197.106707
581.903895	21073.124569
582.257463	21391.871686
582.610975	20924.085376
582.964434	21258.197930
583.317837	20936.332859
583.671186	21014.417812
584.024481	21004.242243
584.377721	20766.730800
584.730906	20846.010506
585.084037	20821.686939
585.437113	20766.302302
585.790135	20964.754885
586.143103	20423.289591
586.496016	20443.129052
586.848874	20674.674290
587.201679	20592.077504
587.554428	20298.581528
587.907124	20621.162442
588.259765	20373.775378
588.612352	20463.109666
588.964884	20025.318222
589.317362	20205.247085
589.669786	20257.019735
590.022155	20256.460167
590.374470	20495.534367
590.726731	20255.827502
591.078937	20053.427695
591.431090	20133.970210
591.783188	19896.967924
592.135232	19855.136429
592.487222	19965.820003
592.839157	19973.555654
593.191038	19847.854483
593.542866	19736.989427
593.894639	19448.126271
594.246358	19657.697118
594.598022	19546.859789
594.949633	19306.575712
595.301190	19296.203538
595.652692	19451.836560
596.004141	19677.750828
596.355535	19013.472945
596.706876	19040.125525
597.058162	18932.055790
597.409395	19169.136214
597.760573	19214.246979
598.111698	18988.239449
598.462768	18932.801881
598.813785	18908.934538
599.164748	18699.023412
599.515657	18759.786960
599.866511	18559.680879
600.217312	18900.906500
600.568060	18416.507068
600.918753	18731.982476
601.269392	18626.269480
601.619978	18419.751051
601.970510	18614.011914
602.320988	18571.961129
602.671412	18758.536754
603.021783	18708.223518
603.372100	18401.489471
603.722363	18553.921360
604.072572	18497.760386
604.422728	18656.760899
604.772830	18404.408299
605.122878	18363.640488
605.472872	18345.484772
605.822813	18321.267069
606.172701	18317.728179
606.522534	18483.950145
606.872314	18516.072377
607.222041	18357.490280
607.571714	18577.476152
607.921333	18402.394358
608.270899	18481.301019
608.620411	18633.521180
608.969870	18429.969470
609.319276	18420.056041
609.668627	18440.850800
610.017926	18580.372295
610.367171	18695.058545
610.716362	18745.381863
611.065500	18557.808090
611.414585	18712.183344
611.763616	18688.817596
612.112594	18615.582234
612.461518	18600.761241
612.810389	18785.627915
613.159207	18638.774062
613.507971	18562.478719
613.856682	18815.852152
614.205340	18732.257219
614.553945	18893.780829
614.902496	18640.727509
615.250994	18845.221915
615.599439	18807.163724
615.947830	18788.753430
616.296169	18865.920893
616.644454	18817.190579
616.992686	18796.521848
617.340864	19009.931534
617.688990	18750.344879
618.037063	18929.000851
618.385082	18792.473802
618.733048	19051.397545
619.080961	18952.722000
619.428821	18973.287387
619.776628	18857.693729
620.124382	18782.681360
620.472083	18834.607765
620.819731	18836.183126
621.167326	18538.520635
621.514868	18588.622143
621.862357	18356.030866
622.209793	18352.736472
622.557176	18198.126804
622.904506	18019.571656
623.251783	17958.283828
623.599007	17696.191719
623.946179	17640.040827
624.293297	17568.592553
624.640363	17313.323646
624.987376	17332.384248
625.334336	17137.296636
625.681243	16984.501783
626.028097	16990.984707
626.374899	16915.359838
626.721647	16784.715815
627.068343	16614.350021
627.414987	16557.531176
627.761577	16519.656987
628.108115	16547.569856
628.454600	16281.439783
628.801032	16381.171450
629.147412	16311.941284
629.493739	16325.486864
629.840014	16128.907070
630.186236	16230.708131
630.532405	15999.001577
630.878521	16201.524891
631.224585	16108.913854
631.570597	15912.777681
631.916556	15949.867971
632.262462	15918.585091
632.608316	15830.518653
632.954117	15776.391785
633.299866	15763.050371
633.645562	15680.153637
633.991206	15444.885508
634.336797	15326.735985
634.682336	15284.123112
635.027823	15162.946376
635.373257	15027.306570
635.718639	14947.666422
636.063968	14884.699889
636.409245	14640.266942
636.754470	14672.046376
637.099642	14522.956772
637.444762	14298.607782
637.789829	14339.400798
638.134845	14173.763607
638.479808	14209.379358
638.824719	14125.817192
639.169577	13988.213857
639.514383	14026.473694
639.859137	13862.038817
640.203839	13954.445688
640.548489	13799.074806
640.893086	13784.818423
641.237632	13664.266790
641.582125	13808.501763
641.926566	13633.112459
642.270955	13649.405469
642.615292	13596.881687
642.959576	13606.633799
643.303809	13636.200166
643.647990	13569.490577
643.992118	13635.252429
644.336195	13414.303697
644.680219	13634.803767
645.024192	13535.961863
645.368112	13778.602680
645.711981	13828.477336
646.055797	14016.046067
646.399562	13988.133198
646.743274	14252.224125
647.086935	14517.920659
647.430544	14487.867820
647.774101	14542.793712
648.117606	14666.705274
648.461059	14640.221572
648.804460	14625.743378
649.147810	14348.268188
649.491108	14256.592285
649.834354	14272.166930
650.177548	13951.476448
650.520690	13769.208490
650.863781	13684.260006
651.206820	13733.033170
651.549807	13571.013006
651.892742	13351.657278
652.235626	13284.367957
652.578458	13295.912199
652.921238	13000.682065
653.263967	13194.738762
653.606644	13018.613450
653.949269	13002.839679
654.291843	12801.806026
654.634365	12970.115029
654.976836	12816.715238
655.319255	12812.669712
655.661622	12775.085390
656.003938	12690.676310
656.346203	12612.062036
656.688416	12701.809698
657.030577	12651.640135
657.372687	12555.795197
657.714746	12545.110472
658.056753	12736.964184
658.398708	12548.805637
658.740612	12542.925132
659.082465	12663.774192
659.424266	12634.359059
659.766016	12660.366372
660.107715	12575.037282
660.449362	12648.824650
660.790958	12599.247423
661.132503	12528.280580
661.473996	12616.289043
661.815438	12621.703243
662.156829	12653.757419
662.498168	12622.782050
662.839456	12624.526289
663.180693	12639.571612
663.521879	12737.553999
663.863013	12709.333620
664.204097	12679.578209
664.545129	12813.975371
664.886110	12786.576700
665.227040	12879.618756
665.567918	12874.958209
665.908746	12900.552147
666.249522	12895.979821
666.590248	12948.271709
666.930922	13061.433010
667.271545	13031.360007
667.612118	13111.494189
667.952639	13017.506916
668.293109	13049.303994
668.633528	12984.686484
668.973896	12962.036580
669.314213	13032.872353
669.654480	12774.447684
669.994695	12859.590252
670.334859	12878.434085
670.674973	12825.063389
671.015035	12855.970703
671.355047	12805.397848
671.695008	12772.947940
672.034918	12783.814147
672.374777	12831.563957
672.714585	12738.136252
673.054342	12777.333744
673.394049	12725.551012
673.733705	12816.763129
674.073310	12716.058519
674.412864	12741.685225
674.752368	12593.871032
675.091820	12640.022796
675.431223	12609.808640
675.770574	12477.846356
676.109875	12396.527503
676.449125	12348.918846
676.788324	12306.820171
677.127473	12133.132256
677.466571	12126.455248
677.805619	12015.249914
678.144616	11952.159874
678.483562	11925.403950
678.822458	11794.349073
679.161303	11770.660692
679.500098	11754.617219
679.838842	11709.287164
680.177535	11744.166908
680.516179	11814.475880
680.854771	11752.746951
681.193314	11972.130405
681.531805	12138.468317
681.870247	12582.939290
682.208638	12987.844767
682.546978	13283.682360
682.885268	13319.872803
683.223508	13015.293850
683.561697	12856.396681
683.899836	12771.168413
684.237925	12562.394068
684.575963	12476.250831
684.913951	12387.942418
685.251889	12347.852642
685.589776	12454.478087
685.927614	12357.335053
686.265401	12345.697549
686.603137	12396.139334
686.940824	12554.083726
687.278460	12680.213395
687.616046	12709.179865
687.953582	12874.345709
688.291068	12815.026452
688.628504	13044.779559
688.965889	13051.731310
689.303224	13007.311183
689.640510	12896.544430
689.977745	12568.151065
690.314930	12347.739216
690.652065	12254.601378
690.989150	11954.937550
691.326185	11737.258006
691.663170	11531.057170
692.000105	11296.048660
692.336990	11166.440594
692.673825	10913.190669
693.010610	10801.140943
693.347345	10586.067676
693.684030	10393.540969
694.020665	10339.595582
694.357251	10143.519903
694.693786	10062.294312
695.030272	9921.817518
695.366707	9799.108272
695.703093	9731.571934
696.039429	9731.080422
696.375716	9642.404005
696.711952	9515.954222
697.048139	9564.419875
697.384276	9522.595942
697.720363	9536.978354
698.056400	9461.739133
698.392388	9413.475126
698.728326	9372.787974
699.064214	9314.885281
699.400053	9353.961785
699.735842	9176.979476
700.071581	9138.460019
700.407270	9064.229029
700.742910	8984.722471
701.078501	8883.004589
701.414042	8758.215867
701.749533	8696.837298
702.084974	8559.725476
702.420366	8679.619238
702.755709	8552.897233
703.091002	8421.360926
703.426246	8453.994835
703.761440	8406.643277
704.096584	8364.663069
704.431679	8292.042727
704.766725	8277.609903
705.101721	8233.174653
705.436668	8286.409238
705.771565	8174.886312
706.106413	8254.778518
706.441212	8293.388715
706.775961	8258.950073
707.110661	8305.593348
707.445311	8429.822503
707.779913	8333.382709
708.114465	8462.214437
708.448967	8495.952359
708.783421	8659.875558
709.117825	8830.382505
709.452180	8865.564718
709.786485	8961.281106
710.120742	9245.077903
710.454949	9245.597142
710.789107	9349.265950
711.123216	9570.005474
711.457275	9748.542978
711.791286	9887.628413
712.125247	9890.244772
712.459159	9882.688082
712.793023	10104.637483
713.126837	9687.292959
713.460602	9839.019087
713.794318	9669.227984
714.127985	9694.302684
714.461602	9353.866003
714.795171	9310.401174
715.128691	9057.899860
715.462162	8818.462697
715.795584	8759.513964
716.128957	8588.540711
716.462281	8428.746216
716.795556	8477.521900
717.128782	8268.989530
717.461960	8017.975357
717.795088	8085.783917
718.128167	7991.637849
718.461198	7824.737848
718.794180	7766.462109
719.127113	7754.426354
719.459997	7587.395283
719.792833	7367.893363
720.125619	7438.250226
720.458357	7288.908564
720.791046	7287.706249
721.123686	7275.978005
721.456278	7113.015145
721.788821	7128.118442
722.121315	7033.102774
722.453761	7104.767817
722.786158	7034.443721
723.118506	7042.935545
723.450805	7015.267172
723.783056	7074.987201
724.115259	6998.941395
724.447412	6997.003071
724.779518	7045.645165
725.111574	7043.540483
725.443582	7118.172245
725.775542	7096.775068
726.107453	7300.069679
726.439315	7204.812036
726.771129	7279.965557
727.102895	7456.622712
727.434612	7560.803197
727.766281	7606.415557
728.097901	7670.818818
728.429473	7676.928696
728.760996	7660.610481
729.092471	7632.997561
729.423897	7569.426091
729.755276	7567.749907
730.086606	7488.543298
730.417887	7598.609330
730.749120	7819.575706
731.080305	8001.538675
731.411442	8112.013041
731.742530	8097.630629
732.073570	8209.214049
732.404562	8290.016183
732.735506	8158.870566
733.066401	8288.652551
733.397249	8207.139614
733.728048	7963.674568
734.058798	7632.236347
734.389501	7394.263638
734.720156	7222.264510
735.050762	7000.322671
735.381320	6919.792759
735.711831	6850.940680
736.042293	6745.509988
736.372707	6752.688591
736.703073	6622.684795
737.033391	6661.766341
737.363661	6677.038516
737.693883	6713.228960
738.024056	6799.604090
738.354182	6832.999213
738.684260	6866.906014
739.014290	6993.955694
739.344272	7102.103567
739.674207	7135.723022
740.004093	7209.066770
740.333931	7216.588171
740.663722	7219.859880
740.993464	7301.226624
741.323159	7272.144207
741.652806	7027.560025
741.982405	7065.845068
742.311956	7104.714885
742.641460	6924.400374
742.970915	6734.419450
743.300323	6722.144240
743.629683	6684.993457
743.958996	6546.318876
744.288260	6451.275482
744.617477	6407.062042
744.946647	6395.056535
745.275768	6238.238841
745.604842	6194.647984
745.933869	6174.004459
746.262847	6132.689683
746.591778	6117.987157
746.920662	6075.167597
747.249498	6073.062915
747.578286	6123.509742
747.907027	6200.553696
748.235720	6259.497387
748.564365	6233.560651
748.892963	6277.779132
749.221514	6413.290388
749.550017	6223.044804
749.878473	6112.159584
750.206881	6182.017373
750.535242	6123.910513
750.863555	6053.515841
751.191821	6062.531945
751.520039	6059.908024
751.848210	5964.610052
752.176334	5999.419219
752.504411	6038.594026
752.832440	5964.864630
753.160421	5895.027005
753.488356	5948.533812
753.816243	5974.094983
754.144082	5822.719215
754.471875	5802.463859
754.799620	5844.590261
755.127318	5856.593248
755.454969	5814.202186
755.782572	5777.729438
756.110129	5824.866747
756.437638	5799.945803
756.765100	5745.161063
757.092515	5750.441672
757.419882	5803.492254
757.747203	5780.620539
758.074477	5839.163459
758.401703	5819.129913
758.728882	5776.491834
759.056014	5848.529923
759.383099	5965.577953
759.710138	5979.226877
760.037129	5962.270956
760.364073	5969.144570
760.690970	6048.875459
761.017820	6030.308889
761.344623	5988.570656
761.671379	6091.939516
761.998088	6223.740483
762.324751	6487.271841
762.651366	7128.219265
762.977935	8499.955035
763.304456	10160.881637
763.630931	11009.229691
763.957359	10548.264063
764.283740	9573.970341
764.610074	8704.895583
764.936362	7706.689148
765.262602	7117.758871
765.588796	6586.101142
765.914943	6262.443942
766.241044	6087.712508
766.567097	5868.863417
766.893104	5616.712463
767.219064	5440.657727
767.544978	5376.357809
767.870845	5296.669770
768.196665	5187.949726
768.522438	5120.962873
768.848165	5083.305454
769.173846	5022.166340
769.499479	4973.385615
769.825066	4919.994755
770.150607	4858.384293
770.476101	4836.472918
770.801548	4830.874716
771.126949	4748.451851
771.452303	4694.962688
771.777611	4659.883819
772.102872	4676.262528
772.428087	4640.054440
772.753256	4596.385445
773.078378	4543.874266
773.403453	4477.434379
773.728482	4466.923573
774.053465	4416.020522
774.378401	4408.426024
774.703291	4404.622473
775.028135	4325.667922
775.352932	4280.988175
775.677683	4268.380250
776.002388	4289.394299
776.327046	4294.553920
776.651658	4220.940471
776.976224	4161.817819
777.300743	4169.220753
777.625216	4189.027447
777.949643	4177.268956
778.274024	4135.868480
778.598359	4100.061164
778.922647	4127.379177
779.246889	4112.538020
779.571086	4104.835137
779.895236	4086.268567
780.219339	4080.932506
780.543397	4074.570569
780.867409	4129.113333
781.191374	4136.856546
781.515294	4073.121238
781.839167	4068.062440
782.162995	4088.930296
782.486776	4076.314809
782.810511	4087.357456
783.134201	4073.411104
783.457844	4030.014331
783.781441	3976.701609
784.104993	3983.791992
784.428498	4002.948376
784.751958	3997.340092
785.075372	3974.944767
785.398739	3940.821196
785.722061	3951.861323
786.045337	4000.369826
786.368568	4023.410420
786.691752	3937.504117
787.014891	3994.408662
787.337983	4131.964106
787.661030	4291.304897
787.984031	4455.311275
788.306987	4623.264877
788.629897	4706.423751
788.952760	4656.889374
789.275579	4593.832101
789.598351	4519.643960
789.921078	4364.487327
790.243759	4171.103624
790.566395	4160.880164
790.888984	4150.394564
791.211529	4041.727452
791.534027	3982.657732
791.856480	3969.918736
792.178888	3906.899272
792.501249	3866.580123
792.823566	3876.266701
793.145836	3900.514651
793.468062	3845.114890
793.790241	3801.045123
794.112375	3831.299608
794.434464	3902.510947
794.756507	3922.529369
795.078505	3898.863673
795.400457	3939.535702
795.722364	4084.736056
796.044226	4193.078014
796.366042	4264.511164
796.687812	4233.263572
797.009538	4240.598451
797.331218	4201.491700
797.652852	4174.030014
797.974442	4153.981345
798.295986	4148.310047
798.617484	4064.699990
798.938938	3984.454903
799.260346	4025.434443
799.581709	4016.826673
799.903026	3943.107359
800.224299	3907.219385
800.545526	3899.423241
800.866708	3860.462683
801.187845	3803.903458
801.508936	3837.938808
801.829983	3826.984381
802.150984	3753.267588
802.471940	3748.181064
802.792851	3751.477978
803.113717	3752.859254
803.434538	3751.714913
803.755314	3691.294163
804.076045	3673.350176
804.396731	3696.834391
804.717372	3719.373390
805.037967	3698.230791
805.358518	3688.256868
805.679024	3720.595870
805.999485	3734.055751
806.319901	3738.698653
806.640272	3752.017382
806.960598	3764.355606
807.280879	3740.450454
807.601115	3755.987290
807.921306	3774.100156
808.241453	3810.267914
808.561554	3780.656177
808.881611	3716.757031
809.201623	3760.622631
809.521590	3769.255607
809.841513	3735.106831
810.161390	3767.546656
810.481223	3743.666710
810.801011	3690.752239
811.120755	3688.980273
811.440453	3720.661405
811.760107	3720.880695
812.079716	3675.346473
812.399281	3648.613234
812.718801	3672.669620
813.038276	3643.269611
813.357707	3642.042090
813.677093	3657.462980
813.996434	3600.676902
814.315731	3617.897484
814.634983	3619.036784
814.954191	3638.533447
815.273354	3661.165707
815.592473	3654.652536
815.911547	3668.876152
816.230577	3712.749314
816.549562	3763.712859
816.868502	3804.024445
817.187399	3826.424813
817.506250	3824.773835
817.825058	3799.938590
818.143821	3900.381060
818.462539	3999.911081
818.781213	4039.216957
819.099843	4105.866053
819.418429	4377.717835
819.736970	4617.991831
820.055466	4871.024986
820.373919	5242.873097
820.692327	5657.185367
821.010691	6152.405635
821.329011	7634.961091
821.647286	10537.047496
821.965517	15271.265649
822.283704	19286.839595
822.601847	21277.666866
822.919945	19333.394650
823.237999	16671.446129
823.556010	14146.339730
823.873976	11992.698313
824.191897	9881.647084
824.509775	8547.399854
824.827609	7418.130981
825.145398	6895.953142
825.463144	6775.560306
825.780845	6890.929633
826.098502	7113.841894
826.416116	8061.891369
826.733685	9436.359444
827.051210	10532.772597
827.368692	10474.547270
827.686129	9139.385071
828.003522	7626.892724
828.320872	6607.747857
828.638177	5892.241768
828.955439	5319.589376
829.272656	4814.299402
829.589830	4544.915264
829.906960	4364.608315
830.224046	4175.549922
830.541088	4055.855286
830.858086	4003.886031
831.175041	3925.929628
831.491952	3915.713729
831.808819	3927.232766
832.125642	4006.643542
832.442421	4165.480217
832.759157	4456.735401
833.075849	5039.283578
833.392497	5938.025527
833.709101	6724.168263
834.025662	7033.236365
834.342179	6610.485203
834.658653	5930.312562
834.975083	5270.201192
835.291469	4688.618396
835.607811	4287.274494
835.924110	4146.890963
836.240366	3937.572172
836.556578	3738.280238
836.872746	3628.370481
837.188871	3584.441866
837.504952	3516.494674
837.820990	3432.040224
838.136984	3390.914491
838.452935	3417.723347
838.768842	3414.749066
839.084706	3433.943259
839.400526	3610.255094
839.716303	3973.780260
840.032037	4517.856871
840.347727	4754.019805
840.663373	4442.781488
840.978977	4052.281108
841.294537	3744.377513
841.610054	3517.656660
841.925527	3412.979621
842.240957	3344.152748
842.556344	3284.054632
842.871687	3226.303173
843.186987	3174.984227
843.502244	3140.616161
843.817458	3104.193824
844.132629	3075.010585
844.447756	3083.240268
844.762840	3060.880231
845.077881	3034.560366
845.392879	3016.006400
845.707833	3013.727798
846.022745	3014.063035
846.337613	3015.719054
846.652438	3000.088956
846.967221	2996.149295
847.281960	2981.255206
847.596656	2979.732777
847.911309	2979.488281
848.225919	2974.825214
848.540485	2966.943370
848.855009	2967.770119
849.169490	2957.914663
849.483928	2950.052984
849.798323	2948.402006
850.112675	2946.864454
850.426984	2958.988429
850.741251	2957.909622
851.055474	2943.945626
851.369654	2937.306426
851.683792	2947.638271
851.997887	2952.497943
852.311938	2954.665640
852.625947	2940.774740
852.939914	2945.682303
853.253837	2947.658436
853.567718	2933.656631
853.881555	2935.960438
854.195350	2948.538117
854.509103	2944.845472
854.822812	2937.187959
855.136479	2933.712084
855.450103	2935.221909
855.763685	2928.817123
856.077224	2927.062802
856.390720	2940.603341
856.704173	2945.188270
857.017584	2941.911520
857.330953	2940.416818
857.644278	2950.002572
857.957561	2957.871813
858.270802	2959.757205
858.584000	2959.275775
858.897155	2946.269598
859.210268	2943.875050
859.523339	2941.485543
859.836367	2940.152158
860.149352	2936.351128
860.462295	2932.600509
860.775195	2940.305913
861.088054	2937.593772
861.400869	2921.850249
861.713642	2920.151380
862.026373	2935.448761
862.339062	2941.467899
862.651708	2945.694906
862.964312	2947.345884
863.276873	2940.366407
863.589392	2952.318983
863.901869	2964.558904
864.214303	2984.993221
864.526696	2996.547546
864.839045	2996.219871
865.151353	2995.879593
865.463619	2993.706856
865.775842	2994.503358
866.088023	3019.174765
866.400162	3018.809281
866.712258	2990.157883
867.024313	2982.127325
867.336325	2989.588233
867.648296	3013.387520
867.960224	3006.687827
868.272110	2990.077225
868.583954	2995.347751
868.895755	3010.251923
869.207515	2993.106958
869.519233	2999.985613
869.830909	3013.284177
870.142542	3021.881864
870.454134	3021.476052
870.765684	3025.113244
871.077191	3024.886392
871.388657	3035.170346
871.700081	3048.962943
872.011463	3058.087431
872.322803	3059.660271
872.634101	3056.494427
872.945357	3077.034608
873.256571	3099.354317
873.567744	3095.394490
873.878874	3088.261258
874.189963	3111.992489
874.501010	3112.615072
874.812015	3101.776591
875.122979	3101.534616
875.433900	3100.604523
875.744780	3106.258177
876.055618	3114.681945
876.366415	3109.494598
876.677169	3120.108747
876.987882	3115.664970
877.298554	3112.952829
877.609183	3137.374699
877.919771	3162.714059
878.230317	3186.304138
878.540822	3237.771798
878.851285	3279.895680
879.161707	3328.013493
879.472087	3438.969290
879.782425	3687.510777
880.092722	4148.279800
880.402977	4692.016134
880.713191	5360.223597
881.023363	6579.507313
881.333494	7884.727578
881.643583	8405.503977
881.953631	8075.704130
882.263637	7392.748772
882.573602	6770.496467
882.883526	6191.797212
883.193408	5615.202637
883.503248	5160.273791
883.813048	4846.046069
884.122806	4514.590203
884.432522	4193.216646
884.742197	3953.005665
885.051831	3762.971809
885.361424	3630.772591
885.670975	3554.724264
885.980485	3461.838484
886.289954	3385.316289
886.599382	3339.010771
886.908768	3303.573980
887.218113	3257.036568
887.527417	3199.002805
887.836680	3147.399033
888.145901	3144.578508
888.455082	3129.754995
888.764221	3076.573342
889.073319	3049.421688
889.382376	3046.485216
889.691392	3054.155331
890.000366	3051.576781
890.309300	3039.223434
890.618193	3051.652398
890.927044	3067.842064
891.235855	3067.252249
891.544625	3056.804458
891.853353	3066.612022
892.162041	3085.607090
892.470687	3127.526805
892.779293	3182.344312
893.087858	3228.075139
893.396381	3305.603044
893.704864	3439.395267
894.013306	3691.538659
894.321707	4007.646732
894.630068	4202.326011
894.938387	4188.805636
895.246665	4146.850633
895.554903	4016.435983
895.863100	3808.879077
896.171256	3634.868528
896.479371	3491.815705
896.787446	3363.183103
897.095480	3262.798607
897.403473	3199.038093
897.711425	3162.343534
898.019336	3155.943789
898.327207	3120.353243
898.635038	3083.759507
898.942827	3071.932960
899.250576	3058.251269
899.558284	3026.650796
899.865952	3005.757734
900.173579	2985.903149
900.481165	2976.193887
900.788711	2963.875828
901.096216	2940.134514
901.403681	2929.664037
901.711105	2935.925150
902.018489	2930.768050
902.325832	2933.006322
902.633135	2945.641974
902.940397	2981.103971
903.247619	3071.315419
903.554800	3281.224024
903.861941	3651.229593
904.169041	4099.494034
904.476101	4385.390472
904.783121	4314.892456
905.090100	4051.194739
905.397039	3769.459774
905.703938	3514.435363
906.010796	3331.985923
906.317614	3214.912686
906.624391	3116.446349
906.931129	3047.460679
907.237826	2984.448777
907.544483	2936.371292
907.851099	2907.167888
908.157675	2882.758621
908.464211	2863.014942
908.770707	2849.476923
909.077163	2833.335149
909.383578	2819.681184
909.689954	2808.189873
909.996289	2807.746252
910.302584	2811.827066
910.608839	2809.011582
910.915054	2802.821045
911.221229	2795.811320
911.527363	2799.892134
911.833458	2805.386992
912.139513	2811.282621
912.445527	2816.142294
912.751502	2822.776452
913.057436	2832.896568
913.363331	2848.766121
913.669186	2873.535830
913.975000	2907.377096
914.280775	2973.862353
914.586510	3045.177036
914.892205	3127.330200
915.197859	3264.149636
915.503475	3472.230823
915.809050	3699.223898
916.114585	3843.426104
916.420081	3854.027650
916.725536	3787.373514
917.030952	3664.878517
917.336328	3529.458001
917.641665	3393.971950
917.946961	3291.202988
918.252218	3220.672205
918.557435	3136.636170
918.862612	3072.608475
919.167750	3025.395549
919.472848	2984.668067
919.777906	2956.019189
920.082925	2927.733275
920.387904	2898.053482
920.692843	2880.558158
920.997743	2868.386292
921.302603	2854.457583
921.607423	2844.337467
921.912204	2828.170487
922.216946	2819.565237
922.521647	2812.510142
922.826310	2803.141158
923.130932	2791.876700
923.435516	2784.773714
923.740059	2776.985131
924.044564	2768.929367
924.349028	2764.352000
924.653454	2757.445619
924.957840	2749.581419
925.262186	2747.509505
925.566493	2741.339132
925.870761	2735.967783
926.174989	2733.416959
926.479178	2728.738768
926.783328	2725.217522
927.087438	2722.417161
927.391509	2720.655278
927.695541	2714.195039
927.999533	2713.229658
928.303486	2710.386448
928.607400	2713.484237
928.911275	2711.336705
929.215110	2708.770758
929.518906	2707.865871
929.822663	2708.402754
930.126381	2705.925027
930.430060	2709.002651
930.733699	2708.289328
931.037299	2711.177909
931.340861	2709.196735
931.644383	2710.421736
931.947866	2710.068855
932.251309	2709.489122
932.554714	2709.279914
932.858080	2706.799667
933.161407	2705.131045
933.464694	2702.403781
933.767943	2700.273893
934.071153	2704.258925
934.374323	2699.706763
934.677455	2701.627443
934.980548	2699.240457
935.283602	2700.137782
935.586617	2699.046372
935.889593	2698.829603
936.192530	2699.348841
936.495428	2700.031918
936.798287	2702.020653
937.101108	2706.663556
937.403890	2711.467775
937.706632	2715.629248
938.009336	2721.913046
938.312002	2729.618450
938.614628	2737.719584
938.917216	2743.234606
939.219765	2743.055645
939.522275	2745.137642
939.824747	2743.655542
940.127179	2740.149420
940.429573	2738.044738
940.731929	2733.268245
941.034246	2730.823285
941.336524	2729.807493
941.638763	2725.169631
941.940964	2722.931359
942.243126	2720.267109
942.545250	2720.229301
942.847335	2718.706872
943.149381	2711.800491
943.451389	2708.722867
943.753359	2708.712785
944.055290	2705.120962
944.357182	2705.907383
944.659036	2703.086857
944.960851	2702.373534
945.262628	2699.699202
945.564367	2700.800694
945.866067	2702.781867
946.167729	2705.373020
946.469352	2704.021991
946.770937	2704.349666
947.072484	2699.043852
947.373992	2700.548636
947.675462	2696.936649
947.976893	2693.705270
948.278286	2693.440609
948.579641	2695.593182
948.880958	2691.782069
949.182236	2694.915147
949.483476	2694.532019
949.784678	2695.114272
950.085841	2693.455732
950.386967	2694.171576
950.688054	2693.886751
950.989103	2694.126206
951.290114	2696.306505
951.591087	2696.689633
951.892021	2702.862526
952.192917	2701.889583
952.493776	2704.543750
952.794596	2704.354707
953.095378	2706.701364
953.396122	2704.901672
953.696828	2701.899665
953.997496	2701.730787
954.298126	2696.414890
954.598718	2696.614015
954.899272	2694.839529
955.199788	2693.339786
955.500266	2689.937007
955.800706	2683.912828
956.101108	2684.079186
956.401472	2682.665143
956.701798	2680.494926
957.002087	2677.354287
957.302337	2678.760769
957.602550	2677.326561
957.902724	2675.584842
958.202861	2675.763803
958.502960	2673.712053
958.803022	2674.253977
959.103045	2671.967814
959.403031	2671.015036
959.702979	2667.075374
960.002889	2669.185097
960.302762	2670.279028
960.602596	2667.914727
960.902393	2666.183090
961.202153	2667.755930
961.501875	2666.508245
961.801559	2664.925322
962.101205	2667.796259
962.400814	2668.839778
962.700385	2665.852895
962.999918	2665.275682
963.299414	2660.156391
963.598873	2660.841988
963.898293	2664.196876
964.197677	2666.440189
964.497022	2666.956907
964.796331	2666.137720
965.095601	2665.368944
965.394835	2663.997750
965.694030	2663.856598
965.993189	2666.104952
966.292309	2663.806186
966.591393	2661.930877
966.890439	2663.302071
967.189447	2662.815599
967.488419	2664.343069
967.787353	2663.269303
968.086249	2662.702173
968.385108	2663.738131
968.683930	2664.945487
968.982714	2664.378357
969.281462	2664.859787
969.580172	2663.241577
969.878844	2662.815599
970.177480	2666.820796
970.476078	2665.520178
970.774639	2665.487411
971.073162	2665.857936
971.371649	2666.714932
971.670098	2664.958090
971.968510	2664.264931
972.266885	2664.464057
972.565223	2664.627894
972.863524	2664.582524
973.161788	2667.017401
973.460014	2664.950528
973.758204	2665.235353
974.056356	2666.122596
974.354471	2665.462205
974.652550	2664.645538
974.950591	2665.505055
975.248595	2666.596465
975.546563	2667.176198
975.844493	2665.275682
976.142386	2663.044972
976.440243	2663.251659
976.738062	2664.824499
977.035845	2664.043120
977.333590	2662.661844
977.631299	2662.434992
977.928971	2660.403407
978.226606	2659.062460
978.524204	2661.991371
978.821765	2658.465084
979.119290	2662.165291
979.416777	2661.194868
979.714228	2660.703356
980.011642	2663.619663
980.309020	2661.419200
980.606360	2662.054385
980.903664	2663.869201
981.200931	2663.786022
981.498162	2661.429282
981.795356	2665.021104
982.092513	2667.798780
982.389633	2668.839778
982.686717	2673.896056
982.983764	2677.450069
983.280775	2678.700275
983.577749	2682.816377
983.874686	2677.044256
984.171587	2676.666170
984.468451	2672.522341
984.765279	2671.579645
985.062070	2669.790036
985.358824	2669.293482
985.655543	2665.220230
985.952224	2667.405570
986.248869	2664.738800
986.545478	2662.795435
986.842050	2660.184117
987.138586	2660.468942
987.435086	2662.871052
987.731549	2658.853252
988.027975	2661.920795
988.324366	2660.320228
988.620719	2658.427275
988.917037	2657.272851
989.213318	2656.720844
989.509563	2661.136895
989.805772	2659.561535
990.101944	2659.024652
990.398080	2658.021462
990.694180	2658.207985
990.990244	2660.332831
991.286271	2657.035917
991.582262	2658.180258
991.878217	2656.665392
992.174136	2662.286278
992.470019	2658.366781
992.765865	2656.514157
993.061676	2655.589105
993.357450	2657.260248
993.653188	2654.369146
993.948890	2656.955258
994.244556	2657.207316
994.540186	2659.813592
994.835780	2658.709580
995.131337	2658.223108
995.426859	2659.924498
995.722345	2663.473470
996.017795	2660.889879
996.313208	2661.169663
996.608586	2660.796617
996.903928	2665.252997
997.199234	2664.080929
997.494504	2661.736792
997.789738	2664.217040
998.084936	2663.682678
998.380099	2662.518171
998.675225	2662.946669
998.970316	2661.537667
999.265371	2661.789725
999.560390	2660.819302
999.855373	2660.531957
1000.150320	2658.969199
1000.445232	2658.391987
1000.740108	2657.814775
1001.034948	2657.040958
1001.329752	2659.107831
1001.624521	2657.456853
1001.919254	2658.593633
1002.213951	2657.192192
1002.508613	2658.129847
1002.803239	2657.524908
1003.097829	2658.044147
1003.392384	2658.036586
1003.686903	2655.480721
1003.981386	2659.251504
1004.275834	2656.453663
1004.570246	2656.315032
1004.864623	2657.529950
1005.158964	2655.896616
1005.453270	2657.340906
1005.747540	2655.732778
1006.041775	2657.711431
1006.335974	2658.177738
1006.630138	2656.816626
1006.924266	2658.691936
1007.218359	2657.363592
1007.512416	2654.694301
1007.806438	2652.473672
1008.100425	2654.238076
1008.394376	2652.186327
1008.688292	2657.040958
1008.982172	2654.331337
1009.276017	2656.919970
1009.569827	2656.204126
1009.863602	2655.914260
1010.157341	2655.339568
1010.451045	2655.193375
1010.744714	2655.044661
1011.038347	2655.248827
1011.331945	2656.307470
1011.625508	2657.124137
1011.919036	2655.621873
1012.212528	2654.265802
1012.505986	2655.019455
1012.799408	2657.086328
1013.092795	2658.528098
1013.386147	2655.430309
1013.679464	2653.338230
1013.972745	2654.485093
1014.265992	2656.443581
1014.559204	2656.047850
1014.852380	2654.462407
1015.145521	2654.545587
1015.438628	2652.682880
1015.731699	2655.362253
1016.024736	2655.140443
1016.317737	2655.815957
1016.610703	2654.638848
1016.903635	2657.083807
1017.196531	2654.532984
1017.489393	2653.290339
1017.782219	2654.263282
1018.075011	2654.855617
1018.367768	2653.784372
1018.660490	2652.544248
1018.953177	2652.544248
1019.245829	2652.544248
