Dividing Wavelength (nm)	Counts (n)	Blue Motor Position (mm): 9.800000	Red Motor Position (mm): 0.000000	
326.493990	2160.318425
326.888308	2160.318425
327.282561	2160.318425
327.676750	2121.284771
328.070874	2117.208998
328.464933	2117.612290
328.858929	2120.826026
329.252859	2124.896758
329.646726	2136.385547
330.040528	2146.500623
330.434265	2161.699701
330.827938	2179.152176
331.221547	2193.375792
331.615091	2213.023689
332.008571	2231.557491
332.401986	2249.088103
332.795338	2267.566453
333.188625	2285.654113
333.581847	2302.957873
333.975006	2320.465801
334.368100	2340.446414
334.761129	2359.297809
335.154095	2375.679038
335.546996	2395.021945
335.939833	2417.455080
336.332606	2432.311360
336.725315	2445.279729
337.117960	2460.708180
337.510540	2468.617750
337.903056	2479.506643
338.295508	2490.299753
338.687896	2500.573625
339.080220	2506.897752
339.472480	2512.236334
339.864676	2518.946110
340.256807	2522.290915
340.648875	2525.590351
341.040879	2529.351051
341.432818	2532.158974
341.824694	2536.204500
342.216506	2533.194931
342.608253	2536.943029
342.999937	2536.643080
343.391557	2534.188038
343.783113	2536.731301
344.174605	2534.989582
344.566033	2533.772143
344.957397	2533.326001
345.348697	2532.395908
345.739934	2531.980013
346.131106	2529.015815
346.522215	2528.176463
346.913260	2526.822913
347.304241	2521.852335
347.695159	2522.011131
348.086012	2524.072963
348.476802	2515.855882
348.867528	2513.224400
349.258191	2511.714575
349.648789	2509.889677
350.039324	2508.445386
350.429796	2510.325737
350.820203	2508.082423
351.210548	2507.575787
351.600828	2508.039573
351.991045	2505.302227
352.381198	2505.715602
352.771288	2505.145951
353.161314	2501.977586
353.551276	2500.787874
353.941175	2504.029336
354.331010	2499.840137
354.720782	2502.569922
355.110490	2503.336177
355.500135	2501.833913
355.889717	2499.641011
356.279235	2502.317864
356.668689	2501.493635
357.058080	2502.476660
357.447408	2503.905827
357.836672	2502.612771
358.225873	2504.931702
358.615010	2502.620333
359.004084	2504.740138
359.393095	2502.501866
359.782043	2504.241064
360.170927	2503.651249
360.559748	2505.158554
360.948505	2506.118894
361.337199	2508.447907
361.725830	2507.235509
362.114398	2507.961436
362.502903	2505.511435
362.891344	2509.632578
363.279722	2509.272136
363.668037	2511.737260
364.056289	2511.717095
364.444478	2509.219203
364.832603	2511.281035
365.220665	2510.189626
365.608665	2510.729029
365.996601	2513.695748
366.384474	2511.583505
366.772284	2511.603669
367.160031	2515.611387
367.547715	2513.655419
367.935336	2514.426715
368.322893	2512.765655
368.710388	2512.213649
369.097820	2513.262209
369.485189	2510.229955
369.872495	2515.321520
370.259738	2514.159534
370.646918	2516.067611
371.034035	2513.990656
371.421090	2517.388393
371.808081	2515.092148
372.195010	2518.121881
372.581875	2515.543331
372.968678	2518.134484
373.355418	2517.529546
373.742096	2517.451408
374.128710	2519.213291
374.515262	2519.503157
374.901751	2517.953002
375.288177	2519.535925
375.674540	2517.532066
376.060841	2520.602129
376.447079	2519.518281
376.833254	2521.164218
377.219367	2519.296470
377.605417	2521.086080
377.991404	2520.324865
378.377329	2520.513909
378.763191	2518.807478
379.148991	2520.743281
379.534727	2521.691018
379.920402	2520.523991
380.306013	2522.737058
380.691563	2523.347037
381.077049	2522.089269
381.462474	2521.597757
381.847835	2521.012983
382.233134	2520.821419
382.618371	2520.576923
383.003545	2521.522139
383.388657	2521.098683
383.773706	2524.710669
384.158693	2522.648837
384.543618	2526.417100
384.928480	2523.760412
385.313280	2525.187058
385.698017	2521.922911
386.082692	2525.411390
386.467305	2524.360309
386.851856	2526.578417
387.236344	2525.653365
387.620770	2521.650689
388.005133	2518.860410
388.389435	2523.326872
388.773674	2522.449712
389.157851	2528.489014
389.541965	2525.751667
389.926018	2526.762419
390.310008	2526.500279
390.693936	2528.483973
391.077802	2528.226874
391.461606	2531.158305
391.845348	2527.624456
392.229027	2525.174455
392.612645	2527.102697
392.996200	2527.125382
393.379694	2528.241998
393.763125	2530.812986
394.146494	2526.759898
394.529801	2528.846936
394.913047	2530.533202
395.296230	2530.450023
395.679351	2527.669827
396.062410	2530.329035
396.445408	2527.558921
396.828343	2531.433048
397.211217	2530.923891
397.594028	2532.388347
397.976778	2531.637215
398.359466	2529.577903
398.742092	2529.754344
399.124656	2531.163346
399.507158	2531.100332
399.889598	2532.579910
400.271977	2532.698378
400.654294	2531.740558
401.036549	2534.205682
401.418742	2532.806762
401.800874	2532.174098
402.182944	2533.300795
402.564952	2533.242822
402.946898	2530.548325
403.328783	2533.252904
403.710606	2533.189890
404.092367	2533.933460
404.474067	2531.906916
404.855705	2536.338091
405.237282	2533.182328
405.618797	2533.189890
406.000250	2535.907072
406.381642	2535.087884
406.762972	2533.205013
407.144240	2530.117307
407.525447	2535.125693
407.906593	2530.346679
408.287677	2533.383974
408.668700	2535.637370
409.049661	2536.839685
409.430560	2534.301464
409.811399	2532.804242
410.192176	2534.455220
410.572891	2537.462268
410.953545	2536.141486
411.334138	2537.094264
411.714669	2536.257432
412.095139	2536.201979
412.475547	2534.966897
412.855894	2536.416228
413.236180	2537.709284
413.616405	2537.081661
413.996568	2535.904551
414.376670	2536.353214
414.756711	2534.616537
415.136691	2538.654501
415.516609	2536.932947
415.896466	2538.999820
416.276262	2538.896476
416.655997	2538.059645
417.035670	2534.724921
417.415283	2539.027546
417.794834	2538.992258
418.174324	2541.417053
418.553753	2537.152237
418.933121	2540.181970
419.312428	2538.639377
419.691674	2541.863195
420.070859	2541.961498
420.449983	2540.827238
420.829045	2542.117773
421.208047	2539.488812
421.586988	2536.799356
421.965867	2540.819676
422.344686	2541.580891
422.723444	2541.840510
423.102141	2540.383617
423.480777	2540.557536
423.859352	2540.403781
424.237866	2542.866385
424.616319	2538.508307
424.994712	2542.876467
425.373044	2543.670449
425.751314	2536.159130
426.129524	2536.885056
426.507673	2539.579552
426.885762	2537.984027
427.263789	2542.707588
427.641756	2542.949564
428.019662	2541.419574
428.397508	2542.798329
428.775292	2541.830428
429.153016	2540.315561
429.530679	2544.782023
429.908282	2541.195242
430.285824	2542.533669
430.663305	2543.514173
431.040726	2540.020653
431.418086	2541.752290
431.795385	2544.265305
432.172624	2542.243802
432.549802	2541.459903
432.926920	2543.062990
433.303977	2541.535520
433.680974	2542.579039
434.057910	2541.941333
434.434786	2545.301262
434.811601	2543.138607
435.188355	2542.571477
435.565050	2544.406457
435.941683	2541.974101
436.318257	2545.875954
436.694770	2541.033925
437.071222	2544.925696
437.447614	2545.475182
437.823946	2546.490974
438.200218	2544.265305
438.576429	2545.853268
438.952580	2546.546427
439.328670	2544.729091
439.704700	2544.250182
440.080670	2547.380738
440.456580	2544.749256
440.832429	2547.169010
441.208218	2544.897970
441.583947	2544.106509
441.959616	2547.274874
442.335224	2546.233876
442.710773	2548.540203
443.086261	2545.006355
443.461689	2546.130532
443.837057	2544.993752
444.212365	2547.113557
444.587612	2544.010727
444.962800	2543.882177
445.337927	2541.409491
445.712995	2540.512166
446.088002	2544.010727
446.462949	2548.525080
446.837837	2547.526932
447.212664	2545.908721
447.587431	2546.533824
447.962139	2546.352343
448.336786	2547.322765
448.711374	2547.668084
449.085901	2547.693290
449.460369	2545.860830
449.834776	2549.177909
450.209124	2547.708413
450.583412	2544.900490
450.957640	2549.404761
451.331808	2547.794113
451.705917	2549.858465
452.079965	2547.751263
452.453954	2547.773948
452.827883	2549.117416
453.201752	2547.201777
453.575562	2546.037271
453.949311	2548.303269
454.323001	2545.886036
454.696632	2547.710934
455.070202	2549.727395
455.443713	2549.213198
455.817164	2550.047508
456.190556	2549.679504
456.563888	2548.320913
456.937160	2548.867878
457.310373	2546.664894
457.683526	2549.896274
458.056619	2549.324103
458.429653	2548.182282
458.802628	2548.341078
459.175542	2550.082797
459.548398	2550.365101
459.921194	2549.253527
460.293930	2550.723023
460.666607	2551.060780
461.039224	2547.763866
461.411782	2551.519525
461.784280	2551.693445
462.156719	2548.094061
462.529099	2551.161603
462.901419	2548.913249
463.273680	2550.281922
463.645882	2544.260264
464.018024	2550.680173
464.390106	2544.222455
464.762130	2548.368804
465.134094	2549.765204
465.505999	2551.706048
465.877845	2549.137580
466.249631	2550.907025
466.621358	2552.300904
466.993026	2551.406099
467.364634	2556.391801
467.736184	2552.552962
468.107674	2552.956254
468.479105	2552.694114
468.850477	2550.405430
469.221790	2552.066491
469.593043	2549.734957
469.964238	2552.167314
470.335373	2551.335523
470.706449	2551.821995
471.077467	2551.879968
471.448425	2552.416851
471.819324	2551.448949
472.190164	2551.249824
472.560945	2551.781665
472.931667	2552.789896
473.302330	2551.915256
473.672934	2553.059598
474.043479	2552.792417
474.413965	2550.302087
474.784393	2552.225287
475.154761	2553.198230
475.525070	2551.801830
475.895321	2554.206460
476.265513	2552.086655
476.635645	2553.321738
477.005719	2551.469114
477.375734	2553.382232
477.745691	2552.537838
478.115588	2554.677808
478.485427	2553.742674
478.855207	2553.198230
479.224928	2554.957592
479.594591	2553.997252
479.964194	2556.177552
480.333739	2554.781152
480.703226	2553.813250
481.072653	2557.422717
481.442022	2551.650595
481.811333	2552.676470
482.180584	2551.819474
482.549777	2552.779814
482.918912	2551.244783
483.287988	2559.229970
483.657005	2555.257541
484.025964	2555.154197
484.394864	2557.198385
484.763706	2557.667213
485.132489	2555.471790
485.501213	2556.127140
485.869879	2560.092007
486.238487	2557.601678
486.607036	2556.951369
486.975527	2556.999260
487.343959	2557.168138
487.712333	2559.678633
488.080648	2555.502037
488.448905	2559.287943
488.817104	2556.432130
489.185244	2559.393808
489.553326	2557.241235
489.921350	2557.889023
490.289315	2556.427089
490.657222	2560.543191
491.025070	2560.739796
491.392861	2558.501523
491.760593	2558.463715
492.128267	2557.863818
492.495883	2559.061092
492.863440	2559.761812
493.230939	2556.681667
493.598380	2560.051678
493.965763	2555.209650
494.333088	2560.994374
494.700354	2557.243756
495.067563	2557.339538
495.434713	2558.955227
495.801805	2557.800803
496.168839	2558.572100
496.535815	2558.035217
496.902733	2559.383725
497.269593	2559.963458
497.636395	2562.902451
498.003139	2558.098231
498.369825	2558.010011
498.736453	2559.837429
499.103023	2560.671740
499.469535	2559.955896
499.835989	2559.996226
500.202385	2558.181410
500.568723	2555.794424
500.935003	2555.454146
501.301226	2553.669578
501.667390	2560.283571
502.033497	2560.770043
502.399546	2560.152501
502.765537	2560.684343
503.131470	2558.882131
503.497345	2560.722152
503.863163	2562.763819
504.228923	2560.596123
504.594625	2559.446740
504.960269	2560.175187
505.325856	2561.490928
505.691385	2558.675443
506.056856	2562.685681
506.422270	2558.761143
506.787625	2560.124775
507.152924	2560.540670
507.518164	2557.518498
507.883347	2561.165773
508.248472	2561.032183
508.613540	2560.480176
508.978550	2560.800290
509.343503	2559.287943
509.708398	2561.039744
510.073236	2560.268448
510.438016	2562.504200
510.802738	2562.642831
511.167403	2560.626370
511.532010	2560.734755
511.896561	2561.654765
512.261053	2561.329611
512.625488	2561.042265
512.989866	2559.547563
513.354186	2559.613098
513.718449	2564.167780
514.082655	2561.405228
514.446803	2558.902295
514.810894	2562.441185
515.174927	2560.701987
515.538904	2563.938408
515.902822	2561.962276
516.266684	2562.421021
516.630488	2562.678119
516.994235	2562.012687
517.357925	2564.016546
517.721558	2561.319528
518.085133	2562.673078
518.448651	2561.576627
518.812112	2560.124775
519.175516	2561.188458
519.538863	2557.679815
519.902152	2563.577965
520.265385	2562.864642
520.628560	2564.530743
520.991678	2567.283213
521.354739	2564.467729
521.717743	2564.888665
522.080690	2565.773388
522.443580	2566.209448
522.806413	2566.832030
523.169189	2567.053841
523.531908	2566.264900
523.894569	2566.784139
524.257174	2567.752041
524.619722	2570.307906
524.982213	2569.193811
525.344647	2569.675241
525.707025	2570.128945
526.069345	2570.000395
526.431608	2571.986610
526.793815	2568.972000
527.155964	2571.696744
527.518057	2570.197000
527.880093	2572.394943
528.242072	2573.491394
528.603995	2571.810170
528.965860	2569.516445
529.327669	2573.095664
529.689421	2574.088771
530.051117	2573.551888
530.412755	2574.101374
530.774337	2576.213617
531.135862	2576.180850
531.497331	2580.344843
531.858743	2575.830490
532.220098	2579.258474
532.581396	2580.712847
532.942638	2581.292580
533.303824	2578.895511
533.664953	2583.488002
534.026025	2579.734863
534.387040	2583.412385
534.747999	2584.047571
535.108902	2583.553538
535.469748	2584.246696
535.830537	2585.839701
536.191270	2587.220977
536.551947	2583.798033
536.912567	2584.387848
537.273131	2585.383476
537.633638	2584.962540
537.994089	2588.796337
538.354483	2592.224322
538.714821	2592.335227
539.075103	2588.569486
539.435328	2591.397573
539.795497	2591.848756
540.155609	2590.994281
540.515665	2592.529312
540.875665	2592.420927
541.235609	2593.245156
541.595496	2591.614343
541.955328	2596.910075
542.315102	2596.456371
542.674821	2593.875300
543.034483	2596.307657
543.394090	2595.647266
543.753640	2598.067019
544.113134	2598.762699
544.472571	2600.212030
544.831953	2601.583224
545.191278	2602.372165
545.550548	2603.367793
545.909761	2601.273193
546.268918	2603.256887
546.628019	2605.653956
546.987064	2603.529110
547.346053	2604.794439
547.704986	2605.573297
548.063863	2606.200921
548.422684	2605.664038
548.781449	2605.275869
549.140158	2609.747373
549.498811	2607.771241
549.857408	2607.458689
550.215949	2607.410798
550.574434	2608.335850
550.932864	2606.621857
551.291237	2609.303751
551.649555	2611.552106
552.007817	2611.347939
552.366022	2610.876591
552.724173	2606.853751
553.082267	2609.976745
553.440305	2609.533124
553.798288	2609.777620
554.156215	2613.492950
554.514086	2607.771241
554.871902	2606.082454
555.229661	2609.296190
555.587365	2606.256374
555.945014	2608.630757
556.302606	2613.427415
556.660143	2611.932713
557.017625	2615.423712
557.375050	2611.060593
557.732421	2612.693927
558.089735	2612.005810
558.446994	2611.826849
558.804197	2612.396499
559.161345	2614.622169
559.518437	2611.968001
559.875474	2612.847683
560.232455	2610.606890
560.589381	2610.057404
560.946251	2610.198556
561.303065	2613.029164
561.659825	2613.455142
562.016528	2614.158382
562.373177	2613.634102
562.729770	2609.180243
563.086307	2612.222579
563.442789	2610.740480
563.799216	2615.726181
564.155587	2611.799122
564.511904	2614.392796
564.868164	2612.877929
565.224370	2613.341716
565.580520	2613.777775
565.936615	2612.310800
566.292654	2612.799792
566.648638	2616.086624
567.004567	2610.233844
567.360441	2611.398351
567.716260	2611.678135
568.072023	2613.508074
568.427732	2611.257198
568.783385	2610.251488
569.138982	2612.036057
569.494525	2612.850203
569.850013	2612.338526
570.205445	2611.564709
570.560823	2608.650922
570.916145	2610.032198
571.271412	2607.612444
571.626625	2613.034205
571.981782	2611.605038
572.336884	2610.180912
572.691931	2605.409460
573.046923	2603.342587
573.401860	2604.164295
573.756743	2609.631426
574.111570	2610.170830
574.466342	2606.488267
574.821059	2609.739811
575.175722	2610.526231
575.530330	2610.553957
575.884882	2608.829883
576.239380	2608.489605
576.593823	2611.267281
576.948211	2609.326437
577.302544	2608.419029
577.656823	2609.109667
578.011047	2607.146137
578.365216	2608.333329
578.719330	2608.169492
579.073389	2608.842486
579.427394	2609.943978
579.781344	2607.814090
580.135239	2608.048504
580.489080	2607.690582
580.842866	2606.810901
581.196597	2610.352311
581.550273	2606.647063
581.903895	2606.873915
582.257463	2607.642691
582.610975	2608.048504
582.964434	2608.033381
583.317837	2606.505911
583.671186	2609.344081
584.024481	2608.303082
584.377721	2608.673607
584.730906	2607.826693
585.084037	2607.904831
585.437113	2607.057917
585.790135	2609.747373
586.143103	2610.022116
586.496016	2608.058586
586.848874	2612.343567
587.201679	2609.218052
587.554428	2609.414657
587.907124	2611.269801
588.259765	2610.208638
588.612352	2612.235182
588.964884	2610.954729
589.317362	2612.401540
589.669786	2612.378855
590.022155	2607.751076
590.374470	2610.853906
590.726731	2610.042280
591.078937	2609.328957
591.431090	2612.875409
591.783188	2611.809205
592.135232	2611.665532
592.487222	2613.888681
592.839157	2612.799792
593.191038	2616.008486
593.542866	2615.698455
593.894639	2613.772734
594.246358	2614.460852
594.598022	2613.687035
594.949633	2615.227107
595.301190	2614.246603
595.652692	2620.795062
596.004141	2616.764659
596.355535	2615.247272
596.706876	2615.514453
597.058162	2618.037550
597.409395	2615.569906
597.760573	2617.798096
598.111698	2620.900926
598.462768	2620.928652
598.813785	2620.815226
599.164748	2623.613067
599.515657	2624.023921
599.866511	2621.548714
600.217312	2622.670371
600.568060	2621.473097
600.918753	2626.715897
601.269392	2623.653396
601.619978	2622.176338
601.970510	2624.404528
602.320988	2626.698253
602.671412	2629.559107
603.021783	2630.234622
603.372100	2628.129940
603.722363	2631.063892
604.072572	2632.765281
604.422728	2630.587503
604.772830	2632.256125
605.122878	2633.781074
605.472872	2634.769140
605.822813	2634.885087
606.172701	2639.215438
606.522534	2639.858185
606.872314	2640.117804
607.222041	2641.131076
607.571714	2638.350880
607.921333	2642.033443
608.270899	2642.562764
608.620411	2644.589308
608.969870	2646.706592
609.319276	2650.873106
609.668627	2657.366112
610.017926	2664.244767
610.367171	2669.086795
610.716362	2667.992864
611.065500	2666.835920
611.414585	2667.085457
611.763616	2669.845488
612.112594	2668.431445
612.461518	2666.369613
612.810389	2674.253977
613.159207	2671.476302
613.507971	2671.607372
613.856682	2678.702796
614.205340	2677.787826
614.553945	2682.629855
614.902496	2679.030471
615.250994	2686.945082
615.599439	2685.856193
615.947830	2690.156297
616.296169	2693.485979
616.644454	2694.627801
616.992686	2696.868594
617.340864	2703.653987
617.688990	2708.289328
618.037063	2712.302086
618.385082	2717.751573
618.733048	2719.450442
619.080961	2722.288612
619.428821	2729.817575
619.776628	2733.401836
620.124382	2732.340673
620.472083	2738.548854
620.819731	2743.380800
621.167326	2740.940881
621.514868	2744.371386
621.862357	2741.429873
622.209793	2746.720564
622.557176	2747.101171
622.904506	2745.041860
623.251783	2748.346336
623.599007	2749.944382
623.946179	2749.231059
624.293297	2752.782552
624.640363	2754.539394
624.987376	2752.812798
625.334336	2752.797675
625.681243	2756.732296
626.028097	2757.115423
626.374899	2770.058586
626.721647	2770.880294
627.068343	2771.094543
627.414987	2772.334667
627.761577	2784.435957
628.108115	2790.324024
628.454600	2787.150618
628.801032	2792.562297
629.147412	2797.210240
629.493739	2805.013947
629.840014	2811.973259
630.186236	2816.585915
630.532405	2818.672953
630.878521	2830.116372
631.224585	2834.907989
631.570597	2841.698423
631.916556	2846.618589
632.262462	2853.461956
632.608316	2866.664738
632.954117	2870.256560
633.299866	2882.173847
633.645562	2882.831718
633.991206	2881.891543
634.336797	2881.727705
634.682336	2892.775394
635.027823	2887.686349
635.373257	2896.793193
635.718639	2896.165570
636.063968	2895.472411
636.409245	2896.813358
636.754470	2904.637229
637.099642	2904.211251
637.444762	2905.642939
637.789829	2915.271543
638.134845	2919.228849
638.479808	2920.360588
638.824719	2930.838626
639.169577	2933.913730
639.514383	2938.798608
639.859137	2940.920934
640.203839	2951.900567
640.548489	2952.407203
640.893086	2968.425469
641.237632	2961.682926
641.582125	2982.265957
641.926566	2982.812922
642.270955	2986.866010
642.615292	2995.965292
642.959576	3004.298320
643.303809	3015.640916
643.647990	3023.343799
643.992118	3041.262580
644.336195	3034.898124
644.680219	3059.801424
645.024192	3069.445151
645.368112	3084.160279
645.711981	3107.014350
646.055797	3123.849283
646.399562	3144.369300
646.743274	3166.363854
647.086935	3204.709391
647.430544	3220.667163
647.774101	3237.267683
648.117606	3264.941097
648.461059	3268.048968
648.804460	3292.979995
649.147810	3282.577574
649.491108	3273.931995
649.834354	3293.151394
650.177548	3283.542955
650.520690	3278.413581
650.863781	3286.292904
651.206820	3297.080973
651.549807	3298.399235
651.892742	3300.977785
652.235626	3303.432827
652.578458	3314.939261
652.921238	3307.143117
653.263967	3335.497086
653.606644	3333.861232
653.949269	3342.665607
654.291843	3351.974098
654.634365	3364.909698
654.976836	3374.634084
655.319255	3386.531207
655.661622	3400.132240
656.003938	3406.529465
656.346203	3413.287131
656.688416	3431.389915
657.030577	3438.702108
657.372687	3450.765590
657.714746	3458.718010
658.056753	3480.820949
658.398708	3490.341168
658.740612	3501.265348
659.082465	3522.609594
659.424266	3527.653268
659.766016	3551.951630
660.107715	3557.522105
660.449362	3568.965524
660.790958	3597.400152
661.132503	3602.753857
661.473996	3621.078452
661.815438	3641.721977
662.156829	3659.423988
662.498168	3670.436389
662.839456	3686.888195
663.180693	3697.464535
663.521879	3726.678022
663.863013	3746.426742
664.204097	3761.464504
664.545129	3789.732774
664.886110	3797.397849
665.227040	3828.221984
665.567918	3853.316848
665.908746	3879.941702
666.249522	3879.621588
666.590248	3903.529261
666.930922	3941.872277
667.271545	3956.995738
667.612118	3986.310048
667.952639	3995.048888
668.293109	4005.632791
668.633528	4017.267774
668.973896	4023.367570
669.314213	4072.213830
669.654480	4033.283519
669.994695	4053.717837
670.334859	4079.445365
670.674973	4092.585133
671.015035	4116.417188
671.355047	4124.296511
671.695008	4131.747336
672.034918	4153.688958
672.374777	4178.128472
672.714585	4184.477806
673.054342	4216.395871
673.394049	4227.133529
673.733705	4250.751335
674.073310	4259.298611
674.412864	4295.935197
674.752368	4280.305099
675.091820	4283.423053
675.431223	4325.055422
675.770574	4301.082215
676.109875	4305.094973
676.449125	4314.595028
676.788324	4314.075789
677.127473	4302.166063
677.466571	4312.906241
677.805619	4323.119619
678.144616	4319.656346
678.483562	4342.507896
678.822458	4319.739525
679.161303	4330.227646
679.500098	4354.979711
679.838842	4355.488868
680.177535	4373.256414
680.516179	4398.396648
680.854771	4410.999533
681.193314	4478.437569
681.531805	4513.846633
681.870247	4648.755472
682.208638	4738.450202
682.546978	4846.144371
682.885268	4890.239344
683.223508	4821.639322
683.561697	4808.202127
683.899836	4809.059123
684.237925	4770.567393
684.575963	4777.224237
684.913951	4807.294719
685.251889	4775.681643
685.589776	4855.006720
685.927614	4857.373542
686.265401	4840.397456
686.603137	4896.669336
686.940824	4958.095795
687.278460	5002.823433
687.616046	5050.598448
687.953582	5112.034990
688.291068	5094.275005
688.628504	5175.372047
688.965889	5201.596129
689.303224	5236.206171
689.640510	5223.724274
689.977745	5145.435155
690.314930	5116.259477
690.652065	5113.196976
690.989150	5036.589081
691.326185	4998.004090
691.663170	4959.925734
692.000105	4900.843411
692.336990	4909.851953
692.673825	4827.744160
693.010610	4819.406091
693.347345	4773.191313
693.684030	4721.103591
694.020665	4728.609869
694.357251	4684.310730
694.693786	4712.057241
695.030272	4635.237618
695.366707	4634.400786
695.703093	4626.155979
696.039429	4641.586951
696.375716	4657.930372
696.711952	4603.649748
697.048139	4640.480418
697.384276	4648.284124
697.720363	4654.136904
698.056400	4645.609792
698.392388	4663.659643
698.728326	4649.204135
699.064214	4638.809275
699.400053	4690.070248
699.735842	4622.538951
700.071581	4632.827946
700.407270	4622.745639
700.742910	4608.607723
701.078501	4602.175210
701.414042	4565.405034
701.749533	4552.343405
702.084974	4511.799925
702.420366	4559.154003
702.755709	4543.110531
703.091002	4511.857898
703.426246	4526.242831
703.761440	4519.467520
704.096584	4515.429556
704.431679	4498.062781
704.766725	4517.708157
705.101721	4506.126106
705.436668	4528.702914
705.771565	4511.172301
706.106413	4546.573804
706.441212	4591.498047
706.775961	4568.006270
707.110661	4589.136266
707.445311	4670.243390
707.779913	4628.182523
708.114465	4703.343606
708.448967	4729.582812
708.783421	4771.918422
709.117825	4868.746385
709.452180	4893.022061
709.786485	4922.469961
710.120742	5052.201535
710.454949	5054.822935
710.789107	5090.751238
711.123216	5172.889278
711.457275	5270.307056
711.791286	5340.623590
712.125247	5330.264019
712.459159	5371.200709
712.793023	5473.599147
713.126837	5308.105627
713.460602	5381.388881
713.794318	5297.231859
714.127985	5364.594277
714.461602	5265.328917
714.795171	5239.435030
715.128691	5177.335576
715.462162	5079.804373
715.795584	5090.511783
716.128957	5038.832395
716.462281	4943.110966
716.795556	5023.560219
717.128782	4937.711890
717.461960	4810.936953
717.795088	4861.799675
718.128167	4839.999205
718.461198	4780.160709
718.794180	4762.478862
719.127113	4787.747645
719.459997	4719.709712
719.792833	4611.899596
720.125619	4662.321217
720.458357	4592.453345
720.791046	4602.054223
721.123686	4643.424452
721.456278	4561.425043
721.788821	4573.891817
722.121315	4526.487327
722.453761	4571.091456
722.786158	4566.539294
723.118506	4570.665478
723.450805	4573.745623
723.783056	4608.746354
724.115259	4553.926327
724.447412	4567.446702
724.779518	4592.707923
725.111574	4602.911219
725.443582	4653.191687
725.775542	4640.906395
726.107453	4739.954986
726.439315	4708.205799
726.771129	4725.217173
727.102895	4808.882683
727.434612	4880.353641
727.766281	4886.246750
728.097901	4934.367084
728.429473	4929.101599
728.760996	4930.581178
729.092471	4936.718783
729.423897	4940.398825
729.755276	4968.750274
730.086606	4935.892033
730.417887	4982.200073
730.749120	5070.818516
731.080305	5210.574424
731.411442	5271.370739
731.742530	5262.735243
732.073570	5362.746694
732.404562	5426.030819
732.735506	5302.446932
733.066401	5405.321759
733.397249	5387.375251
733.728048	5279.282830
734.058798	5123.528821
734.389501	5041.980595
734.720156	4959.938337
735.050762	4826.466227
735.381320	4782.104073
735.711831	4772.586375
736.042293	4719.999579
736.372707	4757.188171
736.703073	4668.879758
737.033391	4698.126012
737.363661	4704.429975
737.693883	4721.700968
738.024056	4774.960758
738.354182	4809.538033
738.684260	4818.723015
739.014290	4882.675093
739.344272	4948.336122
739.674207	4943.564669
740.004093	4984.529086
740.333931	5002.737733
740.663722	5009.026573
740.993464	5079.869908
741.323159	5106.167087
741.652806	4932.395993
741.982405	4933.310963
742.311956	5034.633114
742.641460	4951.774188
742.970915	4822.420701
743.300323	4859.730281
743.629683	4825.127801
743.958996	4756.217748
744.288260	4716.306933
744.617477	4701.049881
744.946647	4725.108788
745.275768	4617.840596
745.604842	4608.244760
745.933869	4604.458853
746.262847	4574.131272
746.591778	4583.114608
746.920662	4564.968974
747.249498	4555.940268
747.578286	4594.106844
747.907027	4653.905011
748.235720	4691.537224
748.564365	4651.891070
748.892963	4663.697452
749.221514	4793.973470
749.550017	4702.438719
749.878473	4609.641159
750.206881	4659.871216
750.535242	4631.630672
750.863555	4591.303962
751.191821	4620.577942
751.520039	4626.546669
751.848210	4571.676230
752.176334	4580.296603
752.504411	4633.785766
752.832440	4586.565277
753.160421	4516.888970
753.488356	4569.354778
753.816243	4622.581801
754.144082	4510.852188
754.471875	4478.089729
754.799620	4522.325854
755.127318	4540.864697
755.454969	4501.725179
755.782572	4480.156602
756.110129	4520.642109
756.437638	4538.828071
756.765100	4484.151717
757.092515	4476.968072
757.419882	4511.205069
757.747203	4506.705839
758.074477	4565.478131
758.401703	4563.315476
758.728882	4508.992002
759.056014	4538.200447
759.383099	4661.819622
759.710138	4654.759486
760.037129	4630.791320
760.364073	4638.869769
760.690970	4717.078230
761.017820	4714.565215
761.344623	4663.881454
761.671379	4738.089759
761.998088	4825.077389
762.324751	4974.663548
762.651366	5351.394016
762.977935	6142.560262
763.304456	7142.586553
763.630931	7740.248109
763.957359	7560.089874
764.283740	7060.788791
764.610074	6602.200067
764.936362	5944.190858
765.262602	5538.007449
765.588796	5165.135984
765.914943	4926.182771
766.241044	4848.284341
766.567097	4723.843458
766.893104	4535.770611
767.219064	4410.273607
767.544978	4388.049680
767.870845	4341.124100
768.196665	4260.929424
768.522438	4204.561763
768.848165	4194.381152
769.173846	4162.253879
769.499479	4136.917040
769.825066	4093.001028
770.150607	4051.224986
770.476101	4037.878531
770.801548	4046.012433
771.126949	4008.153367
771.452303	3971.547029
771.777611	3940.057461
772.102872	3954.323927
772.428087	3931.560597
772.753256	3914.433276
773.078378	3887.185840
773.403453	3835.166173
773.728482	3828.615194
774.053465	3799.905823
774.378401	3792.157569
774.703291	3804.001760
775.028135	3753.716251
775.352932	3710.339642
775.677683	3702.636759
776.002388	3727.116602
776.327046	3744.367431
776.651658	3677.327646
776.976224	3627.137919
777.300743	3639.236688
777.625216	3662.015142
777.949643	3666.148888
778.274024	3623.319245
778.598359	3581.775096
778.922647	3604.566152
779.246889	3604.666975
779.571086	3605.029938
779.895236	3597.584154
780.219339	3576.965835
780.543397	3564.824216
780.867409	3605.380299
781.191374	3629.169504
781.515294	3583.375662
781.839167	3577.941298
782.162995	3596.281016
782.486776	3585.974377
782.810511	3598.937704
783.134201	3606.091101
783.457844	3574.107501
783.781441	3524.636137
784.104993	3534.728527
784.428498	3550.512380
784.751958	3561.103844
785.075372	3543.782440
785.398739	3510.530989
785.722061	3520.041126
786.045337	3555.183009
786.368568	3591.943103
786.691752	3520.656147
787.014891	3552.344840
787.337983	3642.213489
787.661030	3750.499994
787.984031	3867.258159
788.306987	3998.393694
788.629897	4054.857137
788.952760	4032.176986
789.275579	3997.176255
789.598351	3972.552739
789.921078	3882.984038
790.243759	3720.290880
790.566395	3697.550235
790.888984	3705.943756
791.211529	3619.810602
791.534027	3574.417532
791.856480	3583.816763
792.178888	3527.305428
792.501249	3479.560660
792.823566	3485.541989
793.145836	3523.174203
793.468062	3484.926969
793.790241	3439.523817
794.112375	3467.693784
794.434464	3515.620034
794.756507	3539.794887
795.078505	3525.856097
795.400457	3533.876573
795.722364	3635.370123
796.044226	3712.091443
796.366042	3769.011111
796.687812	3767.095473
797.009538	3781.056948
797.331218	3745.673090
797.652852	3722.607290
797.974442	3716.610838
798.295986	3724.787589
798.617484	3667.215092
798.938938	3592.295984
799.260346	3627.730254
799.581709	3631.906850
799.903026	3571.100453
800.224299	3539.290772
800.545526	3541.135834
800.866708	3508.509486
801.187845	3453.520580
801.508936	3490.794872
801.829983	3497.544977
802.150984	3425.985798
802.471940	3411.527769
802.792851	3424.128133
803.113717	3427.999739
803.434538	3433.252621
803.755314	3383.385527
804.076045	3355.001311
804.396731	3372.342880
804.717372	3397.314235
805.037967	3386.531207
805.358518	3374.402191
805.679024	3397.369688
805.999485	3400.777508
806.319901	3401.024525
806.640272	3419.278543
806.960598	3435.589196
807.280879	3408.921492
807.601115	3418.623193
807.921306	3433.257662
808.241453	3471.575473
808.561554	3455.161476
808.881611	3401.821027
809.201623	3426.603339
809.521590	3446.183181
809.841513	3416.372318
810.161390	3446.619241
810.481223	3438.870987
810.801011	3386.647154
811.120755	3377.570556
811.440453	3410.872419
811.760107	3421.118564
812.079716	3389.553379
812.399281	3356.301928
812.718801	3376.151472
813.038276	3355.144983
813.357707	3356.178420
813.677093	3375.728015
813.996434	3335.723938
814.315731	3334.735872
814.634983	3337.400122
814.954191	3349.108202
815.273354	3382.621792
815.592473	3385.119684
815.911547	3380.270094
816.230577	3409.483581
816.549562	3455.902525
816.868502	3498.749812
817.187399	3523.345602
817.506250	3517.754963
817.825058	3490.371415
818.143821	3571.758323
818.462539	3667.872962
818.781213	3713.162688
819.099843	3754.036364
819.418429	3943.976958
819.736970	4143.233605
820.055466	4342.628884
820.373919	4669.073842
820.692327	5043.679464
821.010691	5380.027769
821.329011	6456.949301
821.647286	8511.418619
821.965517	11725.975904
822.283704	14590.334313
822.601847	16440.175635
822.919945	15513.054511
823.237999	13900.338984
823.556010	12027.406657
823.873976	10457.432553
824.191897	8722.539621
824.509775	7541.125053
824.827609	6586.751451
825.145398	6104.083655
825.463144	6007.822823
825.780845	6109.029027
826.098502	6214.709256
826.416116	6855.192893
826.733685	7905.517297
827.051210	8888.917863
827.368692	9070.807735
827.686129	8104.910055
828.003522	6814.173024
828.320872	5943.596002
828.638177	5352.500549
828.955439	4870.619173
829.272656	4433.636834
829.589830	4167.955424
829.906960	4011.404912
830.224046	3855.517311
830.541088	3737.662696
830.858086	3705.414435
831.175041	3642.334477
831.491952	3623.614152
831.808819	3634.119917
832.125642	3689.615459
832.442421	3815.135148
832.759157	4049.193401
833.075849	4500.048995
833.392497	5218.877204
833.709101	5856.810018
834.025662	6194.451379
834.342179	5962.533096
834.658653	5408.406945
834.975083	4847.475236
835.291469	4344.897403
835.607811	3968.482007
835.924110	3847.834593
836.240366	3675.401926
836.556578	3481.078048
836.872746	3380.567522
837.188871	3355.906198
837.504952	3299.026859
837.820990	3222.837380
838.136984	3174.028929
838.452935	3199.128834
838.768842	3197.374512
839.084706	3218.585167
839.400526	3346.043180
839.716303	3614.361114
840.032037	4042.997823
840.347727	4315.951098
840.663373	4122.448928
840.978977	3796.059422
841.294537	3521.860982
841.610054	3307.710246
841.925527	3204.802652
842.240957	3146.400885
842.556344	3099.649224
842.871687	3049.338509
843.186987	3003.499297
843.502244	2966.159470
843.817458	2937.296344
844.132629	2903.031621
844.447756	2913.761717
844.762840	2904.846437
845.077881	2873.248484
845.392879	2856.295084
845.707833	2853.650999
846.022745	2849.292921
846.337613	2853.197295
846.652438	2842.386541
846.967221	2843.924092
847.281960	2828.525888
847.596656	2824.724858
847.911309	2820.462562
848.225919	2817.513487
848.540485	2809.825728
848.855009	2815.847386
849.169490	2804.020839
849.483928	2796.325518
849.798323	2791.942235
850.112675	2789.986267
850.426984	2803.204172
850.741251	2800.802062
851.055474	2789.121709
851.369654	2787.072480
851.683792	2789.053653
851.997887	2794.941721
852.311938	2796.506999
852.625947	2791.314611
852.939914	2794.760240
853.253837	2798.901547
853.567718	2783.515946
853.881555	2779.127622
854.195350	2794.281330
854.509103	2792.892492
854.822812	2785.650875
855.136479	2786.031482
855.450103	2784.821605
855.763685	2773.983124
856.077224	2776.191149
856.390720	2786.704476
856.704173	2797.487504
857.017584	2790.989457
857.330953	2782.457304
857.644278	2794.490538
857.957561	2800.111424
858.270802	2803.057979
858.584000	2807.224492
858.897155	2796.002884
859.210268	2793.900723
859.523339	2793.164714
859.836367	2792.194292
860.149352	2786.885957
860.462295	2782.273302
860.775195	2791.705300
861.088054	2789.414096
861.400869	2776.289452
861.713642	2771.051693
862.026373	2782.865637
862.339062	2787.390073
862.651708	2790.775207
862.964312	2796.660755
863.276873	2790.346709
863.589392	2796.310394
863.901869	2805.913792
864.214303	2824.999601
864.526696	2838.157012
864.839045	2840.622137
865.151353	2836.695078
865.463619	2834.287927
865.775842	2836.233812
866.088023	2851.652181
866.400162	2863.491331
866.712258	2835.787670
867.024313	2826.244766
867.336325	2831.175014
867.648296	2850.338961
867.960224	2843.606500
868.272110	2831.606033
868.583954	2837.473936
868.895755	2853.378777
869.207515	2838.850171
869.519233	2840.304544
869.830909	2848.859382
870.142542	2859.929756
870.454134	2861.999150
870.765684	2863.478728
871.077191	2862.352030
871.388657	2865.901003
871.700081	2881.155534
872.011463	2890.995867
872.322803	2893.685322
872.634101	2893.851680
872.945357	2901.486508
873.256571	2928.638162
873.567744	2919.611976
873.878874	2913.736512
874.189963	2934.911878
874.501010	2938.954884
874.812015	2929.853080
875.122979	2933.263421
875.433900	2926.036927
875.744780	2932.567742
876.055618	2938.286931
876.366415	2935.950356
876.677169	2946.874536
876.987882	2951.396451
877.298554	2936.691406
877.609183	2954.867286
877.919771	2977.696151
878.230317	3001.538288
878.540822	3049.744322
878.851285	3087.258068
879.161707	3120.950620
879.472087	3205.470605
879.782425	3396.618556
880.092722	3779.305148
880.402977	4251.215121
880.713191	4777.244401
881.023363	5717.850612
881.333494	6783.684126
881.643583	7277.162676
881.953631	7081.424754
882.263637	6631.337936
882.573602	6169.779972
882.883526	5666.466131
883.193408	5145.573786
883.503248	4704.792938
883.813048	4442.206796
884.122806	4191.210267
884.432522	3909.891197
884.742197	3697.686346
885.051831	3515.022657
885.361424	3382.697410
885.670975	3318.770538
885.980485	3246.193046
886.289954	3178.543282
886.599382	3142.030205
886.908768	3103.636777
887.218113	3061.505334
887.527417	3012.512880
887.836680	2967.061837
888.145901	2961.778708
888.455082	2956.530867
888.764221	2909.887591
889.073319	2881.450442
889.382376	2882.972870
889.691392	2885.523694
890.000366	2884.558313
890.309300	2871.650439
890.618193	2885.052346
890.927044	2903.918864
891.235855	2902.789646
891.544625	2888.200547
891.853353	2896.896537
892.162041	2910.873136
892.470687	2950.867130
892.779293	2997.384377
893.087858	3037.620347
893.396381	3098.593102
893.704864	3198.065150
894.013306	3405.906882
894.321707	3674.633150
894.630068	3878.411712
894.938387	3882.013616
895.246665	3841.455013
895.554903	3737.710587
895.863100	3553.048081
896.171256	3397.604102
896.479371	3281.150927
896.787446	3172.481294
897.095480	3075.683579
897.403473	3017.188550
897.711425	2979.430308
898.019336	2968.145685
898.327207	2947.035853
898.635038	2915.556368
898.942827	2900.430386
899.250576	2891.545352
899.558284	2864.088708
899.865952	2842.880574
900.173579	2825.717965
900.481165	2821.556493
900.788711	2809.056952
901.096216	2785.295473
901.403681	2771.487753
901.711105	2780.055194
902.018489	2780.241717
902.325832	2777.874895
902.633135	2786.719599
902.940397	2813.530976
903.247619	2882.509084
903.554800	3044.251985
903.861941	3343.668797
904.169041	3727.209864
904.476101	4017.053525
904.783121	4006.598172
905.090100	3786.400572
905.397039	3542.169271
905.703938	3306.419711
906.010796	3135.247332
906.317614	3036.269317
906.624391	2951.656071
906.931129	2884.684342
907.237826	2829.650065
907.544483	2783.702469
907.851099	2756.369332
908.157675	2737.623802
908.464211	2719.112685
908.770707	2707.081971
909.077163	2697.072760
909.383578	2683.738908
909.689954	2670.861281
909.996289	2668.625529
910.302584	2669.321208
910.608839	2675.950326
910.915054	2667.829027
911.221229	2662.460198
911.527363	2662.135044
911.833458	2666.510765
912.139513	2671.496466
912.445527	2673.255829
912.751502	2682.440811
913.057436	2693.362471
913.363331	2703.800180
913.669186	2720.294836
913.975000	2749.982191
914.280775	2801.064202
914.586510	2864.497041
914.892205	2935.524378
915.197859	3047.334650
915.503475	3212.888663
915.809050	3394.738206
916.114585	3529.089997
916.420081	3563.304308
916.725536	3516.078779
917.030952	3412.331833
917.336328	3297.587609
917.641665	3175.952129
917.946961	3084.082141
918.252218	3025.456043
918.557435	2959.512709
918.862612	2905.668145
919.167750	2856.882378
919.472848	2822.083293
919.777906	2797.500107
920.082925	2774.288114
920.387904	2748.855493
920.692843	2734.818400
920.997743	2722.228118
921.302603	2710.164637
921.607423	2701.420756
921.912204	2693.826257
922.216946	2684.210256
922.521647	2671.756086
922.826310	2664.600168
923.130932	2661.618325
923.435516	2649.489309
923.740059	2647.614000
924.044564	2640.115284
924.349028	2635.394243
924.653454	2628.417286
924.957840	2619.791872
925.262186	2616.109309
925.566493	2614.798609
925.870761	2608.779471
926.174989	2605.981631
926.479178	2601.169850
926.783328	2599.405446
927.087438	2595.402770
927.391509	2595.246494
927.695541	2592.398242
927.999533	2586.414392
928.303486	2583.460276
928.607400	2586.374063
928.911275	2584.929772
929.215110	2585.822057
929.518906	2583.790472
929.822663	2582.444484
930.126381	2582.094123
930.430060	2582.394072
930.733699	2584.284505
931.037299	2585.098651
931.340861	2588.274578
931.644383	2589.340782
931.947866	2583.871130
932.251309	2583.377097
932.554714	2582.948599
932.858080	2579.497929
933.161407	2580.312076
933.464694	2581.844586
933.767943	2574.807136
934.071153	2577.037846
934.374323	2575.298648
934.677455	2575.565829
934.980548	2577.985583
935.283602	2575.999368
935.586617	2575.749831
935.889593	2577.720922
936.192530	2575.860737
936.495428	2575.026426
936.798287	2578.769483
937.101108	2579.432394
937.403890	2584.498754
937.706632	2588.541759
938.009336	2593.217429
938.312002	2604.401229
938.614628	2611.945316
938.917216	2620.081738
939.219765	2619.892695
939.522275	2619.139043
939.824747	2614.307097
940.127179	2611.655450
940.429573	2611.249637
940.731929	2608.875253
941.034246	2603.879470
941.336524	2600.517020
941.638763	2600.499376
941.940964	2597.792277
942.243126	2593.686257
942.545250	2596.191710
942.847335	2591.019486
943.149381	2588.937490
943.451389	2586.404310
943.753359	2581.849627
944.055290	2578.640933
944.357182	2580.942220
944.659036	2579.913824
944.960851	2579.623958
945.262628	2577.786457
945.564367	2579.190419
945.866067	2581.060687
946.167729	2579.422312
946.469352	2577.514235
946.770937	2579.941551
947.072484	2579.719740
947.373992	2578.633371
947.675462	2575.180181
947.976893	2572.606672
948.278286	2572.609192
948.579641	2571.444686
948.880958	2570.595252
949.182236	2574.056004
949.483476	2566.428738
949.784678	2570.570046
950.085841	2570.436455
950.386967	2573.675397
950.688054	2572.296641
950.989103	2574.797053
951.290114	2572.158009
951.591087	2575.575912
951.892021	2575.328895
952.192917	2578.608166
952.493776	2581.363156
952.794596	2583.336768
953.095378	2583.936665
953.396122	2583.082190
953.696828	2579.250913
953.997496	2578.030953
954.298126	2577.302507
954.598718	2575.676735
954.899272	2572.006775
955.199788	2573.902248
955.500266	2569.995354
955.800706	2564.288768
956.101108	2564.263562
956.401472	2563.603171
956.701798	2560.064281
957.002087	2556.996739
957.302337	2558.836760
957.602550	2556.767367
957.902724	2555.315514
958.202861	2554.839125
958.502960	2555.912891
958.803022	2553.810730
959.103045	2551.600184
959.403031	2554.133364
959.702979	2551.116233
960.002889	2550.561706
960.302762	2551.582540
960.602596	2549.692107
960.902393	2549.364432
961.202153	2550.188661
961.501875	2548.429298
961.801559	2550.044988
962.101205	2547.284956
962.400814	2549.866027
962.700385	2549.775286
962.999918	2546.740512
963.299414	2546.241437
963.598873	2544.923176
963.898293	2545.134904
964.197677	2548.908208
964.497022	2547.897456
964.796331	2546.185985
965.095601	2545.543237
965.394835	2548.053732
965.694030	2548.845193
965.993189	2547.138763
966.292309	2548.038609
966.591393	2547.647919
966.890439	2547.995759
967.189447	2549.404761
967.488419	2547.731098
967.787353	2545.981818
968.086249	2547.312683
968.385108	2547.678166
968.683930	2548.217570
968.982714	2548.131870
969.281462	2547.721016
969.580172	2546.745553
969.878844	2546.700182
970.177480	2548.260419
970.476078	2547.388300
970.774639	2547.289997
971.073162	2548.353681
971.371649	2547.257230
971.670098	2547.514329
971.968510	2549.538352
972.266885	2546.581715
972.565223	2549.122457
972.863524	2549.558517
973.161788	2552.142108
973.460014	2548.056253
973.758204	2545.283618
974.056356	2549.021634
974.354471	2547.237065
974.652550	2548.464586
974.950591	2551.517005
975.248595	2548.537683
975.546563	2546.904349
975.844493	2549.056922
976.142386	2547.733619
976.440243	2548.051212
976.738062	2545.707075
977.035845	2547.786551
977.333590	2547.320244
977.631299	2548.603218
977.928971	2543.589790
978.226606	2541.434697
978.524204	2543.347815
978.821765	2541.694317
979.119290	2547.158927
979.416777	2546.059956
979.714228	2547.506767
980.011642	2543.995603
980.309020	2550.299566
980.606360	2547.945347
980.903664	2546.874102
981.200931	2546.559030
981.498162	2547.340409
981.795356	2548.958619
982.092513	2551.048177
982.389633	2550.339895
982.686717	2553.921635
982.983764	2556.623694
983.280775	2563.096535
983.577749	2563.570404
983.874686	2562.761298
984.171587	2561.589230
984.468451	2559.240053
984.765279	2555.302911
985.062070	2553.851059
985.358824	2550.642365
985.655543	2551.643034
985.952224	2548.353681
986.248869	2548.787220
986.545478	2548.280584
986.842050	2546.322096
987.138586	2546.034750
987.435086	2546.826211
987.731549	2544.623227
988.027975	2545.208001
988.324366	2545.432332
988.620719	2542.468134
988.917037	2543.176416
989.213318	2544.489636
989.509563	2542.374872
989.805772	2544.761859
990.101944	2545.429812
990.398080	2544.822352
990.694180	2545.651622
990.990244	2543.267157
991.286271	2542.553833
991.582262	2545.565923
991.878217	2543.496529
992.174136	2544.764379
992.470019	2545.744884
992.765865	2541.149872
993.061676	2538.296579
993.357450	2543.267157
993.653188	2538.513348
993.948890	2546.243958
994.244556	2542.208514
994.540186	2548.696479
994.835780	2544.313196
995.131337	2546.985008
995.426859	2548.313352
995.722345	2547.174051
996.017795	2548.325954
996.313208	2546.168341
996.608586	2552.978939
996.903928	2549.903836
997.199234	2549.994576
997.494504	2548.509957
997.789738	2547.300080
998.084936	2546.463248
998.380099	2547.307641
998.675225	2545.321427
998.970316	2545.679349
999.265371	2546.425439
999.560390	2545.540717
999.855373	2544.802188
1000.150320	2546.644730
1000.445232	2546.037271
1000.740108	2543.246992
1001.034948	2545.666746
1001.329752	2544.356046
1001.624521	2542.856302
1001.919254	2544.582898
1002.213951	2543.879657
1002.508613	2543.640202
1002.803239	2543.183977
1003.097829	2542.710109
1003.392384	2541.563247
1003.686903	2542.758000
1003.981386	2545.739842
1004.275834	2542.326981
1004.570246	2543.713299
1004.864623	2545.160110
1005.158964	2544.787064
1005.453270	2542.987373
1005.747540	2541.790098
1006.041775	2544.817311
1006.335974	2542.460572
1006.630138	2541.706919
1006.924266	2544.479554
1007.218359	2541.590973
1007.512416	2539.980324
1007.806438	2542.568957
1008.100425	2540.159285
1008.394376	2539.380427
1008.688292	2541.565767
1008.982172	2545.265974
1009.276017	2541.575849
1009.569827	2544.935778
1009.863602	2541.679193
1010.157341	2542.508463
1010.451045	2542.198432
1010.744714	2541.101981
1011.038347	2542.654656
1011.331945	2538.533513
1011.625508	2540.706250
1011.919036	2543.060469
1012.212528	2544.429143
1012.505986	2543.020140
1012.799408	2543.032743
1013.092795	2544.393854
1013.386147	2541.517876
1013.679464	2544.328319
1013.972745	2544.479554
1014.265992	2542.596683
1014.559204	2545.606252
1014.852380	2543.045346
1015.145521	2543.519214
1015.438628	2543.231868
1015.731699	2542.765562
1016.024736	2541.550644
1016.317737	2540.955788
1016.610703	2544.189688
1016.903635	2544.487116
1017.196531	2541.016281
1017.489393	2539.950077
1017.782219	2540.610468
1018.075011	2543.975439
1018.367768	2543.441076
1018.660490	2541.016281
1018.953177	2541.016281
1019.245829	2541.016281
