Dividing Wavelength (nm)	Counts (n)	Blue Motor Position (mm): 29.800000	Red Motor Position (mm): 0.000000	
326.493990	2210.493029
326.888308	2210.493029
327.282561	2210.493029
327.676750	2174.174037
328.070874	2167.620537
328.464933	2169.568943
328.858929	2173.145641
329.252859	2175.199911
329.646726	2185.065449
330.040528	2199.636905
330.434265	2209.988914
330.827938	2230.327449
331.221547	2249.229256
331.615091	2262.200144
332.008571	2282.730243
332.401986	2298.347738
332.795338	2317.569658
333.188625	2335.236381
333.581847	2357.346882
333.975006	2374.663246
334.368100	2396.645197
334.761129	2411.688000
335.154095	2431.038469
335.546996	2458.091821
335.939833	2494.582213
336.332606	2509.004954
336.725315	2523.563807
337.117960	2535.448327
337.510540	2545.334030
337.903056	2555.081101
338.295508	2567.424366
338.687896	2575.848134
339.080220	2582.411716
339.472480	2588.201481
339.864676	2594.749940
340.256807	2597.978799
340.648875	2602.525920
341.040879	2605.180087
341.432818	2610.589246
341.824694	2612.378855
342.216506	2612.479678
342.608253	2614.239041
342.999937	2614.904473
343.391557	2615.983280
343.783113	2615.441356
344.174605	2614.024792
344.566033	2609.908690
344.957397	2612.704010
345.348697	2609.722167
345.739934	2607.226796
346.131106	2605.326281
346.522215	2605.233020
346.913260	2603.463575
347.304241	2602.460385
347.695159	2600.965683
348.086012	2599.246649
348.476802	2595.833788
348.867528	2592.932604
349.258191	2588.362798
349.648789	2587.069742
350.039324	2582.126891
350.429796	2586.714341
350.820203	2585.053281
351.210548	2585.990935
351.600828	2583.752663
351.991045	2583.233424
352.381198	2582.313414
352.771288	2581.975656
353.161314	2580.249061
353.551276	2578.358628
353.941175	2577.453741
354.331010	2580.889288
354.720782	2580.861561
355.110490	2576.621951
355.500135	2577.267219
355.889717	2578.305696
356.279235	2578.315779
356.668689	2579.228227
357.058080	2581.032961
357.447408	2580.014648
357.836672	2578.797209
358.225873	2581.678228
358.615010	2580.664956
359.004084	2581.705955
359.393095	2580.904411
359.782043	2581.542117
360.170927	2582.136973
360.559748	2583.062025
360.948505	2588.579568
361.337199	2586.210226
361.725830	2586.253075
362.114398	2587.546131
362.502903	2585.244845
362.891344	2586.792479
363.279722	2586.346337
363.668037	2588.577047
364.056289	2588.554362
364.444478	2590.351533
364.832603	2586.671491
365.220665	2590.210381
365.608665	2592.378077
365.996601	2588.471183
366.384474	2591.770618
366.772284	2591.747933
367.160031	2591.682398
367.547715	2594.994436
367.935336	2592.814137
368.322893	2590.240628
368.710388	2592.914960
369.097820	2590.119640
369.485189	2591.460587
369.872495	2595.352358
370.259738	2593.209868
370.646918	2594.339086
371.034035	2594.260948
371.421090	2596.698346
371.808081	2599.728080
372.195010	2594.923860
372.581875	2593.293047
372.968678	2598.031731
373.355418	2598.296392
373.742096	2598.918974
374.128710	2596.779005
374.515262	2599.914602
374.901751	2597.094077
375.288177	2598.170363
375.674540	2598.422421
376.060841	2596.131216
376.447079	2601.968872
376.833254	2600.499376
377.219367	2599.463419
377.605417	2600.456526
377.991404	2601.855447
378.377329	2602.871239
378.763191	2600.408635
379.148991	2601.169850
379.534727	2602.730087
379.920402	2600.564911
380.306013	2603.448451
380.691563	2602.483070
381.077049	2603.229161
381.462474	2600.764037
381.847835	2602.233533
382.233134	2604.844851
382.618371	2601.429469
383.003545	2604.834768
383.388657	2603.987855
383.773706	2602.994747
384.158693	2603.715632
384.543618	2604.733945
384.928480	2604.978441
385.313280	2604.330653
385.698017	2605.858123
386.082692	2604.073554
386.467305	2603.811414
386.851856	2605.273349
387.236344	2608.280397
387.620770	2606.044645
388.005133	2606.135386
388.389435	2608.368617
388.773674	2603.836620
389.157851	2609.638988
389.541965	2610.039760
389.926018	2609.031529
390.310008	2612.509925
390.693936	2612.338526
391.077802	2613.535800
391.461606	2610.979935
391.845348	2611.065635
392.229027	2613.921448
392.612645	2611.847013
392.996200	2615.108640
393.379694	2613.039246
393.763125	2613.364401
394.146494	2612.346088
394.529801	2613.971860
394.913047	2614.770883
395.296230	2613.636623
395.679351	2615.942951
396.062410	2614.614607
396.445408	2615.698455
396.828343	2617.576285
397.211217	2615.935389
397.594028	2616.686521
397.976778	2617.001593
398.359466	2617.435132
398.742092	2617.818260
399.124656	2617.225925
399.507158	2618.070318
399.889598	2619.355812
400.271977	2618.725668
400.654294	2619.300359
401.036549	2617.825822
401.418742	2620.250617
401.800874	2619.328086
402.182944	2622.851852
402.564952	2620.230452
402.946898	2623.658437
403.328783	2622.579630
403.710606	2622.367902
404.092367	2621.047119
404.474067	2624.273458
404.855705	2623.905453
405.237282	2624.928808
405.618797	2623.159363
406.000250	2626.032820
406.381642	2624.354116
406.762972	2623.610546
407.144240	2620.883282
407.525447	2626.665485
407.906593	2625.417800
408.287677	2627.393932
408.668700	2628.742441
409.049661	2628.654220
409.430560	2628.994498
409.811399	2630.945425
410.192176	2629.634725
410.572891	2629.662451
410.953545	2632.747637
411.334138	2633.503810
411.714669	2631.845271
412.095139	2633.786115
412.475547	2632.979530
412.855894	2635.132103
413.236180	2634.814510
413.616405	2633.791156
413.996568	2635.253091
414.376670	2637.420787
414.756711	2636.957001
415.136691	2637.352731
415.516609	2636.626805
415.896466	2639.137300
416.276262	2638.108904
416.655997	2643.276087
417.035670	2641.645274
417.415283	2645.088382
417.794834	2644.032260
418.174324	2643.369348
418.553753	2641.506642
418.933121	2647.798002
419.312428	2645.872281
419.691674	2646.179792
420.070859	2648.309679
420.449983	2646.893115
420.829045	2650.472334
421.208047	2652.619866
421.586988	2653.189516
421.965867	2655.468118
422.344686	2657.655978
422.723444	2656.037768
423.102141	2655.962151
423.480777	2662.256031
423.859352	2661.903151
424.237866	2668.890190
424.616319	2670.253822
424.994712	2677.598783
425.373044	2682.788651
425.751314	2690.657892
426.129524	2695.746937
426.507673	2706.928216
426.885762	2715.409957
427.263789	2734.498287
427.641756	2749.301635
428.019662	2768.258894
428.397508	2791.536422
428.775292	2806.619554
429.153016	2842.194977
429.530679	2867.625077
429.908282	2899.883421
430.285824	2922.296391
430.663305	2992.817092
431.040726	3005.031808
431.418086	3050.114847
431.795385	3119.115640
432.172624	3181.751976
432.549802	3230.661251
432.926920	3297.844708
433.303977	3344.424970
433.680974	3438.303857
434.057910	3521.576157
434.434786	3604.626646
434.811601	3662.340296
435.188355	3819.233607
435.565050	3869.751009
435.941683	3936.654682
436.318257	4121.226448
436.694770	4236.144591
437.071222	4354.125235
437.447614	4422.954629
437.823946	4502.332638
438.200218	4645.980317
438.576429	4699.335889
438.952580	4866.492989
439.328670	4997.245396
439.704700	5044.183580
440.080670	5153.851361
440.456580	5452.091064
440.832429	5490.020705
441.208218	5460.361077
441.583947	5690.288103
441.959616	5873.208891
442.335224	5919.035500
442.710773	6103.478717
443.086261	6321.599361
443.461689	6120.890862
443.837057	6523.444641
444.212365	6793.978162
444.587612	6746.992088
444.962800	7004.257292
445.337927	7010.059660
445.712995	6893.530868
446.088002	7627.230481
446.462949	7551.373719
446.837837	7670.115577
447.212664	7808.714540
447.587431	8231.959735
447.962139	8793.065364
448.336786	10303.904212
448.711374	10889.862730
449.085901	9653.655860
449.460369	9520.357670
449.834776	9287.768914
450.209124	10001.245938
450.583412	10391.219518
450.957640	11216.685775
451.331808	10778.017170
451.705917	10135.781732
452.079965	9732.635617
452.453954	10543.958918
452.827883	10349.267035
453.201752	10680.150730
453.575562	10380.232323
453.949311	10816.337501
454.323001	10873.741120
454.696632	11139.604012
455.070202	11462.197529
455.443713	11766.645412
455.817164	12232.042215
456.190556	12327.917399
456.563888	12750.182090
456.937160	12994.279800
457.310373	12452.068416
457.683526	12603.615583
458.056619	12258.921647
458.429653	12433.040581
458.802628	12020.260821
459.175542	12376.425902
459.548398	13340.092872
459.921194	13691.589844
460.293930	13778.723668
460.666607	14668.565459
461.039224	15654.932744
461.411782	16365.213677
461.784280	16357.541041
462.156719	16450.638550
462.529099	16212.592745
462.901419	15193.919225
463.273680	15040.032963
463.645882	14922.566517
464.018024	14699.475294
464.390106	14926.712866
464.762130	15670.761968
465.134094	16407.317394
465.505999	18320.770516
465.877845	21532.295547
466.249631	24362.172464
466.621358	24161.073275
466.993026	22760.529831
467.364634	22234.296384
467.736184	20822.402782
468.107674	20030.450116
468.479105	20167.342649
468.850477	19643.261774
469.221790	19234.371265
469.593043	18571.333506
469.964238	18026.372172
470.335373	17707.919963
470.706449	18114.327704
471.077467	17659.597983
471.448425	19465.997161
471.819324	23419.612806
472.190164	25547.531735
472.560945	22103.407866
472.931667	19681.201498
473.302330	19030.254946
473.672934	18508.520729
474.043479	18892.916271
474.413965	18706.880050
474.784393	18346.820678
475.154761	19002.672273
475.525070	19026.489204
475.895321	18673.104320
476.265513	19249.603112
476.635645	19828.919909
477.005719	19628.196286
477.375734	19815.102106
477.745691	20298.170673
478.115588	20802.593568
478.485427	21308.589303
478.855207	22346.542716
479.224928	24084.223405
479.594591	26304.927292
479.964194	26414.950475
480.333739	26615.311134
480.703226	26170.817476
481.072653	25843.139956
481.442022	26390.926856
481.811333	27284.640254
482.180584	27234.833654
482.549777	26288.921628
482.918912	25924.355465
483.287988	26040.942230
483.657005	25742.223617
484.025964	25448.566323
484.394864	25405.005713
484.763706	25108.555620
485.132489	24516.300702
485.501213	24691.710170
485.869879	24608.347130
486.238487	24393.780498
486.607036	24553.559870
486.975527	24224.962338
487.343959	24565.144441
487.712333	24531.787126
488.080648	24194.281876
488.448905	24655.945704
488.817104	24406.519494
489.185244	25070.658746
489.553326	25067.145062
489.921350	26018.998087
490.289315	28274.322097
490.657222	30079.760936
491.025070	30577.879868
491.392861	30378.426616
491.760593	29532.515960
492.128267	28657.225458
492.495883	27616.620399
492.863440	26731.318167
493.230939	25856.148653
493.598380	25699.083943
493.965763	25303.703727
494.333088	24871.651636
494.700354	24781.881289
495.067563	24665.917107
495.434713	24423.034314
495.801805	24561.534975
496.168839	24377.714341
496.535815	24209.818712
496.902733	24423.508183
497.269593	24092.785805
497.636395	24277.806234
498.003139	24268.432208
498.369825	24011.575337
498.736453	24195.975704
499.103023	24081.501182
499.469535	24105.827270
499.835989	24310.951820
500.202385	24339.653630
500.568723	23840.276930
500.935003	24111.425472
501.301226	23691.446945
501.667390	24537.168558
502.033497	24774.266626
502.399546	24506.959443
502.765537	24080.533281
503.131470	24473.304700
503.497345	24608.568940
503.863163	23807.189316
504.228923	24439.206336
504.594625	24622.810200
504.960269	24140.432271
505.325856	24648.522605
505.691385	24043.024576
506.056856	24652.653831
506.422270	24622.520334
506.787625	24194.939747
507.152924	24606.728919
507.518164	24639.534228
507.883347	24447.476349
508.248472	24132.956240
508.613540	24924.848412
508.978550	24703.173754
509.343503	24685.612895
509.708398	24955.256652
510.073236	25106.836587
510.438016	25314.970705
510.802738	24999.028991
511.167403	25238.531690
511.532010	24943.014210
511.896561	25725.061009
512.261053	25693.858787
512.625488	25536.211824
512.989866	25421.351654
513.354186	25279.725478
513.718449	25374.554623
514.082655	25754.251810
514.446803	25495.791853
514.810894	25943.915142
515.174927	25436.991834
515.538904	25461.627953
515.902822	25964.709901
516.266684	25711.104575
516.630488	25607.705468
516.994235	25603.178512
517.357925	25891.925722
517.721558	26070.110346
518.085133	26166.061147
518.448651	26092.876197
518.812112	25814.206253
519.175516	25992.491700
519.538863	26159.232905
519.902152	25943.975635
520.265385	26251.662460
520.628560	26027.104262
520.991678	26039.641612
521.354739	26125.207637
521.717743	26174.086664
522.080690	25966.905324
522.443580	26302.263042
522.806413	26291.147298
523.169189	26395.506744
523.531908	26445.590608
523.894569	26039.298813
524.257174	26114.144825
524.619722	26311.979866
524.982213	25997.679047
525.344647	26071.995737
525.707025	26193.099376
526.069345	26171.535841
526.431608	26129.268286
526.793815	26320.766597
527.155964	25768.888801
527.518057	25949.178106
527.880093	25878.869133
528.242072	26106.164678
528.603995	25799.148327
528.965860	25608.557423
529.327669	25658.663972
529.689421	25642.703679
530.051117	25484.698794
530.412755	25650.731716
530.774337	25468.589787
531.135862	25327.692057
531.497331	25535.987493
531.858743	25076.188892
532.220098	25563.544960
532.581396	25222.263886
532.942638	25184.843401
533.303824	25265.491780
533.664953	25303.834797
534.026025	24962.667148
534.387040	25196.044845
534.747999	25248.745067
535.108902	25413.852938
535.469748	24894.780450
535.830537	25093.386788
536.191270	25214.689552
536.551947	25089.182466
536.912567	24743.036678
537.273131	25074.787451
537.633638	24792.871004
537.994089	24995.162426
538.354483	24546.842532
538.714821	25030.510997
539.075103	25088.209523
539.435328	24873.600042
539.795497	24425.436424
540.155609	24827.972559
540.515665	25130.416584
540.875665	24357.169119
541.235609	24642.994980
541.595496	24613.726041
541.955328	24966.901718
542.315102	24883.820982
542.674821	24431.619399
543.034483	24313.381656
543.394090	24493.227340
543.753640	24266.919862
544.113134	24912.951289
544.472571	24497.865202
544.831953	24797.723115
545.191278	24408.178034
545.550548	24329.099974
545.909761	24547.271030
546.268918	24769.149855
546.628019	24730.141407
546.987064	24437.898156
547.346053	24192.119221
547.704986	24322.927081
548.063863	24466.415964
548.422684	24477.267047
548.781449	24021.249312
549.140158	24427.089923
549.498811	23998.743080
549.857408	23738.732968
550.215949	24172.998125
550.574434	23855.939795
550.932864	24076.696963
551.291237	24222.703902
551.649555	24093.105918
552.007817	24142.781448
552.366022	24006.025027
552.724173	24046.112282
553.082267	23983.735565
553.440305	24462.478823
553.798288	23725.255443
554.156215	24250.692388
554.514086	24349.073026
554.871902	23701.867010
555.229661	23999.930272
555.587365	23852.037942
555.945014	23706.419172
556.302606	23977.981088
556.660143	23912.289812
557.017625	24164.297093
557.375050	23692.503066
557.732421	24081.284413
558.089735	23896.740373
558.446994	23965.960457
558.804197	23985.815041
559.161345	23946.730975
559.518437	23690.690772
559.875474	23891.011102
560.232455	24067.950561
560.589381	23895.275918
560.946251	23869.114850
561.303065	24206.236972
561.659825	24286.552636
562.016528	23900.173399
562.373177	23622.710812
562.729770	23980.357992
563.086307	23846.497713
563.442789	24010.448639
563.799216	23847.379915
564.155587	23851.700184
564.511904	23835.881043
564.868164	23759.905814
565.224370	23755.527572
565.580520	23648.450943
565.936615	23790.906389
566.292654	23473.492658
566.648638	23773.658082
567.004567	23592.773920
567.360441	23556.442324
567.716260	23272.143932
568.072023	23609.926446
568.427732	23356.023691
568.783385	23150.372341
569.138982	23386.126941
569.494525	23420.104318
569.850013	23167.459332
570.205445	23260.818980
570.560823	23057.839441
570.916145	22816.093429
571.271412	23000.055215
571.626625	22759.309872
571.981782	22864.531356
572.336884	22670.187313
572.691931	22819.090395
573.046923	22554.598697
573.401860	22422.941402
573.756743	22432.053288
574.111570	22342.391326
574.466342	22274.181993
574.821059	22357.885312
575.175722	22056.724261
575.530330	22047.698075
575.884882	22074.544739
576.239380	21987.751194
576.593823	21871.320704
576.948211	21852.618024
577.302544	21704.014891
577.656823	21558.365874
578.011047	21660.970998
578.365216	21531.148684
578.719330	21418.458731
579.073389	21317.653298
579.427394	21459.781069
579.781344	21232.848487
580.135239	21121.965788
580.489080	21080.156979
580.842866	20847.679128
581.196597	21047.747401
581.550273	21026.181344
581.903895	20912.894015
582.257463	21223.272816
582.610975	20756.187227
582.964434	21064.390770
583.317837	20770.315060
583.671186	20855.250941
584.024481	20825.303967
584.377721	20611.546441
584.730906	20659.515540
585.084037	20682.689724
585.437113	20584.241031
585.790135	20784.891557
586.143103	20260.402349
586.496016	20266.713873
586.848874	20514.768890
587.201679	20446.874630
587.554428	20123.419075
587.907124	20460.092535
588.259765	20229.666434
588.612352	20312.018723
588.964884	19873.975221
589.317362	20049.021727
589.669786	20095.155846
590.022155	20136.014398
590.374470	20340.864205
590.726731	20127.638521
591.078937	19892.645135
591.431090	19979.337857
591.783188	19724.850329
592.135232	19707.208811
592.487222	19805.067689
592.839157	19817.264761
593.191038	19706.583708
593.542866	19602.529251
593.894639	19306.409354
594.246358	19522.195944
594.598022	19440.143604
594.949633	19189.817548
595.301190	19156.440068
595.652692	19318.946703
596.004141	19563.225895
596.355535	18883.905209
596.706876	18897.503721
597.058162	18788.087998
597.409395	19015.058388
597.760573	19092.296427
598.111698	18869.159834
598.462768	18805.306059
598.813785	18773.506460
599.164748	18595.838555
599.515657	18616.966030
599.866511	18426.806146
600.217312	18778.966030
600.568060	18298.657494
600.918753	18621.336711
601.269392	18517.564559
601.619978	18295.214386
601.970510	18507.207508
602.320988	18449.932439
602.671412	18663.889090
603.021783	18568.626406
603.372100	18303.781827
603.722363	18435.338298
604.072572	18373.700110
604.422728	18511.366460
604.772830	18283.649979
605.122878	18227.423470
605.472872	18212.163897
605.822813	18212.599957
606.172701	18174.493875
606.522534	18369.624338
606.872314	18390.693840
607.222041	18228.759376
607.571714	18444.679557
607.921333	18272.083052
608.270899	18348.398559
608.620411	18530.618627
608.969870	18294.506104
609.319276	18295.849572
609.668627	18327.268563
610.017926	18466.669070
610.367171	18578.784331
610.716362	18625.709912
611.065500	18445.539073
611.414585	18576.152849
611.763616	18563.060972
612.112594	18501.367332
612.461518	18468.685531
612.810389	18655.911464
613.159207	18512.568775
613.507971	18426.420497
613.856682	18707.416933
614.205340	18641.445873
614.553945	18780.843860
614.902496	18529.605355
615.250994	18758.922402
615.599439	18706.544814
615.947830	18683.935239
616.296169	18730.782681
616.644454	18699.590542
616.992686	18667.120470
617.340864	18887.192041
617.688990	18647.608684
618.037063	18814.639755
618.385082	18662.336415
618.733048	18950.355178
619.080961	18806.135328
619.428821	18859.674903
619.776628	18741.348940
620.124382	18672.176747
620.472083	18705.965081
620.819731	18723.379747
621.167326	18422.604344
621.514868	18459.036763
621.862357	18220.817038
622.209793	18241.475686
622.557176	18073.353205
622.904506	17901.391886
623.251783	17811.175397
623.599007	17571.849138
623.946179	17518.236467
624.293297	17460.880739
624.640363	17207.900516
624.987376	17231.891367
625.334336	17028.188422
625.681243	16863.451077
626.028097	16875.398611
626.374899	16798.339533
626.721647	16669.472518
627.068343	16497.541445
627.414987	16440.800738
627.761577	16407.720687
628.108115	16451.361955
628.454600	16170.052968
628.801032	16271.735562
629.147412	16210.236005
629.493739	16216.449227
629.840014	16024.744229
630.186236	16132.821526
630.532405	15890.828498
630.878521	16081.293372
631.224585	15978.088350
631.570597	15805.214582
631.916556	15841.730180
632.262462	15805.703574
632.608316	15730.025772
632.954117	15677.227247
633.299866	15669.864642
633.645562	15590.733650
633.991206	15342.552605
634.336797	15213.229365
634.682336	15189.321693
635.027823	15072.687037
635.373257	14951.860662
635.718639	14850.415002
636.063968	14796.126816
636.409245	14554.390887
636.754470	14575.853599
637.099642	14424.966823
637.444762	14190.051575
637.789829	14243.863371
638.134845	14084.441922
638.479808	14114.845121
638.824719	14058.174990
639.169577	13911.235438
639.514383	13961.523468
639.859137	13766.703036
640.203839	13854.225029
640.548489	13698.080330
640.893086	13681.530222
641.237632	13557.749730
641.582125	13712.218246
641.926566	13536.584446
642.270955	13548.010221
642.615292	13514.736085
642.959576	13517.365047
643.303809	13548.655488
643.647990	13478.686794
643.992118	13538.744580
644.336195	13310.697903
644.680219	13520.782949
645.024192	13443.370990
645.368112	13685.406869
645.711981	13738.449890
646.055797	13921.405966
646.399562	13889.077046
646.743274	14156.883303
647.086935	14428.815744
647.430544	14403.209203
647.774101	14433.877063
648.117606	14578.515328
648.461059	14548.661615
648.804460	14540.290779
649.147810	14273.338998
649.491108	14165.725487
649.834354	14183.745091
650.177548	13882.747877
650.520690	13697.740052
650.863781	13607.137914
651.206820	13653.849246
651.549807	13476.934993
651.892742	13287.821147
652.235626	13217.040827
652.578458	13221.257752
652.921238	12911.771235
653.263967	13108.945885
653.606644	12937.962550
653.949269	12914.682501
654.291843	12718.228736
654.634365	12878.018189
654.976836	12724.411711
655.319255	12742.496851
655.661622	12688.843850
656.003938	12609.281840
656.346203	12542.622662
656.688416	12609.256634
657.030577	12572.829256
657.372687	12487.966472
657.714746	12461.749952
658.056753	12653.356648
658.398708	12466.662556
658.740612	12474.168834
659.082465	12576.879823
659.424266	12541.685008
659.766016	12553.584651
660.107715	12474.688073
660.449362	12546.317828
660.790958	12508.052950
661.132503	12450.735031
661.473996	12508.955316
661.815438	12535.612938
662.156829	12549.196327
662.498168	12530.924665
662.839456	12528.895600
663.180693	12544.755070
663.521879	12639.992549
663.863013	12611.547838
664.204097	12580.973240
664.545129	12701.292980
664.886110	12678.350688
665.227040	12766.467537
665.567918	12774.545986
665.908746	12805.337354
666.249522	12788.603244
666.590248	12839.579391
666.930922	12949.368160
667.271545	12932.114811
667.612118	13016.266793
667.952639	12922.629880
668.293109	12932.177826
668.633528	12886.376423
668.973896	12862.511600
669.314213	12948.213736
669.654480	12676.906398
669.994695	12749.718303
670.334859	12776.171758
670.674973	12719.400804
671.015035	12758.084098
671.355047	12697.323071
671.695008	12664.878205
672.034918	12677.231552
672.374777	12721.429869
672.714585	12628.675158
673.054342	12667.865088
673.394049	12615.447171
673.733705	12719.788973
674.073310	12623.500414
674.412864	12634.825366
674.752368	12503.488185
675.091820	12522.962162
675.431223	12511.186027
675.770574	12375.198381
676.109875	12304.196250
676.449125	12260.789395
676.788324	12194.757841
677.127473	12030.002851
677.466571	12021.349711
677.805619	11918.071592
678.144616	11850.873011
678.483562	11818.952425
678.822458	11683.962928
679.161303	11662.192705
679.500098	11650.043524
679.838842	11605.890578
680.177535	11623.204421
680.516179	11685.843278
680.854771	11636.180351
681.193314	11862.061852
681.531805	12003.791372
681.870247	12421.720670
682.208638	12834.571005
682.546978	13153.960869
682.885268	13198.159185
683.223508	12887.309036
683.561697	12735.840007
683.899836	12637.419040
684.237925	12434.326075
684.575963	12353.271883
684.913951	12277.442847
685.251889	12219.144423
685.589776	12316.105976
685.927614	12245.728948
686.265401	12215.166952
686.603137	12262.213521
686.940824	12416.130030
687.278460	12537.122763
687.616046	12583.869383
687.953582	12752.780804
688.291068	12677.954958
688.628504	12912.877768
688.965889	12917.112338
689.303224	12896.801529
689.640510	12786.231381
689.977745	12471.925521
690.314930	12246.964030
690.652065	12151.824854
690.989150	11865.361287
691.326185	11637.677574
691.663170	11427.524473
692.000105	11186.970693
692.336990	11076.471122
692.673825	10818.663993
693.010610	10699.528925
693.347345	10492.602163
693.684030	10295.488006
694.020665	10232.637421
694.357251	10044.388133
694.693786	9988.827056
695.030272	9819.749277
695.366707	9701.385505
695.703093	9632.760277
696.039429	9624.044123
696.375716	9551.842197
696.711952	9420.217670
697.048139	9458.532959
697.384276	9419.675746
697.720363	9429.551366
698.056400	9368.810503
698.392388	9315.812853
698.728326	9284.038460
699.064214	9216.577739
699.400053	9263.636911
699.735842	9075.639681
700.071581	9033.712404
700.407270	8961.061816
700.742910	8882.611379
701.078501	8790.895147
701.414042	8668.863936
701.749533	8601.806507
702.084974	8456.981719
702.420366	8573.422291
702.755709	8457.127913
703.091002	8319.426275
703.426246	8350.215122
703.761440	8303.498749
704.096584	8254.468487
704.431679	8182.785800
704.766725	8180.887805
705.101721	8121.815564
705.436668	8176.726333
705.771565	8063.985968
706.106413	8146.877661
706.441212	8186.501130
706.775961	8141.332392
707.110661	8184.265378
707.445311	8327.464394
707.779913	8230.081905
708.114465	8350.653702
708.448967	8391.318170
708.783421	8533.234212
709.117825	8717.221204
709.452180	8746.424608
709.786485	8840.976490
710.120742	9127.223288
710.454949	9124.496023
710.789107	9221.510508
711.123216	9442.222306
711.457275	9606.909241
711.791286	9761.677705
712.125247	9758.463969
712.459159	9749.526003
712.793023	9994.203447
713.126837	9569.902130
713.460602	9722.649092
713.794318	9550.274398
714.127985	9573.151154
714.461602	9251.865816
714.795171	9202.643990
715.128691	8961.271023
715.462162	8711.713743
715.795584	8650.960278
716.128957	8508.366200
716.462281	8337.024943
716.795556	8392.248263
717.128782	8182.695059
717.461960	7916.980881
717.795088	7989.215574
718.128167	7894.061275
718.461198	7725.268321
718.794180	7664.903024
719.127113	7657.852970
719.459997	7507.976946
719.792833	7273.565812
720.125619	7339.851944
720.458357	7196.511776
720.791046	7177.763725
721.123686	7178.522418
721.456278	7019.869745
721.788821	7041.191305
722.121315	6934.689369
722.453761	6998.482650
722.786158	6944.227232
723.118506	6953.974303
723.450805	6921.289982
723.783056	6991.258677
724.115259	6893.722432
724.447412	6891.587503
724.779518	6938.235820
725.111574	6946.899043
725.443582	7025.389809
725.775542	7004.000193
726.107453	7194.623864
726.439315	7102.688341
726.771129	7166.421129
727.102895	7336.479412
727.434612	7446.913449
727.766281	7473.961760
728.097901	7561.781181
728.429473	7551.015797
728.760996	7527.587034
729.092471	7504.480906
729.423897	7451.468132
729.755276	7456.968031
730.086606	7391.634677
730.417887	7492.654359
730.749120	7683.991353
731.080305	7883.091724
731.411442	8001.793253
731.742530	8000.069178
732.073570	8107.844007
732.404562	8188.409207
732.735506	8036.390692
733.066401	8180.842435
733.397249	8108.632947
733.728048	7873.649643
734.058798	7532.824793
734.389501	7312.140722
734.720156	7124.844212
735.050762	6898.345170
735.381320	6802.233051
735.711831	6749.895792
736.042293	6643.371170
736.372707	6660.380023
736.703073	6524.548653
737.033391	6561.331433
737.363661	6571.189409
737.693883	6600.362566
738.024056	6692.161978
738.354182	6726.774540
738.684260	6763.884994
739.014290	6883.047789
739.344272	6992.914696
739.674207	7017.772625
740.004093	7088.689057
740.333931	7099.479647
740.663722	7105.718075
740.993464	7185.985847
741.323159	7171.769793
741.652806	6925.053203
741.982405	6944.252438
742.311956	6995.503328
742.641460	6834.236817
742.970915	6637.946889
743.300323	6635.214583
743.629683	6579.648465
743.958996	6447.663496
744.288260	6356.451378
744.617477	6304.277957
744.946647	6305.893647
745.275768	6139.996835
745.604842	6093.293065
745.933869	6075.948976
746.262847	6036.930445
746.591778	6025.461820
746.920662	5986.965048
747.249498	5972.196988
747.578286	6021.169277
747.907027	6097.096616
748.235720	6162.026677
748.564365	6129.891842
748.892963	6157.582900
749.221514	6313.289019
749.550017	6143.898688
749.878473	6020.952508
750.206881	6075.301187
750.535242	6016.811200
750.863555	5951.036745
751.191821	5966.351770
751.520039	5966.379497
751.848210	5874.267534
752.176334	5896.110853
752.504411	5949.990706
752.832440	5873.763418
753.160421	5797.934382
753.488356	5848.262742
753.816243	5881.819182
754.144082	5733.826029
754.471875	5704.645310
754.799620	5745.208954
755.127318	5755.961735
755.454969	5712.554880
755.782572	5675.583058
756.110129	5718.490839
756.437638	5708.458942
756.765100	5640.978057
757.092515	5642.422348
757.419882	5695.793043
757.747203	5677.705383
758.074477	5736.702007
758.401703	5726.614658
758.728882	5675.199930
759.056014	5731.386110
759.383099	5860.752200
759.710138	5873.786103
760.037129	5856.066448
760.364073	5862.055338
760.690970	5947.379388
761.017820	5927.429022
761.344623	5880.949583
761.671379	5984.283155
761.998088	6101.973932
762.324751	6347.543660
762.651366	6950.863911
762.977935	8256.353878
763.304456	9895.936235
763.630931	10798.244800
763.957359	10400.124716
764.283740	9467.939752
764.610074	8618.454918
764.936362	7622.867363
765.262602	7028.699326
765.588796	6487.944835
765.914943	6153.000492
766.241044	5984.033618
766.567097	5785.502897
766.893104	5528.129308
767.219064	5346.080639
767.544978	5285.314571
767.870845	5206.455801
768.196665	5101.168783
768.522438	5030.874933
768.848165	4993.129294
769.173846	4926.074386
769.499479	4892.979211
769.825066	4832.510571
770.150607	4774.055871
770.476101	4750.163323
770.801548	4745.880862
771.126949	4666.626362
771.452303	4615.950163
771.777611	4571.787135
772.102872	4592.657512
772.428087	4552.769382
772.753256	4513.912168
773.078378	4468.934994
773.403453	4397.975712
773.728482	4384.788054
774.053465	4337.892720
774.378401	4329.640351
774.703291	4325.415864
775.028135	4253.339967
775.352932	4204.627298
775.677683	4194.509702
776.002388	4211.672310
776.327046	4222.294021
776.651658	4148.481447
776.976224	4090.031788
777.300743	4092.653188
777.625216	4115.250160
777.949643	4107.514510
778.274024	4061.352664
778.598359	4019.022095
778.922647	4043.300292
779.246889	4032.766801
779.571086	4029.510216
779.895236	4014.550592
780.219339	3999.593488
780.543397	3992.331706
780.867409	4047.809604
781.191374	4061.277047
781.515294	3994.481758
781.839167	3985.488340
782.162995	4009.035569
782.486776	3998.625587
782.810511	4007.830734
783.134201	4004.044827
783.457844	3954.414667
783.781441	3903.816606
784.104993	3909.603851
784.428498	3925.745626
784.751958	3925.334772
785.075372	3908.033532
785.398739	3869.080536
785.722061	3879.659397
786.045337	3920.782610
786.368568	3953.678659
786.691752	3865.050133
787.014891	3916.003596
787.337983	4040.905744
787.661030	4202.754509
787.984031	4363.171586
788.306987	4537.325807
788.629897	4618.153147
788.952760	4574.229574
789.275579	4504.971682
789.598351	4440.409625
789.921078	4301.001556
790.243759	4101.044189
790.566395	4081.449224
790.888984	4074.956218
791.211529	3967.488900
791.534027	3906.006988
791.856480	3896.375863
792.178888	3835.534177
792.501249	3784.603400
792.823566	3799.217705
793.145836	3826.457580
793.468062	3776.250208
793.790241	3729.339751
794.112375	3757.297990
794.434464	3820.030109
794.756507	3847.466589
795.078505	3826.888599
795.400457	3863.588199
795.722364	3996.059639
796.044226	4103.746247
796.366042	4173.359541
796.687812	4158.999814
797.009538	4160.945699
797.331218	4122.711068
797.652852	4095.327520
797.974442	4074.815065
798.295986	4075.717432
798.617484	3992.064525
798.938938	3906.337183
799.260346	3949.454172
799.581709	3942.204993
799.903026	3869.700598
800.224299	3831.839012
800.545526	3825.701407
800.866708	3788.263278
801.187845	3723.910428
801.508936	3763.622118
801.829983	3762.573558
802.150984	3680.226310
802.471940	3671.701719
802.792851	3679.780168
803.113717	3682.530117
803.434538	3684.496167
803.755314	3625.461735
804.076045	3599.981223
804.396731	3620.486116
804.717372	3646.193480
805.037967	3628.907364
805.358518	3618.701548
805.679024	3648.615755
805.999485	3663.509844
806.319901	3665.506141
806.640272	3675.679189
806.960598	3691.110161
807.280879	3666.693332
807.601115	3680.775796
807.921306	3695.586706
808.241453	3737.120772
808.561554	3709.575907
808.881611	3643.398160
809.201623	3684.450797
809.521590	3694.772559
809.841513	3665.380112
810.161390	3695.589226
810.481223	3673.151050
810.801011	3619.377062
811.120755	3611.613685
811.440453	3646.248933
811.760107	3651.184222
812.079716	3605.287037
812.399281	3576.602872
812.718801	3601.675051
813.038276	3569.237746
813.357707	3568.675657
813.677093	3588.331116
813.996434	3535.436810
814.315731	3542.567522
814.634983	3549.713357
814.954191	3562.013773
815.273354	3589.581322
815.592473	3585.561002
815.911547	3597.778239
816.230577	3637.328611
816.549562	3684.778472
816.868502	3724.432188
817.187399	3751.639295
817.506250	3745.920106
817.825058	3718.357598
818.143821	3810.779592
818.462539	3916.419491
818.781213	3962.011686
819.099843	4017.945809
819.418429	4264.143160
819.736970	4505.858925
820.055466	4754.609620
820.373919	5121.603100
820.692327	5531.063259
821.010691	5972.154138
821.329011	7356.046651
821.647286	10112.849523
821.965517	14660.058512
822.283704	18686.004632
822.601847	20850.786999
822.919945	19038.393889
823.237999	16456.103161
823.556010	13979.359070
823.873976	11879.968030
824.191897	9788.017734
824.509775	8432.920292
824.827609	7299.847868
825.145398	6757.548264
825.463144	6640.472507
825.780845	6751.501400
826.098502	6939.430574
826.416116	7818.819533
826.733685	9145.482347
827.051210	10257.074414
827.368692	10301.184510
827.686129	9045.725474
828.003522	7526.190635
828.320872	6509.951992
828.638177	5803.827491
828.955439	5248.103294
829.272656	4745.459926
829.589830	4460.647337
829.906960	4289.444711
830.224046	4099.478911
830.541088	3977.624140
830.858086	3928.069597
831.175041	3853.392465
831.491952	3833.651307
831.808819	3846.002133
832.125642	3923.933331
832.442421	4069.451278
832.759157	4342.580993
833.075849	4893.868975
833.392497	5760.468527
833.709101	6536.004676
834.025662	6872.010182
834.342179	6513.432909
834.658653	5845.250652
834.975083	5195.463565
835.291469	4617.018888
835.607811	4211.634501
835.924110	4073.075867
836.240366	3871.835526
836.556578	3665.266686
836.872746	3558.512691
837.188871	3514.962163
837.504952	3451.874643
837.820990	3366.411962
838.136984	3321.301197
838.452935	3344.651822
838.768842	3341.198631
839.084706	3367.500852
839.400526	3522.763349
839.716303	3862.103579
840.032037	4384.152868
840.347727	4657.474147
840.663373	4373.999984
840.978977	3991.769617
841.294537	3681.899973
841.610054	3456.391517
841.925527	3348.324302
842.240957	3278.663118
842.556344	3224.548852
842.871687	3164.947290
843.186987	3114.863427
843.502244	3080.102150
843.817458	3046.457489
844.132629	3012.810308
844.447756	3021.904550
844.762840	3004.726818
845.077881	2975.344453
845.392879	2956.971968
845.707833	2954.219498
846.022745	2950.579784
846.337613	2953.236473
846.652438	2944.389248
846.967221	2936.565377
847.281960	2923.518871
847.596656	2916.642737
847.911309	2921.328489
848.225919	2914.880853
848.540485	2908.057652
848.855009	2909.796850
849.169490	2897.700601
849.483928	2888.520660
849.798323	2889.992677
850.112675	2885.599311
850.426984	2897.531723
850.741251	2894.007956
851.055474	2884.079403
851.369654	2877.548589
851.683792	2883.701317
851.997887	2888.918911
852.311938	2895.943759
852.625947	2878.135883
852.939914	2886.032851
853.253837	2888.636607
853.567718	2872.646067
853.881555	2872.721684
854.195350	2889.110475
854.509103	2884.412120
854.822812	2876.494987
855.136479	2875.350646
855.450103	2876.759648
855.763685	2870.168339
856.077224	2869.752444
856.390720	2878.592108
856.704173	2887.222563
857.017584	2881.122767
857.330953	2879.302910
857.644278	2886.920094
857.957561	2895.792524
858.270802	2899.747310
858.584000	2900.359810
858.897155	2886.317676
859.210268	2886.327758
859.523339	2885.647202
859.836367	2882.468755
860.149352	2875.617827
860.462295	2873.190511
860.775195	2878.622354
861.088054	2883.625700
861.400869	2862.614170
861.713642	2861.890765
862.026373	2875.854761
862.339062	2879.875081
862.651708	2883.998745
862.964312	2887.751884
863.276873	2880.134701
863.589392	2888.742471
863.901869	2900.490880
864.214303	2925.936104
864.526696	2939.723660
864.839045	2935.917588
865.151353	2931.665375
865.463619	2933.946497
865.775842	2936.182249
866.088023	2953.591874
866.400162	2957.294601
866.712258	2934.528751
867.024313	2923.060126
867.336325	2929.308636
867.648296	2952.255968
867.960224	2944.721964
868.272110	2927.670261
868.583954	2934.006991
868.895755	2948.336471
869.207515	2935.363062
869.519233	2940.220213
869.830909	2951.061215
870.142542	2960.485652
870.454134	2959.933645
870.765684	2962.716362
871.077191	2961.685446
871.388657	2968.927064
871.700081	2982.979280
872.011463	2996.424038
872.322803	2994.732730
872.634101	2995.839264
872.945357	3010.624968
873.256571	3035.734955
873.567744	3030.640869
873.878874	3021.493696
874.189963	3044.904814
874.501010	3047.984959
874.812015	3039.709905
875.122979	3037.547250
875.433900	3034.189842
875.744780	3040.864329
876.055618	3048.446225
876.366415	3044.945143
876.677169	3055.556772
876.987882	3052.375804
877.298554	3046.921276
877.609183	3068.348700
877.919771	3091.679160
878.230317	3116.370732
878.540822	3169.814524
878.851285	3206.385575
879.161707	3250.263778
879.472087	3355.054243
879.782425	3583.594952
880.092722	4018.386910
880.402977	4547.329977
880.713191	5177.673333
881.023363	6330.176885
881.333494	7612.684232
881.643583	8162.548087
881.953631	7868.724436
882.263637	7234.406129
882.573602	6655.139744
882.883526	6075.517957
883.193408	5501.721223
883.503248	5038.202251
883.813048	4735.455756
884.122806	4431.017955
884.432522	4113.281590
884.742197	3880.259294
885.051831	3683.235879
885.361424	3549.231927
885.670975	3479.918582
885.980485	3391.501785
886.289954	3315.201401
886.599382	3269.147940
886.908768	3233.877507
887.218113	3187.186340
887.527417	3132.693988
887.836680	3080.752459
888.145901	3073.268866
888.455082	3065.991961
888.764221	3013.805936
889.073319	2987.065135
889.382376	2984.108499
889.691392	2989.210146
890.000366	2987.438181
890.309300	2974.162302
890.618193	2985.968684
890.927044	3004.625995
891.235855	3004.290758
891.544625	2987.871720
891.853353	3002.594410
892.162041	3016.616379
892.470687	3058.808316
892.779293	3112.476440
893.087858	3157.763646
893.396381	3227.835684
893.704864	3352.581557
894.013306	3588.953699
894.321707	3895.965009
894.630068	4098.321966
894.938387	4091.236624
895.246665	4048.926220
895.554903	3931.550514
895.863100	3727.908063
896.171256	3563.717683
896.479371	3420.685025
896.787446	3299.309163
897.095480	3195.698328
897.403473	3131.045530
897.711425	3095.144953
898.019336	3084.029209
898.327207	3055.128274
898.635038	3018.340454
898.942827	3005.228413
899.250576	2993.933708
899.558284	2964.531178
899.865952	2943.000410
900.173579	2921.804878
900.481165	2918.102151
900.788711	2903.528175
901.096216	2876.996582
901.403681	2865.046527
901.711105	2872.547764
902.018489	2871.695809
902.325832	2869.167670
902.633135	2880.180071
902.940397	2914.469999
903.247619	2997.928822
903.554800	3189.507792
903.861941	3532.739792
904.169041	3958.913897
904.476101	4260.271554
904.783121	4218.480388
905.090100	3970.974858
905.397039	3697.099052
905.703938	3446.115125
906.010796	3263.431272
906.317614	3151.915907
906.624391	3057.696742
906.931129	2983.657315
907.237826	2922.755136
907.544483	2876.245450
907.851099	2847.740246
908.157675	2825.675116
908.464211	2804.008236
908.770707	2790.719755
909.077163	2777.950512
909.383578	2764.472987
909.689954	2751.401275
909.996289	2751.643251
910.302584	2752.028899
910.608839	2753.798344
910.915054	2744.303331
911.221229	2737.858216
911.527363	2740.862743
911.833458	2750.940010
912.139513	2752.449835
912.445527	2757.516195
912.751502	2769.199069
913.057436	2773.085799
913.363331	2789.086421
913.669186	2810.891932
913.975000	2845.660770
914.280775	2903.870973
914.586510	2974.202631
914.892205	3052.829508
915.197859	3182.805577
915.503475	3375.793550
915.809050	3590.531580
916.114585	3733.728076
916.420081	3756.105757
916.725536	3694.003783
917.030952	3578.526072
917.336328	3445.510187
917.641665	3317.719457
917.946961	3216.709858
918.252218	3146.405926
918.557435	3070.377764
918.862612	3007.317971
919.167750	2959.321145
919.472848	2920.592481
919.777906	2892.586351
920.082925	2866.120293
920.387904	2838.348576
920.692843	2819.252686
920.997743	2805.596200
921.302603	2793.608336
921.607423	2786.147428
921.912204	2772.072527
922.216946	2762.212030
922.521647	2752.633837
922.826310	2746.133270
923.130932	2738.180849
923.435516	2729.419324
923.740059	2720.534290
924.044564	2715.740153
924.349028	2708.896787
924.653454	2703.089377
924.957840	2694.922708
925.262186	2690.925073
925.566493	2686.861903
925.870761	2681.866120
926.174989	2679.108609
926.479178	2673.268432
926.783328	2669.623678
927.087438	2668.718791
927.391509	2667.753410
927.695541	2661.668737
927.999533	2657.852583
928.303486	2657.787048
928.607400	2658.124806
928.911275	2658.452481
929.215110	2655.064825
929.518906	2652.955102
929.822663	2652.171203
930.126381	2652.135915
930.430060	2655.463077
930.733699	2654.406955
931.037299	2656.783859
931.340861	2656.746050
931.644383	2658.429796
931.947866	2657.020793
932.251309	2657.338386
932.554714	2651.616676
932.858080	2652.887047
933.161407	2650.984011
933.464694	2649.970739
933.767943	2643.233237
934.071153	2648.062663
934.374323	2648.597025
934.677455	2647.515697
934.980548	2648.586943
935.283602	2644.251550
935.586617	2645.723567
935.889593	2644.478402
936.192530	2645.907569
936.495428	2645.279946
936.798287	2648.082827
937.101108	2652.703045
937.403890	2655.455515
937.706632	2659.324600
938.009336	2666.324242
938.312002	2676.973680
938.614628	2682.377797
938.917216	2689.846266
939.219765	2692.613860
939.522275	2692.041689
939.824747	2687.950792
940.127179	2683.822087
940.429573	2681.188085
940.731929	2680.268074
941.034246	2678.095337
941.336524	2673.654080
941.638763	2672.189625
941.940964	2667.597134
942.243126	2665.502534
942.545250	2663.584375
942.847335	2663.864159
943.149381	2658.518016
943.451389	2654.691780
943.753359	2653.204640
944.055290	2652.607263
944.357182	2651.485606
944.659036	2648.718013
944.960851	2648.856644
945.262628	2649.201963
945.564367	2648.566778
945.866067	2650.046357
946.167729	2648.062663
946.469352	2652.745895
946.770937	2648.667601
947.072484	2647.866058
947.373992	2647.160296
947.675462	2645.315234
947.976893	2642.751807
948.278286	2639.096971
948.579641	2638.915489
948.880958	2636.649490
949.182236	2640.324492
949.483476	2639.318781
949.784678	2637.695530
950.085841	2638.857516
950.386967	2640.407671
950.688054	2639.273411
950.989103	2641.131076
951.290114	2640.022022
951.591087	2642.613175
951.892021	2648.884371
952.192917	2649.721202
952.493776	2650.411840
952.794596	2654.525422
953.095378	2653.491985
953.396122	2650.419402
953.696828	2652.050215
953.997496	2647.165337
954.298126	2646.938485
954.598718	2641.940181
954.899272	2641.189049
955.199788	2638.008081
955.500266	2634.343162
955.800706	2634.060858
956.101108	2631.628501
956.401472	2629.271762
956.701798	2627.000722
957.002087	2626.300002
957.302337	2626.632718
957.602550	2624.969137
957.902724	2621.342027
958.202861	2619.381018
958.502960	2619.771707
958.803022	2619.333127
959.103045	2620.054012
959.403031	2617.054525
959.702979	2614.312138
960.002889	2615.519494
960.302762	2613.571088
960.602596	2614.080245
960.902393	2615.640482
961.202153	2615.252313
961.501875	2615.181737
961.801559	2613.225769
962.101205	2614.765842
962.400814	2612.628392
962.700385	2612.812394
962.999918	2611.756273
963.299414	2609.943978
963.598873	2613.505553
963.898293	2609.606221
964.197677	2611.625203
964.497022	2612.983794
964.796331	2614.450769
965.095601	2612.608228
965.394835	2611.506736
965.694030	2607.962804
965.993189	2610.475820
966.292309	2609.674276
966.591393	2611.884822
966.890439	2613.510594
967.189447	2611.282404
967.488419	2612.275512
967.787353	2611.305089
968.086249	2612.081427
968.385108	2611.761314
968.683930	2610.780809
968.982714	2611.849534
969.281462	2613.868516
969.580172	2613.349277
969.878844	2611.405913
970.177480	2609.167640
970.476078	2610.548916
970.774639	2611.552106
971.073162	2612.787189
971.371649	2612.663680
971.670098	2611.015223
971.968510	2610.904318
972.266885	2608.842486
972.565223	2611.151334
972.863524	2614.234000
973.161788	2610.622013
973.460014	2612.613269
973.758204	2611.388268
974.056356	2610.372476
974.354471	2614.062601
974.652550	2611.804164
974.950591	2613.233331
975.248595	2610.863988
975.546563	2612.451952
975.844493	2611.912548
976.142386	2610.372476
976.440243	2608.837445
976.738062	2610.826180
977.035845	2611.436159
977.333590	2610.667383
977.631299	2609.896087
977.928971	2608.461879
978.226606	2602.851074
978.524204	2607.746035
978.821765	2601.694130
979.119290	2608.474482
979.416777	2607.131014
979.714228	2609.240737
980.011642	2609.674276
980.309020	2610.987497
980.606360	2610.085130
980.903664	2611.476489
981.200931	2607.216714
981.498162	2611.506736
981.795356	2610.594287
982.092513	2612.464555
982.389633	2615.295163
982.686717	2618.433281
982.983764	2621.450412
983.280775	2623.902933
983.577749	2627.454426
983.874686	2625.770680
984.171587	2624.729682
984.468451	2623.154322
984.765279	2620.122067
985.062070	2617.525873
985.358824	2614.254164
985.655543	2614.959926
985.952224	2611.912548
986.248869	2610.006992
986.545478	2608.333329
986.842050	2608.232506
987.138586	2608.018257
987.435086	2610.180912
987.731549	2607.632609
988.027975	2608.671087
988.324366	2606.236209
988.620719	2607.254522
988.917037	2606.082454
989.213318	2606.548761
989.509563	2604.907865
989.805772	2605.714450
990.101944	2607.801487
990.398080	2605.384254
990.694180	2605.207814
990.990244	2604.391147
991.286271	2604.832248
991.582262	2605.706888
991.878217	2605.810232
992.174136	2606.236209
992.470019	2601.973914
992.765865	2603.677824
993.061676	2602.820827
993.357450	2602.183122
993.653188	2603.677824
993.948890	2607.932558
994.244556	2606.145468
994.540186	2607.141096
994.835780	2610.417846
995.131337	2605.727053
995.426859	2608.905500
995.722345	2606.962135
996.017795	2608.340891
996.313208	2610.233844
996.608586	2608.608072
996.903928	2608.471961
997.199234	2612.792230
997.494504	2611.133690
997.789738	2611.466406
998.084936	2610.264091
998.380099	2608.724019
998.675225	2605.870726
998.970316	2606.626899
999.265371	2606.654625
999.560390	2605.699326
999.855373	2606.475664
1000.150320	2604.885180
1000.445232	2603.786208
1000.740108	2603.892073
1001.034948	2604.365941
1001.329752	2602.697319
1001.624521	2606.185798
1001.919254	2601.633636
1002.213951	2605.583380
1002.508613	2604.902824
1002.803239	2606.092536
1003.097829	2604.781836
1003.392384	2604.623040
1003.686903	2603.622371
1003.981386	2602.742690
1004.275834	2603.781167
1004.570246	2602.830910
1004.864623	2603.609768
1005.158964	2606.256374
1005.453270	2603.924840
1005.747540	2599.528954
1006.041775	2602.309150
1006.335974	2600.842175
1006.630138	2605.106991
1006.924266	2603.854264
1007.218359	2604.277721
1007.512416	2600.771598
1007.806438	2601.290837
1008.100425	2601.618512
1008.394376	2598.795466
1008.688292	2604.691096
1008.982172	2603.672782
1009.276017	2605.442227
1009.569827	2601.910899
1009.863602	2603.037597
1010.157341	2604.340735
1010.451045	2605.860643
1010.744714	2606.357197
1011.038347	2601.326125
1011.331945	2600.151537
1011.625508	2604.794439
1011.919036	2603.846702
1012.212528	2599.518872
1012.505986	2602.752772
1012.799408	2602.851074
1013.092795	2602.296547
1013.386147	2604.953236
1013.679464	2603.042638
1013.972745	2603.579521
1014.265992	2601.555498
1014.559204	2599.574324
1014.852380	2602.611620
1015.145521	2601.852926
1015.438628	2602.760334
1015.731699	2603.466095
1016.024736	2602.019284
1016.317737	2600.101125
1016.610703	2603.098091
1016.903635	2600.517020
1017.196531	2601.540374
1017.489393	2597.545260
1017.782219	2600.658172
1018.075011	2602.062134
1018.367768	2603.796291
1018.660490	2604.433997
1018.953177	2604.433997
1019.245829	2604.433997
