Dividing Wavelength (nm)	Counts (n)	Blue Motor Position (mm): 33.300000	Red Motor Position (mm): 0.000000	
326.493990	2224.126830
326.888308	2224.126830
327.282561	2224.126830
327.676750	2182.829698
328.070874	2179.666374
328.464933	2182.562517
328.858929	2184.190809
329.252859	2188.634586
329.646726	2195.747654
330.040528	2210.427494
330.434265	2222.223794
330.827938	2241.309603
331.221547	2257.511871
331.615091	2274.548451
332.008571	2292.527726
332.401986	2313.274595
332.795338	2331.843685
333.188625	2352.116685
333.581847	2366.736031
333.975006	2386.804865
334.368100	2406.876219
334.761129	2428.492686
335.154095	2444.558844
335.546996	2470.283852
335.939833	2508.024450
336.332606	2522.376615
336.725315	2535.813811
337.117960	2547.809236
337.510540	2557.694939
337.903056	2570.040725
338.295508	2580.483475
338.687896	2588.312387
339.080220	2594.061823
339.472480	2600.418718
339.864676	2607.007506
340.256807	2613.593773
340.648875	2616.404217
341.040879	2619.844804
341.432818	2625.369909
341.824694	2625.062398
342.216506	2626.637759
342.608253	2626.932666
342.999937	2627.043572
343.391557	2624.669188
343.783113	2626.952831
344.174605	2625.291771
344.566033	2624.674229
344.957397	2624.175155
345.348697	2623.920577
345.739934	2619.539814
346.131106	2619.393621
346.522215	2616.376490
346.913260	2617.339351
347.304241	2616.689042
347.695159	2611.826849
348.086012	2607.806529
348.476802	2608.834924
348.867528	2606.163112
349.258191	2600.524582
349.648789	2602.029366
350.039324	2597.056268
350.429796	2599.438213
350.820203	2599.861670
351.210548	2597.867894
351.600828	2596.335383
351.991045	2597.346134
352.381198	2596.284972
352.771288	2596.615167
353.161314	2593.991247
353.551276	2594.066864
353.941175	2592.685588
354.331010	2592.420927
354.720782	2592.431009
355.110490	2592.032758
355.500135	2592.728437
355.889717	2591.493355
356.279235	2590.394383
356.668689	2591.566452
357.058080	2593.275403
357.447408	2594.356730
357.836672	2594.906216
358.225873	2595.725403
358.615010	2593.580392
359.004084	2595.425455
359.393095	2595.090218
359.782043	2595.165835
360.170927	2595.869076
360.559748	2597.076433
360.948505	2599.395363
361.337199	2598.500559
361.725830	2600.612802
362.114398	2597.126844
362.502903	2602.921651
362.891344	2599.574324
363.279722	2598.692122
363.668037	2601.500045
364.056289	2601.205138
364.444478	2601.588265
364.832603	2604.325612
365.220665	2602.871239
365.608665	2601.651280
365.996601	2604.744028
366.384474	2606.279059
366.772284	2605.288472
367.160031	2606.558843
367.547715	2604.270159
367.935336	2604.088678
368.322893	2605.280911
368.710388	2604.244953
369.097820	2603.952567
369.485189	2602.788060
369.872495	2609.533124
370.259738	2607.811570
370.646918	2607.128493
371.034035	2605.984152
371.421090	2610.677466
371.808081	2608.814759
372.195010	2610.627054
372.581875	2611.012702
372.968678	2609.359204
373.355418	2611.768876
373.742096	2610.407764
374.128710	2611.320213
374.515262	2611.680655
374.901751	2611.816767
375.288177	2611.849534
375.674540	2612.290635
376.060841	2613.805502
376.447079	2613.344236
376.833254	2613.598814
377.219367	2612.956067
377.605417	2610.571602
377.991404	2610.972373
378.377329	2614.932200
378.763191	2616.189967
379.148991	2615.421192
379.534727	2614.881788
379.920402	2617.057046
380.306013	2615.827004
380.691563	2615.169134
381.077049	2619.028137
381.462474	2616.167282
381.847835	2613.689555
382.233134	2618.098044
382.618371	2616.252982
383.003545	2619.386059
383.388657	2619.053343
383.773706	2618.823970
384.158693	2620.643827
384.543618	2621.336986
384.928480	2620.868158
385.313280	2621.740278
385.698017	2621.790689
386.082692	2624.586009
386.467305	2624.349075
386.851856	2625.876545
387.236344	2625.475773
387.620770	2621.523508
388.005133	2621.677263
388.389435	2624.964096
388.773674	2620.732047
389.157851	2626.259672
389.541965	2628.220681
389.926018	2628.656741
390.310008	2627.855197
390.693936	2625.561472
391.077802	2630.615229
391.461606	2627.772018
391.845348	2628.621453
392.229027	2631.477267
392.612645	2628.898716
392.996200	2630.801752
393.379694	2630.189252
393.763125	2634.771661
394.146494	2631.260497
394.529801	2632.871146
394.913047	2636.213431
395.296230	2633.854171
395.679351	2633.541619
396.062410	2637.514048
396.445408	2634.466671
396.828343	2635.971455
397.211217	2637.819038
397.594028	2639.785088
397.976778	2638.731487
398.359466	2640.354738
398.742092	2640.231230
399.124656	2641.284831
399.507158	2642.761889
399.889598	2643.397075
400.271977	2646.056283
400.654294	2644.831283
401.036549	2642.903042
401.418742	2642.096457
401.800874	2647.803043
402.182944	2643.863382
402.564952	2646.217600
402.946898	2645.673156
403.328783	2646.504946
403.710606	2644.995121
404.092367	2649.580050
404.474067	2650.386635
404.855705	2648.755821
405.237282	2651.425112
405.618797	2652.461069
406.000250	2654.999290
406.381642	2657.058602
406.762972	2653.502068
407.144240	2654.149856
407.525447	2658.954076
407.906593	2657.461894
408.287677	2666.397339
408.668700	2665.109324
409.049661	2669.505211
409.430560	2674.538803
409.811399	2678.987621
410.192176	2689.216122
410.572891	2692.991946
410.953545	2706.008206
411.334138	2712.042467
411.714669	2727.773387
412.095139	2736.819738
412.475547	2762.123810
412.855894	2784.773714
413.236180	2808.366314
413.616405	2828.450271
413.996568	2865.616178
414.376670	2899.472567
414.756711	2931.892227
415.136691	2980.468786
415.516609	3034.504914
415.896466	3088.447780
416.276262	3157.377997
416.655997	3221.612380
417.035670	3310.525731
417.415283	3429.013011
417.794834	3509.595855
418.174324	3565.653486
418.553753	3633.502375
418.933121	3774.465640
419.312428	3879.566136
419.691674	3915.983431
420.070859	4124.609063
420.449983	4144.262001
420.829045	4337.693594
421.208047	4374.284810
421.586988	4574.547167
421.965867	4683.115977
422.344686	4827.250127
422.723444	4955.174447
423.102141	4814.874094
423.480777	5213.384867
423.859352	5119.805928
424.237866	5514.127503
424.616319	5558.194749
424.994712	5856.222723
425.373044	5773.820023
425.751314	6120.033866
426.129524	6167.546741
426.507673	6360.413725
426.885762	6563.874695
427.263789	6616.073322
427.641756	6678.334093
428.019662	6864.811415
428.397508	7114.318283
428.775292	7021.535847
429.153016	7397.401757
429.530679	7386.018831
429.908282	7517.260231
430.285824	7411.915239
430.663305	8016.818412
431.040726	7701.350566
431.418086	7782.102289
431.795385	8120.822457
432.172624	8275.510263
432.549802	8291.004249
432.926920	8447.194319
433.303977	8419.155421
433.680974	8658.920260
434.057910	8812.201584
434.434786	8931.918905
434.811601	8886.384683
435.188355	9432.571017
435.565050	9253.037885
435.941683	9250.860106
436.318257	9767.825392
436.694770	9915.679914
437.071222	10043.742865
437.447614	9961.362850
437.823946	9896.906657
438.200218	10086.973280
438.576429	9942.163615
438.952580	10208.528102
439.328670	10302.154932
439.704700	10116.794226
440.080670	10139.963369
440.456580	10714.556605
440.832429	10490.134518
441.208218	10128.179672
441.583947	10479.149844
441.959616	10626.008737
442.335224	10448.550040
442.710773	10619.293921
443.086261	10817.431431
443.461689	10138.410693
443.837057	10767.206416
444.212365	11073.146481
444.587612	10733.380273
444.962800	10979.544857
445.337927	10759.541341
445.712995	10328.474796
446.088002	11431.995976
446.462949	11081.018242
446.837837	11058.575026
447.212664	11068.405276
447.587431	11562.259392
447.962139	12266.710230
448.336786	14504.402805
448.711374	15081.625003
449.085901	12963.188484
449.460369	12572.247003
449.834776	12026.146368
450.209124	12870.237168
450.583412	13276.796144
450.957640	14234.892638
451.331808	13424.582610
451.705917	12381.232642
452.079965	11716.034748
452.453954	12599.076024
452.827883	12232.271587
453.201752	12516.504444
453.575562	12023.676203
453.949311	12444.158845
454.323001	12404.104358
454.696632	12631.425108
455.070202	12918.904468
455.443713	13172.562726
455.817164	13618.845994
456.190556	13627.909989
456.563888	13992.985309
456.937160	14168.374613
457.310373	13497.722191
457.683526	13579.620776
458.056619	13139.006286
458.429653	13263.767282
458.802628	12722.549005
459.175542	13079.238366
459.548398	14034.446279
459.921194	14351.698693
460.293930	14412.825204
460.666607	15308.827286
461.039224	16339.120665
461.411782	17028.816046
461.784280	16935.295081
462.156719	16974.681616
462.529099	16666.636869
462.901419	15587.724081
463.273680	15388.333844
463.645882	15242.952008
464.018024	14987.799047
464.390106	15205.362644
464.762130	15930.393993
465.134094	16678.720514
465.505999	18647.858221
465.877845	21900.052761
466.249631	24738.655915
466.621358	24451.668068
466.993026	23006.893540
467.364634	22443.927726
467.736184	21002.598827
468.107674	20188.787717
468.479105	20312.961419
468.850477	19794.153591
469.221790	19359.419607
469.593043	18689.362041
469.964238	18131.301269
470.335373	17799.913459
470.706449	18222.624291
471.077467	17766.241072
471.448425	19598.778633
471.819324	23588.372993
472.190164	25659.672203
472.560945	22149.567191
472.931667	19755.944166
473.302330	19113.002966
473.672934	18617.739848
474.043479	18965.536613
474.413965	18779.202964
474.784393	18409.704031
475.154761	19087.446837
475.525070	19094.469164
475.895321	18743.476307
476.265513	19323.196396
476.635645	19905.938657
477.005719	19694.265648
477.375734	19882.015862
477.745691	20363.080570
478.115588	20873.746934
478.485427	21394.213302
478.855207	22448.300927
479.224928	24202.347722
479.594591	26427.084532
479.964194	26485.088048
480.333739	26690.537753
480.703226	26249.580464
481.072653	25927.599447
481.442022	26488.168193
481.811333	27400.178459
482.180584	27328.473087
482.549777	26374.580915
482.918912	26022.075711
483.287988	26134.753062
483.657005	25814.289432
484.025964	25558.834002
484.394864	25481.495140
484.763706	25177.281670
485.132489	24593.478246
485.501213	24764.166674
485.869879	24689.872670
486.238487	24496.703216
486.607036	24635.052642
486.975527	24341.047509
487.343959	24663.338556
487.712333	24613.136226
488.080648	24271.852631
488.448905	24749.209571
488.817104	24495.500901
489.185244	25165.881101
489.553326	25147.390149
489.921350	26128.386084
490.289315	28398.717610
490.657222	30181.246925
491.025070	30682.360302
491.392861	30480.066360
491.760593	29624.675814
492.128267	28737.475587
492.495883	27695.801803
492.863440	26816.848903
493.230939	25944.636027
493.598380	25791.135412
493.965763	25385.118361
494.333088	24946.114520
494.700354	24872.488468
495.067563	24757.351034
495.434713	24499.039791
495.801805	24663.484750
496.168839	24475.936183
496.535815	24300.216683
496.902733	24520.207596
497.269593	24180.459032
497.636395	24368.040367
498.003139	24337.047353
498.369825	24095.334108
498.736453	24286.451812
499.103023	24170.928731
499.469535	24184.610422
499.835989	24389.074581
500.202385	24420.536422
500.568723	23918.097222
500.935003	24175.644730
501.301226	23769.932669
501.667390	24610.834939
502.033497	24849.105076
502.399546	24586.292082
502.765537	24156.521113
503.131470	24537.677714
503.497345	24671.301059
503.863163	23889.778540
504.228923	24496.350335
504.594625	24691.062382
504.960269	24213.118147
505.325856	24712.830084
505.691385	24115.952428
506.056856	24719.479366
506.422270	24679.634086
506.787625	24267.708803
507.152924	24665.158413
507.518164	24708.900505
507.883347	24517.208109
508.248472	24198.410581
508.613540	24976.968902
508.978550	24775.640341
509.343503	24758.016467
509.708398	25006.671380
510.073236	25177.763101
510.438016	25392.463322
510.802738	25056.082250
511.167403	25318.353320
511.532010	25019.811148
511.896561	25785.406141
512.261053	25762.559632
512.625488	25586.991367
512.989866	25489.974361
513.354186	25331.351935
513.718449	25437.586690
514.082655	25815.953013
514.446803	25556.043723
514.810894	26020.538159
515.174927	25506.763924
515.538904	25541.109305
515.902822	26018.753591
516.266684	25783.361953
516.630488	25688.747057
516.994235	25648.984956
517.357925	25971.815408
517.721558	26136.683823
518.085133	26238.363897
518.448651	26143.254968
518.812112	25885.626800
519.175516	26079.418836
519.538863	26235.762661
519.902152	26021.619487
520.265385	26307.790667
520.628560	26092.709838
520.991678	26110.565605
521.354739	26182.994383
521.717743	26253.300835
522.080690	26039.341663
522.443580	26371.387344
522.806413	26365.912651
523.169189	26455.330117
523.531908	26516.345723
523.894569	26106.855316
524.257174	26192.428903
524.619722	26368.559256
524.982213	26058.147688
525.344647	26120.925177
525.707025	26262.929439
526.069345	26254.246052
526.431608	26192.232298
526.793815	26394.737968
527.155964	25847.742529
527.518057	26016.696800
527.880093	25946.791120
528.242072	26161.806414
528.603995	25883.562448
528.965860	25684.940986
529.327669	25726.291051
529.689421	25712.531221
530.051117	25539.607041
530.412755	25722.815175
530.774337	25518.822364
531.135862	25396.271914
531.497331	25599.609375
531.858743	25151.261755
532.220098	25643.961447
532.581396	25304.348994
532.942638	25253.367805
533.303824	25344.900036
533.664953	25363.257397
534.026025	25019.808627
534.387040	25263.707212
534.747999	25324.536295
535.108902	25483.788865
535.469748	24970.914476
535.830537	25159.088146
536.191270	25273.789520
536.551947	25146.568441
536.912567	24792.679441
537.273131	25161.931357
537.633638	24852.923750
537.994089	25057.219030
538.354483	24602.688434
538.714821	25101.616472
539.075103	25142.895960
539.435328	24939.117398
539.795497	24484.591844
540.155609	24874.971236
540.515665	25180.407186
540.875665	24415.928808
541.235609	24720.840478
541.595496	24667.149669
541.955328	25033.868405
542.315102	24952.612567
542.674821	24489.512010
543.034483	24376.113775
543.394090	24536.009092
543.753640	24330.919831
544.113134	24961.263187
544.472571	24568.522014
544.831953	24866.335739
545.191278	24477.448529
545.550548	24396.419542
545.909761	24593.122845
546.268918	24830.427601
546.628019	24800.750328
546.987064	24501.179761
547.346053	24253.507872
547.704986	24363.727660
548.063863	24528.729666
548.422684	24535.068917
548.781449	24073.432816
549.140158	24481.362985
549.498811	24042.853176
549.857408	23797.759838
550.215949	24214.194434
550.574434	23904.740684
550.932864	24118.084836
551.291237	24272.376911
551.649555	24138.861951
552.007817	24202.249420
552.366022	24063.274891
552.724173	24099.714871
553.082267	24031.437483
553.440305	24521.737586
553.798288	23780.304843
554.156215	24294.996568
554.514086	24397.178236
554.871902	23766.940744
555.229661	24049.106728
555.587365	23911.523557
555.945014	23768.571557
556.302606	24017.344938
556.660143	23973.675943
557.017625	24228.027360
557.375050	23740.620880
557.732421	24139.658454
558.089735	23959.250681
558.446994	24002.919676
558.804197	24035.954357
559.161345	23976.607374
559.518437	23734.785744
559.875474	23928.061062
560.232455	24122.944508
560.589381	23937.850983
560.946251	23921.033694
561.303065	24247.637448
561.659825	24338.511808
562.016528	23931.917545
562.373177	23669.464993
562.729770	24023.906000
563.086307	23897.688110
563.442789	24057.827924
563.799216	23879.907961
564.155587	23901.146342
564.511904	23878.256983
564.868164	23816.296161
565.224370	23786.810452
565.580520	23709.416137
565.936615	23847.931922
566.292654	23524.264639
566.648638	23806.594460
567.004567	23642.416682
567.360441	23587.170677
567.716260	23317.189163
568.072023	23645.942969
568.427732	23412.199789
568.783385	23191.460265
569.138982	23433.894395
569.494525	23451.850985
569.850013	23209.361402
570.205445	23301.470845
570.560823	23110.683336
570.916145	22862.761911
571.271412	23056.984966
571.626625	22804.387870
571.981782	22919.495056
572.336884	22724.543555
572.691931	22856.750335
573.046923	22592.407351
573.401860	22472.639618
573.756743	22489.814829
574.111570	22385.316751
574.466342	22322.793840
574.821059	22415.397316
575.175722	22116.522427
575.530330	22089.761462
575.884882	22122.249178
576.239380	22038.676930
576.593823	21919.831728
576.948211	21900.831619
577.302544	21754.965832
577.656823	21618.060697
578.011047	21713.310778
578.365216	21588.733784
578.719330	21466.301802
579.073389	21355.724092
579.427394	21505.017863
579.781344	21273.664190
580.135239	21167.076553
580.489080	21117.030498
580.842866	20892.071529
581.196597	21088.646282
581.550273	21061.839946
581.903895	20953.687032
582.257463	21270.001791
582.610975	20794.361364
582.964434	21113.582349
583.317837	20808.859723
583.671186	20898.960265
584.024481	20865.255111
584.377721	20638.395626
584.730906	20712.669466
585.084037	20724.793441
585.437113	20638.561984
585.790135	20832.684216
586.143103	20298.644542
586.496016	20321.727985
586.848874	20557.560724
587.201679	20487.786114
587.554428	20161.419293
587.907124	20499.405973
588.259765	20265.070457
588.612352	20338.351190
588.964884	19913.102137
589.317362	20087.853735
589.669786	20129.178594
590.022155	20168.587814
590.374470	20372.043742
590.726731	20157.053654
591.078937	19929.100239
591.431090	20023.987357
591.783188	19781.835532
592.135232	19747.190202
592.487222	19839.828966
592.839157	19870.161588
593.191038	19744.112578
593.542866	19638.253388
593.894639	19351.411734
594.246358	19564.644980
594.598022	19466.302151
594.949633	19229.892200
595.301190	19189.893165
595.652692	19350.736220
596.004141	19584.436550
596.355535	18911.140043
596.706876	18930.679555
597.058162	18827.469492
597.409395	19056.776457
597.760573	19136.623292
598.111698	18901.821470
598.462768	18849.133850
598.813785	18807.226738
599.164748	18631.701323
599.515657	18672.585081
599.866511	18459.152709
600.217312	18812.179672
600.568060	18335.871292
600.918753	18649.927615
601.269392	18554.002019
601.619978	18336.440942
601.970510	18530.860602
602.320988	18481.759764
602.671412	18686.783491
603.021783	18599.959698
603.372100	18328.453234
603.722363	18463.876270
604.072572	18411.042457
604.422728	18551.241987
604.772830	18303.721333
605.122878	18258.885311
605.472872	18252.220906
605.822813	18235.567454
606.172701	18213.091469
606.522534	18406.858300
606.872314	18430.871836
607.222041	18266.588194
607.571714	18480.963261
607.921333	18309.390111
608.270899	18385.037665
608.620411	18560.447134
608.969870	18331.747628
609.319276	18330.875508
609.668627	18374.259678
610.017926	18496.258122
610.367171	18604.965564
610.716362	18661.116456
611.065500	18471.558989
611.414585	18614.049723
611.763616	18594.996682
612.112594	18543.229073
612.461518	18506.511829
612.810389	18698.325212
613.159207	18551.390701
613.507971	18470.810377
613.856682	18723.893945
614.205340	18667.982507
614.553945	18811.020207
614.902496	18558.735662
615.250994	18787.079767
615.599439	18731.001972
615.947830	18713.914981
616.296169	18779.366802
616.644454	18737.358867
616.992686	18715.636535
617.340864	18925.572866
617.688990	18675.082973
618.037063	18851.694756
618.385082	18694.166260
618.733048	18980.355085
619.080961	18848.188634
619.428821	18892.807887
619.776628	18768.170399
620.124382	18706.224700
620.472083	18743.872037
620.819731	18756.177494
621.167326	18448.455381
621.514868	18504.306324
621.862357	18270.275798
622.209793	18270.429553
622.557176	18099.869675
622.904506	17927.245443
623.251783	17846.990274
623.599007	17611.465046
623.946179	17544.954583
624.293297	17486.794791
624.640363	17230.626038
624.987376	17256.769461
625.334336	17050.490487
625.681243	16891.094244
626.028097	16905.975730
626.374899	16827.396744
626.721647	16698.169286
627.068343	16536.572579
627.414987	16463.412834
627.761577	16441.451047
628.108115	16478.921943
628.454600	16206.170315
628.801032	16301.216229
629.147412	16234.587299
629.493739	16241.518885
629.840014	16060.407872
630.186236	16151.166285
630.532405	15919.041315
630.878521	16117.660256
631.224585	16018.294073
631.570597	15829.444888
631.916556	15869.189345
632.262462	15838.050137
632.608316	15765.510454
632.954117	15700.711463
633.299866	15691.014803
633.645562	15621.386386
633.991206	15370.556215
634.336797	15246.415281
634.682336	15206.769126
635.027823	15101.656027
635.373257	14982.301669
635.718639	14880.009096
636.063968	14821.821578
636.409245	14585.217542
636.754470	14607.554895
637.099642	14446.595894
637.444762	14226.032810
637.789829	14270.775571
638.134845	14099.451958
638.479808	14133.701557
638.824719	14071.768461
639.169577	13932.317543
639.514383	13971.550323
639.859137	13797.252429
640.203839	13881.888361
640.548489	13721.020100
640.893086	13712.578688
641.237632	13585.256786
641.582125	13737.088778
641.926566	13556.933063
642.270955	13568.999065
642.615292	13533.637891
642.959576	13543.052246
643.303809	13579.686311
643.647990	13506.274508
643.992118	13572.890836
644.336195	13334.456862
644.680219	13541.418912
645.024192	13464.369917
645.368112	13718.784348
645.711981	13759.905040
646.055797	13945.447228
646.399562	13919.414710
646.743274	14181.466490
647.086935	14457.779694
647.430544	14417.417695
647.774101	14456.468994
648.117606	14604.988948
648.461059	14572.597014
648.804460	14558.771649
649.147810	14284.313590
649.491108	14193.378736
649.834354	14207.942630
650.177548	13894.634918
650.520690	13700.048900
650.863781	13626.117858
651.206820	13680.506867
651.549807	13503.446421
651.892742	13299.594762
652.235626	13241.056884
652.578458	13247.093665
652.921238	12939.472375
653.263967	13132.299031
653.606644	12962.848206
653.949269	12926.221702
654.291843	12740.487951
654.634365	12897.242630
654.976836	12743.681522
655.319255	12759.883790
655.661622	12707.385214
656.003938	12631.137762
656.346203	12561.630333
656.688416	12634.369142
657.030577	12588.353489
657.372687	12505.958350
657.714746	12488.044610
658.056753	12674.748784
658.398708	12477.082621
658.740612	12491.021412
659.082465	12591.831886
659.424266	12554.683623
659.766016	12583.997933
660.107715	12487.134682
660.449362	12561.211917
660.790958	12523.219261
661.132503	12469.485602
661.473996	12536.575798
661.815438	12548.256152
662.156829	12565.806929
662.498168	12554.141699
662.839456	12546.703476
663.180693	12563.601424
663.521879	12657.223213
663.863013	12629.703554
664.204097	12604.815377
664.545129	12728.757186
664.886110	12695.493132
665.227040	12792.552988
665.567918	12801.395172
665.908746	12826.479953
666.249522	12808.122591
666.590248	12866.042928
666.930922	12972.973363
667.271545	12955.157926
667.612118	13041.487685
667.952639	12937.934823
668.293109	12954.482411
668.633528	12906.437694
668.973896	12879.225546
669.314213	12962.835603
669.654480	12695.062113
669.994695	12765.045932
670.334859	12796.656487
670.674973	12749.806524
671.015035	12772.640430
671.355047	12718.758057
671.695008	12685.733458
672.034918	12697.088657
672.374777	12743.384094
672.714585	12657.041731
673.054342	12686.164477
673.394049	12641.860296
673.733705	12741.533990
674.073310	12641.046150
674.412864	12665.105057
674.752368	12520.885207
675.091820	12540.734750
675.431223	12525.263449
675.770574	12394.427863
676.109875	12325.487563
676.449125	12271.297680
676.788324	12221.400339
677.127473	12054.472612
677.466571	12046.222764
677.805619	11932.620362
678.144616	11859.649660
678.483562	11828.132366
678.822458	11703.928418
679.161303	11686.095336
679.500098	11666.843169
679.838842	11626.670214
680.177535	11650.870273
680.516179	11708.462935
680.854771	11658.469813
681.193314	11877.707073
681.531805	12035.991742
681.870247	12457.018829
682.208638	12866.685676
682.546978	13179.796782
682.885268	13226.021642
683.223508	12911.766194
683.561697	12754.008325
683.899836	12660.260508
684.237925	12450.924074
684.575963	12365.731094
684.913951	12296.460599
685.251889	12239.056981
685.589776	12343.388701
685.927614	12260.842327
686.265401	12238.620921
686.603137	12282.436109
686.940824	12434.673914
687.278460	12559.613871
687.616046	12600.573246
687.953582	12771.148248
688.291068	12697.441538
688.628504	12931.189760
688.965889	12936.891305
689.303224	12900.363104
689.640510	12803.240234
689.977745	12477.049854
690.314930	12257.036256
690.652065	12161.947491
690.989150	11875.786393
691.326185	11652.901858
691.663170	11445.113058
692.000105	11208.161184
692.336990	11086.596279
692.673825	10836.048412
693.010610	10716.701616
693.347345	10510.203351
693.684030	10314.994751
694.020665	10251.050235
694.357251	10060.108971
694.693786	9995.027675
695.030272	9832.463067
695.366707	9710.913286
695.703093	9645.963059
696.039429	9645.736207
696.375716	9568.896420
696.711952	9431.519937
697.048139	9483.857196
697.384276	9427.035830
697.720363	9449.723543
698.056400	9386.540241
698.392388	9328.473711
698.728326	9290.798648
699.064214	9236.202951
699.400053	9274.054455
699.735842	9091.668029
700.071581	9048.414929
700.407270	8977.117891
700.742910	8899.156446
701.078501	8806.729411
701.414042	8678.270729
701.749533	8615.669680
702.084974	8469.330025
702.420366	8590.206812
702.755709	8470.025705
703.091002	8339.459820
703.426246	8364.607616
703.761440	8317.810585
704.096584	8277.002444
704.431679	8207.883184
704.766725	8194.065381
705.101721	8144.236096
705.436668	8190.501286
705.771565	8080.931807
706.106413	8166.797780
706.441212	8206.595169
706.775961	8160.781163
707.110661	8202.456382
707.445311	8341.556940
707.779913	8240.106239
708.114465	8375.332671
708.448967	8409.317609
708.783421	8551.347078
709.117825	8731.759892
709.452180	8771.985779
709.786485	8858.426444
710.120742	9139.546388
710.454949	9141.245257
710.789107	9241.833920
711.123216	9453.103637
711.457275	9628.752560
711.791286	9778.124469
712.125247	9777.060786
712.459159	9764.107541
712.793023	10012.674234
713.126837	9580.299510
713.460602	9734.863807
713.794318	9565.097911
714.127985	9585.685983
714.461602	9265.159339
714.795171	9219.095796
715.128691	8966.057599
715.462162	8729.821568
715.795584	8661.350096
716.128957	8510.949792
716.462281	8343.465017
716.795556	8397.183552
717.128782	8189.291409
717.461960	7924.625791
717.795088	7996.706729
718.128167	7903.694920
718.461198	7736.444559
718.794180	7682.070673
719.127113	7670.566760
719.459997	7514.648913
719.792833	7287.295395
720.125619	7348.817637
720.458357	7202.795574
720.791046	7197.532610
721.123686	7191.621857
721.456278	7030.027670
721.788821	7047.225567
722.121315	6947.927439
722.453761	7019.468973
722.786158	6956.920857
723.118506	6968.495346
723.450805	6931.745335
723.783056	6996.302351
724.115259	6909.718013
724.447412	6907.779689
724.779518	6951.025228
725.111574	6955.665610
725.443582	7033.377517
725.775542	7018.606936
726.107453	7210.198509
726.439315	7121.164170
726.771129	7177.070566
727.102895	7350.095569
727.434612	7460.769061
727.766281	7495.169894
728.097901	7576.052687
728.429473	7565.539361
728.760996	7547.038326
729.092471	7523.453288
729.423897	7464.617982
729.755276	7477.974519
730.086606	7401.328816
730.417887	7501.201635
730.749120	7698.424176
731.080305	7888.332003
731.411442	8007.527566
731.742530	8002.372986
732.073570	8113.195191
732.404562	8200.351700
732.735506	8043.768421
733.066401	8187.852159
733.397249	8117.754915
733.728048	7879.872947
734.058798	7547.665950
734.389501	7321.555077
734.720156	7139.153527
735.050762	6905.904380
735.381320	6815.440874
735.711831	6760.555312
736.042293	6652.921636
736.372707	6673.045922
736.703073	6536.917124
737.033391	6575.333237
737.363661	6588.306647
737.693883	6618.450226
738.024056	6703.469286
738.354182	6745.535194
738.684260	6774.536952
739.014290	6892.126907
739.344272	7008.370873
739.674207	7032.399533
740.004093	7103.830163
740.333931	7119.261134
740.663722	7121.524613
740.993464	7199.107970
741.323159	7189.234870
741.652806	6936.083248
741.982405	6956.502441
742.311956	7009.550503
742.641460	6839.043557
742.970915	6648.664382
743.300323	6639.640716
743.629683	6593.584735
743.958996	6454.494259
744.288260	6366.195929
744.617477	6313.926725
744.946647	6312.984029
745.275768	6153.605430
745.604842	6110.735458
745.933869	6090.507828
746.262847	6051.771602
746.591778	6035.476072
746.920662	5998.451318
747.249498	5986.833978
747.578286	6032.980701
747.907027	6109.482731
748.235720	6168.255023
748.564365	6139.517926
748.892963	6172.834911
749.221514	6318.577190
749.550017	6150.810110
749.878473	6032.469024
750.206881	6087.379792
750.535242	6032.537079
750.863555	5955.225944
751.191821	5978.415252
751.520039	5975.967771
751.848210	5881.826744
752.176334	5908.559983
752.504411	5955.079750
752.832440	5884.778339
753.160421	5814.507175
753.488356	5856.694071
753.816243	5888.980141
754.144082	5740.790383
754.471875	5715.657710
754.799620	5764.221666
755.127318	5767.372387
755.454969	5722.949739
755.782572	5686.419018
756.110129	5731.771758
756.437638	5716.078647
756.765100	5655.045397
757.092515	5658.165871
757.419882	5708.032965
757.747203	5687.543195
758.074477	5746.862453
758.401703	5734.463735
758.728882	5683.762330
759.056014	5746.118882
759.383099	5869.445670
759.710138	5887.409822
760.037129	5869.236462
760.364073	5875.842894
760.690970	5958.011181
761.017820	5934.363129
761.344623	5892.856788
761.671379	5995.540051
761.998088	6116.074040
762.324751	6366.609303
762.651366	6972.755121
762.977935	8292.761091
763.304456	9930.644579
763.630931	10817.176853
763.957359	10407.343648
764.283740	9462.896078
764.610074	8625.701577
764.936362	7624.001622
765.262602	7033.410284
765.588796	6499.443707
765.914943	6167.579508
766.241044	5999.716647
766.567097	5794.171161
766.893104	5532.721799
767.219064	5360.447928
767.544978	5293.025016
767.870845	5220.487853
768.196665	5113.413745
768.522438	5044.072674
768.848165	5005.142364
769.173846	4939.889668
769.499479	4897.087752
769.825066	4847.989434
770.150607	4781.466367
770.476101	4759.802009
770.801548	4759.859982
771.126949	4677.762271
771.452303	4625.848469
771.777611	4587.424794
772.102872	4599.815950
772.428087	4564.227925
772.753256	4524.622100
773.078378	4477.782219
773.403453	4410.001385
773.728482	4394.000762
774.053465	4348.705995
774.378401	4339.253832
774.703291	4334.626052
775.028135	4266.373870
775.352932	4217.804874
775.677683	4205.048234
776.002388	4221.807550
776.327046	4230.806009
776.651658	4160.418899
776.976224	4095.761060
777.300743	4099.980505
777.625216	4124.520842
777.949643	4119.363742
778.274024	4074.252977
778.598359	4032.963406
778.922647	4053.901839
779.246889	4049.866395
779.571086	4040.018501
779.895236	4022.140049
780.219339	4010.305940
780.543397	4005.839478
780.867409	4056.732447
781.191374	4070.235177
781.515294	4008.201258
781.839167	3998.401255
782.162995	4023.496119
782.486776	4008.551619
782.810511	4019.221221
783.134201	4013.517155
783.457844	3968.774394
783.781441	3912.565529
784.104993	3916.822783
784.428498	3935.545629
784.751958	3934.040844
785.075372	3911.426228
785.398739	3875.838202
785.722061	3884.183833
786.045337	3932.082356
786.368568	3962.974547
786.691752	3872.430383
787.014891	3928.619083
787.337983	4056.916449
787.661030	4216.290007
787.984031	4377.687588
788.306987	4545.779822
788.629897	4626.788644
788.952760	4580.029422
789.275579	4516.851161
789.598351	4448.614103
789.921078	4307.514727
790.243759	4107.237246
790.566395	4091.211418
790.888984	4084.700768
791.211529	3977.248574
791.534027	3918.183895
791.856480	3904.000608
792.178888	3847.370807
792.501249	3800.823313
792.823566	3808.027122
793.145836	3834.485618
793.468062	3783.769089
793.790241	3738.184456
794.112375	3768.443982
794.434464	3832.380936
794.756507	3858.360522
795.078505	3838.412676
795.400457	3873.352914
795.722364	4013.980941
796.044226	4116.616313
796.366042	4186.388403
796.687812	4168.152029
797.009538	4173.031866
797.331218	4132.213643
797.652852	4104.744396
797.974442	4082.689348
798.295986	4081.557609
798.617484	4003.054240
798.938938	3915.862443
799.260346	3957.777117
799.581709	3951.919296
799.903026	3876.848954
800.224299	3842.901824
800.545526	3835.360258
800.866708	3794.766366
801.187845	3739.036411
801.508936	3771.161163
801.829983	3767.380298
802.150984	3688.766024
802.471940	3680.831248
802.792851	3691.757949
803.113717	3690.348947
803.434538	3691.430274
803.755314	3633.126809
804.076045	3612.873974
804.396731	3634.145122
804.717372	3657.957013
805.037967	3643.231802
805.358518	3632.264772
805.679024	3658.894667
805.999485	3674.618026
806.319901	3675.681710
806.640272	3683.981969
806.960598	3703.614743
807.280879	3678.976104
807.601115	3690.409441
807.921306	3705.805124
808.241453	3746.799788
808.561554	3723.451683
808.881611	3656.250582
809.201623	3694.439843
809.521590	3704.665824
809.841513	3679.281093
810.161390	3707.340156
810.481223	3686.220242
810.801011	3630.293681
811.120755	3626.885861
811.440453	3658.398114
811.760107	3658.831653
812.079716	3614.250209
812.399281	3586.176023
812.718801	3610.388685
813.038276	3583.423553
813.357707	3581.328954
813.677093	3600.495421
813.996434	3545.715722
814.315731	3554.046229
814.634983	3559.760377
814.954191	3574.014239
815.273354	3601.722942
815.592473	3598.368054
815.911547	3606.007922
816.230577	3643.098212
816.549562	3695.536294
816.868502	3741.395671
817.187399	3763.488527
817.506250	3761.613218
817.825058	3731.489803
818.143821	3825.925738
818.462539	3927.648661
818.781213	3972.328408
819.099843	4032.734034
819.418429	4277.547588
819.736970	4519.265874
820.055466	4770.690901
820.373919	5133.263289
820.692327	5541.470721
821.010691	5992.217931
821.329011	7399.163640
821.647286	10170.444706
821.965517	14765.194296
822.283704	18777.065515
822.601847	20896.361551
822.919945	19057.373833
823.237999	16446.903055
823.556010	13961.107573
823.873976	11858.908610
824.191897	9771.991906
824.509775	8427.082636
824.827609	7301.919782
825.145398	6762.665035
825.463144	6648.727396
825.780845	6759.836948
826.098502	6958.007226
826.416116	7849.754574
826.733685	9177.327316
827.051210	10285.720771
827.368692	10302.132247
827.686129	9032.810038
828.003522	7521.688884
828.320872	6509.417630
828.638177	5806.476617
828.955439	5249.542543
829.272656	4748.688785
829.589830	4468.161177
829.906960	4296.928304
830.224046	4109.689768
830.541088	3987.792147
830.858086	3934.746606
831.175041	3861.009648
831.491952	3846.090354
831.808819	3853.838607
832.125642	3931.611008
832.442421	4084.763782
832.759157	4356.587839
833.075849	4910.807252
833.392497	5788.295696
833.709101	6561.616258
834.025662	6889.883593
834.342179	6510.476272
834.658653	5847.867011
834.975083	5202.498496
835.291469	4624.938541
835.607811	4218.941654
835.924110	4075.407401
836.240366	3879.097308
836.556578	3676.780681
836.872746	3566.336562
837.188871	3527.746529
837.504952	3459.338072
837.820990	3378.021740
838.136984	3333.982220
838.452935	3359.127495
838.768842	3354.658512
839.084706	3375.682644
839.400526	3537.564177
839.716303	3883.412536
840.032037	4409.469543
840.347727	4663.556300
840.663373	4379.429307
840.978977	3994.600225
841.294537	3689.877599
841.610054	3463.673464
841.925527	3355.608770
842.240957	3288.682411
842.556344	3233.857342
842.871687	3174.878363
843.186987	3124.252576
843.502244	3090.837287
843.817458	3053.507543
844.132629	3021.972605
844.447756	3032.624563
844.762840	3015.847603
845.077881	2984.854589
845.392879	2969.892445
845.707833	2962.008080
846.022745	2961.400621
846.337613	2962.297947
846.652438	2952.253448
846.967221	2949.828653
847.281960	2933.870880
847.596656	2931.100766
847.911309	2931.413318
848.225919	2925.623552
848.540485	2918.807912
848.855009	2917.971081
849.169490	2908.483629
849.483928	2901.365520
849.798323	2900.805952
850.112675	2897.446023
850.426984	2907.462796
850.741251	2904.601941
851.055474	2895.850498
851.369654	2886.088303
851.683792	2894.048285
851.997887	2904.536406
852.311938	2903.946591
852.625947	2892.477966
852.939914	2896.120199
853.253837	2903.253432
853.567718	2886.620145
853.881555	2886.617624
854.195350	2898.718914
854.509103	2896.324366
854.822812	2890.169117
855.136479	2887.744322
855.450103	2889.491082
855.763685	2882.065463
856.077224	2878.685369
856.390720	2891.227760
856.704173	2899.848133
857.017584	2891.205074
857.330953	2888.185423
857.644278	2898.507186
857.957561	2908.435738
858.270802	2912.390523
858.584000	2911.495719
858.897155	2897.897206
859.210268	2896.578944
859.523339	2895.641290
859.836367	2892.722462
860.149352	2887.278016
860.462295	2882.259547
860.775195	2890.330434
861.088054	2891.734396
861.400869	2873.881149
861.713642	2872.784698
862.026373	2889.962430
862.339062	2886.844476
862.651708	2896.367216
862.964312	2899.933832
863.276873	2892.102400
863.589392	2903.313926
863.901869	2916.017634
864.214303	2936.041097
864.526696	2949.629527
864.839045	2945.793209
865.151353	2945.911676
865.463619	2942.897066
865.775842	2945.684824
866.088023	2965.390694
866.400162	2970.162147
866.712258	2939.353135
867.024313	2934.294337
867.336325	2941.379679
867.648296	2962.265179
867.960224	2954.892492
868.272110	2939.940429
868.583954	2946.350256
868.895755	2960.626804
869.207515	2946.531738
869.519233	2952.029116
869.830909	2963.129737
870.142542	2971.593834
870.454134	2969.965542
870.765684	2972.402939
871.077191	2975.157930
871.388657	2980.473827
871.700081	2996.479490
872.011463	3005.414935
872.322803	3005.659431
872.634101	3005.114987
872.945357	3019.787265
873.256571	3046.523024
873.567744	3042.381717
873.878874	3034.988864
874.189963	3057.512740
874.501010	3061.487690
874.812015	3048.940258
875.122979	3046.709547
875.433900	3044.670400
875.744780	3049.618293
876.055618	3058.894016
876.366415	3056.025599
876.677169	3068.205027
876.987882	3059.902247
877.298554	3057.111968
877.609183	3079.532500
877.919771	3103.389760
878.230317	3129.369347
878.540822	3185.747091
878.851285	3221.004921
879.161707	3261.787855
879.472087	3369.179556
879.782425	3600.412242
880.092722	4041.316598
880.402977	4571.855191
880.713191	5204.303229
881.023363	6375.123812
881.333494	7665.210534
881.643583	8205.569294
881.953631	7900.813900
882.263637	7255.263903
882.573602	6666.999058
882.883526	6084.415593
883.193408	5513.260424
883.503248	5053.202204
883.813048	4744.996140
884.122806	4443.225109
884.432522	4125.231645
884.742197	3889.035943
885.051831	3694.286088
885.361424	3566.371850
885.670975	3490.993997
885.980485	3404.984351
886.289954	3326.233966
886.599382	3280.394754
886.908768	3242.843199
887.218113	3198.665047
887.527417	3144.835607
887.836680	3094.502206
888.145901	3090.189499
888.455082	3080.800350
888.764221	3025.292205
889.073319	2997.122237
889.382376	2995.428410
889.691392	2999.849502
890.000366	2998.183400
890.309300	2985.328458
890.618193	2998.100221
890.927044	3015.315762
891.235855	3014.302490
891.544625	2998.894203
891.853353	3010.687982
892.162041	3030.890406
892.470687	3068.744431
892.779293	3122.788120
893.087858	3168.307219
893.396381	3239.516038
893.704864	3362.799976
894.013306	3608.999847
894.321707	3912.573091
894.630068	4112.235550
894.938387	4108.671455
895.246665	4062.406265
895.554903	3938.315743
895.863100	3737.675299
896.171256	3570.014084
896.479371	3432.929987
896.787446	3309.746873
897.095480	3205.954556
897.403473	3141.979793
897.711425	3107.087447
898.019336	3095.195365
898.327207	3070.307188
898.635038	3028.881507
898.942827	3017.969929
899.250576	3005.722446
899.558284	2972.465954
899.865952	2952.941565
900.173579	2932.744182
900.481165	2929.507761
900.788711	2915.541245
901.096216	2891.275651
901.403681	2879.464227
901.711105	2883.804661
902.018489	2883.343395
902.325832	2882.657798
902.633135	2891.855383
902.940397	2927.939963
903.247619	3011.660925
903.554800	3207.424052
903.861941	3558.845407
904.169041	3985.228720
904.476101	4282.656797
904.783121	4228.343406
905.090100	3978.748317
905.397039	3709.606154
905.703938	3457.908905
906.010796	3274.121038
906.317614	3162.305725
906.624391	3067.141344
906.931129	2995.834222
907.237826	2933.656631
907.544483	2887.159548
907.851099	2855.551514
908.157675	2834.600478
908.464211	2817.195895
908.770707	2802.208544
909.077163	2788.834363
909.383578	2774.777106
909.689954	2763.008532
909.996289	2761.982657
910.302584	2763.623553
910.608839	2762.078439
910.915054	2757.178438
911.221229	2750.776172
911.527363	2752.865731
911.833458	2758.083325
912.139513	2763.820158
912.445527	2767.452309
912.751502	2776.889349
913.057436	2785.063580
913.363331	2800.343317
913.669186	2821.690083
913.975000	2855.564117
914.280775	2914.379259
914.586510	2987.193685
914.892205	3067.433731
915.197859	3197.898792
915.503475	3391.630334
915.809050	3607.921040
916.114585	3755.052156
916.420081	3772.305505
916.725536	3714.738049
917.030952	3591.023092
917.336328	3458.894450
917.641665	3329.057012
917.946961	3227.293760
918.252218	3156.062256
918.557435	3079.598035
918.862612	3020.077131
919.167750	2970.391519
919.472848	2932.471960
919.777906	2907.193094
920.082925	2878.284597
920.387904	2847.611697
920.692843	2831.903461
920.997743	2823.792245
921.302603	2806.236426
921.607423	2796.418779
921.912204	2780.660132
922.216946	2774.252826
922.521647	2765.456012
922.826310	2756.245824
923.130932	2749.044536
923.435516	2739.731004
923.740059	2731.912175
924.044564	2723.591750
924.349028	2719.306769
924.653454	2715.236038
924.957840	2707.240768
925.262186	2705.171374
925.566493	2699.134592
925.870761	2693.942204
926.174989	2690.957841
926.479178	2686.317459
926.783328	2682.221521
927.087438	2679.370749
927.391509	2678.269257
927.695541	2675.973011
927.999533	2670.825993
928.303486	2669.245591
928.607400	2670.435303
928.911275	2667.065292
929.215110	2667.965138
929.518906	2665.489932
929.822663	2664.131341
930.126381	2665.172339
930.430060	2665.247956
930.733699	2664.426248
931.037299	2668.023111
931.340861	2670.218534
931.644383	2670.064779
931.947866	2668.837258
932.251309	2668.897752
932.554714	2667.158553
932.858080	2662.089673
933.161407	2660.547080
933.464694	2661.240239
933.767943	2657.366112
934.071153	2658.878458
934.374323	2661.958603
934.677455	2659.576658
934.980548	2660.922646
935.283602	2658.192861
935.586617	2657.897954
935.889593	2658.946514
936.192530	2655.997439
936.495428	2661.804848
936.798287	2658.739827
937.101108	2659.858963
937.403890	2665.421876
937.706632	2673.059224
938.009336	2678.783454
938.312002	2689.029599
938.614628	2694.317770
938.917216	2701.609799
939.219765	2699.590817
939.522275	2699.011084
939.824747	2696.949252
940.127179	2696.946732
940.429573	2693.397759
940.731929	2692.893644
941.034246	2690.199147
941.336524	2684.048939
941.638763	2681.704803
941.940964	2679.438804
942.243126	2678.465862
942.545250	2678.833866
942.847335	2676.663649
943.149381	2671.483863
943.451389	2665.273162
943.753359	2662.792914
944.055290	2664.393481
944.357182	2660.421051
944.659036	2661.789725
944.960851	2662.596309
945.262628	2659.062460
945.564367	2661.613284
945.866067	2660.463901
946.167729	2658.563386
946.469352	2659.740496
946.770937	2660.234529
947.072484	2660.375681
947.373992	2657.401400
947.675462	2655.591626
947.976893	2653.802016
948.278286	2650.348826
948.579641	2653.292860
948.880958	2647.314051
949.182236	2652.269506
949.483476	2648.145842
949.784678	2649.786737
950.085841	2650.295894
950.386967	2654.497696
950.688054	2653.529794
950.989103	2651.649444
951.290114	2651.752787
951.591087	2653.439053
951.892021	2658.218067
952.192917	2660.468942
952.493776	2663.654952
952.794596	2663.100425
953.095378	2662.301402
953.396122	2663.002122
953.696828	2660.930208
953.997496	2659.390135
954.298126	2657.434168
954.598718	2654.354023
954.899272	2651.036943
955.199788	2649.590132
955.500266	2648.823877
955.800706	2646.101654
956.101108	2641.534368
956.401472	2640.276601
956.701798	2639.404481
957.002087	2635.656383
957.302337	2637.756024
957.602550	2636.626805
957.902724	2634.156640
958.202861	2632.046917
958.502960	2630.963069
958.803022	2631.578090
959.103045	2630.204375
959.403031	2629.634725
959.702979	2628.475259
960.002889	2627.088942
960.302762	2627.709004
960.602596	2628.475259
960.902393	2626.846967
961.202153	2623.892851
961.501875	2627.419138
961.801559	2627.257821
962.101205	2625.201030
962.400814	2626.622635
962.700385	2626.259672
962.999918	2620.716924
963.299414	2622.425875
963.598873	2622.413272
963.898293	2619.786831
964.197677	2624.596092
964.497022	2625.122892
964.796331	2622.340175
965.095601	2623.872686
965.394835	2625.027110
965.694030	2624.220526
965.993189	2622.062912
966.292309	2624.170114
966.591393	2624.192799
966.890439	2622.816564
967.189447	2623.300515
967.488419	2621.047119
967.787353	2623.688684
968.086249	2621.972171
968.385108	2621.463014
968.683930	2620.606018
968.982714	2622.045268
969.281462	2622.317490
969.580172	2621.679784
969.878844	2621.649537
970.177480	2621.823457
970.476078	2627.497276
970.774639	2625.551390
971.073162	2622.763632
971.371649	2622.229270
971.670098	2624.079373
971.968510	2621.208436
972.266885	2621.712552
972.565223	2624.661627
972.863524	2622.040227
973.161788	2624.149949
973.460014	2622.919908
973.758204	2624.487707
974.056356	2623.834877
974.354471	2621.319342
974.652550	2623.590381
974.950591	2624.981740
975.248595	2624.573406
975.546563	2622.486369
975.844493	2621.704990
976.142386	2621.445370
976.440243	2622.541821
976.738062	2622.282202
977.035845	2622.428395
977.333590	2621.470576
977.631299	2620.308590
977.928971	2617.382200
978.226606	2617.281377
978.524204	2618.801285
978.821765	2617.505709
979.119290	2617.006634
979.416777	2619.827160
979.714228	2620.389249
980.011642	2619.098713
980.309020	2620.399331
980.606360	2622.017541
980.903664	2620.046450
981.200931	2621.213477
981.498162	2621.755401
981.795356	2623.469394
982.092513	2622.327572
982.389633	2625.029631
982.686717	2631.479787
982.983764	2634.310395
983.280775	2636.989768
983.577749	2636.563791
983.874686	2637.004892
984.171587	2634.590179
984.468451	2630.887452
984.765279	2631.593213
985.062070	2628.694550
985.358824	2627.497276
985.655543	2623.217336
985.952224	2626.443674
986.248869	2621.934362
986.545478	2621.934362
986.842050	2620.585854
987.138586	2619.459156
987.435086	2619.630555
987.731549	2618.897067
988.027975	2618.299690
988.324366	2617.573764
988.620719	2616.545369
988.917037	2617.430091
989.213318	2616.873044
989.509563	2614.811212
989.805772	2618.372787
990.101944	2615.711058
990.398080	2618.932355
990.694180	2617.034361
990.990244	2618.118209
991.286271	2616.124432
991.582262	2617.883795
991.878217	2615.937910
992.174136	2614.057559
992.470019	2616.351284
992.765865	2612.177209
993.061676	2609.394492
993.357450	2614.952364
993.653188	2612.139400
993.948890	2615.456480
994.244556	2615.310286
994.540186	2615.169134
994.835780	2618.602160
995.131337	2620.379166
995.426859	2620.091821
995.722345	2620.099382
996.017795	2619.393621
996.313208	2622.902264
996.608586	2624.795217
996.903928	2620.379166
997.199234	2623.716410
997.494504	2620.172479
997.789738	2622.483848
998.084936	2620.590895
998.380099	2620.187602
998.675225	2618.758435
998.970316	2619.121398
999.265371	2620.301028
999.560390	2621.924280
999.855373	2618.282046
1000.150320	2614.894391
1000.445232	2616.694083
1000.740108	2616.520163
1001.034948	2615.239710
1001.329752	2616.182406
1001.624521	2615.136366
1001.919254	2615.685852
1002.213951	2616.767180
1002.508613	2611.179061
1002.803239	2615.791716
1003.097829	2617.157869
1003.392384	2613.482868
1003.686903	2614.838938
1003.981386	2614.670060
1004.275834	2612.777106
1004.570246	2614.498660
1004.864623	2614.392796
1005.158964	2616.792385
1005.453270	2615.469082
1005.747540	2615.201901
1006.041775	2615.395986
1006.335974	2616.845317
1006.630138	2617.132663
1006.924266	2615.206943
1007.218359	2615.963116
1007.512416	2611.632764
1007.806438	2612.061262
1008.100425	2613.402209
1008.394376	2607.826693
1008.688292	2613.525718
1008.982172	2614.528907
1009.276017	2614.881788
1009.569827	2613.563526
1009.863602	2613.903804
1010.157341	2615.360698
1010.451045	2614.370111
1010.744714	2612.577981
1011.038347	2613.452621
1011.331945	2611.484050
1011.625508	2613.951695
1011.919036	2613.019082
1012.212528	2615.509412
1012.505986	2611.776437
1012.799408	2615.688373
1013.092795	2614.407920
1013.386147	2613.906325
1013.679464	2614.518825
1013.972745	2613.243413
1014.265992	2612.053701
1014.559204	2612.920779
1014.852380	2615.103599
1015.145521	2612.479678
1015.438628	2614.002107
1015.731699	2615.166613
1016.024736	2615.116202
1016.317737	2616.207612
1016.610703	2613.077055
1016.903635	2614.150821
1017.196531	2612.804833
1017.489393	2612.565378
1017.782219	2613.936572
1018.075011	2615.958074
1018.367768	2610.990017
1018.660490	2614.576798
1018.953177	2614.576798
1019.245829	2614.576798
