Dividing Wavelength (nm)	Counts (n)	Blue Motor Position (mm): 37.300000	Red Motor Position (mm): 0.000000	
326.493990	2236.457492
326.888308	2236.457492
327.282561	2236.457492
327.676750	2199.883921
328.070874	2194.671368
328.464933	2194.603313
328.858929	2198.827799
329.252859	2206.490353
329.646726	2209.804912
330.040528	2224.361244
330.434265	2235.144272
330.827938	2255.165214
331.221547	2273.857813
331.615091	2291.438837
332.008571	2308.729994
332.401986	2329.073571
332.795338	2349.149966
333.188625	2363.824765
333.581847	2384.813609
333.975006	2403.745662
334.368100	2421.808116
334.761129	2441.302258
335.154095	2458.613581
335.546996	2485.331696
335.939833	2524.221677
336.332606	2538.276414
336.725315	2554.067829
337.117960	2566.995868
337.510540	2580.110429
337.903056	2588.120823
338.295508	2596.549632
338.687896	2605.086826
339.080220	2613.147631
339.472480	2619.126440
339.864676	2623.222377
340.256807	2631.381485
340.648875	2637.680406
341.040879	2636.286527
341.432818	2639.079327
341.824694	2639.911117
342.216506	2645.975625
342.608253	2643.339102
342.999937	2644.034781
343.391557	2642.570326
343.783113	2641.509163
344.174605	2642.522435
344.566033	2639.414563
344.957397	2641.496560
345.348697	2639.875829
345.739934	2637.551857
346.131106	2635.517751
346.522215	2633.675210
346.913260	2634.030611
347.304241	2631.409211
347.695159	2628.379477
348.086012	2630.143881
348.476802	2624.714559
348.867528	2622.715741
349.258191	2620.797582
349.648789	2617.722478
350.039324	2613.636623
350.429796	2618.317334
350.820203	2620.890843
351.210548	2615.108640
351.600828	2613.989504
351.991045	2613.876078
352.381198	2613.848352
352.771288	2609.790223
353.161314	2610.047322
353.551276	2612.419184
353.941175	2612.209977
354.331010	2610.372476
354.720782	2609.104626
355.110490	2608.464399
355.500135	2608.809718
355.889717	2610.969853
356.279235	2611.300048
356.668689	2611.358022
357.058080	2612.693927
357.447408	2609.016406
357.836672	2612.850203
358.225873	2609.618823
358.615010	2611.957919
359.004084	2612.678804
359.393095	2614.138218
359.782043	2611.831890
360.170927	2612.968670
360.559748	2613.966819
360.948505	2614.856582
361.337199	2615.678290
361.725830	2616.366408
362.114398	2616.023609
362.502903	2615.844648
362.891344	2617.586367
363.279722	2616.643671
363.668037	2617.190637
364.056289	2621.102572
364.444478	2617.840945
364.832603	2617.435132
365.220665	2622.980402
365.608665	2622.428395
365.996601	2620.054012
366.384474	2621.374794
366.772284	2619.998559
367.160031	2622.632562
367.547715	2624.026441
367.935336	2626.252111
368.322893	2622.342696
368.710388	2619.764146
369.097820	2621.173148
369.485189	2622.665330
369.872495	2622.193982
370.259738	2624.132305
370.646918	2626.731020
371.034035	2626.315125
371.421090	2625.972327
371.808081	2628.654220
372.195010	2626.547018
372.581875	2626.766308
372.968678	2629.871659
373.355418	2630.320322
373.742096	2628.828140
374.128710	2631.068933
374.515262	2630.214457
374.901751	2629.841412
375.288177	2631.169756
375.674540	2633.420631
376.060841	2633.100518
376.447079	2633.662607
376.833254	2635.099336
377.219367	2633.435755
377.605417	2634.000364
377.991404	2635.217803
378.377329	2635.454737
378.763191	2635.273255
379.148991	2636.863739
379.534727	2639.812814
379.920402	2637.491363
380.306013	2636.677217
380.691563	2639.407002
381.077049	2637.332567
381.462474	2639.001189
381.847835	2642.983700
382.233134	2641.327681
382.618371	2641.637712
383.003545	2641.332722
383.388657	2641.448669
383.773706	2643.197949
384.158693	2644.780872
384.543618	2645.963022
384.928480	2644.702734
385.313280	2645.103505
385.698017	2644.753145
386.082692	2646.555358
386.467305	2648.181130
386.851856	2647.661891
387.236344	2648.912097
387.620770	2646.981335
388.005133	2645.252219
388.389435	2647.447642
388.773674	2647.669453
389.157851	2654.210350
389.541965	2656.816626
389.926018	2652.413178
390.310008	2650.661377
390.693936	2655.374856
391.077802	2655.074908
391.461606	2655.163128
391.845348	2656.128509
392.229027	2658.671771
392.612645	2656.763694
392.996200	2658.747388
393.379694	2661.242759
393.763125	2661.144457
394.146494	2662.097235
394.529801	2666.389778
394.913047	2666.651917
395.296230	2671.388082
395.679351	2678.226407
396.062410	2679.206911
396.445408	2683.622962
396.828343	2694.181659
397.211217	2704.505942
397.594028	2711.949205
397.976778	2729.822616
398.359466	2749.601583
398.742092	2770.043462
399.124656	2789.532563
399.507158	2822.915084
399.889598	2860.441433
400.271977	2907.372055
400.654294	2947.550051
401.036549	2999.816734
401.418742	3038.835265
401.800874	3123.372894
402.182944	3191.307483
402.564952	3273.037190
402.946898	3355.180272
403.328783	3386.095148
403.710606	3458.100468
404.092367	3611.139817
404.474067	3697.966130
404.855705	3743.611258
405.237282	3797.622180
405.618797	3961.421871
406.000250	4038.952297
406.381642	4200.400290
406.762972	4293.976708
407.144240	4401.370929
407.525447	4479.496211
407.906593	4579.510183
408.287677	4755.426287
408.668700	4786.426863
409.049661	4941.008804
409.430560	5039.442374
409.811399	5023.504767
410.192176	5277.914157
410.572891	5356.551116
410.953545	5579.513789
411.334138	5476.144929
411.714669	5673.402759
412.095139	5591.620120
412.475547	5848.892886
412.855894	5965.867820
413.236180	6172.852555
413.616405	5990.377910
413.996568	6227.165947
414.376670	6302.768131
414.756711	6267.711947
415.136691	6407.936683
415.516609	6631.063193
415.896466	6673.476941
416.276262	6885.507872
416.655997	6914.512150
417.035670	7134.165306
417.415283	7469.717109
417.794834	7555.794811
418.174324	7463.708053
418.553753	7419.681136
418.933121	7763.427335
419.312428	7881.728092
419.691674	7691.422014
420.070859	8173.857916
420.449983	7893.017756
420.829045	8254.657530
421.208047	8065.994868
421.586988	8360.786421
421.965867	8394.504179
422.344686	8521.203498
422.723444	8549.524701
423.102141	7954.103938
423.480777	8705.175367
423.859352	8234.427380
424.237866	8853.110547
424.616319	8729.294767
424.994712	9138.986820
425.373044	8722.216988
425.751314	9172.334053
426.129524	9041.755565
426.507673	9182.131535
426.885762	9333.693826
427.263789	9235.971058
427.641756	9163.081015
428.019662	9268.511706
428.397508	9502.549794
428.775292	9208.209424
429.153016	9581.784130
429.530679	9416.388913
429.908282	9462.986819
430.285824	9176.911420
430.663305	9856.128763
431.040726	9310.121390
431.418086	9306.726173
431.795385	9620.149831
432.172624	9702.431544
432.549802	9625.294329
432.926920	9708.942194
433.303977	9582.885622
433.680974	9793.636100
434.057910	9873.687102
434.434786	9941.097411
434.811601	9784.511611
435.188355	10349.945071
435.565050	10077.805942
435.941683	10006.942442
436.318257	10508.764102
436.694770	10625.237441
437.071222	10703.297188
437.447614	10544.556294
437.823946	10443.004771
438.200218	10584.605741
438.576429	10398.602287
438.952580	10629.141815
439.328670	10690.883346
439.704700	10468.863369
440.080670	10463.955806
440.456580	11024.285097
440.832429	10776.240163
441.208218	10371.581703
441.583947	10712.436800
441.959616	10846.569301
442.335224	10650.107973
442.710773	10799.091714
443.086261	11003.961685
443.461689	10285.592221
443.837057	10936.831160
444.212365	11218.815662
444.587612	10857.846362
444.962800	11093.051477
445.337927	10860.374500
445.712995	10446.465523
446.088002	11524.662466
446.462949	11181.649756
446.837837	11160.492033
447.212664	11145.963427
447.587431	11659.427632
447.962139	12378.671736
448.336786	14644.317509
448.711374	15198.736048
449.085901	13052.850446
449.460369	12662.108091
449.834776	12108.662495
450.209124	12986.370230
450.583412	13391.721849
450.957640	14341.339122
451.331808	13475.762924
451.705917	12472.953916
452.079965	11778.504727
452.453954	12676.530832
452.827883	12309.250007
453.201752	12612.689660
453.575562	12122.870987
453.949311	12541.213660
454.323001	12503.294101
454.696632	12728.361455
455.070202	13019.478008
455.443713	13256.840736
455.817164	13715.273185
456.190556	13706.045353
456.563888	14072.002875
456.937160	14239.399430
457.310373	13578.620107
457.683526	13666.207634
458.056619	13213.673336
458.429653	13369.318961
458.802628	12797.828555
459.175542	13170.780678
459.548398	14121.166728
459.921194	14450.898519
460.293930	14524.484241
460.666607	15393.836263
461.039224	16442.134123
461.411782	17146.103532
461.784280	17010.113365
462.156719	17069.402376
462.529099	16762.207063
462.901419	15679.170612
463.273680	15479.548482
463.645882	15334.262428
464.018024	15073.271811
464.390106	15283.419871
464.762130	16016.756521
465.134094	16786.581042
465.505999	18788.415673
465.877845	22056.033622
466.249631	24877.340578
466.621358	24564.597476
466.993026	23119.306230
467.364634	22559.463410
467.736184	21094.950245
468.107674	20289.883017
468.479105	20407.535986
468.850477	19865.327122
469.221790	19467.716195
469.593043	18784.581875
469.964238	18217.068940
470.335373	17878.081591
470.706449	18332.123194
471.077467	17880.521509
471.448425	19726.523992
471.819324	23781.166880
472.190164	25773.067917
472.560945	22204.853525
472.931667	19843.566981
473.302330	19202.256595
473.672934	18745.790196
474.043479	19050.802689
474.413965	18868.539772
474.784393	18487.199169
475.154761	19194.160502
475.525070	19163.069185
475.895321	18844.546400
476.265513	19431.097253
476.635645	20021.965854
477.005719	19799.988727
477.375734	19980.033537
477.745691	20470.195007
478.115588	20994.043989
478.485427	21527.226666
478.855207	22593.110592
479.224928	24368.267219
479.594591	26586.120333
479.964194	26607.673786
480.333739	26822.235376
480.703226	26389.354016
481.072653	26078.856748
481.442022	26648.224828
481.811333	27574.909892
482.180584	27485.915883
482.549777	26537.402622
482.918912	26191.410590
483.287988	26307.909134
483.657005	25977.242210
484.025964	25721.196965
484.394864	25634.486598
484.763706	25311.769573
485.132489	24751.876341
485.501213	24930.910400
485.869879	24836.963457
486.238487	24658.579707
486.607036	24792.991992
486.975527	24508.154197
487.343959	24839.068138
487.712333	24759.798515
488.080648	24424.854171
488.448905	24916.044037
488.817104	24670.544886
489.185244	25360.114238
489.553326	25321.942621
489.921350	26333.503073
490.289315	28621.702968
490.657222	30392.665355
491.025070	30888.057023
491.392861	30671.776400
491.760593	29813.154474
492.128267	28915.151054
492.495883	27870.140026
492.863440	26984.958781
493.230939	26103.142506
493.598380	25956.933921
493.965763	25571.963687
494.333088	25102.415495
494.700354	25036.434353
495.067563	24909.188068
495.434713	24657.579038
495.801805	24810.071421
496.168839	24621.504541
496.535815	24463.366066
496.902733	24679.896226
497.269593	24351.565876
497.636395	24531.998855
498.003139	24495.064841
498.369825	24238.132353
498.736453	24450.768222
499.103023	24316.728982
499.469535	24326.387833
499.835989	24537.337437
500.202385	24579.461318
500.568723	24075.093876
500.935003	24310.704804
501.301226	23941.087404
501.667390	24776.819971
502.033497	25011.629355
502.399546	24730.587549
502.765537	24292.629747
503.131470	24685.204561
503.497345	24821.663555
503.863163	24035.162896
504.228923	24635.897035
504.594625	24848.258162
504.960269	24388.101639
505.325856	24870.255237
505.691385	24263.706126
506.056856	24880.385435
506.422270	24854.010118
506.787625	24408.604011
507.152924	24823.352341
507.518164	24869.786409
507.883347	24671.898436
508.248472	24352.869014
508.613540	25134.983869
508.978550	24919.701394
509.343503	24925.821355
509.708398	25162.740462
510.073236	25335.485681
510.438016	25541.469748
510.802738	25205.141607
511.167403	25458.361285
511.532010	25188.737693
511.896561	25953.185823
512.261053	25917.086121
512.625488	25741.807722
512.989866	25632.702029
513.354186	25467.279087
513.718449	25586.961120
514.082655	25968.445396
514.446803	25698.347935
514.810894	26182.326430
515.174927	25650.477138
515.538904	25689.173035
515.902822	26193.321187
516.266684	25937.253257
516.630488	25852.496337
516.994235	25809.301210
517.357925	26127.776105
517.721558	26303.878732
518.085133	26412.566009
518.448651	26305.766644
518.812112	26049.426492
519.175516	26267.257270
519.538863	26417.634889
519.902152	26207.343156
520.265385	26480.424981
520.628560	26266.841375
520.991678	26261.722083
521.354739	26331.877300
521.717743	26413.370073
522.080690	26194.200868
522.443580	26521.008790
522.806413	26506.149989
523.169189	26611.895753
523.531908	26664.376685
523.894569	26265.893638
524.257174	26356.644489
524.619722	26518.783120
524.982213	26224.309160
525.344647	26260.547494
525.707025	26409.301862
526.069345	26385.242955
526.431608	26339.078589
526.793815	26532.056478
527.155964	25995.710477
527.518057	26179.523549
527.880093	26095.868121
528.242072	26322.084859
528.603995	26036.977362
528.965860	25829.304509
529.327669	25879.973146
529.689421	25864.529571
530.051117	25694.120927
530.412755	25872.136672
530.774337	25678.490830
531.135862	25554.012138
531.497331	25750.670071
531.858743	25301.556195
532.220098	25788.806399
532.581396	25478.046991
532.942638	25385.521653
533.303824	25501.258984
533.664953	25498.163716
534.026025	25165.601317
534.387040	25392.932150
534.747999	25476.879964
535.108902	25639.991538
535.469748	25114.042916
535.830537	25287.952641
536.191270	25429.873725
536.551947	25269.779282
536.912567	24921.848926
537.273131	25308.944006
537.633638	24994.544885
537.994089	25212.272319
538.354483	24733.113167
538.714821	25238.536731
539.075103	25278.039212
539.435328	25058.643156
539.795497	24630.510563
540.155609	25000.768189
540.515665	25300.298427
540.875665	24537.876840
541.235609	24845.644323
541.595496	24792.679441
541.955328	25145.804706
542.315102	25078.679222
542.674821	24609.365443
543.034483	24482.174611
543.394090	24660.157588
543.753640	24458.589572
544.113134	25084.884882
544.472571	24689.207237
544.831953	24988.046837
545.191278	24612.690084
545.550548	24520.477298
545.909761	24714.183634
546.268918	24963.773682
546.628019	24928.077271
546.987064	24614.300732
547.346053	24375.166038
547.704986	24482.895496
548.063863	24625.691219
548.422684	24667.406767
548.781449	24178.450133
549.140158	24579.615073
549.498811	24154.456761
549.857408	23910.268310
550.215949	24324.124355
550.574434	24010.625080
550.932864	24213.087901
551.291237	24396.759820
551.649555	24243.584361
552.007817	24291.616475
552.366022	24152.800742
552.724173	24176.310163
553.082267	24152.203365
553.440305	24618.850374
553.798288	23879.010635
554.156215	24385.465115
554.514086	24489.907741
554.871902	23871.136353
555.229661	24154.902903
555.587365	23994.745445
555.945014	23890.363314
556.302606	24117.197593
556.660143	24067.728750
557.017625	24323.032945
557.375050	23854.303940
557.732421	24236.070521
558.089735	24058.952101
558.446994	24120.103818
558.804197	24142.607529
559.161345	24068.013575
559.518437	23835.722247
559.875474	24019.512634
560.232455	24213.077818
560.589381	24019.011039
560.946251	24012.044165
561.303065	24328.285828
561.659825	24415.621297
562.016528	24013.785883
562.373177	23763.963943
562.729770	24131.887515
563.086307	23974.054029
563.442789	24144.389577
563.799216	23981.378826
564.155587	23977.635769
564.511904	23970.578154
564.868164	23904.700355
565.224370	23878.652713
565.580520	23801.840652
565.936615	23917.961110
566.292654	23617.266366
566.648638	23896.793305
567.004567	23727.196287
567.360441	23660.090968
567.716260	23397.119177
568.072023	23711.873700
568.427732	23488.674093
568.783385	23255.888732
569.138982	23502.597760
569.494525	23536.454149
569.850013	23293.314258
570.205445	23389.905286
570.560823	23210.104972
570.916145	22957.215490
571.271412	23146.165498
571.626625	22894.480851
571.981782	23003.412624
572.336884	22813.819869
572.691931	22951.125776
573.046923	22678.926153
573.401860	22561.976425
573.756743	22583.640784
574.111570	22484.022543
574.466342	22405.320049
574.821059	22493.540241
575.175722	22194.562010
575.530330	22167.848935
575.884882	22188.091689
576.239380	22104.665634
576.593823	22000.369202
576.948211	21960.831432
577.302544	21813.244092
577.656823	21684.770286
578.011047	21785.374072
578.365216	21659.751039
578.719330	21537.054396
579.073389	21419.857651
579.427394	21577.507135
579.781344	21334.253818
580.135239	21227.676264
580.489080	21177.859581
580.842866	20957.319183
581.196597	21153.036940
581.550273	21127.702621
581.903895	21010.896566
582.257463	21323.191006
582.610975	20858.384018
582.964434	21178.706495
583.317837	20856.092814
583.671186	20949.855755
584.024481	20935.899320
584.377721	20697.891324
584.730906	20766.140985
585.084037	20767.454206
585.437113	20693.011487
585.790135	20904.797922
586.143103	20349.383755
586.496016	20363.090653
586.848874	20601.050758
587.201679	20539.256294
587.554428	20218.550690
587.907124	20555.266999
588.259765	20317.866462
588.612352	20388.092255
588.964884	19949.877354
589.317362	20123.779518
589.669786	20197.302226
590.022155	20202.842454
590.374470	20431.438617
590.726731	20200.079902
591.078937	19983.204422
591.431090	20068.178112
591.783188	19827.306740
592.135232	19792.220309
592.487222	19890.215298
592.839157	19904.708616
593.191038	19785.621438
593.542866	19679.742084
593.894639	19376.861999
594.246358	19616.175655
594.598022	19505.577781
594.949633	19262.276572
595.301190	19231.180215
595.652692	19394.564011
596.004141	19637.928234
596.355535	18958.294996
596.706876	18970.660946
597.058162	18867.760914
597.409395	19104.312017
597.760573	19167.520524
598.111698	18944.078942
598.462768	18880.346154
598.813785	18849.932873
599.164748	18655.379623
599.515657	18702.746304
599.866511	18505.521242
600.217312	18857.711373
600.568060	18373.463176
600.918753	18682.692594
601.269392	18580.130319
601.619978	18366.554275
601.970510	18560.225323
602.320988	18519.422224
602.671412	18710.585298
603.021783	18638.227097
603.372100	18354.924333
603.722363	18499.365993
604.072572	18435.229914
604.422728	18589.484180
604.772830	18341.633331
605.122878	18300.215211
605.472872	18291.415877
605.822813	18275.679915
606.172701	18249.216378
606.522534	18438.025233
606.872314	18467.150500
607.222041	18305.614287
607.571714	18509.544083
607.921333	18336.808947
608.270899	18415.476152
608.620411	18591.558615
608.969870	18359.841978
609.319276	18363.080920
609.668627	18387.686792
610.017926	18525.133851
610.367171	18643.752201
610.716362	18686.125620
611.065500	18503.358587
611.414585	18645.781266
611.763616	18629.165623
612.112594	18571.237724
612.461518	18537.023413
612.810389	18728.453668
613.159207	18577.715607
613.507971	18493.971959
613.856682	18762.673021
614.205340	18684.454477
614.553945	18838.164299
614.902496	18593.365869
615.250994	18808.050967
615.599439	18754.728162
615.947830	18730.029029
616.296169	18799.722981
616.644454	18765.125542
616.992686	18727.400067
617.340864	18954.004974
617.688990	18694.602320
618.037063	18874.407675
618.385082	18724.899655
618.733048	19010.899436
619.080961	18884.684067
619.428821	18914.807482
619.776628	18785.622873
620.124382	18715.717193
620.472083	18778.693808
620.819731	18785.325445
621.167326	18473.555286
621.514868	18518.910547
621.862357	18299.476682
622.209793	18301.503226
622.557176	18144.680491
622.904506	17952.846943
623.251783	17877.166621
623.599007	17631.417933
623.946179	17572.459118
624.293297	17508.812030
624.640363	17255.050428
624.987376	17288.039739
625.334336	17080.258501
625.681243	16923.604645
626.028097	16932.963547
626.374899	16858.052001
626.721647	16721.177112
627.068343	16554.985393
627.414987	16489.470558
627.761577	16461.527442
628.108115	16492.338974
628.454600	16221.747480
628.801032	16329.416444
629.147412	16250.575318
629.493739	16271.299502
629.840014	16081.868064
630.186236	16181.992941
630.532405	15948.159020
630.878521	16135.314377
631.224585	16036.658996
631.570597	15861.312542
631.916556	15889.638785
632.262462	15870.888213
632.608316	15785.917045
632.954117	15725.410596
633.299866	15725.355143
633.645562	15639.264838
633.991206	15399.653755
634.336797	15260.505306
634.682336	15229.781994
635.027823	15113.729591
635.373257	14989.654192
635.718639	14902.104473
636.063968	14847.995248
636.409245	14593.180045
636.754470	14624.372184
637.099642	14464.670951
637.444762	14246.746911
637.789829	14280.008444
638.134845	14120.183703
638.479808	14148.704031
638.824719	14074.117639
639.169577	13938.137555
639.514383	13989.050688
639.859137	13814.367146
640.203839	13901.057348
640.548489	13740.972987
640.893086	13730.010998
641.237632	13602.989045
641.582125	13753.817847
641.926566	13574.163727
642.270955	13593.546963
642.615292	13549.300756
642.959576	13562.377509
643.303809	13592.611829
643.647990	13521.564328
643.992118	13584.803082
644.336195	13352.766332
644.680219	13569.031832
645.024192	13483.095283
645.368112	13722.426582
645.711981	13774.625210
646.055797	13971.399088
646.399562	13939.118060
646.743274	14198.767730
647.086935	14479.358353
647.430544	14433.509058
647.774101	14483.897912
648.117606	14621.128202
648.461059	14591.541670
648.804460	14574.736983
649.147810	14303.573318
649.491108	14205.633781
649.834354	14228.324015
650.177548	13904.074479
650.520690	13725.801635
650.863781	13645.251558
651.206820	13691.350389
651.549807	13519.469728
651.892742	13319.724089
652.235626	13257.034821
652.578458	13263.984051
652.921238	12946.855145
653.263967	13149.154128
653.606644	12975.287253
653.949269	12951.961834
654.291843	12763.863781
654.634365	12925.586517
654.976836	12768.688165
655.319255	12768.599945
655.661622	12730.377917
656.003938	12650.152994
656.346203	12568.980335
656.688416	12649.941266
657.030577	12608.104730
657.372687	12510.243331
657.714746	12498.424346
658.056753	12693.751413
658.398708	12497.098523
658.740612	12504.645130
659.082465	12616.881379
659.424266	12577.043661
659.766016	12603.862599
660.107715	12511.100327
660.449362	12589.142430
660.790958	12547.477293
661.132503	12483.192500
661.473996	12561.597565
661.815438	12571.392527
662.156829	12597.052000
662.498168	12572.080645
662.839456	12568.708113
663.180693	12583.113210
663.521879	12680.127695
663.863013	12652.731545
664.204097	12630.127011
664.545129	12754.683840
664.886110	12723.814334
665.227040	12820.158346
665.567918	12822.590703
665.908746	12845.830422
666.249522	12838.639216
666.590248	12883.961710
666.930922	13002.998476
667.271545	12977.792706
667.612118	13060.175242
667.952639	12960.856950
668.293109	12985.488028
668.633528	12929.627002
668.973896	12907.506419
669.314213	12982.967451
669.654480	12724.815003
669.994695	12800.606231
670.334859	12828.035149
670.674973	12768.945264
671.015035	12804.913897
671.355047	12741.559196
671.695008	12722.632184
672.034918	12730.236764
672.374777	12765.499636
672.714585	12687.989375
673.054342	12716.055999
673.394049	12667.335767
673.733705	12767.836210
674.073310	12673.551510
674.412864	12676.984536
674.752368	12543.855224
675.091820	12572.562075
675.431223	12559.926423
675.770574	12425.685537
676.109875	12344.200326
676.449125	12302.149542
676.788324	12252.504258
677.127473	12081.135275
677.466571	12063.892008
677.805619	11965.791154
678.144616	11890.836758
678.483562	11864.060669
678.822458	11733.497305
679.161303	11709.718183
679.500098	11692.711850
679.838842	11654.673824
680.177535	11681.558297
680.516179	11744.764284
680.854771	11692.066583
681.193314	11904.039540
681.531805	12062.636761
681.870247	12495.412257
682.208638	12909.006162
682.546978	13213.670815
682.885268	13252.651538
683.223508	12955.528450
683.561697	12795.020632
683.899836	12693.864839
684.237925	12493.297493
684.575963	12418.355699
684.913951	12330.372441
685.251889	12285.682613
685.589776	12375.614277
685.927614	12303.535859
686.265401	12267.685693
686.603137	12322.162922
686.940824	12472.011220
687.278460	12602.698093
687.616046	12641.918270
687.953582	12801.301910
688.291068	12738.065676
688.628504	12969.835245
688.965889	12979.249600
689.303224	12946.083849
689.640510	12832.199142
689.977745	12513.613342
690.314930	12302.751959
690.652065	12206.899460
690.989150	11907.202864
691.326185	11683.887310
691.663170	11476.486679
692.000105	11240.638817
692.336990	11120.155240
692.673825	10864.745181
693.010610	10753.575136
693.347345	10542.900275
693.684030	10345.390388
694.020665	10286.308065
694.357251	10083.779709
694.693786	10022.108754
695.030272	9866.087563
695.366707	9745.762782
695.703093	9686.206591
696.039429	9683.738946
696.375716	9594.848280
696.711952	9456.750912
697.048139	9511.132359
697.384276	9465.411614
697.720363	9485.339295
698.056400	9415.852030
698.392388	9367.774546
698.728326	9330.270882
699.064214	9267.813507
699.400053	9311.255650
699.735842	9124.286815
700.071581	9082.966998
700.407270	9009.461934
700.742910	8934.051313
701.078501	8835.590017
701.414042	8700.066157
701.749533	8650.652767
702.084974	8510.075151
702.420366	8627.178635
702.755709	8507.993155
703.091002	8371.551805
703.426246	8398.511896
703.761440	8350.431891
704.096584	8311.741036
704.431679	8241.946261
704.766725	8224.687870
705.101721	8179.509050
705.436668	8228.612409
705.771565	8115.551931
706.106413	8202.383285
706.441212	8245.114626
706.775961	8195.794497
707.110661	8241.482474
707.445311	8379.685707
707.779913	8279.959081
708.114465	8403.268225
708.448967	8439.040253
708.783421	8593.861649
709.117825	8773.417467
709.452180	8809.882653
709.786485	8893.953976
710.120742	9180.515845
710.454949	9183.991721
710.789107	9283.960322
711.123216	9501.919650
711.457275	9678.140744
711.791286	9826.426285
712.125247	9832.158077
712.459159	9807.259818
712.793023	10052.887518
713.126837	9629.012180
713.460602	9779.664542
713.794318	9610.155744
714.127985	9640.427872
714.461602	9307.457140
714.795171	9251.820446
715.128691	9007.460596
715.462162	8762.210982
715.795584	8705.039256
716.128957	8551.793220
716.462281	8382.140749
716.795556	8429.958614
717.128782	8224.579486
717.461960	7967.851164
717.795088	8033.648304
718.128167	7946.398534
718.461198	7774.069210
718.794180	7719.105510
719.127113	7710.921197
719.459997	7549.417751
719.792833	7319.911660
720.125619	7388.171404
720.458357	7244.932059
720.791046	7238.335709
721.123686	7227.388843
721.456278	7069.358752
721.788821	7081.916267
722.121315	6984.639642
722.453761	7051.182872
722.786158	6994.041393
723.118506	7006.404823
723.450805	6967.124152
723.783056	7028.767382
724.115259	6942.283867
724.447412	6941.106758
724.779518	6997.159347
725.111574	6991.485528
725.443582	7070.475368
725.775542	7055.850981
726.107453	7248.407934
726.439315	7157.944428
726.771129	7225.170736
727.102895	7400.434011
727.434612	7504.256574
727.766281	7542.105557
728.097901	7616.608770
728.429473	7618.448791
728.760996	7595.284689
729.092471	7574.058911
729.423897	7515.455498
729.755276	7514.033892
730.086606	7440.135618
730.417887	7546.236783
730.749120	7752.011642
731.080305	7949.725696
731.411442	8054.122951
731.742530	8044.819501
732.073570	8160.513982
732.404562	8243.506498
732.735506	8096.856812
733.066401	8227.609219
733.397249	8162.616143
733.728048	7914.898884
734.058798	7589.338648
734.389501	7356.056733
734.720156	7177.488982
735.050762	6952.741741
735.381320	6861.635488
735.711831	6794.633512
736.042293	6693.840682
736.372707	6716.765329
736.703073	6576.671664
737.033391	6613.462004
737.363661	6632.182329
737.693883	6663.901269
738.024056	6746.193065
738.354182	6784.611698
738.684260	6819.693088
739.014290	6941.333609
739.344272	7046.169445
739.674207	7077.359064
740.004093	7151.685836
740.333931	7167.343660
740.663722	7170.532190
740.993464	7246.595639
741.323159	7231.726756
741.652806	6980.102603
741.982405	7002.329050
742.311956	7058.689150
742.641460	6878.891357
742.970915	6688.320618
743.300323	6677.721593
743.629683	6632.542772
743.958996	6498.196022
744.288260	6411.392394
744.617477	6352.935174
744.946647	6352.345359
745.275768	6188.482653
745.604842	6146.678885
745.933869	6125.833713
746.262847	6088.123362
746.591778	6073.125929
746.920662	6032.751328
747.249498	6026.941398
747.578286	6075.316311
747.907027	6152.463609
748.235720	6215.243618
748.564365	6185.044586
748.892963	6222.397015
749.221514	6366.107709
749.550017	6187.209762
749.878473	6071.263223
750.206881	6130.143900
750.535242	6072.914201
750.863555	6006.759139
751.191821	6016.125603
751.520039	6017.025449
751.848210	5923.880049
752.176334	5952.755778
752.504411	5997.092727
752.832440	5922.460964
753.160421	5851.320201
753.488356	5898.518004
753.816243	5932.724754
754.144082	5783.461229
754.471875	5755.538278
754.799620	5791.527076
755.127318	5810.912833
755.454969	5771.738026
755.782572	5732.903498
756.110129	5774.190548
756.437638	5750.850005
756.765100	5699.092479
757.092515	5697.668353
757.419882	5756.208752
757.747203	5729.142797
758.074477	5792.157220
758.401703	5772.542090
758.728882	5731.527262
759.056014	5797.203415
759.383099	5920.676396
759.710138	5930.761224
760.037129	5915.398308
760.364073	5921.639256
760.690970	5998.947871
761.017820	5979.428523
761.344623	5934.607625
761.671379	6043.483945
761.998088	6167.498850
762.324751	6419.034783
762.651366	7043.235493
762.977935	8389.447902
763.304456	10041.018122
763.630931	10916.792574
763.957359	10493.771710
764.283740	9532.118682
764.610074	8676.818877
764.936362	7674.143459
765.262602	7080.620690
765.588796	6543.155552
765.914943	6211.195572
766.241044	6043.441095
766.567097	5835.639692
766.893104	5572.080607
767.219064	5396.267847
767.544978	5336.157128
767.870845	5255.327267
768.196665	5152.838089
768.522438	5081.979631
768.848165	5049.378489
769.173846	4979.006502
769.499479	4928.935241
769.825066	4882.791039
770.150607	4820.628571
770.476101	4795.508502
770.801548	4790.779899
771.126949	4710.807035
771.452303	4660.768542
771.777611	4618.788333
772.102872	4638.416065
772.428087	4598.464921
772.753256	4555.126122
773.078378	4512.760265
773.403453	4439.383750
773.728482	4425.971760
774.053465	4382.711098
774.378401	4369.525960
774.703291	4368.724417
775.028135	4293.664157
775.352932	4244.951487
775.677683	4231.703335
776.002388	4251.842744
776.327046	4265.358078
776.651658	4185.402857
776.976224	4128.883961
777.300743	4132.722800
777.625216	4156.958147
777.949643	4148.894821
778.274024	4102.122996
778.598359	4061.697983
778.922647	4086.240841
779.246889	4076.781115
779.571086	4069.859611
779.895236	4054.748752
780.219339	4042.415570
780.543397	4039.695867
780.867409	4088.204370
781.191374	4102.231381
781.515294	4038.546484
781.839167	4033.386863
782.162995	4052.734812
782.486776	4039.640414
782.810511	4049.652146
783.134201	4040.641083
783.457844	3997.871934
783.781441	3941.353038
784.104993	3949.910397
784.428498	3969.971668
784.751958	3961.109320
785.075372	3942.855302
785.398739	3905.986823
785.722061	3918.788833
786.045337	3963.261892
786.368568	3991.938496
786.691752	3905.029004
787.014891	3958.298877
787.337983	4090.316613
787.661030	4249.871653
787.984031	4413.759565
788.306987	4581.892128
788.629897	4665.623173
788.952760	4620.177171
789.275579	4554.236358
789.598351	4487.075586
789.921078	4335.964479
790.243759	4139.372082
790.566395	4123.605873
790.888984	4118.526910
791.211529	4007.581197
791.534027	3949.403761
791.856480	3935.069240
792.178888	3873.206720
792.501249	3830.750123
792.823566	3839.458716
793.145836	3868.934342
793.468062	3807.381854
793.790241	3767.276954
794.112375	3799.444557
794.434464	3866.701111
794.756507	3885.426477
795.078505	3863.653734
795.400457	3904.542532
795.722364	4046.289696
796.044226	4153.610821
796.366042	4227.244434
796.687812	4200.168397
797.009538	4205.554870
797.331218	4165.049199
797.652852	4140.110611
797.974442	4114.864512
798.295986	4114.110860
798.617484	4032.076163
798.938938	3947.762865
799.260346	3992.727437
799.581709	3984.961539
799.903026	3908.371289
800.224299	3872.203531
800.545526	3867.157336
800.866708	3826.228208
801.187845	3769.565638
801.508936	3802.512099
801.829983	3798.695946
802.150984	3717.982032
802.471940	3710.206052
802.792851	3719.201991
803.113717	3720.588308
803.434538	3718.483626
803.755314	3661.468176
804.076045	3640.514620
804.396731	3660.883402
804.717372	3684.304603
805.037967	3669.985206
805.358518	3658.025068
805.679024	3689.426416
805.999485	3700.395966
806.319901	3707.710681
806.640272	3717.523287
806.960598	3729.637179
807.280879	3707.365362
807.601115	3720.348853
807.921306	3735.074064
808.241453	3777.281124
808.561554	3750.525200
808.881611	3682.202442
809.201623	3725.707600
809.521590	3731.449474
809.841513	3704.799414
810.161390	3740.057244
810.481223	3710.969787
810.801011	3660.636386
811.120755	3653.500633
811.440453	3689.756611
811.760107	3686.026157
812.079716	3644.184580
812.399281	3614.381279
812.718801	3638.311636
813.038276	3611.686782
813.357707	3610.620578
813.677093	3627.435347
813.996434	3569.754464
814.315731	3584.671239
814.634983	3587.690890
814.954191	3604.669496
815.273354	3628.768732
815.592473	3625.103813
815.911547	3632.947848
816.230577	3675.865712
816.549562	3726.420923
816.868502	3766.394753
817.187399	3791.434164
817.506250	3790.551962
817.825058	3767.166049
818.143821	3861.513764
818.462539	3960.557313
818.781213	4007.331659
819.099843	4070.761978
819.418429	4325.330165
819.736970	4564.043923
820.055466	4815.156399
820.373919	5189.983831
820.692327	5602.055308
821.010691	6073.642648
821.329011	7509.723706
821.647286	10338.126085
821.965517	15017.803995
822.283704	19038.076296
822.601847	21113.504211
822.919945	19233.960411
823.237999	16604.323166
823.556010	14094.778808
823.873976	11963.063890
824.191897	9852.310089
824.509775	8506.662290
824.827609	7372.082562
825.145398	6837.682445
825.463144	6719.205248
825.780845	6831.317988
826.098502	7043.283384
826.416116	7961.731203
826.733685	9313.776227
827.051210	10419.109701
827.368692	10410.345655
827.686129	9106.347869
828.003522	7595.181346
828.320872	6570.244192
828.638177	5856.381520
828.955439	5287.852792
829.272656	4785.698416
829.589830	4510.801776
829.906960	4334.447091
830.224046	4145.028256
830.541088	4021.416643
830.858086	3972.177173
831.175041	3895.115575
831.491952	3880.914644
831.808819	3892.126171
832.125642	3967.148622
832.442421	4118.703351
832.759157	4405.539963
833.075849	4976.301923
833.392497	5859.159196
833.709101	6649.445761
834.025662	6973.289484
834.342179	6574.960192
834.658653	5902.465228
834.975083	5240.929732
835.291469	4659.762831
835.607811	4255.101850
835.924110	4113.090026
836.240366	3911.191814
836.556578	3704.723797
836.872746	3596.790172
837.188871	3554.825087
837.504952	3489.436281
837.820990	3403.063671
838.136984	3361.267465
838.452935	3385.916187
838.768842	3380.247409
839.084706	3404.820513
839.400526	3570.072057
839.716303	3924.258485
840.032037	4461.471565
840.347727	4710.663362
840.663373	4414.445162
840.978977	4024.211963
841.294537	3715.595045
841.610054	3490.164728
841.925527	3383.851834
842.240957	3312.000268
842.556344	3255.778800
842.871687	3197.268648
843.186987	3146.254692
843.502244	3107.190790
843.817458	3074.463620
844.132629	3047.354815
844.447756	3052.907646
844.762840	3037.184287
845.077881	3005.114987
845.392879	2985.361225
845.707833	2983.017089
846.022745	2984.945330
846.337613	2984.058087
846.652438	2969.859677
846.967221	2969.163998
847.281960	2955.295784
847.596656	2949.049794
847.911309	2952.220680
848.225919	2947.718930
848.540485	2938.639812
848.855009	2939.191818
849.169490	2929.106990
849.483928	2918.200453
849.798323	2918.359250
850.112675	2916.420926
850.426984	2927.730755
850.741251	2925.913419
851.055474	2913.910431
851.369654	2909.083527
851.683792	2915.001841
851.997887	2922.719848
852.311938	2924.338058
852.625947	2914.301121
852.939914	2917.129208
853.253837	2919.717841
853.567718	2907.203176
853.881555	2907.104874
854.195350	2922.682039
854.509103	2916.856986
854.822812	2909.910276
855.136479	2902.877866
855.450103	2907.621592
855.763685	2899.764954
856.077224	2898.194634
856.390720	2908.874319
856.704173	2921.260434
857.017584	2910.890780
857.330953	2911.455389
857.644278	2920.499219
857.957561	2931.556990
858.270802	2931.945159
858.584000	2929.623708
858.897155	2913.043353
859.210268	2916.463776
859.523339	2913.484454
859.836367	2915.475710
860.149352	2907.997158
860.462295	2904.254101
860.775195	2910.890780
861.088054	2912.834145
861.400869	2894.791855
861.713642	2892.137688
862.026373	2908.400450
862.339062	2909.794329
862.651708	2914.903539
862.964312	2915.879002
863.276873	2912.302303
863.589392	2921.036102
863.901869	2934.206117
864.214303	2957.705455
864.526696	2973.630460
864.839045	2968.168370
865.151353	2968.985037
865.463619	2964.158132
865.775842	2968.037300
866.088023	2988.058243
866.400162	2992.164263
866.712258	2962.078656
867.024313	2950.413426
867.336325	2960.977164
867.648296	2985.414158
867.960224	2975.558702
868.272110	2960.442802
868.583954	2965.312557
868.895755	2981.441728
869.207515	2968.478401
869.519233	2975.142807
869.830909	2985.010865
870.142542	2993.641321
870.454134	2992.345744
870.765684	2995.723317
871.077191	2996.131651
871.388657	3001.729852
871.700081	3018.900022
872.011463	3029.312525
872.322803	3028.508461
872.634101	3027.096938
872.945357	3047.904301
873.256571	3074.168712
873.567744	3063.368040
873.878874	3055.309756
874.189963	3079.497212
874.501010	3082.116091
874.812015	3071.096129
875.122979	3071.101170
875.433900	3071.476736
875.744780	3075.038311
876.055618	3082.791606
876.366415	3078.920000
876.677169	3090.469283
876.987882	3087.245465
877.298554	3082.899991
877.609183	3106.787498
877.919771	3128.857670
878.230317	3153.319869
878.540822	3208.908672
878.851285	3248.776637
879.161707	3294.585602
879.472087	3400.782549
879.782425	3642.420177
880.092722	4095.088066
880.402977	4633.460611
880.713191	5278.254435
881.023363	6473.310366
881.333494	7774.628778
881.643583	8309.543093
881.953631	7991.431161
882.263637	7336.035791
882.573602	6729.027936
882.883526	6143.830633
883.193408	5566.227828
883.503248	5115.389878
883.813048	4801.419254
884.122806	4484.542406
884.432522	4165.051719
884.742197	3926.653033
885.051831	3726.592322
885.361424	3595.383691
885.670975	3523.025489
885.980485	3432.468722
886.289954	3355.797813
886.599382	3313.157213
886.908768	3271.570214
887.218113	3226.328379
887.527417	3167.392250
887.836680	3117.900722
888.145901	3114.893673
888.455082	3098.951024
888.764221	3048.801626
889.073319	3020.868593
889.382376	3018.015299
889.691392	3022.643079
890.000366	3022.091072
890.309300	3010.400637
890.618193	3021.796165
890.927044	3036.806200
891.235855	3037.436345
891.544625	3022.716175
891.853353	3035.039276
892.162041	3054.462842
892.470687	3094.832402
892.779293	3149.705361
893.087858	3195.748740
893.396381	3271.996192
893.704864	3398.745923
894.013306	3647.453769
894.321707	3957.366263
894.630068	4157.968898
894.938387	4151.339781
895.246665	4106.168522
895.554903	3984.341477
895.863100	3777.288686
896.171256	3602.504320
896.479371	3463.222281
896.787446	3337.458095
897.095480	3230.913309
897.403473	3166.126920
897.711425	3131.539563
898.019336	3122.349540
898.327207	3090.562544
898.635038	3053.928479
898.942827	3039.394833
899.250576	3028.062319
899.558284	2998.362361
899.865952	2975.155409
900.173579	2954.436267
900.481165	2947.928138
900.788711	2936.550253
901.096216	2910.852972
901.403681	2897.020045
901.711105	2902.855181
902.018489	2905.290058
902.325832	2905.035480
902.633135	2915.266502
902.940397	2952.681946
903.247619	3034.401570
903.554800	3241.502252
903.861941	3600.828137
904.169041	4036.698901
904.476101	4329.708407
904.783121	4272.632463
905.090100	4020.221890
905.397039	3740.150506
905.703938	3486.036022
906.010796	3298.885707
906.317614	3188.154242
906.624391	3089.214036
906.931129	3015.981194
907.237826	2953.433078
907.544483	2905.282497
907.851099	2879.398692
908.157675	2857.096628
908.464211	2832.412618
908.770707	2821.919456
909.077163	2805.296251
909.383578	2791.443160
909.689954	2779.737601
909.996289	2779.137704
910.302584	2781.055863
910.608839	2783.165586
910.915054	2775.901283
911.221229	2767.822834
911.527363	2771.833072
911.833458	2777.093516
912.139513	2780.992848
912.445527	2787.828653
912.751502	2794.636731
913.057436	2806.198618
913.363331	2818.385607
913.669186	2842.278156
913.975000	2878.246788
914.280775	2939.159050
914.586510	3013.911800
914.892205	3091.830395
915.197859	3225.058008
915.503475	3428.670212
915.809050	3649.727329
916.114585	3797.360040
916.420081	3812.990137
916.725536	3748.642329
917.030952	3624.113226
917.336328	3493.630521
917.641665	3359.389635
917.946961	3259.771394
918.252218	3184.607790
918.557435	3104.435800
918.862612	3043.326933
919.167750	2994.137874
919.472848	2956.944241
919.777906	2925.910898
920.082925	2899.291085
920.387904	2865.918647
920.692843	2851.004393
920.997743	2839.785305
921.302603	2825.095383
921.607423	2816.845535
921.912204	2802.947073
922.216946	2788.511729
922.521647	2783.354629
922.826310	2775.558485
923.130932	2768.175715
923.435516	2758.027872
923.740059	2752.578385
924.044564	2743.494226
924.349028	2737.366703
924.653454	2731.637432
924.957840	2724.325238
925.262186	2717.804506
925.566493	2714.769731
925.870761	2709.766386
926.174989	2707.344111
926.479178	2703.038966
926.783328	2696.616536
927.087438	2696.334231
927.391509	2695.736855
927.695541	2689.379960
927.999533	2687.297963
928.303486	2688.558252
928.607400	2685.410051
928.911275	2685.009279
929.215110	2682.224042
929.518906	2680.063907
929.822663	2682.004752
930.126381	2678.244051
930.430060	2681.583815
930.733699	2682.367715
931.037299	2684.336285
931.340861	2684.177489
931.644383	2685.626821
931.947866	2684.069104
932.251309	2683.007941
932.554714	2681.888805
932.858080	2679.847138
933.161407	2677.326561
933.464694	2674.949657
933.767943	2672.925633
934.071153	2676.966118
934.374323	2675.529389
934.677455	2675.292455
934.980548	2671.614933
935.283602	2673.805315
935.586617	2673.626354
935.889593	2675.433607
936.192530	2673.749862
936.495428	2672.754234
936.798287	2675.771365
937.101108	2677.586180
937.403890	2682.982735
937.706632	2687.718899
938.009336	2692.694518
938.312002	2704.450489
938.614628	2712.559185
938.917216	2718.452294
939.219765	2718.958930
939.522275	2717.249979
939.824747	2717.181923
940.127179	2713.358208
940.429573	2708.395192
940.731929	2706.683720
941.034246	2703.207845
941.336524	2702.721373
941.638763	2699.893286
941.940964	2696.372040
942.243126	2694.640404
942.545250	2692.220650
942.847335	2690.055474
943.149381	2686.299815
943.451389	2682.095492
943.753359	2681.026768
944.055290	2680.946109
944.357182	2677.820594
944.659036	2678.511232
944.960851	2677.147600
945.262628	2673.911179
945.564367	2676.270439
945.866067	2677.069462
946.167729	2676.472085
946.469352	2677.795388
946.770937	2676.706499
947.072484	2675.368072
947.373992	2674.511076
947.675462	2672.913031
947.976893	2667.095539
948.278286	2666.583862
948.579641	2667.970179
948.880958	2662.873573
949.182236	2668.131496
949.483476	2666.609068
949.784678	2666.404901
950.085841	2665.744510
950.386967	2668.585200
950.688054	2669.195180
950.989103	2670.500838
951.290114	2670.742814
951.591087	2670.820952
951.892021	2672.529903
952.192917	2676.240192
952.493776	2679.864782
952.794596	2677.034174
953.095378	2679.915193
953.396122	2678.828825
953.696828	2675.461334
953.997496	2673.855726
954.298126	2671.461178
954.598718	2671.161230
954.899272	2667.181239
955.199788	2665.225271
955.500266	2663.355003
955.800706	2661.220074
956.101108	2657.489620
956.401472	2655.636996
956.701798	2655.778149
957.002087	2652.458549
957.302337	2650.898312
957.602550	2651.256234
957.902724	2648.017292
958.202861	2648.271871
958.502960	2649.259937
958.803022	2644.112919
959.103045	2646.273053
959.403031	2644.475882
959.702979	2645.063176
960.002889	2641.093268
960.302762	2641.766262
960.602596	2644.846407
960.902393	2642.419091
961.202153	2641.206693
961.501875	2641.030253
961.801559	2641.645274
962.101205	2638.623102
962.400814	2640.856333
962.700385	2641.809111
962.999918	2638.454223
963.299414	2634.338121
963.598873	2639.724594
963.898293	2638.232413
964.197677	2639.563277
964.497022	2639.613689
964.796331	2638.459265
965.095601	2639.734677
965.394835	2640.175778
965.694030	2639.591004
965.993189	2635.883235
966.292309	2636.722587
966.591393	2638.819707
966.890439	2635.331229
967.189447	2639.270890
967.488419	2637.561939
967.787353	2638.640746
968.086249	2638.550005
968.385108	2636.893986
968.683930	2637.665283
968.982714	2638.456744
969.281462	2637.932464
969.580172	2638.658390
969.878844	2639.522948
970.177480	2638.179481
970.476078	2637.153606
970.774639	2639.928761
971.073162	2638.247536
971.371649	2639.462454
971.670098	2639.623771
971.968510	2641.269708
972.266885	2638.189563
972.565223	2639.800212
972.863524	2638.746610
973.161788	2642.275418
973.460014	2639.893473
973.758204	2638.955818
974.056356	2638.744090
974.354471	2640.674852
974.652550	2639.351549
974.950591	2638.108904
975.248595	2639.374234
975.546563	2637.735859
975.844493	2638.524800
976.142386	2636.750313
976.440243	2637.115797
976.738062	2636.422638
977.035845	2636.692340
977.333590	2635.598410
977.631299	2634.892648
977.928971	2634.325518
978.226606	2633.052627
978.524204	2633.229067
978.821765	2633.808800
979.119290	2636.357103
979.416777	2638.068575
979.714228	2633.284520
980.011642	2636.268883
980.309020	2637.509007
980.606360	2636.707464
980.903664	2633.987761
981.200931	2635.240488
981.498162	2637.219141
981.795356	2639.825417
982.092513	2638.981024
982.389633	2640.226189
982.686717	2643.422281
982.983764	2650.603404
983.280775	2653.744043
983.577749	2653.963333
983.874686	2652.846718
984.171587	2650.495019
984.468451	2648.014772
984.765279	2646.152065
985.062070	2645.713485
985.358824	2641.889770
985.655543	2640.110242
985.952224	2641.609986
986.248869	2637.052783
986.545478	2637.095632
986.842050	2635.278297
987.138586	2632.324180
987.435086	2633.707977
987.731549	2634.905251
988.027975	2634.650673
988.324366	2634.567494
988.620719	2630.529530
988.917037	2635.401805
989.213318	2631.429376
989.509563	2632.719911
989.805772	2634.479274
990.101944	2632.898872
990.398080	2632.021711
990.694180	2632.402318
990.990244	2631.678913
991.286271	2632.193110
991.582262	2633.087915
991.878217	2632.873666
992.174136	2634.872484
992.470019	2633.070271
992.765865	2630.189252
993.061676	2627.419138
993.357450	2629.743110
993.653188	2630.489200
993.948890	2631.300826
994.244556	2632.359468
994.540186	2632.835857
994.835780	2632.447689
995.131337	2636.629326
995.426859	2635.101856
995.722345	2635.522792
996.017795	2632.805611
996.313208	2636.100005
996.608586	2638.522279
996.903928	2638.537403
997.199234	2637.592186
997.494504	2638.323153
997.789738	2637.052783
998.084936	2637.440952
998.380099	2633.589510
998.675225	2634.262504
998.970316	2633.642442
999.265371	2636.672176
999.560390	2633.924747
999.855373	2630.403501
1000.150320	2634.267545
1000.445232	2633.478605
1000.740108	2630.942904
1001.034948	2630.693367
1001.329752	2632.079684
1001.624521	2630.852163
1001.919254	2631.247894
1002.213951	2634.295272
1002.508613	2630.516927
1002.803239	2630.973151
1003.097829	2630.584982
1003.392384	2631.502472
1003.686903	2630.343007
1003.981386	2630.557256
1004.275834	2632.215796
1004.570246	2632.384674
1004.864623	2630.958028
1005.158964	2629.584313
1005.453270	2629.065074
1005.747540	2631.434417
1006.041775	2629.480970
1006.335974	2630.532050
1006.630138	2630.927781
1006.924266	2630.698408
1007.218359	2630.317801
1007.512416	2626.970475
1007.806438	2627.628346
1008.100425	2625.669857
1008.394376	2628.271093
1008.688292	2627.008284
1008.982172	2627.910650
1009.276017	2630.451392
1009.569827	2629.969962
1009.863602	2630.002729
1010.157341	2631.154633
1010.451045	2629.170939
1010.744714	2630.945425
1011.038347	2626.894858
1011.331945	2627.688839
1011.625508	2629.430558
1011.919036	2629.372585
1012.212528	2630.133799
1012.505986	2628.354272
1012.799408	2629.828809
1013.092795	2630.375774
1013.386147	2629.473408
1013.679464	2630.597585
1013.972745	2630.479118
1014.265992	2631.038686
1014.559204	2628.422327
1014.852380	2628.487862
1015.145521	2628.407204
1015.438628	2628.576082
1015.731699	2628.581124
1016.024736	2630.955507
1016.317737	2627.499796
1016.610703	2631.167236
1016.903635	2631.494911
1017.196531	2630.504324
1017.489393	2624.520474
1017.782219	2629.627163
1018.075011	2629.402832
1018.367768	2629.317132
1018.660490	2629.415435
1018.953177	2629.415435
1019.245829	2629.415435
