Dividing Wavelength (nm)	Counts (n)	Blue Motor Position (mm): 7.400000	Red Motor Position (mm): 0.000000	
326.493990	2158.571665
326.888308	2158.571665
327.282561	2158.571665
327.676750	2118.618001
328.070874	2114.194388
328.464933	2116.263782
328.858929	2117.178751
329.252859	2124.803496
329.646726	2130.447068
330.040528	2145.525159
330.434265	2157.051758
330.827938	2174.292504
331.221547	2194.376461
331.615091	2210.533359
332.008571	2227.874928
332.401986	2247.749677
332.795338	2267.163160
333.188625	2282.188319
333.581847	2302.042904
333.975006	2317.055460
334.368100	2340.784171
334.761129	2355.080883
335.154095	2374.670807
335.546996	2392.196379
335.939833	2410.725140
336.332606	2421.954310
336.725315	2435.847730
337.117960	2451.671912
337.510540	2461.557614
337.903056	2471.337453
338.295508	2479.625110
338.687896	2492.134733
339.080220	2497.685043
339.472480	2505.057731
339.864676	2508.994872
340.256807	2516.170955
340.648875	2520.455935
341.040879	2520.387880
341.432818	2525.610515
341.824694	2526.253262
342.216506	2528.032790
342.608253	2528.118489
342.999937	2529.477080
343.391557	2528.723428
343.783113	2529.393901
344.174605	2527.621936
344.566033	2527.135464
344.957397	2528.489014
345.348697	2526.021369
345.739934	2521.496934
346.131106	2521.272602
346.522215	2518.071470
346.913260	2517.103568
347.304241	2514.514936
347.695159	2511.666684
348.086012	2510.933196
348.476802	2509.872033
348.867528	2506.451610
349.258191	2503.706702
349.648789	2503.452123
350.039324	2500.888697
350.429796	2502.242247
350.820203	2501.307113
351.210548	2502.688389
351.600828	2497.591782
351.991045	2499.146978
352.381198	2497.594303
352.771288	2496.364261
353.161314	2496.026504
353.551276	2497.133037
353.941175	2492.379229
354.331010	2496.472646
354.720782	2493.826040
355.110490	2493.747902
355.500135	2493.130361
355.889717	2495.035917
356.279235	2492.752274
356.668689	2495.754282
357.058080	2493.243787
357.447408	2496.805362
357.836672	2495.751761
358.225873	2494.718324
358.615010	2496.714621
359.004084	2493.447954
359.393095	2496.311329
359.782043	2497.932060
360.170927	2497.082626
360.559748	2495.776967
360.948505	2498.363079
361.337199	2498.726042
361.725830	2501.284427
362.114398	2498.322749
362.502903	2498.111021
362.891344	2500.329129
363.279722	2498.506752
363.668037	2502.431290
364.056289	2501.213851
364.444478	2502.408605
364.832603	2503.792401
365.220665	2503.338698
365.608665	2504.296517
365.996601	2501.410456
366.384474	2503.923471
366.772284	2503.454644
367.160031	2502.806856
367.547715	2507.535458
367.935336	2504.929182
368.322893	2501.952380
368.710388	2501.324757
369.097820	2504.137720
369.485189	2502.990858
369.872495	2507.313647
370.259738	2507.416991
370.646918	2505.942453
371.034035	2507.152330
371.421090	2511.525531
371.808081	2507.855571
372.195010	2508.921775
372.581875	2509.393123
372.968678	2508.755417
373.355418	2509.405726
373.742096	2511.611231
374.128710	2509.740963
374.515262	2510.214831
374.901751	2510.212311
375.288177	2514.199863
375.674540	2511.608710
376.060841	2511.742301
376.447079	2511.419667
376.833254	2510.451766
377.219367	2511.674245
377.605417	2511.714575
377.991404	2512.218690
378.377329	2511.664163
378.763191	2512.095182
379.148991	2512.921931
379.534727	2514.174658
379.920402	2517.184227
380.306013	2513.839421
380.691563	2514.119205
381.077049	2514.759432
381.462474	2513.118536
381.847835	2513.478978
382.233134	2517.955523
382.618371	2513.410923
383.003545	2517.191788
383.388657	2513.748680
383.773706	2514.318331
384.158693	2516.450739
384.543618	2514.998886
384.928480	2514.852693
385.313280	2515.986953
385.698017	2518.875534
386.082692	2514.162055
386.467305	2514.323372
386.851856	2517.461490
387.236344	2517.826974
387.620770	2515.956706
388.005133	2514.114164
388.389435	2516.722961
388.773674	2515.384535
389.157851	2517.763959
389.541965	2516.564165
389.926018	2518.953672
390.310008	2520.198837
390.693936	2518.736902
391.077802	2520.032478
391.461606	2521.481810
391.845348	2520.085411
392.229027	2521.922911
392.612645	2521.857376
392.996200	2518.953672
393.379694	2519.225894
393.763125	2523.299146
394.146494	2518.918383
394.529801	2522.401821
394.913047	2521.262520
395.296230	2525.212264
395.679351	2524.176307
396.062410	2522.946265
396.445408	2524.020031
396.828343	2522.210257
397.211217	2522.086749
397.594028	2522.427027
397.976778	2521.577592
398.359466	2522.936183
398.742092	2523.117665
399.124656	2522.895854
399.507158	2525.492048
399.889598	2523.417613
400.271977	2525.071112
400.654294	2521.509537
401.036549	2523.780576
401.418742	2523.074815
401.800874	2525.285361
402.182944	2524.781245
402.564952	2526.021369
402.946898	2526.429703
403.328783	2525.204702
403.710606	2526.396935
404.092367	2525.623118
404.474067	2524.453570
404.855705	2525.388704
405.237282	2523.929290
405.618797	2527.495907
406.000250	2527.689991
406.381642	2525.040865
406.762972	2525.005577
407.144240	2523.062212
407.525447	2525.373581
407.906593	2521.600277
408.287677	2525.161852
408.668700	2525.771832
409.049661	2527.982378
409.430560	2528.209230
409.811399	2529.257790
410.192176	2527.553880
410.572891	2530.021525
410.953545	2527.758047
411.334138	2530.427338
411.714669	2527.911802
412.095139	2530.712163
412.475547	2528.410876
412.855894	2530.185362
413.236180	2527.689991
413.616405	2530.240815
413.996568	2528.962883
414.376670	2529.179652
414.756711	2531.160826
415.136691	2530.119827
415.516609	2528.909950
415.896466	2529.968593
416.276262	2530.777698
416.655997	2531.332225
417.035670	2532.141330
417.415283	2529.192255
417.794834	2528.710825
418.174324	2532.254756
418.553753	2531.511186
418.933121	2529.295599
419.312428	2529.774508
419.691674	2531.299457
420.070859	2530.606299
420.449983	2532.534540
420.829045	2531.213758
421.208047	2535.236598
421.586988	2533.338604
421.965867	2535.181146
422.344686	2532.693336
422.723444	2532.471526
423.102141	2535.294572
423.480777	2534.735004
423.859352	2534.422452
424.237866	2532.239632
424.616319	2532.043027
424.994712	2533.283151
425.373044	2534.198121
425.751314	2531.009591
426.129524	2529.388860
426.507673	2532.184180
426.885762	2529.293078
427.263789	2533.492359
427.641756	2533.235260
428.019662	2535.095446
428.397508	2532.353058
428.775292	2534.790456
429.153016	2536.501928
429.530679	2535.954963
429.908282	2534.740045
430.285824	2534.077133
430.663305	2531.332225
431.040726	2536.259953
431.418086	2534.896321
431.795385	2535.922195
432.172624	2534.354397
432.549802	2533.673841
432.926920	2536.970755
433.303977	2534.505631
433.680974	2535.798687
434.057910	2535.660055
434.434786	2534.830786
434.811601	2535.304654
435.188355	2536.317926
435.565050	2533.709129
435.941683	2534.629139
436.318257	2538.084850
436.694770	2535.851619
437.071222	2535.042514
437.447614	2535.478574
437.823946	2539.241795
438.200218	2534.238450
438.576429	2536.123842
438.952580	2536.451517
439.328670	2537.038811
439.704700	2536.277597
440.080670	2537.260622
440.456580	2537.817669
440.832429	2536.116280
441.208218	2537.278266
441.583947	2537.101825
441.959616	2537.129552
442.335224	2538.644418
442.710773	2535.687782
443.086261	2538.558719
443.461689	2536.993441
443.837057	2538.389840
444.212365	2535.589479
444.587612	2534.861033
444.962800	2535.891948
445.337927	2535.614685
445.712995	2536.058307
446.088002	2540.229861
446.462949	2536.806918
446.837837	2538.442772
447.212664	2537.588297
447.587431	2538.147865
447.962139	2539.151054
448.336786	2540.123997
448.711374	2539.025026
449.085901	2540.968390
449.460369	2538.102494
449.834776	2539.924872
450.209124	2539.501415
450.583412	2540.318082
450.957640	2543.617517
451.331808	2542.997455
451.705917	2539.418236
452.079965	2541.381765
452.453954	2540.978473
452.827883	2541.653987
453.201752	2538.369676
453.575562	2537.681558
453.949311	2538.621733
454.323001	2542.815973
454.696632	2542.246323
455.070202	2541.033925
455.443713	2540.907897
455.817164	2541.704399
456.190556	2541.117104
456.563888	2542.329502
456.937160	2539.299768
457.310373	2541.374203
457.683526	2542.758000
458.056619	2541.127187
458.429653	2542.052238
458.802628	2542.276570
459.175542	2543.864533
459.548398	2542.654656
459.921194	2541.207845
460.293930	2543.637681
460.666607	2541.192722
461.039224	2542.200953
461.411782	2544.071221
461.784280	2541.558205
462.156719	2540.678524
462.529099	2543.887218
462.901419	2540.718853
463.273680	2539.650129
463.645882	2538.813297
464.018024	2540.552495
464.390106	2538.525951
464.762130	2542.107691
465.134094	2545.167672
465.505999	2542.904193
465.877845	2541.230530
466.249631	2544.887887
466.621358	2543.017619
466.993026	2543.194060
467.364634	2547.824360
467.736184	2542.740356
468.107674	2542.213555
468.479105	2544.114070
468.850477	2543.947712
469.221790	2543.554502
469.593043	2545.576005
469.964238	2545.185316
470.335373	2543.297403
470.706449	2542.296734
471.077467	2545.069369
471.448425	2545.142466
471.819324	2543.672969
472.190164	2544.739173
472.560945	2543.141128
472.931667	2545.326468
473.302330	2542.039636
473.672934	2545.205480
474.043479	2544.396375
474.413965	2544.958464
474.784393	2543.587270
475.154761	2543.824204
475.525070	2542.639533
475.895321	2544.124153
476.265513	2543.597352
476.635645	2547.970553
477.005719	2547.030378
477.375734	2546.881664
477.745691	2545.646581
478.115588	2544.595501
478.485427	2543.161292
478.855207	2545.402085
479.224928	2546.165820
479.594591	2544.315717
479.964194	2546.231355
480.333739	2544.514842
480.703226	2544.345963
481.072653	2547.738660
481.442022	2547.141283
481.811333	2544.373690
482.180584	2543.310006
482.549777	2542.122815
482.918912	2536.315405
483.287988	2546.329657
483.657005	2546.553989
484.025964	2546.001983
484.394864	2546.049873
484.763706	2545.528114
485.132489	2545.023999
485.501213	2546.596839
485.869879	2545.132383
486.238487	2548.424257
486.607036	2545.475182
486.975527	2546.511139
487.343959	2545.230686
487.712333	2547.219421
488.080648	2546.158258
488.448905	2544.913093
488.817104	2547.940306
489.185244	2547.950388
489.553326	2546.322096
489.921350	2547.025337
490.289315	2548.169679
490.657222	2548.688917
491.025070	2549.102292
491.392861	2547.995759
491.760593	2548.620862
492.128267	2546.057435
492.495883	2546.798485
492.863440	2548.976263
493.230939	2546.765717
493.598380	2549.142621
493.965763	2548.542724
494.333088	2549.419885
494.700354	2546.314534
495.067563	2546.385110
495.434713	2547.146324
495.801805	2546.064997
496.168839	2549.629093
496.535815	2548.383928
496.902733	2548.383928
497.269593	2549.182951
497.636395	2547.988197
498.003139	2549.586243
498.369825	2548.537683
498.736453	2547.877292
499.103023	2547.234545
499.469535	2550.075235
499.835989	2549.591284
500.202385	2548.222611
500.568723	2545.205480
500.935003	2546.677497
501.301226	2544.555171
501.667390	2549.578681
502.033497	2549.901315
502.399546	2551.033054
502.765537	2550.198743
503.131470	2549.518187
503.497345	2550.269319
503.863163	2547.801674
504.228923	2547.721016
504.594625	2549.742519
504.960269	2548.635985
505.325856	2549.011551
505.691385	2547.766386
506.056856	2549.813095
506.422270	2546.095244
506.787625	2549.523228
507.152924	2548.819988
507.518164	2548.736808
507.883347	2548.338557
508.248472	2550.077755
508.613540	2547.123639
508.978550	2548.963660
509.343503	2549.586243
509.708398	2552.595812
510.073236	2549.082128
510.438016	2548.958619
510.802738	2551.620348
511.167403	2548.918290
511.532010	2549.414844
511.896561	2549.888712
512.261053	2549.359391
512.625488	2549.777807
512.989866	2550.423074
513.354186	2553.697304
513.718449	2551.101110
514.082655	2547.751263
514.446803	2548.865358
514.810894	2549.394679
515.174927	2554.463559
515.538904	2553.909032
515.902822	2549.830739
516.266684	2550.579350
516.630488	2551.504402
516.994235	2551.569937
517.357925	2551.471634
517.721558	2551.648075
518.085133	2549.283774
518.448651	2548.910728
518.812112	2546.969884
519.175516	2549.036757
519.538863	2543.299924
519.902152	2549.757642
520.265385	2550.221428
520.628560	2551.983312
520.991678	2551.514484
521.354739	2550.876778
521.717743	2551.269988
522.080690	2551.887530
522.443580	2551.058260
522.806413	2550.070194
523.169189	2550.080276
523.531908	2552.212684
523.894569	2552.938610
524.257174	2551.733774
524.619722	2551.287632
524.982213	2551.882488
525.344647	2550.113043
525.707025	2549.641696
526.069345	2550.917107
526.431608	2553.324258
526.793815	2549.886192
527.155964	2552.684032
527.518057	2553.334341
527.880093	2552.507592
528.242072	2550.531459
528.603995	2553.467931
528.965860	2550.876778
529.327669	2552.830225
529.689421	2550.281922
530.051117	2552.936090
530.412755	2552.573127
530.774337	2550.420554
531.135862	2551.340564
531.497331	2554.135884
531.858743	2551.852242
532.220098	2552.517674
532.581396	2552.525236
532.942638	2554.103117
533.303824	2551.895091
533.664953	2551.950544
534.026025	2552.757129
534.387040	2552.396686
534.747999	2549.550955
535.108902	2553.951882
535.469748	2553.767880
535.830537	2555.824671
536.191270	2551.877447
536.551947	2553.493137
536.912567	2548.537683
537.273131	2554.448436
537.633638	2550.218908
537.994089	2554.803837
538.354483	2554.907181
538.714821	2557.697459
539.075103	2555.378529
539.435328	2557.256358
539.795497	2554.196378
540.155609	2558.100752
540.515665	2556.729558
540.875665	2556.820299
541.235609	2555.111348
541.595496	2556.757284
541.955328	2559.247614
542.315102	2560.838098
542.674821	2560.986812
543.034483	2558.385577
543.394090	2561.702656
543.753640	2557.268961
544.113134	2562.758778
544.472571	2561.644683
544.831953	2561.216185
545.191278	2562.720969
545.550548	2562.874724
545.909761	2560.089487
546.268918	2561.637121
546.628019	2562.390774
546.987064	2562.766340
547.346053	2561.969837
547.704986	2563.711556
548.063863	2565.846485
548.422684	2562.284909
548.781449	2565.123079
549.140158	2564.747513
549.498811	2567.467216
549.857408	2562.274827
550.215949	2566.007802
550.574434	2564.465208
550.932864	2566.985785
551.291237	2566.010322
551.649555	2567.578121
552.007817	2567.013512
552.366022	2565.728018
552.724173	2566.219530
553.082267	2567.018553
553.440305	2567.358831
553.798288	2568.556105
554.156215	2570.151630
554.514086	2569.264387
554.871902	2564.979406
555.229661	2564.213151
555.587365	2563.547718
555.945014	2566.486711
556.302606	2569.080385
556.660143	2568.190621
557.017625	2570.358317
557.375050	2571.326219
557.732421	2570.645663
558.089735	2570.035683
558.446994	2566.927812
558.804197	2573.985427
559.161345	2569.236661
559.518437	2570.154151
559.875474	2569.942422
560.232455	2571.689182
560.589381	2568.979562
560.946251	2572.460478
561.303065	2571.479974
561.659825	2572.548699
562.016528	2572.205900
562.373177	2567.570559
562.729770	2572.594069
563.086307	2570.837227
563.442789	2573.297310
563.799216	2570.630540
564.155587	2569.781105
564.511904	2571.981569
564.868164	2570.091136
565.224370	2573.728329
565.580520	2573.892166
565.936615	2574.295458
566.292654	2574.348391
566.648638	2573.037691
567.004567	2572.397464
567.360441	2570.741445
567.716260	2572.546178
568.072023	2572.982238
568.427732	2575.878381
568.783385	2572.442834
569.138982	2571.626168
569.494525	2573.342680
569.850013	2571.323698
570.205445	2572.856209
570.560823	2570.252453
570.916145	2568.011660
571.271412	2570.141548
571.626625	2569.690364
571.981782	2570.174315
572.336884	2569.733214
572.691931	2567.726835
573.046923	2568.563667
573.401860	2566.587534
573.756743	2569.834037
574.111570	2569.188770
574.466342	2567.668862
574.821059	2570.154151
575.175722	2567.507545
575.530330	2568.893862
575.884882	2570.070972
576.239380	2566.900086
576.593823	2569.791188
576.948211	2571.608523
577.302544	2570.025601
577.656823	2569.566856
578.011047	2569.551733
578.365216	2569.027453
578.719330	2570.101218
579.073389	2570.093657
579.427394	2569.080385
579.781344	2568.417473
580.135239	2567.525189
580.489080	2568.722463
580.842866	2569.796229
581.196597	2573.241857
581.550273	2567.736917
581.903895	2567.983934
582.257463	2567.724314
582.610975	2567.411763
582.964434	2567.013512
583.317837	2565.423028
583.671186	2568.692216
584.024481	2566.509396
584.377721	2566.753892
584.730906	2564.576114
585.084037	2567.308419
585.437113	2563.903120
585.790135	2566.774057
586.143103	2566.738769
586.496016	2568.679613
586.848874	2565.067626
587.201679	2565.763306
587.554428	2566.632905
587.907124	2563.651062
588.259765	2565.085270
588.612352	2565.627194
588.964884	2565.322205
589.317362	2566.549726
589.669786	2566.706001
590.022155	2564.094684
590.374470	2558.030176
590.726731	2563.504869
591.078937	2560.449929
591.431090	2566.617781
591.783188	2564.989488
592.135232	2564.545867
592.487222	2564.820610
592.839157	2564.533264
593.191038	2564.427400
593.542866	2562.383212
593.894639	2562.206772
594.246358	2563.051165
594.598022	2562.778943
594.949633	2562.990671
595.301190	2563.174673
595.652692	2563.986299
596.004141	2562.930177
596.355535	2561.785835
596.706876	2563.378840
597.058162	2562.995712
597.409395	2560.507903
597.760573	2562.340362
598.111698	2564.848336
598.462768	2562.892368
598.813785	2563.436813
599.164748	2562.748696
599.515657	2561.654765
599.866511	2562.158881
600.217312	2562.683161
600.568060	2561.266596
600.918753	2561.866494
601.269392	2561.175856
601.619978	2561.790876
601.970510	2561.748027
602.320988	2561.972358
602.671412	2561.125444
603.021783	2560.520506
603.372100	2559.986143
603.722363	2563.436813
604.072572	2561.654765
604.422728	2562.950342
604.772830	2563.462019
605.122878	2562.446226
605.472872	2562.035372
605.822813	2561.543860
606.172701	2562.710887
606.522534	2561.866494
606.872314	2560.757440
607.222041	2561.800959
607.571714	2559.013201
607.921333	2558.289795
608.270899	2559.287943
608.620411	2559.781977
608.969870	2563.406566
609.319276	2565.785991
609.668627	2570.007957
610.017926	2573.872002
610.367171	2579.119843
610.716362	2574.933164
611.065500	2575.807805
611.414585	2577.105902
611.763616	2572.233627
612.112594	2568.977041
612.461518	2569.511403
612.810389	2567.545353
613.159207	2566.090981
613.507971	2564.654252
613.856682	2568.172977
614.205340	2568.077195
614.553945	2568.830848
614.902496	2567.159705
615.250994	2565.039900
615.599439	2562.763819
615.947830	2567.119376
616.296169	2567.794891
616.644454	2564.354303
616.992686	2566.068295
617.340864	2567.643656
617.688990	2563.633418
618.037063	2566.587534
618.385082	2568.629202
618.733048	2569.269428
619.080961	2568.591393
619.428821	2567.305899
619.776628	2566.900086
620.124382	2564.407235
620.472083	2566.552246
620.819731	2567.074006
621.167326	2567.537792
621.514868	2568.475446
621.862357	2569.571897
622.209793	2568.566187
622.557176	2565.740620
622.904506	2567.305899
623.251783	2568.646846
623.599007	2568.261197
623.946179	2567.628533
624.293297	2570.093657
624.640363	2567.709191
624.987376	2564.001422
625.334336	2561.858932
625.681243	2563.845147
626.028097	2560.565876
626.374899	2569.516445
626.721647	2566.504355
627.068343	2565.914540
627.414987	2566.426217
627.761577	2566.859757
628.108115	2569.226578
628.454600	2568.172977
628.801032	2568.160374
629.147412	2569.075344
629.493739	2567.447051
629.840014	2568.770354
630.186236	2568.137689
630.532405	2569.080385
630.878521	2569.697926
631.224585	2571.648853
631.570597	2568.740107
631.916556	2568.145251
632.262462	2566.635425
632.608316	2572.871332
632.954117	2568.672051
633.299866	2571.318657
633.645562	2570.723801
633.991206	2569.702967
634.336797	2571.338822
634.682336	2568.261197
635.027823	2570.680951
635.373257	2569.806311
635.718639	2568.987123
636.063968	2571.515262
636.409245	2568.745148
636.754470	2570.181877
637.099642	2569.980231
637.444762	2569.163564
637.789829	2569.839078
638.134845	2571.921075
638.479808	2571.628688
638.824719	2572.916703
639.169577	2569.045097
639.514383	2570.958215
639.859137	2572.498287
640.203839	2568.299006
640.548489	2567.840261
640.893086	2569.425704
641.237632	2569.249263
641.582125	2570.093657
641.926566	2570.171795
642.270955	2568.152812
642.615292	2568.851012
642.959576	2567.096691
643.303809	2568.069633
643.647990	2571.963925
643.992118	2573.733370
644.336195	2570.796898
644.680219	2572.271435
645.024192	2572.601631
645.368112	2572.899059
645.711981	2572.904100
646.055797	2577.854513
646.399562	2575.553226
646.743274	2577.342836
647.086935	2578.867785
647.430544	2575.273442
647.774101	2580.344843
648.117606	2578.406519
648.461059	2577.352918
648.804460	2583.548496
649.147810	2582.709144
649.491108	2577.279822
649.834354	2581.824422
650.177548	2579.485326
650.520690	2582.769638
650.863781	2579.313927
651.206820	2579.671849
651.549807	2581.022878
651.892742	2579.240830
652.235626	2580.647312
652.578458	2582.681418
652.921238	2579.951633
653.263967	2582.958681
653.606644	2582.164700
653.949269	2582.625965
654.291843	2582.499936
654.634365	2582.280646
654.976836	2584.198805
655.319255	2582.903229
655.661622	2583.987077
656.003938	2586.053950
656.346203	2584.733168
656.688416	2586.300966
657.030577	2585.786769
657.372687	2586.737026
657.714746	2585.827098
658.056753	2589.408838
658.398708	2586.797520
658.740612	2587.407500
659.082465	2588.524115
659.424266	2587.415061
659.766016	2588.463621
660.107715	2588.561924
660.449362	2585.476738
660.790958	2593.217429
661.132503	2594.568459
661.473996	2596.600044
661.815438	2597.464602
662.156829	2598.034252
662.498168	2597.333532
662.839456	2596.632811
663.180693	2598.888727
663.521879	2600.353183
663.863013	2602.359562
664.204097	2604.360900
664.545129	2602.077257
664.886110	2605.069182
665.227040	2608.565222
665.567918	2609.681838
665.908746	2613.218207
666.249522	2611.224431
666.590248	2611.940275
666.930922	2616.290791
667.271545	2614.193671
667.612118	2620.580813
667.952639	2619.864969
668.293109	2620.558127
668.633528	2621.765484
668.973896	2621.896554
669.314213	2626.000053
669.654480	2621.634414
669.994695	2622.990484
670.334859	2623.915536
670.674973	2628.984416
671.015035	2626.728500
671.355047	2630.564818
671.695008	2630.012811
672.034918	2630.277472
672.374777	2635.789974
672.714585	2635.268214
673.054342	2640.997486
673.394049	2638.048411
673.733705	2641.128556
674.073310	2647.170378
674.412864	2652.511481
674.752368	2648.355050
675.091820	2646.938485
675.431223	2650.537869
675.770574	2650.031233
676.109875	2652.140956
676.449125	2650.472334
676.788324	2647.752632
677.127473	2649.393527
677.466571	2647.835811
677.805619	2655.884013
678.144616	2657.696308
678.483562	2655.379897
678.822458	2655.372336
679.161303	2654.555669
679.500098	2663.014725
679.838842	2661.711587
680.177535	2663.208809
680.516179	2664.287616
680.854771	2670.626867
681.193314	2676.083916
681.531805	2676.124246
681.870247	2692.530681
682.208638	2697.433203
682.546978	2709.983155
682.885268	2715.727550
683.223508	2708.760676
683.561697	2704.508462
683.899836	2709.015254
684.237925	2710.230172
684.575963	2712.856613
684.913951	2723.523695
685.251889	2718.270812
685.589776	2728.272462
685.927614	2728.985785
686.265401	2723.511092
686.603137	2738.102712
686.940824	2740.706467
687.278460	2753.989908
687.616046	2766.466764
687.953582	2772.556477
688.291068	2771.230654
688.628504	2780.902108
688.965889	2791.291926
689.303224	2799.549336
689.640510	2798.878862
689.977745	2787.437964
690.314930	2786.202881
690.652065	2789.371246
690.989150	2776.259205
691.326185	2774.462034
691.663170	2769.466250
692.000105	2764.054572
692.336990	2772.125459
692.673825	2761.256731
693.010610	2759.028541
693.347345	2752.467479
693.684030	2743.549678
694.020665	2749.556213
694.357251	2750.140987
694.693786	2757.979981
695.030272	2744.326016
695.366707	2748.598394
695.703093	2747.575040
696.039429	2749.377252
696.375716	2756.273551
696.711952	2747.678383
697.048139	2757.007038
697.384276	2764.435179
697.720363	2764.722524
698.056400	2764.442740
698.392388	2768.624377
698.728326	2767.951383
699.064214	2767.001126
699.400053	2781.612910
699.735842	2778.071500
700.071581	2772.823659
700.407270	2769.166302
700.742910	2770.408946
701.078501	2773.559667
701.414042	2766.433996
701.749533	2767.424583
702.084974	2762.791762
702.420366	2768.095056
702.755709	2771.081940
703.091002	2765.617329
703.426246	2767.361568
703.761440	2769.103287
704.096584	2774.688886
704.431679	2770.343411
704.766725	2772.468257
705.101721	2771.596138
705.436668	2773.380706
705.771565	2776.929678
706.106413	2786.344033
706.441212	2793.124385
706.775961	2786.157511
707.110661	2787.236317
707.445311	2808.663742
707.779913	2803.340283
708.114465	2812.777323
708.448967	2817.465597
708.783421	2820.853252
709.117825	2843.568691
709.452180	2849.623117
709.786485	2851.813498
710.120742	2876.293341
710.454949	2879.292828
710.789107	2889.803634
711.123216	2906.595717
711.457275	2932.229984
711.791286	2949.682459
712.125247	2941.006633
712.459159	2964.836168
712.793023	2981.235041
713.126837	2955.114302
713.460602	2971.954277
713.794318	2943.567539
714.127985	2966.066209
714.461602	2955.063891
714.795171	2943.305399
715.128691	2934.387598
715.462162	2911.974628
715.795584	2924.741350
716.128957	2911.432704
716.462281	2885.243910
716.795556	2913.383631
717.128782	2890.877399
717.461960	2868.030890
717.795088	2889.218860
718.128167	2887.603170
718.461198	2872.862836
718.794180	2871.416025
719.127113	2883.948333
719.459997	2875.741335
719.792833	2849.950792
720.125619	2864.802031
720.458357	2846.908456
720.791046	2851.942048
721.123686	2872.308309
721.456278	2853.250227
721.788821	2850.648992
722.121315	2841.254802
722.453761	2857.472193
722.786158	2867.970396
723.118506	2864.799511
723.450805	2865.444778
723.783056	2864.935622
724.115259	2857.583099
724.447412	2870.082640
724.779518	2870.380068
725.111574	2874.387785
725.443582	2889.959909
725.775542	2886.995711
726.107453	2909.731315
726.439315	2903.129924
726.771129	2907.571180
727.102895	2924.423758
727.434612	2941.760286
727.766281	2947.545010
728.097901	2957.034982
728.429473	2949.982408
728.760996	2955.542800
729.092471	2954.748819
729.423897	2959.913481
729.755276	2971.394709
730.086606	2962.918008
730.417887	2964.926908
730.749120	2978.321254
731.080305	3022.499406
731.411442	3037.902651
731.742530	3023.104344
732.073570	3058.568862
732.404562	3072.086716
732.735506	3037.345604
733.066401	3070.339956
733.397249	3067.622774
733.728048	3044.309958
734.058798	3012.278466
734.389501	3003.214472
734.720156	2991.455980
735.050762	2952.278653
735.381320	2941.790533
735.711831	2953.969960
736.042293	2946.451079
736.372707	2957.687811
736.703073	2940.852878
737.033391	2940.794905
737.363661	2938.717949
737.693883	2947.595421
738.024056	2973.544761
738.354182	2976.680358
738.684260	2978.495174
739.014290	2997.306239
739.344272	3012.407016
739.674207	3009.236130
740.004093	3022.489323
740.333931	3030.903009
740.663722	3029.337731
740.993464	3053.580640
741.323159	3072.439596
741.652806	3012.369207
741.982405	3008.472395
742.311956	3057.918553
742.641460	3033.612629
742.970915	2994.324397
743.300323	3009.629340
743.629683	2998.228771
743.958996	2985.875423
744.288260	2975.687251
744.617477	2987.291987
744.946647	2997.094511
745.275768	2960.581434
745.604842	2965.647793
745.933869	2964.821044
746.262847	2954.547173
746.591778	2967.727269
746.920662	2963.628811
747.249498	2960.168059
747.578286	2970.630974
747.907027	2991.297184
748.235720	3000.729183
748.564365	2983.916935
748.892963	2984.489106
749.221514	3041.287786
749.550017	3011.829804
749.878473	2979.518528
750.206881	3001.349245
750.535242	2996.446723
750.863555	2977.340750
751.191821	2994.919253
751.520039	3004.326046
751.848210	2981.915597
752.176334	2979.919300
752.504411	3013.044722
752.832440	2994.604181
753.160421	2969.829430
753.488356	2991.138388
753.816243	3018.978160
754.144082	2982.631441
754.471875	2970.706591
754.799620	2992.691063
755.127318	2997.165087
755.454969	2986.258551
755.782572	2979.682366
756.110129	3001.087105
756.437638	3013.195956
756.765100	2988.159066
757.092515	2981.020792
757.419882	3000.275479
757.747203	2998.380005
758.074477	3023.179962
758.401703	3026.141639
758.728882	2991.350116
759.056014	2999.141219
759.383099	3051.029816
759.710138	3047.133004
760.037129	3032.591796
760.364073	3031.117258
760.690970	3063.360478
761.017820	3070.864236
761.344623	3038.321067
761.671379	3062.868966
761.998088	3089.907194
762.324751	3122.389869
762.651366	3223.389387
762.977935	3416.674787
763.304456	3647.259684
763.630931	3782.430663
763.957359	3733.607088
764.283740	3639.745844
764.610074	3560.440933
764.936362	3393.465314
765.262602	3287.144859
765.588796	3182.954292
765.914943	3122.528501
766.241044	3121.318624
766.567097	3103.636777
766.893104	3050.051832
767.219064	3002.614574
767.544978	3010.859382
767.870845	3004.835203
768.196665	2978.671614
768.522438	2962.423975
768.848165	2966.151909
769.173846	2959.845425
769.499479	2954.300156
769.825066	2937.918927
770.150607	2926.203285
770.476101	2924.408634
770.801548	2937.462702
771.126949	2926.455343
771.452303	2915.463107
771.777611	2904.443144
772.102872	2911.014288
772.428087	2901.468864
772.753256	2907.364493
773.078378	2902.600603
773.403453	2884.384393
773.728482	2888.606360
774.053465	2875.726212
774.378401	2873.669421
774.703291	2889.634755
775.028135	2873.031715
775.352932	2855.826257
775.677683	2850.964064
776.002388	2865.469984
776.327046	2876.701675
776.651658	2849.953312
776.976224	2828.881289
777.300743	2833.559480
777.625216	2850.769979
777.949643	2857.565455
778.274024	2835.860767
778.598359	2823.986329
778.922647	2829.201403
779.246889	2840.216324
779.571086	2842.071468
779.895236	2837.032835
780.219339	2829.448419
780.543397	2825.803665
780.867409	2841.829493
781.191374	2852.531863
781.515294	2839.316478
781.839167	2831.807679
782.162995	2840.304544
782.486776	2839.160202
782.810511	2844.309741
783.134201	2851.382480
783.457844	2840.533917
783.781441	2822.272337
784.104993	2824.377018
784.428498	2830.194510
784.751958	2841.582477
785.075372	2833.067968
785.398739	2818.889722
785.722061	2818.277222
786.045337	2838.061231
786.368568	2856.504292
786.691752	2822.731082
787.014891	2824.586226
787.337983	2857.900692
787.661030	2892.120044
787.984031	2923.775969
788.306987	2965.196610
788.629897	2975.760348
788.952760	2966.598051
789.275579	2959.290898
789.598351	2971.548464
789.921078	2944.568208
790.243759	2879.423898
790.566395	2884.570916
790.888984	2893.362688
791.211529	2864.862525
791.534027	2854.039168
791.856480	2862.934284
792.178888	2837.862105
792.501249	2818.239414
792.823566	2824.911381
793.145836	2843.581294
793.468062	2830.645693
793.790241	2809.921510
794.112375	2818.493992
794.434464	2838.552743
794.756507	2850.875844
795.078505	2843.694720
795.400457	2832.291630
795.722364	2871.710933
796.044226	2895.853018
796.366042	2912.403126
796.687812	2915.800864
797.009538	2918.142480
797.331218	2905.635377
797.652852	2901.378123
797.974442	2905.466499
798.295986	2917.464445
798.617484	2894.305384
798.938938	2861.404293
799.260346	2882.899773
799.581709	2892.646844
799.903026	2870.828731
800.224299	2857.378932
800.545526	2859.962523
800.866708	2853.189733
801.187845	2827.656289
801.508936	2849.933148
801.829983	2856.166535
802.150984	2823.882985
802.471940	2821.589260
802.792851	2827.033707
803.113717	2831.124603
803.434538	2835.152485
803.755314	2810.286993
804.076045	2796.794345
804.396731	2807.829431
804.717372	2824.624035
805.037967	2822.100937
805.358518	2812.426963
805.679024	2813.699855
805.999485	2816.253199
806.319901	2819.232521
806.640272	2830.345745
806.960598	2836.357321
807.280879	2821.259065
807.601115	2822.635300
807.921306	2835.391940
808.241453	2851.695031
808.561554	2846.152282
808.881611	2820.880978
809.201623	2831.563183
809.521590	2843.445183
809.841513	2834.529902
810.161390	2849.938189
810.481223	2850.033971
810.801011	2820.898622
811.120755	2819.537511
811.440453	2840.382682
811.760107	2846.779906
812.079716	2835.417145
812.399281	2817.828560
812.718801	2829.135868
813.038276	2818.231852
813.357707	2824.881134
813.677093	2837.549553
813.996434	2816.573312
814.315731	2816.139773
814.634983	2818.189002
814.954191	2824.550938
815.273354	2839.271107
815.592473	2839.389575
815.911547	2833.856908
816.230577	2842.351252
816.549562	2864.968389
816.868502	2887.157028
817.187399	2893.561814
817.506250	2884.916235
817.825058	2876.608413
818.143821	2910.971439
818.462539	2953.538942
818.781213	2970.207517
819.099843	2974.421922
819.418429	3042.326264
819.736970	3116.577419
820.055466	3175.523631
820.373919	3307.556491
820.692327	3435.556428
821.010691	3534.161398
821.329011	3883.977145
821.647286	4508.563504
821.965517	5364.284246
822.283704	6032.726123
822.601847	6436.784686
822.919945	6318.713301
823.237999	6018.552918
823.556010	5636.554445
823.873976	5272.794865
824.191897	4689.656874
824.509775	4303.365857
824.827609	3982.670335
825.145398	3817.290242
825.463144	3809.819252
825.780845	3839.378057
826.098502	3832.519567
826.416116	4012.408101
826.733685	4335.881300
827.051210	4665.235004
827.368692	4768.810551
827.686129	4487.408302
828.003522	4054.121129
828.320872	3787.560037
828.638177	3597.213629
828.955439	3437.696398
829.272656	3267.789349
829.589830	3162.562824
829.906960	3118.102368
830.224046	3050.535783
830.541088	3012.999351
830.858086	3001.361848
831.175041	2978.104484
831.491952	2969.385809
831.808819	2978.588435
832.125642	2998.987464
832.442421	3053.000907
832.759157	3136.961324
833.075849	3295.271199
833.392497	3526.201416
833.709101	3706.815876
834.025662	3838.488294
834.342179	3797.639824
834.658653	3629.040954
834.975083	3453.311372
835.291469	3263.350613
835.607811	3109.446707
835.924110	3080.273549
836.240366	3007.943074
836.556578	2926.367123
836.872746	2884.003786
837.188871	2881.190822
837.504952	2862.147864
837.820990	2825.332317
838.136984	2800.804583
838.452935	2815.582726
838.768842	2819.131698
839.084706	2828.019252
839.400526	2875.179246
839.716303	2957.413068
840.032037	3104.987806
840.347727	3210.814228
840.663373	3162.212464
840.978977	3054.190619
841.294537	2952.046760
841.610054	2862.160467
841.925527	2822.665547
842.240957	2795.413069
842.556344	2782.855555
842.871687	2761.622215
843.186987	2744.331057
843.502244	2725.772049
843.817458	2715.425081
844.132629	2697.241639
844.447756	2704.518545
844.762840	2703.175077
845.077881	2687.590350
845.392879	2680.951150
845.707833	2679.211952
846.022745	2676.961077
846.337613	2682.952488
846.652438	2677.807991
846.967221	2677.535769
847.281960	2669.159892
847.596656	2670.624347
847.911309	2670.392454
848.225919	2668.131496
848.540485	2663.576814
848.855009	2666.533450
849.169490	2664.073367
849.483928	2658.500372
849.798323	2656.350320
850.112675	2652.977788
850.426984	2661.217554
850.741251	2662.656803
851.055474	2656.642707
851.369654	2653.633138
851.683792	2653.859990
851.997887	2658.016421
852.311938	2660.640342
852.625947	2655.193375
852.939914	2658.974240
853.253837	2662.792914
853.567718	2652.627427
853.881555	2651.223466
854.195350	2659.037255
854.509103	2658.543222
854.822812	2659.193530
855.136479	2656.728406
855.450103	2656.985505
855.763685	2649.925369
856.077224	2644.236427
856.390720	2652.922335
856.704173	2659.642193
857.017584	2657.035917
857.330953	2653.305463
857.644278	2659.717810
857.957561	2665.273162
858.270802	2667.892041
858.584000	2666.699808
858.897155	2659.916936
859.210268	2661.341062
859.523339	2659.206133
859.836367	2660.882317
860.149352	2660.287461
860.462295	2657.489620
860.775195	2661.086484
861.088054	2661.734272
861.400869	2655.082469
861.713642	2652.236738
862.026373	2658.870897
862.339062	2657.645896
862.651708	2660.078253
862.964312	2666.316681
863.276873	2660.630259
863.589392	2664.161587
863.901869	2665.706701
864.214303	2678.002075
864.526696	2685.175637
864.839045	2684.338806
865.151353	2681.392251
865.463619	2682.513908
865.775842	2679.083403
866.088023	2689.846266
866.400162	2697.831454
866.712258	2684.850483
867.024313	2679.227076
867.336325	2683.111285
867.648296	2696.016639
867.960224	2690.625125
868.272110	2685.127746
868.583954	2688.086904
868.895755	2697.531505
869.207515	2689.034641
869.519233	2689.004394
869.830909	2696.614015
870.142542	2700.500745
870.454134	2702.043338
870.765684	2699.825230
871.077191	2703.792618
871.388657	2707.248329
871.700081	2709.721015
872.011463	2714.371480
872.322803	2713.275029
872.634101	2714.416850
872.945357	2720.655278
873.256571	2731.481156
873.567744	2731.236660
873.878874	2718.177551
874.189963	2733.253122
874.501010	2737.175139
874.812015	2735.335118
875.122979	2738.238823
875.433900	2734.367217
875.744780	2736.429048
876.055618	2741.394585
876.366415	2741.066910
876.677169	2751.134094
876.987882	2750.813981
877.298554	2744.099164
877.609183	2756.422265
877.919771	2768.808380
878.230317	2781.746501
878.540822	2815.388641
878.851285	2834.648369
879.161707	2848.350226
879.472087	2888.462687
879.782425	2984.073211
880.092722	3178.933971
880.402977	3374.233313
880.713191	3508.378416
881.023363	3742.781988
881.333494	4021.741798
881.643583	4146.502794
881.953631	4143.556239
882.263637	4086.172785
882.573602	4019.780789
882.883526	3889.638361
883.193408	3692.378011
883.503248	3525.455325
883.813048	3439.727983
884.122806	3346.456555
884.432522	3223.742267
884.742197	3124.212246
885.051831	3035.883669
885.361424	2970.031077
885.670975	2944.868157
885.980485	2905.065727
886.289954	2871.433669
886.599382	2848.841738
886.908768	2832.760457
887.218113	2809.384627
887.527417	2783.997376
887.836680	2759.699015
888.145901	2763.784870
888.455082	2767.744696
888.764221	2738.160685
889.073319	2726.346741
889.382376	2727.377657
889.691392	2730.414952
890.000366	2727.239025
890.309300	2718.467417
890.618193	2727.831361
890.927044	2735.181363
891.235855	2733.182545
891.544625	2723.679970
891.853353	2731.294633
892.162041	2734.992320
892.470687	2755.257758
892.779293	2780.140893
893.087858	2794.041875
893.396381	2824.969354
893.704864	2870.533823
894.013306	2961.776187
894.321707	3085.423088
894.630068	3171.117662
894.938387	3171.886438
895.246665	3167.210768
895.554903	3136.356386
895.863100	3057.704304
896.171256	2990.722493
896.479371	2937.573608
896.787446	2884.785165
897.095480	2830.645693
897.403473	2797.933646
897.711425	2776.065121
898.019336	2772.654780
898.327207	2760.845877
898.635038	2743.254771
898.942827	2737.437279
899.250576	2730.299005
899.558284	2712.113043
899.865952	2702.534851
900.173579	2696.611495
900.481165	2697.259283
900.788711	2692.283664
901.096216	2677.404699
901.403681	2672.784481
901.711105	2675.249605
902.018489	2678.541479
902.325832	2675.025274
902.633135	2678.975018
902.940397	2690.662933
903.247619	2729.351268
903.554800	2802.904224
903.861941	2928.325611
904.169041	3086.446442
904.476101	3212.341698
904.783121	3223.109602
905.090100	3152.969508
905.397039	3054.730023
905.703938	2945.001748
906.010796	2858.714838
906.317614	2808.681386
906.624391	2768.634460
906.931129	2732.630539
907.237826	2703.739686
907.544483	2680.202539
907.851099	2665.923471
908.157675	2654.913591
908.464211	2644.135604
908.770707	2638.996147
909.077163	2633.027421
909.383578	2622.957717
909.689954	2617.329268
909.996289	2614.929679
910.302584	2617.193157
910.608839	2616.613424
910.915054	2616.394134
911.221229	2613.097220
911.527363	2612.005810
911.833458	2614.508743
912.139513	2614.654936
912.445527	2618.277005
912.751502	2623.973509
913.057436	2629.959879
913.363331	2634.136475
913.669186	2641.504122
913.975000	2656.516678
914.280775	2688.941379
914.586510	2721.610577
914.892205	2751.781882
915.197859	2800.948256
915.503475	2869.739841
915.809050	2955.192440
916.114585	3014.907428
916.420081	3035.354348
916.725536	3021.607122
917.030952	2988.111175
917.336328	2934.571600
917.641665	2872.451982
917.946961	2829.405569
918.252218	2802.921868
918.557435	2769.060437
918.862612	2742.468351
919.167750	2718.795092
919.472848	2698.698532
919.777906	2685.367201
920.082925	2676.449400
920.387904	2659.755619
920.692843	2651.263795
920.997743	2647.177940
921.302603	2638.673514
921.607423	2634.146557
921.912204	2628.087091
922.216946	2621.828498
922.521647	2621.994856
922.826310	2613.825666
923.130932	2612.353649
923.435516	2604.902824
923.740059	2602.225971
924.044564	2596.637852
924.349028	2593.827409
924.653454	2589.076122
924.957840	2586.348857
925.262186	2585.020513
925.566493	2584.319793
925.870761	2580.309555
926.174989	2580.397775
926.479178	2577.662949
926.783328	2573.751014
927.087438	2573.680438
927.391509	2573.075499
927.695541	2569.498801
927.999533	2568.493090
928.303486	2564.800445
928.607400	2567.394119
928.911275	2564.946639
929.215110	2569.266908
929.518906	2565.044941
929.822663	2566.494273
930.126381	2566.096022
930.430060	2564.611402
930.733699	2566.776578
931.037299	2565.962431
931.340861	2568.798080
931.644383	2566.048131
931.947866	2565.896896
932.251309	2565.909499
932.554714	2567.237843
932.858080	2561.657286
933.161407	2562.370609
933.464694	2561.359858
933.767943	2559.280382
934.071153	2562.761298
934.374323	2563.036041
934.677455	2563.215002
934.980548	2560.838098
935.283602	2560.293654
935.586617	2562.194169
935.889593	2560.991853
936.192530	2562.025290
936.495428	2562.050496
936.798287	2560.512944
937.101108	2565.685168
937.403890	2569.445868
937.706632	2568.828327
938.009336	2572.967114
938.312002	2577.569688
938.614628	2582.310893
938.917216	2586.873137
939.219765	2584.705441
939.522275	2584.836511
939.824747	2585.547314
940.127179	2583.475400
940.429573	2581.975656
940.731929	2582.494895
941.034246	2576.667321
941.336524	2576.576581
941.638763	2575.991807
941.940964	2574.759245
942.243126	2573.698082
942.545250	2574.681107
942.847335	2572.825962
943.149381	2570.285221
943.451389	2565.412945
943.753359	2565.302040
944.055290	2564.631567
944.357182	2563.988819
944.659036	2565.803635
944.960851	2566.640466
945.262628	2561.261555
945.564367	2561.921946
945.866067	2558.937583
946.167729	2563.371278
946.469352	2565.055023
946.770937	2564.394632
947.072484	2563.459498
947.373992	2563.893037
947.675462	2559.925649
947.976893	2560.719631
948.278286	2556.485062
948.579641	2559.638304
948.880958	2553.959444
949.182236	2560.628890
949.483476	2556.885834
949.784678	2559.051009
950.085841	2558.705690
950.386967	2557.127809
950.688054	2558.685526
950.989103	2558.851884
951.290114	2563.313305
951.591087	2564.049313
951.892021	2563.598130
952.192917	2564.122410
952.493776	2567.918399
952.794596	2567.023594
953.095378	2564.583676
953.396122	2565.859087
953.696828	2561.569066
953.997496	2562.017728
954.298126	2563.963614
954.598718	2562.965465
954.899272	2556.971533
955.199788	2559.182079
955.500266	2556.343910
955.800706	2556.994218
956.101108	2552.976419
956.401472	2553.641851
956.701798	2552.893240
957.002087	2547.794113
957.302337	2550.786037
957.602550	2550.193702
957.902724	2546.569112
958.202861	2548.862837
958.502960	2547.292518
958.803022	2547.111036
959.103045	2547.650440
959.403031	2541.787578
959.702979	2545.714637
960.002889	2546.344781
960.302762	2545.631458
960.602596	2546.463248
960.902393	2545.747404
961.202153	2541.366642
961.501875	2546.871582
961.801559	2543.662887
962.101205	2541.560726
962.400814	2543.022661
962.700385	2542.944523
962.999918	2541.482588
963.299414	2539.171219
963.598873	2542.692465
963.898293	2539.871939
964.197677	2543.325130
964.497022	2540.398740
964.796331	2542.906714
965.095601	2543.476364
965.394835	2543.678011
965.694030	2544.091385
965.993189	2544.451828
966.292309	2540.933102
966.591393	2546.029709
966.890439	2542.155582
967.189447	2543.627599
967.488419	2541.278421
967.787353	2542.868905
968.086249	2541.427135
968.385108	2543.274718
968.683930	2542.513504
968.982714	2544.187167
969.281462	2543.693134
969.580172	2541.974101
969.878844	2540.534851
970.177480	2542.284132
970.476078	2542.700027
970.774639	2541.986703
971.073162	2541.457382
971.371649	2541.517876
971.670098	2542.258926
971.968510	2543.219266
972.266885	2546.150697
972.565223	2545.104657
972.863524	2543.027702
973.161788	2543.204142
973.460014	2543.037784
973.758204	2546.122970
974.056356	2542.800850
974.354471	2543.935109
974.652550	2545.160110
974.950591	2542.339584
975.248595	2543.859492
975.546563	2544.524924
975.844493	2539.138452
976.142386	2542.586601
976.440243	2540.849923
976.738062	2543.980480
977.035845	2543.620037
977.333590	2542.294214
977.631299	2541.996786
977.928971	2542.624409
978.226606	2536.784233
978.524204	2538.243647
978.821765	2538.160468
979.119290	2543.204142
979.416777	2541.376724
979.714228	2540.421425
980.011642	2541.931251
980.309020	2544.098947
980.606360	2539.617361
980.903664	2540.020653
981.200931	2544.224976
981.498162	2543.698175
981.795356	2544.078782
982.092513	2542.329502
982.389633	2545.535676
982.686717	2549.460214
982.983764	2547.537014
983.280775	2552.530277
983.577749	2551.131357
983.874686	2549.006510
984.171587	2549.908877
984.468451	2548.189843
984.765279	2547.688248
985.062070	2545.966694
985.358824	2545.633978
985.655543	2547.100954
985.952224	2546.838814
986.248869	2541.424615
986.545478	2542.886549
986.842050	2541.901004
987.138586	2540.028215
987.435086	2545.223124
987.731549	2540.756662
988.027975	2541.162475
988.324366	2538.926723
988.620719	2541.028884
988.917037	2540.340767
989.213318	2540.965870
989.509563	2539.758513
989.805772	2538.435211
990.101944	2540.880170
990.398080	2541.575849
990.694180	2541.790098
990.990244	2540.643236
991.286271	2542.815973
991.582262	2542.223638
991.878217	2540.313040
992.174136	2538.944367
992.470019	2542.500901
992.765865	2537.893287
993.061676	2536.012936
993.357450	2538.616692
993.653188	2536.980838
993.948890	2540.970911
994.244556	2541.270860
994.540186	2541.099460
994.835780	2540.776827
995.131337	2538.790612
995.426859	2539.970242
995.722345	2542.463093
996.017795	2542.269008
996.313208	2544.371169
996.608586	2544.824873
996.903928	2547.675646
997.199234	2544.182126
997.494504	2545.419729
997.789738	2543.816642
998.084936	2543.317568
998.380099	2542.750438
998.675225	2543.413350
998.970316	2541.603576
999.265371	2539.819007
999.560390	2543.425953
999.855373	2543.219266
1000.150320	2542.510983
1000.445232	2542.447969
1000.740108	2538.248688
1001.034948	2539.839172
1001.329752	2539.947557
1001.624521	2541.013761
1001.919254	2540.247505
1002.213951	2541.212886
1002.508613	2539.990407
1002.803239	2538.251208
1003.097829	2537.890766
1003.392384	2539.604758
1003.686903	2539.055273
1003.981386	2539.309851
1004.275834	2539.831610
1004.570246	2540.371014
1004.864623	2539.831610
1005.158964	2540.434028
1005.453270	2539.546785
1005.747540	2539.755993
1006.041775	2539.695499
1006.335974	2539.362783
1006.630138	2540.060983
1006.924266	2538.987217
1007.218359	2539.168698
1007.512416	2537.232895
1007.806438	2533.714170
1008.100425	2537.598379
1008.394376	2532.862215
1008.688292	2540.726415
1008.982172	2540.696168
1009.276017	2537.726928
1009.569827	2537.167360
1009.863602	2539.075437
1010.157341	2541.727084
1010.451045	2536.333049
1010.744714	2540.766744
1011.038347	2540.010571
1011.331945	2541.747249
1011.625508	2538.722556
1011.919036	2539.861857
1012.212528	2541.119625
1012.505986	2538.818338
1012.799408	2539.599717
1013.092795	2536.201979
1013.386147	2539.892104
1013.679464	2540.854964
1013.972745	2539.440921
1014.265992	2540.968390
1014.559204	2539.498894
1014.852380	2538.427649
1015.145521	2540.620551
1015.438628	2540.517207
1015.731699	2539.516538
1016.024736	2536.733821
1016.317737	2540.602907
1016.610703	2539.695499
1016.903635	2540.779347
1017.196531	2536.448996
1017.489393	2538.904038
1017.782219	2538.916641
1018.075011	2541.147351
1018.367768	2536.706095
1018.660490	2537.653832
1018.953177	2537.653832
1019.245829	2537.653832
