Dividing Wavelength (nm)	Counts (n)	Blue Motor Position (mm): 30.100000	Red Motor Position (mm): 0.000000	
326.493990	2212.461600
326.888308	2212.461600
327.282561	2212.461600
327.676750	2171.792091
328.070874	2169.647080
328.464933	2171.393840
328.858929	2173.329643
329.252859	2180.193174
329.646726	2186.192147
330.040528	2199.092460
330.434265	2213.280788
330.827938	2229.422562
331.221547	2249.640110
331.615091	2264.214085
332.008571	2282.856272
332.401986	2302.244550
332.795338	2322.169711
333.188625	2340.242247
333.581847	2359.963241
333.975006	2378.691128
334.368100	2398.414642
334.761129	2414.377456
335.154095	2431.935794
335.546996	2457.915381
335.939833	2496.936432
336.332606	2512.458145
336.725315	2525.492048
337.117960	2538.997299
337.510540	2548.474668
337.903056	2561.672409
338.295508	2566.519479
338.687896	2574.938206
339.080220	2583.235945
339.472480	2590.863211
339.864676	2594.938983
340.256807	2599.539036
340.648875	2607.766199
341.040879	2607.622527
341.432818	2611.536982
341.824694	2613.588732
342.216506	2613.871037
342.608253	2615.809360
342.999937	2616.507560
343.391557	2617.150307
343.783113	2614.922117
344.174605	2615.259875
344.566033	2614.261726
344.957397	2614.654936
345.348697	2610.798453
345.739934	2610.337188
346.131106	2609.646550
346.522215	2605.076744
346.913260	2605.079264
347.304241	2601.076588
347.695159	2601.520210
348.086012	2599.818820
348.476802	2598.198089
348.867528	2591.319435
349.258191	2589.151739
349.648789	2586.641244
350.039324	2589.156780
350.429796	2589.489496
350.820203	2587.157962
351.210548	2589.557552
351.600828	2584.523960
351.991045	2584.274422
352.381198	2584.075297
352.771288	2584.309711
353.161314	2582.825091
353.551276	2582.003383
353.941175	2582.194947
354.331010	2579.777713
354.720782	2581.153948
355.110490	2583.117478
355.500135	2580.763259
355.889717	2580.808629
356.279235	2579.792837
356.668689	2582.691500
357.058080	2581.529514
357.447408	2581.113619
357.836672	2581.101016
358.225873	2583.266192
358.615010	2580.985070
359.004084	2583.288877
359.393095	2584.168558
359.782043	2584.092941
360.170927	2585.602767
360.559748	2585.290215
360.948505	2585.297777
361.337199	2586.603436
361.725830	2587.964547
362.114398	2583.989597
362.502903	2587.752819
362.891344	2589.078642
363.279722	2590.974116
363.668037	2591.526122
364.056289	2587.072263
364.444478	2590.696852
364.832603	2588.272057
365.220665	2591.306832
365.608665	2592.453695
365.996601	2593.315732
366.384474	2592.572162
366.772284	2591.886565
367.160031	2593.535022
367.547715	2594.787749
367.935336	2594.369333
368.322893	2591.821030
368.710388	2592.126020
369.097820	2592.138623
369.485189	2588.521595
369.872495	2596.489138
370.259738	2595.395208
370.646918	2595.339755
371.034035	2597.388984
371.421090	2595.841350
371.808081	2595.173397
372.195010	2598.031731
372.581875	2594.691967
372.968678	2597.706577
373.355418	2597.633480
373.742096	2599.995261
374.128710	2600.113728
374.515262	2597.603233
374.901751	2600.217072
375.288177	2599.160950
375.674540	2600.426279
376.060841	2602.241095
376.447079	2600.632967
376.833254	2602.319233
377.219367	2602.480550
377.605417	2605.119594
377.991404	2600.290168
378.377329	2601.898296
378.763191	2602.389809
379.148991	2602.946856
379.534727	2601.893255
379.920402	2600.879983
380.306013	2605.096908
380.691563	2601.873091
381.077049	2604.955756
381.462474	2605.119594
381.847835	2602.888883
382.233134	2604.809563
382.618371	2603.632453
383.003545	2606.851230
383.388657	2605.943822
383.773706	2606.352156
384.158693	2609.674276
384.543618	2608.824842
384.928480	2607.536827
385.313280	2606.521034
385.698017	2609.444904
386.082692	2605.651435
386.467305	2610.130501
386.851856	2610.669904
387.236344	2611.637806
387.620770	2605.757300
388.005133	2609.144955
388.389435	2606.657146
388.773674	2607.620006
389.157851	2610.556478
389.541965	2611.289966
389.926018	2610.503546
390.310008	2613.654267
390.693936	2613.339195
391.077802	2611.907507
391.461606	2611.685697
391.845348	2612.577981
392.229027	2610.790892
392.612645	2613.762652
392.996200	2614.692745
393.379694	2614.503702
393.763125	2615.554782
394.146494	2611.534462
394.529801	2615.148969
394.913047	2617.538476
395.296230	2616.409258
395.679351	2616.890688
396.062410	2616.936058
396.445408	2618.438322
396.828343	2618.234155
397.211217	2618.675256
397.594028	2618.985287
397.976778	2619.565020
398.359466	2618.980246
398.742092	2620.777417
399.124656	2619.103754
399.507158	2620.394290
399.889598	2620.026286
400.271977	2620.512757
400.654294	2622.864455
401.036549	2619.045781
401.418742	2619.612911
401.800874	2622.950155
402.182944	2622.360340
402.564952	2621.372274
402.946898	2625.831174
403.328783	2625.011987
403.710606	2623.290433
404.092367	2624.679271
404.474067	2624.770011
404.855705	2625.712707
405.237282	2624.341513
405.618797	2627.893006
406.000250	2627.502317
406.381642	2625.059878
406.762972	2626.509209
407.144240	2627.305712
407.525447	2625.354785
407.906593	2625.667337
408.287677	2632.349386
408.668700	2632.024232
409.049661	2631.966258
409.430560	2632.997174
409.811399	2633.707977
410.192176	2634.002885
410.572891	2632.982051
410.953545	2634.199490
411.334138	2632.220837
411.714669	2635.979017
412.095139	2634.191928
412.475547	2634.353245
412.855894	2637.017495
413.236180	2636.752834
413.616405	2638.610499
413.996568	2638.290386
414.376670	2640.868936
414.756711	2640.816004
415.136691	2641.698206
415.516609	2643.742394
415.896466	2642.529996
416.276262	2642.537558
416.655997	2644.662404
417.035670	2643.933958
417.415283	2646.043681
417.794834	2646.956129
418.174324	2647.145173
418.553753	2644.987559
418.933121	2649.816984
419.312428	2649.345636
419.691674	2649.597694
420.070859	2653.126502
420.449983	2653.484424
420.829045	2653.895278
421.208047	2653.804537
421.586988	2658.346617
421.965867	2664.640497
422.344686	2666.984634
422.723444	2670.523524
423.102141	2667.352638
423.480777	2678.460820
423.859352	2680.724298
424.237866	2691.451874
424.616319	2698.174252
424.994712	2713.030533
425.373044	2717.512119
425.751314	2733.653893
426.129524	2748.225348
426.507673	2768.153030
426.885762	2790.129940
427.263789	2815.839824
427.641756	2840.889318
428.019662	2872.446941
428.397508	2913.965884
428.775292	2941.835903
429.153016	2995.864469
429.530679	3030.981147
429.908282	3082.169023
430.285824	3113.464506
430.663305	3221.133470
431.040726	3235.369689
431.418086	3295.215747
431.795385	3390.359964
432.172624	3472.112356
432.549802	3535.288096
432.926920	3620.710447
433.303977	3671.323632
433.680974	3784.149696
434.057910	3889.572826
434.434786	3985.337105
434.811601	4051.356056
435.188355	4247.323350
435.565050	4291.451090
435.941683	4371.368502
436.318257	4597.688583
436.694770	4725.310434
437.071222	4859.634499
437.447614	4926.699489
437.823946	5006.591695
438.200218	5173.300133
438.576429	5221.687648
438.952580	5413.251494
439.328670	5553.415735
439.704700	5588.343370
440.080670	5704.297470
440.456580	6049.147681
440.832429	6077.426034
441.208218	6023.639443
441.583947	6282.548063
441.959616	6476.642568
442.335224	6518.481625
442.710773	6709.241407
443.086261	6937.207425
443.461689	6687.624939
443.837057	7138.646892
444.212365	7434.860050
444.587612	7363.905810
444.962800	7634.804815
445.337927	7620.051878
445.712995	7464.824669
446.088002	8280.130480
446.462949	8174.891353
446.837837	8279.797764
447.212664	8417.113754
447.587431	8859.593471
447.962139	9460.529256
448.336786	11109.326842
448.711374	11714.320756
449.085901	10333.725158
449.460369	10164.528912
449.834776	9876.432010
450.209124	10626.220466
450.583412	11032.134174
450.957640	11903.636248
451.331808	11395.089689
451.705917	10674.640749
452.079965	10220.218538
452.453954	11056.908924
452.827883	10832.280150
453.201752	11162.296766
453.575562	10823.448048
453.949311	11264.342323
454.323001	11296.986314
454.696632	11563.585215
455.070202	11877.462577
455.443713	12166.043429
455.817164	12653.833037
456.190556	12729.339439
456.563888	13130.678300
456.937160	13368.351059
457.310373	12790.473512
457.683526	12920.063933
458.056619	12542.481510
458.429653	12710.944269
458.802628	12251.417890
459.175542	12607.472065
459.548398	13572.038881
459.921194	13911.144697
460.293930	13996.340197
460.666607	14882.781730
461.039224	15886.251130
461.411782	16593.212463
461.784280	16553.268880
462.156719	16629.375180
462.529099	16361.694952
462.901419	15328.384442
463.273680	15149.025230
463.645882	15028.614749
464.018024	14788.615497
464.390106	15016.420198
464.762130	15748.307517
465.134094	16481.079557
465.505999	18411.962468
465.877845	21631.520578
466.249631	24465.306910
466.621358	24237.474482
466.993026	22808.188900
467.364634	22282.343622
467.736184	20848.518480
468.107674	20056.333921
468.479105	20189.584220
468.850477	19661.238529
469.221790	19246.003728
469.593043	18566.415860
469.964238	18027.579528
470.335373	17694.644084
470.706449	18114.970451
471.077467	17657.866347
471.448425	19466.350042
471.819324	23418.486108
472.190164	25543.524018
472.560945	22074.519534
472.931667	19664.853036
473.302330	19022.584831
473.672934	18501.803391
474.043479	18875.592346
474.413965	18680.033386
474.784393	18334.263164
475.154761	18985.038317
475.525070	19014.902112
475.895321	18651.124889
476.265513	19225.342559
476.635645	19796.076792
477.005719	19597.780484
477.375734	19792.890782
477.745691	20282.958992
478.115588	20771.749269
478.485427	21286.277157
478.855207	22331.182320
479.224928	24072.633793
479.594591	26280.782686
479.964194	26379.576698
480.333739	26577.595742
480.703226	26138.365048
481.072653	25804.496991
481.442022	26357.597267
481.811333	27265.312470
482.180584	27214.157361
482.549777	26257.484993
482.918912	25890.526802
483.287988	26008.096592
483.657005	25714.467024
484.025964	25423.723517
484.394864	25363.655649
484.763706	25074.021196
485.132489	24492.161136
485.501213	24654.493852
485.869879	24574.427726
486.238487	24371.579257
486.607036	24529.190932
486.975527	24202.698083
487.343959	24544.634507
487.712333	24493.643236
488.080648	24168.209028
488.448905	24635.017354
488.817104	24387.302616
489.185244	25041.518356
489.553326	25025.313567
489.921350	25977.930327
490.289315	28227.882988
490.657222	30053.599868
491.025070	30543.925176
491.392861	30340.754073
491.760593	29500.822225
492.128267	28609.286606
492.495883	27578.181601
492.863440	26709.356380
493.230939	25825.914333
493.598380	25667.077657
493.965763	25270.139724
494.333088	24836.134187
494.700354	24748.032462
495.067563	24638.417612
495.434713	24380.827254
495.801805	24523.597772
496.168839	24347.147305
496.535815	24159.981865
496.902733	24382.828592
497.269593	24059.073089
497.636395	24252.860084
498.003139	24229.683379
498.369825	23975.054698
498.736453	24169.325644
499.103023	24052.605288
499.469535	24076.255862
499.835989	24282.345793
500.202385	24313.968951
500.568723	23808.235356
500.935003	24080.268620
501.301226	23664.275125
501.667390	24495.992413
502.033497	24751.478090
502.399546	24462.662825
502.765537	24043.165728
503.131470	24432.567136
503.497345	24562.155037
503.863163	23785.290544
504.228923	24396.515324
504.594625	24589.722587
504.960269	24100.108081
505.325856	24610.340906
505.691385	24014.428630
506.056856	24614.633448
506.422270	24587.186886
506.787625	24172.330172
507.152924	24572.749022
507.518164	24598.249698
507.883347	24407.222735
508.248472	24104.539255
508.613540	24875.818150
508.978550	24665.380224
509.343503	24653.082329
509.708398	24925.292034
510.073236	25054.892537
510.438016	25282.908967
510.802738	24960.370903
511.167403	25216.968154
511.532010	24910.105558
511.896561	25682.611973
512.261053	25650.729196
512.625488	25487.461346
512.989866	25386.653392
513.354186	25236.570681
513.718449	25332.203890
514.082655	25718.898198
514.446803	25456.188548
514.810894	25907.364256
515.174927	25399.800722
515.538904	25432.744662
515.902822	25922.873365
516.266684	25665.454406
516.630488	25566.829272
516.994235	25558.770988
517.357925	25851.425092
517.721558	26034.595417
518.085133	26123.221422
518.448651	26050.454887
518.812112	25782.394052
519.175516	25970.393802
519.538863	26136.179708
519.902152	25908.748052
520.265385	26196.159357
520.628560	25983.067263
520.991678	26000.207186
521.354739	26076.873054
521.717743	26140.605841
522.080690	25925.935866
522.443580	26258.891475
522.806413	26250.558448
523.169189	26354.111309
523.531908	26400.086632
523.894569	26001.412022
524.257174	26079.441522
524.619722	26264.996312
524.982213	25962.758975
525.344647	26029.521496
525.707025	26146.446018
526.069345	26143.144062
526.431608	26093.350065
526.793815	26286.050691
527.155964	25740.827218
527.518057	25912.246613
527.880093	25828.197976
528.242072	26072.693937
528.603995	25773.007423
528.965860	25572.092237
529.327669	25624.152233
529.689421	25602.732370
530.051117	25434.284735
530.412755	25630.297399
530.774337	25425.422386
531.135862	25281.033658
531.497331	25493.178014
531.858743	25045.286619
532.220098	25535.387596
532.581396	25203.049528
532.942638	25149.134388
533.303824	25223.995523
533.664953	25251.610963
534.026025	24921.037300
534.387040	25159.766181
534.747999	25219.682815
535.108902	25379.646189
535.469748	24860.833320
535.830537	25062.333280
536.191270	25168.109291
536.551947	25059.260697
536.912567	24714.357554
537.273131	25046.967843
537.633638	24750.245528
537.994089	24967.390709
538.354483	24512.045968
538.714821	25004.407902
539.075103	25048.036568
539.435328	24833.389278
539.795497	24392.457196
540.155609	24778.564210
540.515665	25080.824233
540.875665	24320.966072
541.235609	24611.195382
541.595496	24577.142387
541.955328	24943.856083
542.315102	24847.872513
542.674821	24394.130859
543.034483	24275.474700
543.394090	24440.156593
543.753640	24242.787858
544.113134	24876.914601
544.472571	24462.251971
544.831953	24763.992755
545.191278	24373.164700
545.550548	24300.758607
545.909761	24505.187478
546.268918	24736.432767
546.628019	24699.009761
546.987064	24406.627879
547.346053	24161.317771
547.704986	24279.245483
548.063863	24444.829743
548.422684	24447.110865
548.781449	23980.438651
549.140158	24391.075919
549.498811	23966.441887
549.857408	23706.489748
550.215949	24137.614266
550.574434	23814.917405
550.932864	24046.550863
551.291237	24182.886348
551.649555	24063.128697
552.007817	24109.202323
552.366022	23971.876251
552.724173	24027.162585
553.082267	23944.127219
553.440305	24438.777838
553.798288	23695.678993
554.156215	24211.817530
554.514086	24301.194667
554.871902	23671.065560
555.229661	23961.935095
555.587365	23826.759076
555.945014	23671.972967
556.302606	23940.762249
556.660143	23876.086766
557.017625	24134.140911
557.375050	23666.210928
557.732421	24054.835999
558.089735	23865.923800
558.446994	23928.666001
558.804197	23955.129538
559.161345	23913.023300
559.518437	23655.569053
559.875474	23866.455642
560.232455	24025.123438
560.589381	23859.990362
560.946251	23834.235107
561.303065	24168.103164
561.659825	24249.419496
562.016528	23849.880328
562.373177	23588.778805
562.729770	23942.624956
563.086307	23808.857938
563.442789	23977.333300
563.799216	23802.387617
564.155587	23815.333300
564.511904	23797.381752
564.868164	23735.355395
565.224370	23723.876687
565.580520	23624.268528
565.936615	23751.590431
566.292654	23434.703500
566.648638	23731.390527
567.004567	23554.423342
567.360441	23510.885417
567.716260	23252.261622
568.072023	23579.518206
568.427732	23329.328261
568.783385	23118.285396
569.138982	23336.995856
569.494525	23379.631415
569.850013	23132.627479
570.205445	23222.624678
570.560823	23028.469679
570.916145	22791.573257
571.271412	22966.713024
571.626625	22723.477351
571.981782	22833.515657
572.336884	22634.803454
572.691931	22769.878651
573.046923	22507.471470
573.401860	22385.848592
573.756743	22394.405951
574.111570	22291.924334
574.466342	22238.246128
574.821059	22333.407989
575.175722	22040.680788
575.530330	22006.610150
575.884882	22043.881921
576.239380	21951.709464
576.593823	21839.304336
576.948211	21822.058549
577.302544	21653.578146
577.656823	21525.560565
578.011047	21629.557048
578.365216	21497.556955
578.719330	21388.920090
579.073389	21277.674428
579.427394	21431.802665
579.781344	21197.900688
580.135239	21096.180286
580.489080	21052.813760
580.842866	20822.987556
581.196597	21014.269098
581.550273	20993.943166
581.903895	20880.209694
582.257463	21202.470494
582.610975	20722.494675
582.964434	21034.766429
583.317837	20740.945298
583.671186	20828.653813
584.024481	20800.294802
584.377721	20571.325595
584.730906	20642.121039
585.084037	20657.057978
585.437113	20557.606094
585.790135	20769.528640
586.143103	20229.865559
586.496016	20238.876622
586.848874	20477.444187
587.201679	20417.018396
587.554428	20091.654765
587.907124	20425.225394
588.259765	20198.053358
588.612352	20274.545306
588.964884	19844.187043
589.317362	20011.873464
589.669786	20064.346835
590.022155	20122.667943
590.374470	20293.086670
590.726731	20093.646021
591.078937	19863.832420
591.431090	19957.426482
591.783188	19704.985662
592.135232	19678.078503
592.487222	19767.518655
592.839157	19798.630136
593.191038	19666.738428
593.542866	19564.861750
593.894639	19280.850704
594.246358	19503.384879
594.598022	19412.772659
594.949633	19159.091715
595.301190	19126.299009
595.652692	19292.463002
596.004141	19526.342293
596.355535	18860.531899
596.706876	18869.714361
597.058162	18763.204862
597.409395	18994.601386
597.760573	19066.936902
598.111698	18837.730760
598.462768	18776.871430
598.813785	18740.839783
599.164748	18560.066527
599.515657	18601.335933
599.866511	18396.584428
600.217312	18754.718080
600.568060	18277.197302
600.918753	18582.769363
601.269392	18487.547008
601.619978	18271.483154
601.970510	18488.189755
602.320988	18430.360159
602.671412	18633.712743
603.021783	18535.599287
603.372100	18263.649201
603.722363	18400.345129
604.072572	18340.194081
604.422728	18492.507504
604.772830	18245.425430
605.122878	18197.310137
605.472872	18188.762861
605.822813	18175.045881
606.172701	18146.664185
606.522534	18340.912446
606.872314	18367.355818
607.222041	18205.126446
607.571714	18409.280574
607.921333	18235.670798
608.270899	18321.204055
608.620411	18500.046549
608.969870	18261.605013
609.319276	18267.062062
609.668627	18300.409295
610.017926	18436.896015
610.367171	18551.438592
610.716362	18596.521631
611.065500	18402.701868
611.414585	18547.133447
611.763616	18529.184418
612.112594	18466.043967
612.461518	18433.715047
612.810389	18633.357342
613.159207	18491.083378
613.507971	18403.982322
613.856682	18678.027006
614.205340	18611.599722
614.553945	18754.387884
614.902496	18489.646649
615.250994	18725.350838
615.599439	18680.852573
615.947830	18654.477256
616.296169	18700.336633
616.644454	18661.088729
616.992686	18638.184247
617.340864	18851.644345
617.688990	18614.606770
618.037063	18782.300753
618.385082	18636.661818
618.733048	18909.877233
619.080961	18782.769580
619.428821	18820.293409
619.776628	18706.774186
620.124382	18629.203431
620.472083	18670.460234
620.819731	18694.211631
621.167326	18387.679230
621.514868	18427.464016
621.862357	18199.162761
622.209793	18210.200368
622.557176	18033.293676
622.904506	17871.371815
623.251783	17772.416485
623.599007	17536.435033
623.946179	17486.426787
624.293297	17426.469823
624.640363	17184.275148
624.987376	17197.445163
625.334336	16987.415570
625.681243	16833.733475
626.028097	16848.728387
626.374899	16772.054957
626.721647	16637.158722
627.068343	16477.638970
627.414987	16411.451140
627.761577	16381.030297
628.108115	16422.047646
628.454600	16145.721839
628.801032	16249.461223
629.147412	16173.274265
629.493739	16182.262643
629.840014	15994.431771
630.186236	16098.342554
630.532405	15858.431522
630.878521	16054.940740
631.224585	15944.980572
631.570597	15773.561177
631.916556	15800.460774
632.262462	15786.857220
632.608316	15702.833788
632.954117	15652.449976
633.299866	15647.197094
633.645562	15563.609722
633.991206	15321.223483
634.336797	15191.214646
634.682336	15154.898174
635.027823	15046.563778
635.373257	14922.286733
635.718639	14823.107072
636.063968	14774.205359
636.409245	14525.237894
636.754470	14549.064907
637.099642	14393.545311
637.444762	14173.559440
637.789829	14221.215988
638.134845	14062.795208
638.479808	14085.901336
638.824719	14028.976627
639.169577	13874.498029
639.514383	13923.447633
639.859137	13746.210746
640.203839	13833.657121
640.548489	13670.074199
640.893086	13663.351821
641.237632	13528.347200
641.582125	13690.032127
641.926566	13509.606711
642.270955	13520.944266
642.615292	13484.116116
642.959576	13493.220440
643.303809	13529.471378
643.647990	13457.052682
643.992118	13513.924459
644.336195	13281.948203
644.680219	13495.867046
645.024192	13415.027103
645.368112	13664.755782
645.711981	13717.624883
646.055797	13892.101738
646.399562	13859.074619
646.743274	14126.144867
647.086935	14407.811777
647.430544	14369.231826
647.774101	14405.961673
648.117606	14547.701275
648.461059	14519.523746
648.804460	14514.951419
649.147810	14232.180497
649.491108	14140.970901
649.834354	14157.301719
650.177548	13845.463503
650.520690	13663.823169
650.863781	13576.011310
651.206820	13625.570893
651.549807	13456.906488
651.892742	13261.791149
652.235626	13201.176316
652.578458	13198.824617
652.921238	12886.699056
653.263967	13088.123399
653.606644	12913.938931
653.949269	12888.579407
654.291843	12696.377855
654.634365	12844.799506
654.976836	12699.798278
655.319255	12708.554762
655.661622	12670.428515
656.003938	12585.245618
656.346203	12510.853311
656.688416	12584.701173
657.030577	12539.171992
657.372687	12457.699385
657.714746	12436.430757
658.056753	12624.392698
658.398708	12446.124895
658.740612	12445.613218
659.082465	12544.157694
659.424266	12509.451870
659.766016	12533.054552
660.107715	12441.255141
660.449362	12526.425435
660.790958	12475.287970
661.132503	12420.072212
661.473996	12488.304230
661.815438	12502.618586
662.156829	12521.953932
662.498168	12508.947755
662.839456	12498.928461
663.180693	12515.276923
663.521879	12617.753499
663.863013	12587.587234
664.204097	12560.465826
664.545129	12683.490145
664.886110	12653.331442
665.227040	12743.628590
665.567918	12745.992891
665.908746	12781.003704
666.249522	12767.233793
666.590248	12814.895382
666.930922	12927.252618
667.271545	12905.260585
667.612118	12985.989622
667.952639	12892.529151
668.293109	12911.070515
668.633528	12869.203732
668.973896	12836.002693
669.314213	12917.893716
669.654480	12654.803459
669.994695	12721.543295
670.334859	12751.548242
670.674973	12692.044983
671.015035	12729.621744
671.355047	12672.079493
671.695008	12642.271150
672.034918	12646.944300
672.374777	12693.527082
672.714585	12601.823453
673.054342	12636.375521
673.394049	12588.502203
673.733705	12686.872759
674.073310	12600.369080
674.412864	12612.367026
674.752368	12470.720685
675.091820	12495.021567
675.431223	12485.254332
675.770574	12355.875639
676.109875	12273.009152
676.449125	12229.758572
676.788324	12176.012311
677.127473	12009.606343
677.466571	12001.288439
677.805619	11898.113664
678.144616	11821.225985
678.483562	11794.865792
678.822458	11660.667756
679.161303	11645.516568
679.500098	11626.380348
679.838842	11584.952146
680.177535	11605.762029
680.516179	11663.987356
680.854771	11609.709252
681.193314	11829.974908
681.531805	11978.046199
681.870247	12398.299469
682.208638	12819.117348
682.546978	13120.981640
682.885268	13171.294876
683.223508	12863.610572
683.561697	12705.940923
683.899836	12607.653547
684.237925	12411.431675
684.575963	12328.487050
684.913951	12246.782549
685.251889	12198.357225
685.589776	12296.470682
685.927614	12215.066129
686.265401	12187.324660
686.603137	12239.563617
686.940824	12388.993499
687.278460	12511.460770
687.616046	12558.789643
687.953582	12723.554715
688.291068	12656.240188
688.628504	12895.022001
688.965889	12903.226479
689.303224	12855.277544
689.640510	12751.374322
689.977745	12445.585492
690.314930	12223.119373
690.652065	12130.992286
690.989150	11843.109634
691.326185	11613.911054
691.663170	11407.120402
692.000105	11167.902529
692.336990	11055.638553
692.673825	10796.896291
693.010610	10682.023518
693.347345	10474.149019
693.684030	10275.320870
694.020665	10214.504390
694.357251	10018.423670
694.693786	9961.970309
695.030272	9797.185072
695.366707	9682.035036
695.703093	9615.640519
696.039429	9611.017781
696.375716	9533.189927
696.711952	9400.030369
697.048139	9443.336401
697.384276	9400.557170
697.720363	9412.033356
698.056400	9351.645374
698.392388	9300.699474
698.728326	9256.097865
699.064214	9203.808497
699.400053	9242.915248
699.735842	9055.147390
700.071581	9015.274384
700.407270	8941.451727
700.742910	8868.067651
701.078501	8774.690358
701.414042	8649.095051
701.749533	8590.332841
702.084974	8446.773383
702.420366	8566.440293
702.755709	8444.192312
703.091002	8309.543093
703.426246	8335.278183
703.761440	8285.947972
704.096584	8243.829132
704.431679	8177.994183
704.766725	8164.834251
705.101721	8113.389276
705.436668	8160.239239
705.771565	8049.197743
706.106413	8121.941593
706.441212	8177.028802
706.775961	8130.950135
707.110661	8168.448758
707.445311	8309.616189
707.779913	8209.037608
708.114465	8339.432094
708.448967	8374.354687
708.783421	8516.535390
709.117825	8705.051859
709.452180	8741.058300
709.786485	8826.626845
710.120742	9106.332746
710.454949	9110.176626
710.789107	9202.802787
711.123216	9418.057535
711.457275	9588.992980
711.791286	9743.355631
712.125247	9738.012008
712.459159	9735.834230
712.793023	9976.478750
713.126837	9552.822701
713.460602	9703.129744
713.794318	9526.714565
714.127985	9560.497858
714.461602	9233.949556
714.795171	9189.403400
715.128691	8940.193959
715.462162	8687.906894
715.795584	8639.862178
716.128957	8494.069488
716.462281	8321.614135
716.795556	8372.852423
717.128782	8167.556474
717.461960	7901.822131
717.795088	7970.775033
718.128167	7880.049388
718.461198	7711.568985
718.794180	7656.345665
719.127113	7645.660940
719.459997	7493.571849
719.792833	7259.803462
720.125619	7321.297978
720.458357	7178.353540
720.791046	7173.327509
721.123686	7168.745101
721.456278	7010.452870
721.788821	7027.464243
722.121315	6921.048006
722.453761	6988.838923
722.786158	6930.164933
723.118506	6942.777900
723.450805	6909.186171
723.783056	6973.869216
724.115259	6890.304530
724.447412	6883.551904
724.779518	6928.435817
725.111574	6928.526558
725.443582	7013.107037
725.775542	6988.773388
726.107453	7185.350661
726.439315	7092.364058
726.771129	7153.677092
727.102895	7328.632857
727.434612	7433.181346
727.766281	7467.935061
728.097901	7546.849283
728.429473	7538.075155
728.760996	7515.331989
729.092471	7487.608164
729.423897	7439.951616
729.755276	7448.801361
730.086606	7371.633899
730.417887	7477.903943
730.749120	7667.552150
731.080305	7866.854168
731.411442	7991.494176
731.742530	7989.180286
732.073570	8091.014114
732.404562	8176.010489
732.735506	8024.299484
733.066401	8167.148140
733.397249	8101.676155
733.728048	7853.880758
734.058798	7521.212495
734.389501	7300.823331
734.720156	7120.019828
735.050762	6880.577623
735.381320	6791.422297
735.711831	6745.136943
736.042293	6634.405478
736.372707	6649.259238
736.703073	6509.432754
737.033391	6552.348096
737.363661	6567.905097
737.693883	6596.765703
738.024056	6677.174627
738.354182	6720.510906
738.684260	6755.012563
739.014290	6869.809719
739.344272	6980.097562
739.674207	7002.429873
740.004093	7076.315545
740.333931	7091.378512
740.663722	7098.184070
740.993464	7176.206008
741.323159	7162.373082
741.652806	6912.909063
741.982405	6926.389109
742.311956	6988.949828
742.641460	6815.864331
742.970915	6632.008409
743.300323	6619.803776
743.629683	6569.785448
743.958996	6440.547907
744.288260	6345.504513
744.617477	6296.113808
744.946647	6296.617923
745.275768	6133.312265
745.604842	6085.035655
745.933869	6065.158386
746.262847	6031.178488
746.591778	6016.927146
746.920662	5973.563141
747.249498	5964.728519
747.578286	6015.097208
747.907027	6089.600420
748.235720	6149.254914
748.564365	6118.599658
748.892963	6152.498897
749.221514	6305.094624
749.550017	6135.364015
749.878473	6010.469428
750.206881	6067.414302
750.535242	6010.540004
750.863555	5943.394356
751.191821	5954.275686
751.520039	5956.884483
751.848210	5868.545824
752.176334	5885.582403
752.504411	5938.791782
752.832440	5863.653384
753.160421	5791.277538
753.488356	5840.348130
753.816243	5870.653026
754.144082	5722.876643
754.471875	5694.847827
754.799620	5735.492130
755.127318	5751.195324
755.454969	5701.570206
755.782572	5669.758004
756.110129	5710.719900
756.437638	5693.849679
756.765100	5633.083610
757.092515	5638.913705
757.419882	5684.858781
757.747203	5667.255072
758.074477	5726.521397
758.401703	5712.564962
758.728882	5664.515204
759.056014	5726.828907
759.383099	5852.787177
759.710138	5864.212952
760.037129	5851.572259
760.364073	5854.826324
760.690970	5933.831287
761.017820	5919.698412
761.344623	5869.972471
761.671379	5977.349048
761.998088	6094.853303
762.324751	6335.386917
762.651366	6932.531755
762.977935	8254.261799
763.304456	9878.776147
763.630931	10782.430700
763.957359	10378.843485
764.283740	9438.199465
764.610074	8608.468392
764.936362	7610.758511
765.262602	7015.867069
765.588796	6477.907898
765.914943	6139.618749
766.241044	5975.491382
766.567097	5777.008553
766.893104	5522.611765
767.219064	5342.997974
767.544978	5273.639259
767.870845	5201.850707
768.196665	5094.781641
768.522438	5023.078789
768.848165	4991.067462
769.173846	4923.765538
769.499479	4881.908837
769.825066	4830.675591
770.150607	4768.538328
770.476101	4744.131582
770.801548	4742.097477
771.126949	4664.773738
771.452303	4611.067806
771.777611	4564.946289
772.102872	4588.400257
772.428087	4547.803846
772.753256	4511.542826
773.078378	4464.506340
773.403453	4394.598139
773.728482	4383.482395
774.053465	4334.968851
774.378401	4323.666584
774.703291	4323.590967
775.028135	4250.113629
775.352932	4203.198130
775.677683	4190.065925
776.002388	4210.323801
776.327046	4219.314699
776.651658	4145.580263
776.976224	4082.621292
777.300743	4087.498608
777.625216	4110.085498
777.949643	4105.127523
778.274024	4059.910894
778.598359	4015.730222
778.922647	4041.750137
779.246889	4030.039537
779.571086	4024.627858
779.895236	4007.603882
780.219339	3996.084845
780.543397	3989.261643
780.867409	4042.410528
781.191374	4055.890574
781.515294	3996.377232
781.839167	3982.524141
782.162995	4004.473325
782.486776	3989.337261
782.810511	4002.892923
783.134201	3998.547449
783.457844	3954.316365
783.781441	3903.604878
784.104993	3909.495466
784.428498	3926.711007
784.751958	3919.582815
785.075372	3900.635638
785.398739	3865.685319
785.722061	3876.213768
786.045337	3918.060387
786.368568	3950.779996
786.691752	3863.449567
787.014891	3914.755910
787.337983	4040.295764
787.661030	4197.216801
787.984031	4358.715206
788.306987	4527.931617
788.629897	4613.066623
788.952760	4567.746650
789.275579	4503.184593
789.598351	4437.216054
789.921078	4293.356646
790.243759	4096.262654
790.566395	4073.297678
790.888984	4071.908840
791.211529	3965.099393
791.534027	3906.480856
791.856480	3895.100451
792.178888	3831.768436
792.501249	3785.314203
792.823566	3793.861479
793.145836	3820.345181
793.468062	3769.890793
793.790241	3727.272878
794.112375	3753.464193
794.434464	3816.687824
794.756507	3840.776977
795.078505	3825.898012
795.400457	3857.869010
795.722364	3996.041995
796.044226	4102.037296
796.366042	4174.927340
796.687812	4155.342457
797.009538	4161.447294
797.331218	4118.400882
797.652852	4093.464814
797.974442	4067.787697
798.295986	4071.767688
798.617484	3990.204339
798.938938	3902.271493
799.260346	3943.293882
799.581709	3941.544602
799.903026	3865.206409
800.224299	3830.883713
800.545526	3821.091272
800.866708	3786.607259
801.187845	3724.757342
801.508936	3759.314452
801.829983	3758.545676
802.150984	3678.855116
802.471940	3668.150226
802.792851	3678.628264
803.113717	3679.744880
803.434538	3681.993234
803.755314	3621.857310
804.076045	3599.232612
804.396731	3619.024182
804.717372	3644.761792
805.037967	3631.637148
805.358518	3618.068883
805.679024	3647.947802
805.999485	3660.321314
806.319901	3663.149401
806.640272	3675.885876
806.960598	3688.236703
807.280879	3667.114269
807.601115	3676.957122
807.921306	3694.155018
808.241453	3736.820823
808.561554	3712.086402
808.881611	3642.241216
809.201623	3680.886701
809.521590	3691.253834
809.841513	3661.904236
810.161390	3698.409752
810.481223	3673.428314
810.801011	3620.241620
811.120755	3609.400619
811.440453	3647.758758
811.760107	3650.982576
812.079716	3606.819548
812.399281	3576.383582
812.718801	3597.916870
813.038276	3573.467274
813.357707	3567.692632
813.677093	3586.533945
813.996434	3536.825647
814.315731	3543.323695
814.634983	3545.446021
814.954191	3562.028896
815.273354	3588.537804
815.592473	3586.410437
815.911547	3590.849173
816.230577	3629.345944
816.549562	3679.480219
816.868502	3726.247003
817.187399	3747.215683
817.506250	3745.133686
817.825058	3719.204511
818.143821	3809.415959
818.462539	3911.204417
818.781213	3959.100420
819.099843	4015.788195
819.418429	4263.271040
819.736970	4499.504551
820.055466	4749.628960
820.373919	5113.176811
820.692327	5521.842989
821.010691	5968.506864
821.329011	7347.214550
821.647286	10096.566596
821.965517	14664.446837
822.283704	18692.265745
822.601847	20845.337512
822.919945	19024.296302
823.237999	16439.938701
823.556010	13947.047795
823.873976	11858.016326
824.191897	9765.594681
824.509775	8417.242303
824.827609	7289.649614
825.145398	6748.489310
825.463144	6629.898687
825.780845	6743.291881
826.098502	6937.411592
826.416116	7813.014644
826.733685	9141.388930
827.051210	10253.782540
827.368692	10286.723960
827.686129	9030.206282
828.003522	7515.455498
828.320872	6503.264902
828.638177	5795.680986
828.955439	5238.424278
829.272656	4745.288527
829.589830	4461.428716
829.906960	4282.170326
830.224046	4100.393880
830.541088	3973.976865
830.858086	3925.796037
831.175041	3846.009695
831.491952	3832.454032
831.808819	3844.759489
832.125642	3916.936209
832.442421	4063.767377
832.759157	4339.442875
833.075849	4889.712543
833.392497	5759.707313
833.709101	6529.010075
834.025662	6864.798812
834.342179	6499.665518
834.658653	5838.755125
834.975083	5195.314851
835.291469	4615.168784
835.607811	4204.634859
835.924110	4065.345258
836.240366	3870.285372
836.556578	3666.612674
836.872746	3553.925241
837.188871	3515.378058
837.504952	3451.201649
837.820990	3368.423383
838.136984	3319.335147
838.452935	3348.886391
838.768842	3343.520083
839.084706	3363.142774
839.400526	3523.020448
839.716303	3863.489896
840.032037	4388.026995
840.347727	4650.328312
840.663373	4370.511506
840.978977	3988.452538
841.294537	3679.999458
841.610054	3453.089562
841.925527	3345.869260
842.240957	3278.673200
842.556344	3223.147411
842.871687	3163.077022
843.186987	3117.573047
843.502244	3076.772468
843.817458	3044.337684
844.132629	3014.857017
844.447756	3021.372708
844.762840	3005.437621
845.077881	2974.379072
845.392879	2957.161011
845.707833	2955.774693
846.022745	2953.244034
846.337613	2953.927111
846.652438	2941.195677
846.967221	2939.196859
847.281960	2925.285795
847.596656	2921.583068
847.911309	2919.410330
848.225919	2913.809608
848.540485	2905.718556
848.855009	2909.433887
849.169490	2899.525499
849.483928	2890.330434
849.798323	2889.488562
850.112675	2888.223232
850.426984	2896.818399
850.741251	2892.689694
851.055474	2884.505381
851.369654	2877.407436
851.683792	2884.001266
851.997887	2893.559293
852.311938	2891.915877
852.625947	2882.977911
852.939914	2885.775752
853.253837	2890.665671
853.567718	2875.756458
853.881555	2872.855274
854.195350	2891.835219
854.509103	2885.448077
854.822812	2876.316027
855.136479	2874.392826
855.450103	2877.026829
855.763685	2872.101622
856.077224	2864.623070
856.390720	2881.566388
856.704173	2892.868655
857.017584	2882.622510
857.330953	2879.315513
857.644278	2885.818602
857.957561	2898.252608
858.270802	2899.371744
858.584000	2898.459295
858.897155	2886.383211
859.210268	2884.124774
859.523339	2880.333826
859.836367	2883.867675
860.149352	2875.746376
860.462295	2873.797970
860.775195	2883.318189
861.088054	2883.439177
861.400869	2865.666589
861.713642	2863.146012
862.026373	2876.159751
862.339062	2880.059083
862.651708	2885.833725
862.964312	2888.389590
863.276873	2881.642006
863.589392	2889.758263
863.901869	2902.618247
864.214303	2924.885023
864.526696	2938.788526
864.839045	2937.185439
865.151353	2936.565377
865.463619	2935.920109
865.775842	2932.542536
866.088023	2954.869806
866.400162	2957.748305
866.712258	2931.627567
867.024313	2919.548962
867.336325	2929.356527
867.648296	2949.201029
867.960224	2944.159875
868.272110	2931.350303
868.583954	2935.935233
868.895755	2951.645988
869.207515	2934.410283
869.519233	2940.245419
869.830909	2952.402162
870.142542	2960.160497
870.454134	2958.423820
870.765684	2962.386167
871.077191	2962.267700
871.388657	2970.938484
871.700081	2984.978098
872.011463	2994.490755
872.322803	2995.821620
872.634101	2994.238697
872.945357	3012.880884
873.256571	3037.708567
873.567744	3030.567773
873.878874	3023.797503
874.189963	3047.916903
874.501010	3047.720298
874.812015	3036.135727
875.122979	3037.842158
875.433900	3035.145140
875.744780	3040.259391
876.055618	3046.344063
876.366415	3043.712581
876.677169	3055.917215
876.987882	3053.971329
877.298554	3044.912376
877.609183	3067.579924
877.919771	3092.556321
878.230317	3119.604632
878.540822	3169.007939
878.851285	3209.390102
879.161707	3251.967688
879.472087	3352.231197
879.782425	3582.899273
880.092722	4021.328423
880.402977	4552.693765
880.713191	5184.345301
881.023363	6339.119892
881.333494	7623.028679
881.643583	8176.537289
881.953631	7873.185857
882.263637	7241.388127
882.573602	6659.500342
882.883526	6075.621301
883.193408	5501.196943
883.503248	5037.584709
883.813048	4736.758895
884.122806	4433.886372
884.432522	4114.315026
884.742197	3880.276938
885.051831	3687.268802
885.361424	3548.407698
885.670975	3478.028150
885.980485	3393.198133
886.289954	3314.682162
886.599382	3270.715739
886.908768	3233.048237
887.218113	3188.572657
887.527417	3131.703401
887.836680	3081.410330
888.145901	3077.140472
888.455082	3066.559090
888.764221	3012.238137
889.073319	2986.757625
889.382376	2984.345433
889.691392	2988.239724
890.000366	2987.281905
890.309300	2973.075933
890.618193	2987.047491
890.927044	3002.186076
891.235855	3002.700274
891.544625	2989.147132
891.853353	3000.628360
892.162041	3018.605114
892.470687	3060.076167
892.779293	3113.139352
893.087858	3157.866989
893.396381	3228.949779
893.704864	3348.714992
894.013306	3592.966457
894.321707	3893.154566
894.630068	4100.414045
894.938387	4093.162345
895.246665	4051.910583
895.554903	3930.474228
895.863100	3726.879668
896.171256	3560.796334
896.479371	3418.958429
896.787446	3299.304122
897.095480	3198.357537
897.403473	3131.043010
897.711425	3097.231991
898.019336	3085.390321
898.327207	3053.711710
898.635038	3020.765249
898.942827	3005.072137
899.250576	2996.003101
899.558284	2964.407669
899.865952	2943.282714
900.173579	2922.689601
900.481165	2918.160124
900.788711	2905.189235
901.096216	2878.123280
901.403681	2866.942001
901.711105	2872.139431
902.018489	2873.074565
902.325832	2872.204966
902.633135	2884.949003
902.940397	2915.284146
903.247619	2998.432937
903.554800	3191.831763
903.861941	3534.489073
904.169041	3963.208960
904.476101	4263.533180
904.783121	4219.239082
905.090100	3973.558449
905.397039	3697.749361
905.703938	3448.156793
906.010796	3263.358175
906.317614	3150.466576
906.624391	3057.142215
906.931129	2988.829539
907.237826	2923.768408
907.544483	2878.385420
907.851099	2844.050121
908.157675	2825.864159
908.464211	2807.211890
908.770707	2793.265537
909.077163	2779.314144
909.383578	2764.331835
909.689954	2752.454877
909.996289	2751.015627
910.302584	2750.158631
910.608839	2752.283477
910.915054	2748.306007
911.221229	2742.430542
911.527363	2743.330388
911.833458	2750.221645
912.139513	2753.216091
912.445527	2757.785897
912.751502	2767.772422
913.057436	2775.487908
913.363331	2789.454425
913.669186	2810.712971
913.975000	2841.116170
914.280775	2907.412384
914.586510	2973.441417
914.892205	3054.021741
915.197859	3181.454548
915.503475	3376.015360
915.809050	3591.539811
916.114585	3737.531626
916.420081	3757.860079
916.725536	3699.629711
917.030952	3581.177719
917.336328	3449.606124
917.641665	3319.249448
917.946961	3219.583315
918.252218	3149.314672
918.557435	3071.580080
918.862612	3013.211080
919.167750	2959.038841
919.472848	2921.003335
919.777906	2895.094325
920.082925	2871.602548
920.387904	2838.134327
920.692843	2817.881492
920.997743	2808.976293
921.302603	2795.889458
921.607423	2786.465021
921.912204	2772.589245
922.216946	2761.229005
922.521647	2754.768766
922.826310	2744.804926
923.130932	2739.758731
923.435516	2728.784139
923.740059	2724.363047
924.044564	2715.662015
924.349028	2711.944164
924.653454	2703.028884
924.957840	2698.968234
925.262186	2692.477749
925.566493	2688.510361
925.870761	2684.109433
926.174989	2679.617765
926.479178	2675.237002
926.783328	2669.051507
927.087438	2667.186280
927.391509	2668.209634
927.695541	2666.664520
927.999533	2661.280568
928.303486	2659.707728
928.607400	2658.049188
928.911275	2657.915598
929.215110	2656.357881
929.518906	2656.418375
929.822663	2655.851245
930.126381	2651.084834
930.430060	2657.363592
930.733699	2656.531801
931.037299	2659.458191
931.340861	2659.541370
931.644383	2657.552635
931.947866	2659.473314
932.251309	2657.106493
932.554714	2654.311173
932.858080	2652.070380
933.161407	2650.507622
933.464694	2651.047026
933.767943	2647.523259
934.071153	2648.455873
934.374323	2647.414874
934.677455	2648.680204
934.980548	2647.248516
935.283602	2649.287663
935.586617	2649.305307
935.889593	2649.698517
936.192530	2647.510656
936.495428	2647.596356
936.798287	2651.510812
937.101108	2652.960144
937.403890	2659.072543
937.706632	2661.164622
938.009336	2668.741476
938.312002	2675.761282
938.614628	2685.291584
938.917216	2691.683767
939.219765	2693.947245
939.522275	2694.166535
939.824747	2688.084383
940.127179	2685.591532
940.429573	2683.723785
940.731929	2682.826460
941.034246	2677.515604
941.336524	2675.242044
941.638763	2670.957063
941.940964	2671.163750
942.243126	2665.263080
942.545250	2668.252484
942.847335	2663.733089
943.149381	2659.516164
943.451389	2656.307470
943.753359	2656.320073
944.055290	2652.476193
944.357182	2651.873775
944.659036	2650.994094
944.960851	2649.486789
945.262628	2649.580050
945.564367	2649.393527
945.866067	2648.952426
946.167729	2650.419402
946.469352	2651.556182
946.770937	2649.411171
947.072484	2649.370842
947.373992	2648.486120
947.675462	2647.598877
947.976893	2641.899852
948.278286	2641.698206
948.579641	2644.085192
948.880958	2641.335243
949.182236	2640.367341
949.483476	2640.364821
949.784678	2641.065541
950.085841	2640.725263
950.386967	2643.190387
950.688054	2641.627630
950.989103	2644.697692
951.290114	2643.442445
951.591087	2646.792292
951.892021	2648.244144
952.192917	2650.505102
952.493776	2650.129536
952.794596	2653.605411
953.095378	2652.554331
953.396122	2651.273878
953.696828	2652.216573
953.997496	2650.552993
954.298126	2647.712302
954.598718	2644.816160
954.899272	2642.353556
955.199788	2639.835500
955.500266	2634.128913
955.800706	2635.812659
956.101108	2634.406177
956.401472	2630.365692
956.701798	2630.418624
957.002087	2628.717235
957.302337	2629.609519
957.602550	2624.732203
957.902724	2624.142388
958.202861	2623.953344
958.502960	2621.669702
958.803022	2620.830350
959.103045	2619.207098
959.403031	2618.297170
959.702979	2617.823301
960.002889	2619.786831
960.302762	2618.357664
960.602596	2620.563168
960.902393	2617.631737
961.202153	2615.295163
961.501875	2614.728033
961.801559	2616.527725
962.101205	2613.142590
962.400814	2616.341202
962.700385	2616.318517
962.999918	2611.612600
963.299414	2608.086313
963.598873	2613.618979
963.898293	2610.869030
964.197677	2615.123763
964.497022	2611.466406
964.796331	2611.544544
965.095601	2612.635954
965.394835	2610.178392
965.694030	2612.570419
965.993189	2613.525718
966.292309	2614.017230
966.591393	2612.164606
966.890439	2614.226438
967.189447	2613.356839
967.488419	2611.083279
967.787353	2611.249637
968.086249	2610.594287
968.385108	2613.293825
968.683930	2613.742487
968.982714	2609.134873
969.281462	2611.768876
969.580172	2613.518156
969.878844	2610.513628
970.177480	2615.227107
970.476078	2609.954060
970.774639	2612.068824
971.073162	2612.593104
971.371649	2613.021602
971.670098	2611.859616
971.968510	2610.916921
972.266885	2614.576798
972.565223	2614.445728
972.863524	2613.382045
973.161788	2612.827518
973.460014	2613.283742
973.758204	2613.525718
974.056356	2612.363732
974.354471	2611.577312
974.652550	2612.532610
974.950591	2612.817436
975.248595	2613.503032
975.546563	2613.649226
975.844493	2611.678135
976.142386	2613.064452
976.440243	2611.814246
976.738062	2610.314503
977.035845	2611.297528
977.333590	2612.575460
977.631299	2611.345419
977.928971	2605.880808
978.226606	2608.996241
978.524204	2607.156220
978.821765	2605.911055
979.119290	2610.616972
979.416777	2610.344750
979.714228	2613.757611
980.011642	2608.497167
980.309020	2611.915069
980.606360	2609.538165
980.903664	2610.806015
981.200931	2608.166971
981.498162	2610.425408
981.795356	2611.368104
982.092513	2615.610235
982.389633	2616.938579
982.686717	2617.982098
982.983764	2624.444857
983.280775	2627.023407
983.577749	2629.639766
983.874686	2625.190948
984.171587	2625.959724
984.468451	2620.676594
984.765279	2620.381687
985.062070	2617.604011
985.358824	2615.043105
985.655543	2615.746346
985.952224	2612.822477
986.248869	2613.860954
986.545478	2611.345419
986.842050	2612.071345
987.138586	2607.672938
987.435086	2608.555140
987.731549	2607.398195
988.027975	2608.010695
988.324366	2607.675459
988.620719	2609.581015
988.917037	2609.457507
989.213318	2606.019440
989.509563	2607.211673
989.805772	2609.666714
990.101944	2608.643360
990.398080	2606.649584
990.694180	2606.710078
990.990244	2605.394337
991.286271	2603.317381
991.582262	2605.835437
991.878217	2606.142948
992.174136	2611.466406
992.470019	2606.778133
992.765865	2602.125148
993.061676	2601.689088
993.357450	2603.327463
993.653188	2605.875767
993.948890	2609.394492
994.244556	2607.194028
994.540186	2607.632609
994.835780	2606.687392
995.131337	2607.940119
995.426859	2611.045470
995.722345	2609.011364
996.017795	2608.726539
996.313208	2612.091509
996.608586	2610.705192
996.903928	2609.797784
997.199234	2612.903135
997.494504	2614.823815
997.789738	2612.240223
998.084936	2613.039246
998.380099	2611.456324
998.675225	2609.933896
998.970316	2610.057404
999.265371	2609.437342
999.560390	2604.721342
999.855373	2606.929368
1000.150320	2606.180757
1000.445232	2606.193359
1000.740108	2606.715119
1001.034948	2601.449634
1001.329752	2608.444235
1001.624521	2607.289810
1001.919254	2602.530961
1002.213951	2606.624378
1002.508613	2602.707402
1002.803239	2607.035232
1003.097829	2602.047010
1003.392384	2604.328132
1003.686903	2603.070365
1003.981386	2603.196393
1004.275834	2603.234202
1004.570246	2605.359048
1004.864623	2603.730756
1005.158964	2605.578339
1005.453270	2604.469285
1005.747540	2606.803339
1006.041775	2604.179418
1006.335974	2603.763523
1006.630138	2604.779316
1006.924266	2603.660180
1007.218359	2604.807042
1007.512416	2601.384099
1007.806438	2600.617843
1008.100425	2601.673965
1008.394376	2600.169181
1008.688292	2603.372834
1008.982172	2604.517176
1009.276017	2604.857454
1009.569827	2602.682196
1009.863602	2603.032556
1010.157341	2605.482557
1010.451045	2604.229830
1010.744714	2604.108842
1011.038347	2603.483739
1011.331945	2606.261415
1011.625508	2603.781167
1011.919036	2601.237905
1012.212528	2604.479367
1012.505986	2605.764861
1012.799408	2603.145982
1013.092795	2603.133379
1013.386147	2602.823348
1013.679464	2603.201435
1013.972745	2604.645725
1014.265992	2601.495004
1014.559204	2605.033894
1014.852380	2604.683534
1015.145521	2605.064141
1015.438628	2602.828389
1015.731699	2603.887032
1016.024736	2599.874273
1016.317737	2602.931733
1016.610703	2604.310488
1016.903635	2603.766044
1017.196531	2601.701691
1017.489393	2601.792432
1017.782219	2603.105653
1018.075011	2602.858636
1018.367768	2604.343256
1018.660490	2603.813935
1018.953177	2603.813935
1019.245829	2603.813935
