Dividing Wavelength (nm)	Counts (n)	Blue Motor Position (mm): 41.300000	Red Motor Position (mm): 0.000000	
326.493990	2255.258476
326.888308	2255.258476
327.282561	2255.258476
327.676750	2211.176106
328.070874	2209.124356
328.464933	2211.362628
328.858929	2212.827084
329.252859	2217.762373
329.646726	2227.428786
330.040528	2237.823645
330.434265	2252.810995
330.827938	2271.122987
331.221547	2288.507406
331.615091	2306.569860
332.008571	2325.660710
332.401986	2346.717609
332.795338	2361.137830
333.188625	2382.729092
333.581847	2403.029818
333.975006	2418.992632
334.368100	2444.198401
334.761129	2455.921604
335.154095	2475.471199
335.546996	2501.173522
335.939833	2540.338246
336.332606	2555.282747
336.725315	2568.157854
337.117960	2582.688980
337.510540	2595.475866
337.903056	2603.647577
338.295508	2613.324072
338.687896	2620.878241
339.080220	2627.356123
339.472480	2635.971455
339.864676	2639.890952
340.256807	2646.998979
340.648875	2650.253044
341.040879	2651.909063
341.432818	2654.064156
341.824694	2657.587923
342.216506	2658.505413
342.608253	2657.910557
342.999937	2659.004487
343.391557	2659.576658
343.783113	2659.614467
344.174605	2656.809065
344.566033	2656.710762
344.957397	2657.756802
345.348697	2656.100782
345.739934	2652.640030
346.131106	2654.253200
346.522215	2650.603404
346.913260	2648.677683
347.304241	2649.559885
347.695159	2644.584267
348.086012	2642.832466
348.476802	2641.945222
348.867528	2639.661580
349.258191	2633.841568
349.648789	2635.243008
350.039324	2630.078346
350.429796	2635.787453
350.820203	2631.888121
351.210548	2631.295785
351.600828	2630.398460
351.991045	2630.058182
352.381198	2630.922740
352.771288	2628.429889
353.161314	2627.366206
353.551276	2627.774539
353.941175	2625.889147
354.331010	2627.678757
354.720782	2626.985598
355.110490	2626.872172
355.500135	2627.444343
355.889717	2627.146915
356.279235	2627.015845
356.668689	2627.285547
357.058080	2625.571555
357.447408	2629.004581
357.836672	2627.033489
358.225873	2626.589868
358.615010	2630.116155
359.004084	2627.590537
359.393095	2633.208903
359.782043	2629.397791
360.170927	2629.798562
360.559748	2630.060702
360.948505	2631.300826
361.337199	2633.229067
361.725830	2632.903913
362.114398	2633.420631
362.502903	2634.053296
362.891344	2634.814510
363.279722	2638.008081
363.668037	2636.437762
364.056289	2638.108904
364.444478	2636.155457
364.832603	2637.745941
365.220665	2639.051600
365.608665	2640.866416
365.996601	2641.642753
366.384474	2640.369862
366.772284	2638.676034
367.160031	2641.698206
367.547715	2644.349853
367.935336	2642.461941
368.322893	2642.020840
368.710388	2641.287352
369.097820	2641.168885
369.485189	2638.860036
369.872495	2647.177940
370.259738	2646.757004
370.646918	2644.904380
371.034035	2647.319092
371.421090	2644.977477
371.808081	2648.884371
372.195010	2649.822025
372.581875	2649.794299
372.968678	2649.300266
373.355418	2652.884526
373.742096	2651.001655
374.128710	2652.002324
374.515262	2651.833446
374.901751	2652.345123
375.288177	2654.769918
375.674540	2653.189516
376.060841	2653.968374
376.447079	2655.921822
376.833254	2656.985505
377.219367	2653.842346
377.605417	2655.505926
377.991404	2655.291677
378.377329	2657.028355
378.763191	2654.911070
379.148991	2657.711431
379.534727	2659.284271
379.920402	2657.076246
380.306013	2659.397697
380.691563	2661.378871
381.077049	2659.745537
381.462474	2662.341731
381.847835	2664.438851
382.233134	2662.538336
382.618371	2666.523368
383.003545	2665.830209
383.388657	2666.268790
383.773706	2670.889007
384.158693	2674.861437
384.543618	2681.495595
384.928480	2687.058508
385.313280	2697.314736
385.698017	2708.858978
386.082692	2722.074363
386.467305	2738.611868
386.851856	2764.336876
387.236344	2789.925773
387.620770	2815.554999
388.005133	2853.406503
388.389435	2891.976371
388.773674	2927.924839
389.157851	2983.493478
389.541965	3038.139586
389.926018	3069.997157
390.310008	3140.033908
390.693936	3204.616130
391.077802	3263.524533
391.461606	3308.756286
391.845348	3384.887791
392.229027	3455.584933
392.612645	3510.077285
392.996200	3609.241822
393.379694	3694.240717
393.763125	3805.017553
394.146494	3871.167573
394.529801	3964.600319
394.913047	4067.449940
395.296230	4098.453036
395.679351	4221.046336
396.062410	4312.555881
396.445408	4351.818907
396.828343	4452.299186
397.211217	4538.361764
397.594028	4499.819623
397.976778	4637.564110
398.359466	4722.570567
398.742092	4787.621616
399.124656	4745.921192
399.507158	4885.838417
399.889598	4977.060616
400.271977	5123.556547
400.654294	5140.270493
401.036549	5211.880083
401.418742	5167.946427
401.800874	5381.217482
402.182944	5457.757321
402.564952	5579.289457
402.946898	5654.629502
403.328783	5525.563360
403.710606	5546.514396
404.092367	5874.267534
404.474067	5903.619652
404.855705	5820.982538
405.237282	5770.618890
405.618797	6017.743813
406.000250	6008.715107
406.381642	6209.136260
406.762972	6239.274798
407.144240	6307.726106
407.525447	6291.962418
407.906593	6325.080278
408.287677	6482.417210
408.668700	6393.909672
409.049661	6517.027252
409.430560	6542.406941
409.811399	6398.174488
410.192176	6676.312590
410.572891	6677.582961
410.953545	6882.934363
411.334138	6614.054340
411.714669	6784.392408
412.095139	6583.865390
412.475547	6826.538975
412.855894	6896.883235
413.236180	7073.588281
413.616405	6756.035918
413.996568	6976.495657
414.376670	7004.562282
414.756711	6903.146869
415.136691	7001.257805
415.516609	7198.949174
415.896466	7195.430448
416.276262	7393.159626
416.655997	7373.519290
417.035670	7566.429125
417.415283	7900.713077
417.794834	7950.570089
418.174324	7819.308525
418.553753	7728.330822
418.933121	8046.596508
419.312428	8141.813822
419.691674	7921.664113
420.070859	8408.753000
420.449983	8083.033968
420.829045	8446.397817
421.208047	8224.251811
421.586988	8521.873972
421.965867	8539.606231
422.344686	8645.969536
422.723444	8694.737658
423.102141	8056.368785
423.480777	8802.242784
423.859352	8331.202410
424.237866	8950.530845
424.616319	8817.353643
424.994712	9231.577693
425.373044	8789.755846
425.751314	9254.787165
426.129524	9129.716138
426.507673	9244.311647
426.885762	9397.592971
427.263789	9311.522831
427.641756	9230.042661
428.019662	9329.184513
428.397508	9585.476775
428.775292	9266.739741
429.153016	9642.154468
429.530679	9477.107091
429.908282	9510.356021
430.285824	9224.683915
430.663305	9914.558257
431.040726	9365.382519
431.418086	9345.812759
431.795385	9673.991875
432.172624	9764.772973
432.549802	9670.594137
432.926920	9750.798895
433.303977	9631.810020
433.680974	9836.916926
434.057910	9926.488148
434.434786	9995.680505
434.811601	9828.399897
435.188355	10393.074662
435.565050	10127.841914
435.941683	10055.304752
436.318257	10541.748372
436.694770	10684.223982
437.071222	10742.822354
437.447614	10588.545403
437.823946	10488.181071
438.200218	10616.062541
438.576429	10437.872876
438.952580	10679.770123
439.328670	10722.493902
439.704700	10518.357418
440.080670	10499.621969
440.456580	11053.738038
440.832429	10819.994858
441.208218	10420.296893
441.583947	10735.421941
441.959616	10903.037785
442.335224	10697.605725
442.710773	10830.122536
443.086261	11045.336956
443.461689	10326.745681
443.837057	10982.957718
444.212365	11245.758109
444.587612	10887.531196
444.962800	11108.510175
445.337927	10865.138391
445.712995	10486.295679
446.088002	11555.809235
446.462949	11229.921324
446.837837	11197.363032
447.212664	11163.347847
447.587431	11705.476052
447.962139	12441.066098
448.336786	14726.256424
448.711374	15247.826804
449.085901	13069.040112
449.460369	12714.911657
449.834776	12149.495841
450.209124	13049.929097
450.583412	13472.957522
450.957640	14414.249330
451.331808	13508.162420
451.705917	12530.667566
452.079965	11805.895836
452.453954	12724.739386
452.827883	12369.784182
453.201752	12655.421000
453.575562	12182.177642
453.949311	12596.169798
454.323001	12567.962022
454.696632	12804.102271
455.070202	13085.234818
455.443713	13305.134990
455.817164	13782.108803
456.190556	13759.899999
456.563888	14124.272079
456.937160	14288.916163
457.310373	13624.618115
457.683526	13731.815731
458.056619	13260.666972
458.429653	13445.342082
458.802628	12836.015296
459.175542	13238.216193
459.548398	14185.895143
459.921194	14527.151012
460.293930	14600.734214
460.666607	15462.521984
461.039224	16515.934095
461.411782	17223.238227
461.784280	17053.636167
462.156719	17130.775903
462.529099	16816.447358
462.901419	15756.184319
463.273680	15541.637853
463.645882	15418.505150
464.018024	15141.743283
464.390106	15368.544794
464.762130	16087.158755
465.134094	16861.827825
465.505999	18901.561850
465.877845	22162.200322
466.249631	24986.428627
466.621358	24630.525686
466.993026	23197.129042
467.364634	22628.204584
467.736184	21154.050212
468.107674	20348.214208
468.479105	20485.681432
468.850477	19956.884558
469.221790	19546.214522
469.593043	18857.650880
469.964238	18294.856464
470.335373	17941.408565
470.706449	18416.933046
471.077467	17996.591556
471.448425	19834.898717
471.819324	23934.642288
472.190164	25844.922003
472.560945	22228.922514
472.931667	19905.389172
473.302330	19278.690569
473.672934	18868.691007
474.043479	19133.999372
474.413965	18953.679819
474.784393	18551.768788
475.154761	19281.349778
475.525070	19238.815043
475.895321	18942.629610
476.265513	19532.658859
476.635645	20120.331369
477.005719	19884.959896
477.375734	20080.803681
477.745691	20558.556352
478.115588	21100.394691
478.485427	21638.366465
478.855207	22725.788720
479.224928	24511.587223
479.594591	26733.054844
479.964194	26697.774329
480.333739	26920.114419
480.703226	26498.910892
481.072653	26182.588570
481.442022	26789.389738
481.811333	27713.365183
482.180584	27607.422814
482.549777	26659.600191
482.918912	26319.208881
483.287988	26449.368953
483.657005	26086.219353
484.025964	25855.084970
484.394864	25739.398051
484.763706	25410.576188
485.132489	24862.726273
485.501213	25041.694797
485.869879	24955.120541
486.238487	24784.855570
486.607036	24930.691109
486.975527	24653.646938
487.343959	24965.159999
487.712333	24883.349634
488.080648	24544.455546
488.448905	25054.932867
488.817104	24800.916686
489.185244	25498.226730
489.553326	25447.399296
489.921350	26475.771996
490.289315	28806.385639
490.657222	30556.767516
491.025070	31046.500488
491.392861	30807.998459
491.760593	29947.231522
492.128267	29031.334527
492.495883	27979.492735
492.863440	27116.474923
493.230939	26246.664156
493.598380	26085.468221
493.965763	25688.920977
494.333088	25213.396497
494.700354	25183.303329
495.067563	25035.209352
495.434713	24783.005466
495.801805	24955.607012
496.168839	24751.732668
496.535815	24595.502270
496.902733	24806.081348
497.269593	24504.635472
497.636395	24664.341746
498.003139	24617.413645
498.369825	24370.225707
498.736453	24570.404885
499.103023	24442.004176
499.469535	24427.508338
499.835989	24665.917107
500.202385	24690.144892
500.568723	24204.364184
500.935003	24406.159052
501.301226	24075.555141
501.667390	24917.992443
502.033497	25126.245029
502.399546	24864.737694
502.765537	24407.603342
503.131470	24791.300685
503.497345	24941.882471
503.863163	24171.064842
504.228923	24728.994544
504.594625	24970.601924
504.960269	24511.778787
505.325856	24996.752910
505.691385	24396.288473
506.056856	25009.675908
506.422270	24979.877648
506.787625	24530.325192
507.152924	24950.286074
507.518164	24988.848381
507.883347	24795.240347
508.248472	24473.329906
508.613540	25256.102631
508.978550	25053.599481
509.343503	25062.683641
509.708398	25286.646983
510.073236	25449.279647
510.438016	25658.358982
510.802738	25324.778270
511.167403	25575.951240
511.532010	25305.518542
511.896561	26069.578504
512.261053	26023.840115
512.625488	25866.881270
512.989866	25748.401551
513.354186	25591.505720
513.718449	25710.640788
514.082655	26084.429743
514.446803	25812.671222
514.810894	26291.636290
515.174927	25782.406655
515.538904	25809.323896
515.902822	26309.683621
516.266684	26056.451339
516.630488	25967.958925
516.994235	25928.816886
517.357925	26250.979384
517.721558	26413.246565
518.085133	26526.869131
518.448651	26413.163386
518.812112	26170.590624
519.175516	26388.098769
519.538863	26533.175615
519.902152	26333.354358
520.265385	26600.457374
520.628560	26397.649235
520.991678	26386.679684
521.354739	26443.090195
521.717743	26537.258949
522.080690	26309.303013
522.443580	26635.006922
522.806413	26614.623017
523.169189	26732.223054
523.531908	26777.076720
523.894569	26387.577009
524.257174	26482.615362
524.619722	26629.764122
524.982213	26336.971386
525.344647	26369.403650
525.707025	26524.739244
526.069345	26498.013567
526.431608	26465.412425
526.793815	26646.909087
527.155964	26131.851878
527.518057	26288.863655
527.880093	26214.841873
528.242072	26447.123118
528.603995	26166.416549
528.965860	25950.937469
529.327669	26000.388667
529.689421	25976.486037
530.051117	25831.436917
530.412755	26004.187177
530.774337	25781.955471
531.135862	25677.613669
531.497331	25860.726021
531.858743	25441.491064
532.220098	25903.812763
532.581396	25592.072850
532.942638	25506.017833
533.303824	25627.060978
533.664953	25618.223836
534.026025	25279.609532
534.387040	25521.874783
534.747999	25577.556848
535.108902	25737.840334
535.469748	25239.008079
535.830537	25394.605813
536.191270	25541.280704
536.551947	25378.703493
536.912567	25006.487378
537.273131	25428.142089
537.633638	25102.218890
537.994089	25325.138713
538.354483	24828.486756
538.714821	25338.490209
539.075103	25376.339192
539.435328	25161.255842
539.795497	24737.098199
540.155609	25101.384579
540.515665	25413.863020
540.875665	24622.437155
541.235609	24963.564474
541.595496	24893.774740
541.955328	25255.439720
542.315102	25183.928432
542.674821	24694.500449
543.034483	24583.534570
543.394090	24744.662450
543.753640	24556.541712
544.113134	25189.330028
544.472571	24772.870227
544.831953	25077.577730
545.191278	24728.069492
545.550548	24626.633915
545.909761	24808.748118
546.268918	25054.474122
546.628019	25018.437433
546.987064	24719.340734
547.346053	24454.634787
547.704986	24555.442741
548.063863	24712.845208
548.422684	24741.685649
548.781449	24238.689400
549.140158	24668.110008
549.498811	24241.646037
549.857408	23995.746114
550.215949	24399.683690
550.574434	24094.434262
550.932864	24285.546925
551.291237	24473.849145
551.649555	24315.604805
552.007817	24375.380287
552.366022	24228.912082
552.724173	24242.346757
553.082267	24218.771802
553.440305	24692.990623
553.798288	23950.925215
554.156215	24443.531646
554.514086	24569.757097
554.871902	23954.295227
555.229661	24232.224121
555.587365	24079.913219
555.945014	23971.853566
556.302606	24193.744993
556.660143	24183.697974
557.017625	24417.504168
557.375050	23920.368261
557.732421	24323.058151
558.089735	24139.630727
558.446994	24192.366238
558.804197	24223.323963
559.161345	24133.455314
559.518437	23913.736623
559.875474	24085.715587
560.232455	24267.008082
560.589381	24098.252937
560.946251	24083.598302
561.303065	24408.969495
561.659825	24487.835826
562.016528	24088.316822
562.373177	23833.292411
562.729770	24190.090157
563.086307	24042.575913
563.442789	24204.913670
563.799216	24070.113216
564.155587	24048.083373
564.511904	24040.675398
564.868164	23999.781558
565.224370	23939.950623
565.580520	23884.994485
565.936615	24001.099820
566.292654	23701.269633
566.648638	23952.407315
567.004567	23781.245018
567.360441	23722.722263
567.716260	23452.561787
568.072023	23774.280664
568.427732	23557.216141
568.783385	23319.797960
569.138982	23560.076996
569.494525	23598.656946
569.850013	23357.919165
570.205445	23452.629843
570.560823	23270.626545
570.916145	23035.595350
571.271412	23221.150141
571.626625	22975.005722
571.981782	23080.446496
572.336884	22880.645404
572.691931	23025.291231
573.046923	22759.619903
573.401860	22648.976658
573.756743	22669.037930
574.111570	22563.970202
574.466342	22481.854847
574.821059	22562.873751
575.175722	22273.100666
575.530330	22240.517168
575.884882	22259.025764
576.239380	22179.277231
576.593823	22056.424312
576.948211	22041.099204
577.302544	21894.746946
577.656823	21752.851068
578.011047	21857.354188
578.365216	21729.704611
578.719330	21599.088314
579.073389	21488.412302
579.427394	21647.090181
579.781344	21394.828322
580.135239	21285.621807
580.489080	21240.392574
580.842866	21013.008809
581.196597	21232.546018
581.550273	21191.488341
581.903895	21077.409550
582.257463	21383.876416
582.610975	20918.093965
582.964434	21246.084037
583.317837	20914.086248
583.671186	21022.299656
584.024481	20990.011066
584.377721	20762.859194
584.730906	20845.592090
585.084037	20834.022642
585.437113	20763.988412
585.790135	20954.412958
586.143103	20406.847868
586.496016	20438.554205
586.848874	20673.545071
587.201679	20592.271589
587.554428	20286.044178
587.907124	20618.415013
588.259765	20385.037316
588.612352	20460.473142
588.964884	20016.881851
589.317362	20196.853563
589.669786	20255.467059
590.022155	20257.221381
590.374470	20488.718727
590.726731	20254.622666
591.078937	20049.183044
591.431090	20126.055599
591.783188	19891.543643
592.135232	19856.280771
592.487222	19948.980029
592.839157	19962.334045
593.191038	19843.766107
593.542866	19744.341950
593.894639	19441.408933
594.246358	19663.638118
594.598022	19546.837104
594.949633	19315.901847
595.301190	19290.408732
595.652692	19465.881215
596.004141	19681.322486
596.355535	19006.127984
596.706876	19032.747797
597.058162	18924.907434
597.409395	19167.911214
597.760573	19203.915134
598.111698	18988.849429
598.462768	18935.393034
598.813785	18904.226100
599.164748	18706.691007
599.515657	18760.215458
599.866511	18564.041477
600.217312	18916.516433
600.568060	18429.603986
600.918753	18733.308299
601.269392	18626.733266
601.619978	18426.065096
601.970510	18616.010732
602.320988	18569.521211
602.671412	18773.088044
603.021783	18692.122072
603.372100	18402.379235
603.722363	18553.520589
604.072572	18505.400255
604.422728	18650.840064
604.772830	18397.922855
605.122878	18364.426908
605.472872	18338.467486
605.822813	18327.800405
606.172701	18314.143919
606.522534	18482.929311
606.872314	18516.052213
607.222041	18359.940281
607.571714	18576.029341
607.921333	18398.787412
608.270899	18474.974371
608.620411	18638.068300
608.969870	18425.772709
609.319276	18422.594262
609.668627	18438.846942
610.017926	18576.798117
610.367171	18694.075520
610.716362	18746.669878
611.065500	18564.475016
611.414585	18710.368529
611.763616	18696.270942
612.112594	18631.320716
612.461518	18603.634699
612.810389	18791.432803
613.159207	18634.340367
613.507971	18557.072082
613.856682	18812.182192
614.205340	18742.674763
614.553945	18889.647083
614.902496	18642.093662
615.250994	18850.270630
615.599439	18798.692065
615.947830	18782.215053
616.296169	18867.513897
616.644454	18819.368357
616.992686	18791.664696
617.340864	19010.952368
617.688990	18756.295961
618.037063	18934.528476
618.385082	18788.435837
618.733048	19067.743487
619.080961	18956.744841
619.428821	18972.989959
619.776628	18857.035859
620.124382	18786.114386
620.472083	18841.398200
620.819731	18846.913222
621.167326	18544.280154
621.514868	18584.445547
621.862357	18359.499180
622.209793	18352.335700
622.557176	18196.725363
622.904506	18017.202313
623.251783	17965.011247
623.599007	17694.548302
623.946179	17650.307136
624.293297	17570.142708
624.640363	17302.764949
624.987376	17335.870206
625.334336	17129.878578
625.681243	16981.078840
626.028097	16996.376221
626.374899	16916.635250
626.721647	16777.958148
627.068343	16618.418232
627.414987	16552.520269
627.761577	16518.225299
628.108115	16546.289403
628.454600	16278.974658
628.801032	16379.510390
629.147412	16313.425904
629.493739	16321.058211
629.840014	16135.924356
630.186236	16241.695326
630.532405	15993.789024
630.878521	16199.367278
631.224585	16102.441013
631.570597	15917.443269
631.916556	15945.330932
632.262462	15924.213539
632.608316	15830.372460
632.954117	15789.150945
633.299866	15769.903820
633.645562	15690.266192
633.991206	15448.079079
634.336797	15330.141284
634.682336	15298.492921
635.027823	15164.141129
635.373257	15035.853846
635.718639	14953.801506
636.063968	14895.513164
636.409245	14645.406399
636.754470	14682.015258
637.099642	14520.695814
637.444762	14294.900013
637.789829	14330.649355
638.134845	14175.555737
638.479808	14202.840982
638.824719	14127.644611
639.169577	13992.597140
639.514383	14030.672975
639.859137	13856.491027
640.203839	13949.694400
640.548489	13802.069251
640.893086	13785.574596
641.237632	13656.009380
641.582125	13819.856963
641.926566	13633.087254
642.270955	13650.421261
642.615292	13602.636164
642.959576	13609.794602
643.303809	13638.708140
643.647990	13572.167430
643.992118	13639.300476
644.336195	13400.120411
644.680219	13628.167087
645.024192	13536.097974
645.368112	13775.817442
645.711981	13825.588754
646.055797	14010.221014
646.399562	13989.098579
646.743274	14250.298404
647.086935	14524.534653
647.430544	14489.158356
647.774101	14540.142065
648.117606	14665.576055
648.461059	14639.246109
648.804460	14630.197238
649.147810	14357.758160
649.491108	14268.837247
649.834354	14274.649698
650.177548	13961.538591
650.520690	13762.927212
650.863781	13690.879041
651.206820	13737.058531
651.549807	13567.025453
651.892742	13359.163557
652.235626	13296.035708
652.578458	13295.710553
652.921238	13002.290193
653.263967	13195.618443
653.606644	13024.846836
653.949269	13010.814785
654.291843	12801.932054
654.634365	12966.024133
654.976836	12814.232470
655.319255	12813.496461
655.661622	12775.050102
656.003938	12698.991693
656.346203	12612.412396
656.688416	12704.000079
657.030577	12659.365703
657.372687	12561.335425
657.714746	12558.719067
658.056753	12738.899987
658.398708	12549.529043
658.740612	12552.843602
659.082465	12657.220692
659.424266	12633.612969
659.766016	12655.395794
660.107715	12570.207856
660.449362	12651.849343
660.790958	12596.227772
661.132503	12531.484233
661.473996	12613.395421
661.815438	12623.026546
662.156829	12654.619457
662.498168	12618.403808
662.839456	12622.535033
663.180693	12635.057259
663.521879	12733.621899
663.863013	12693.219572
664.204097	12676.036799
664.545129	12805.304586
664.886110	12781.492696
665.227040	12872.233465
665.567918	12873.236655
665.908746	12902.177919
666.249522	12884.359961
666.590248	12940.110081
666.930922	13053.757854
667.271545	13025.756765
667.612118	13112.981329
667.952639	13010.469466
668.293109	13035.224052
668.633528	12989.725117
668.973896	12963.478350
669.314213	13024.930015
669.654480	12764.771189
669.994695	12855.973224
670.334859	12877.035164
670.674973	12819.082060
671.015035	12841.237931
671.355047	12787.826906
671.695008	12769.610697
672.034918	12781.636369
672.374777	12822.242863
672.714585	12732.285993
673.054342	12776.247376
673.394049	12727.058317
673.733705	12819.344200
674.073310	12720.804766
674.412864	12732.822876
674.752368	12586.735279
675.091820	12640.274853
675.431223	12607.875358
675.770574	12470.272022
676.109875	12391.624981
676.449125	12347.295595
676.788324	12302.688945
677.127473	12126.714867
677.466571	12119.188424
677.805619	12008.570386
678.144616	11944.895571
678.483562	11914.636045
678.822458	11783.923967
679.161303	11763.439239
679.500098	11746.800910
679.838842	11707.923532
680.177535	11738.064591
680.516179	11796.965432
680.854771	11743.299829
681.193314	11958.360493
681.531805	12123.717901
681.870247	12554.522306
682.208638	12967.183598
682.546978	13276.027368
682.885268	13303.058035
683.223508	12999.751973
683.561697	12855.345600
683.899836	12757.801794
684.237925	12551.056513
684.575963	12461.180301
684.913951	12380.993188
685.251889	12333.805467
685.589776	12433.890015
685.927614	12353.637366
686.265401	12328.139210
686.603137	12381.124258
686.940824	12529.631609
687.278460	12657.984427
687.616046	12690.315867
687.953582	12851.721010
688.291068	12792.147175
688.628504	13023.067309
688.965889	13033.147096
689.303224	12981.203047
689.640510	12863.918082
689.977745	12550.625494
690.314930	12331.529386
690.652065	12250.081984
690.989150	11947.380860
691.326185	11719.039276
691.663170	11516.059737
692.000105	11276.877152
692.336990	11163.793989
692.673825	10902.279092
693.010610	10790.718357
693.347345	10581.218086
693.684030	10385.759948
694.020665	10328.593263
694.357251	10133.361978
694.693786	10059.488909
695.030272	9904.115507
695.366707	9784.995562
695.703093	9727.473476
696.039429	9719.561385
696.375716	9623.996232
696.711952	9500.470318
697.048139	9551.448987
697.384276	9500.898816
697.720363	9524.872023
698.056400	9460.909863
698.392388	9401.585565
698.728326	9362.587199
699.064214	9304.003950
699.400053	9352.409109
699.735842	9162.334924
700.071581	9124.669943
700.407270	9051.593377
700.742910	8972.280903
701.078501	8871.651911
701.414042	8739.805573
701.749533	8688.887399
702.084974	8540.246457
702.420366	8665.529212
702.755709	8543.276191
703.091002	8409.219307
703.426246	8435.269469
703.761440	8390.279692
704.096584	8346.245213
704.431679	8278.905480
704.766725	8266.915096
705.101721	8221.302736
705.436668	8269.014736
705.771565	8165.154364
706.106413	8237.411743
706.441212	8280.069987
706.775961	8237.326043
707.110661	8285.300184
707.445311	8418.691635
707.779913	8312.787075
708.114465	8441.762476
708.448967	8479.515677
708.783421	8638.065006
709.117825	8806.063979
709.452180	8838.186211
709.786485	8933.327908
710.120742	9223.302639
710.454949	9225.883709
710.789107	9327.440274
711.123216	9557.309328
711.457275	9724.778979
711.791286	9870.430517
712.125247	9876.147185
712.459159	9860.993477
712.793023	10087.096788
713.126837	9663.100462
713.460602	9821.773300
713.794318	9651.304162
714.127985	9677.450106
714.461602	9338.704733
714.795171	9295.565058
715.128691	9042.216831
715.462162	8795.533008
715.795584	8738.978824
716.128957	8579.295235
716.462281	8406.923061
716.795556	8459.371226
717.128782	8249.729802
717.461960	7993.019125
717.795088	8062.808859
718.128167	7969.610527
718.461198	7810.173954
718.794180	7752.193123
719.127113	7744.903615
719.459997	7574.913387
719.792833	7350.912236
720.125619	7427.079029
720.458357	7275.597397
720.791046	7264.983248
721.123686	7256.015035
721.456278	7090.123265
721.788821	7115.019003
722.121315	7012.139136
722.453761	7083.282419
722.786158	7022.995261
723.118506	7032.160078
723.450805	6995.702454
723.783056	7055.913995
724.115259	6979.054043
724.447412	6972.571119
724.779518	7029.107660
725.111574	7025.972062
725.443582	7096.344049
725.775542	7077.969043
726.107453	7281.729961
726.439315	7185.703542
726.771129	7259.039728
727.102895	7434.698733
727.434612	7537.951647
727.766281	7584.388235
728.097901	7653.789800
728.429473	7656.718711
728.760996	7645.797051
729.092471	7614.975436
729.423897	7554.627783
729.755276	7551.441774
730.086606	7472.237686
730.417887	7578.469921
730.749120	7798.866646
731.080305	7976.743760
731.411442	8089.602591
731.742530	8075.774706
732.073570	8189.452726
732.404562	8275.008668
732.735506	8129.589024
733.066401	8255.965709
733.397249	8183.738578
733.728048	7937.523583
734.058798	7609.654498
734.389501	7375.676904
734.720156	7201.230296
735.050762	6983.704507
735.381320	6893.462812
735.711831	6833.901580
736.042293	6724.140537
736.372707	6742.308856
736.703073	6605.285253
737.033391	6646.282437
737.363661	6654.718808
737.693883	6690.057296
738.024056	6775.683815
738.354182	6813.328631
738.684260	6848.896492
739.014290	6972.271171
739.344272	7078.664722
739.674207	7113.836853
740.004093	7183.311515
740.333931	7195.788370
740.663722	7202.356994
740.993464	7277.669312
741.323159	7258.656600
741.652806	7014.342120
741.982405	7043.956378
742.311956	7084.953562
742.641460	6906.206849
742.970915	6715.855401
743.300323	6708.787703
743.629683	6666.003430
743.958996	6529.972935
744.288260	6440.726868
744.617477	6383.139247
744.946647	6382.141098
745.275768	6220.632612
745.604842	6176.688873
745.933869	6157.524927
746.262847	6117.326766
746.591778	6104.963337
746.920662	6065.327264
747.249498	6058.430966
747.578286	6107.970385
747.907027	6176.409089
748.235720	6241.918884
748.564365	6211.155242
748.892963	6256.041676
749.221514	6395.958901
749.550017	6206.411517
749.878473	6097.101657
750.206881	6159.375031
750.535242	6109.303770
750.863555	6036.925404
751.191821	6045.301281
751.520039	6041.527977
751.848210	5944.861332
752.176334	5976.096321
752.504411	6024.544330
752.832440	5943.863183
753.160421	5877.408173
753.488356	5929.306851
753.816243	5955.800635
754.144082	5810.983409
754.471875	5784.466940
754.799620	5823.951777
755.127318	5836.703376
755.454969	5793.611593
755.782572	5759.278814
756.110129	5803.131812
756.437638	5780.134068
756.765100	5723.831941
757.092515	5730.171192
757.419882	5785.608761
757.747203	5754.703967
758.074477	5821.761396
758.401703	5803.913191
758.728882	5758.139514
759.056014	5825.080996
759.383099	5944.437875
759.710138	5953.456499
760.037129	5945.703204
760.364073	5946.376198
760.690970	6025.187077
761.017820	6004.649416
761.344623	5965.033509
761.671379	6075.858235
761.998088	6198.968253
762.324751	6459.663962
762.651366	7089.959428
762.977935	8452.134650
763.304456	10103.215878
763.630931	10972.517488
763.957359	10516.862716
764.283740	9560.064318
764.610074	8689.860342
764.936362	7697.166408
765.262602	7106.340657
765.588796	6572.192598
765.914943	6238.969809
766.241044	6067.767183
766.567097	5856.426890
766.893104	5600.709320
767.219064	5427.379327
767.544978	5364.349781
767.870845	5280.336432
768.196665	5176.670144
768.522438	5107.717242
768.848165	5069.154935
769.173846	5001.749667
769.499479	4950.934836
769.825066	4909.022683
770.150607	4847.807952
770.476101	4825.168130
770.801548	4815.090864
771.126949	4733.459459
771.452303	4678.258825
771.777611	4642.164163
772.102872	4662.086803
772.428087	4623.103561
772.753256	4578.844750
773.078378	4532.261968
773.403453	4465.297801
773.728482	4447.958752
774.053465	4402.701794
774.378401	4396.627203
774.703291	4392.201070
775.028135	4314.438752
775.352932	4265.549642
775.677683	4257.433384
776.002388	4273.862504
776.327046	4276.443575
776.651658	4208.887073
776.976224	4148.577228
777.300743	4153.935975
777.625216	4174.997916
777.949643	4168.247811
778.274024	4121.249133
778.598359	4083.737908
778.922647	4109.225982
779.246889	4098.120320
779.571086	4093.739557
779.895236	4073.365734
780.219339	4063.996749
780.543397	4060.223446
780.867409	4112.868215
781.191374	4121.297024
781.515294	4060.714958
781.839167	4054.037950
782.162995	4077.998554
782.486776	4065.093200
782.810511	4072.695260
783.134201	4065.539342
783.457844	4017.920603
783.781441	3963.289619
784.104993	3970.450578
784.428498	3992.450173
784.751958	3983.708812
785.075372	3960.466573
785.398739	3924.755039
785.722061	3938.114097
786.045337	3985.697548
786.368568	4007.777802
786.691752	3925.133125
787.014891	3980.991631
787.337983	4110.501393
787.661030	4278.112197
787.984031	4435.050878
788.306987	4600.630097
788.629897	4685.971790
788.952760	4638.542094
789.275579	4571.363678
789.598351	4505.095190
789.921078	4355.713199
790.243759	4154.498064
790.566395	4142.595899
790.888984	4135.563490
791.211529	4027.168600
791.534027	3972.633397
791.856480	3953.960964
792.178888	3892.942837
792.501249	3848.595807
792.823566	3860.830688
793.145836	3883.523442
793.468062	3832.431347
793.790241	3788.164975
794.112375	3819.891477
794.434464	3887.047208
794.756507	3906.100249
795.078505	3886.283473
795.400457	3922.000048
795.722364	4070.751895
796.044226	4172.527750
796.366042	4247.431735
796.687812	4219.239082
797.009538	4224.870051
797.331218	4184.281201
797.652852	4160.479393
797.974442	4138.119355
798.295986	4134.618273
798.617484	4047.406312
798.938938	3969.681802
799.260346	4013.766692
799.581709	4003.790249
799.903026	3926.625307
800.224299	3893.799834
800.545526	3887.044687
800.866708	3845.858461
801.187845	3793.183444
801.508936	3825.650995
801.829983	3812.410405
802.150984	3738.030700
802.471940	3732.538363
802.792851	3737.105649
803.113717	3738.628077
803.434538	3742.492122
803.755314	3678.887883
804.076045	3660.543125
804.396731	3682.663708
804.717372	3706.014332
805.037967	3685.816949
805.358518	3678.960980
805.679024	3708.197152
805.999485	3722.879513
806.319901	3724.883371
806.640272	3739.301071
806.960598	3750.653750
807.280879	3728.802868
807.601115	3741.844333
807.921306	3757.300511
808.241453	3798.307777
808.561554	3771.330042
808.881611	3704.093653
809.201623	3744.838779
809.521590	3751.815736
809.841513	3724.061663
810.161390	3757.068618
810.481223	3728.515522
810.801011	3677.851926
811.120755	3674.928057
811.440453	3707.556925
811.760107	3707.067933
812.079716	3662.617559
812.399281	3634.553456
812.718801	3659.025737
813.038276	3626.711941
813.357707	3628.493989
813.677093	3644.502173
813.996434	3588.734409
814.315731	3604.402315
814.634983	3608.047069
814.954191	3623.397382
815.273354	3646.596772
815.592473	3642.258860
815.911547	3652.293276
816.230577	3698.586192
816.549562	3749.549737
816.868502	3788.749749
817.187399	3811.949139
817.506250	3809.852019
817.825058	3789.216056
818.143821	3884.214080
818.462539	3982.589676
818.781213	4027.617262
819.099843	4090.195626
819.418429	4355.186398
819.736970	4597.819653
820.055466	4852.859188
820.373919	5223.628492
820.692327	5637.134177
821.010691	6117.044462
821.329011	7588.075839
821.647286	10457.372059
821.965517	15182.952195
822.283704	19191.486170
822.601847	21232.178014
822.919945	19311.445467
823.237999	16662.213256
823.556010	14142.190860
823.873976	11988.995585
824.191897	9881.117763
824.509775	8535.152371
824.827609	7406.662356
825.145398	6877.011007
825.463144	6757.437358
825.780845	6867.498350
826.098502	7092.721980
826.416116	8024.075153
826.733685	9393.476869
827.051210	10489.544703
827.368692	10446.291603
827.686129	9129.156570
828.003522	7615.025848
828.320872	6591.979127
828.638177	5877.720724
828.955439	5306.452129
829.272656	4803.710459
829.589830	4534.769942
829.906960	4352.612889
830.224046	4165.485258
830.541088	4040.789797
830.858086	3989.637209
831.175041	3915.123914
831.491952	3902.135382
831.808819	3915.247423
832.125642	3991.598218
832.442421	4150.843227
832.759157	4439.383750
833.075849	5010.554042
833.392497	5906.656947
833.709101	6695.390837
834.025662	7009.464804
834.342179	6602.184943
834.658653	5921.598927
834.975083	5260.970839
835.291469	4679.831665
835.607811	4277.960963
835.924110	4131.666678
836.240366	3927.754525
836.556578	3723.615521
836.872746	3615.775158
837.188871	3572.484249
837.504952	3504.360617
837.820990	3421.534459
838.136984	3378.992162
838.452935	3402.917478
838.768842	3398.168711
839.084706	3423.518153
839.400526	3594.430912
839.716303	3953.240079
840.032037	4501.611753
840.347727	4739.092949
840.663373	4434.481228
840.978977	4041.475394
841.294537	3731.351172
841.610054	3506.062006
841.925527	3401.493352
842.240957	3330.670182
842.556344	3275.202366
842.871687	3214.466544
843.186987	3163.376971
843.502244	3126.095117
843.817458	3090.650765
844.132629	3064.608164
844.447756	3072.542940
844.762840	3053.109292
845.077881	3021.720547
845.392879	3006.029956
845.707833	3002.733042
846.022745	2999.549553
846.337613	3001.457630
846.652438	2988.199395
846.967221	2983.685042
847.281960	2970.820017
847.596656	2968.879173
847.911309	2969.390850
848.225919	2961.476238
848.540485	2957.090435
848.855009	2956.931638
849.169490	2944.129628
849.483928	2935.922630
849.798323	2937.823145
850.112675	2933.817948
850.426984	2945.863785
850.741251	2940.121911
851.055474	2929.311156
851.369654	2923.102975
851.683792	2931.430962
851.997887	2939.615275
852.311938	2941.457817
852.625947	2930.130344
852.939914	2935.237033
853.253837	2936.199893
853.567718	2924.882503
853.881555	2921.832605
854.195350	2940.053855
854.509103	2933.369285
854.822812	2923.014755
855.136479	2920.660536
855.450103	2924.935435
855.763685	2917.524939
856.077224	2914.820360
856.390720	2929.580858
856.704173	2937.896241
857.017584	2928.580189
857.330953	2926.984664
857.644278	2938.065120
857.957561	2944.805143
858.270802	2950.683128
858.584000	2948.787654
858.897155	2932.761826
859.210268	2933.946497
859.523339	2931.965324
859.836367	2931.544388
860.149352	2925.835281
860.462295	2919.972419
860.775195	2928.673450
861.088054	2927.521547
861.400869	2911.062179
861.713642	2910.769793
862.026373	2926.949376
862.339062	2929.495158
862.651708	2931.894748
862.964312	2934.266611
863.276873	2929.326280
863.589392	2941.659463
863.901869	2952.928962
864.214303	2974.941160
864.526696	2989.492451
864.839045	2984.158910
865.151353	2987.836432
865.463619	2984.226966
865.775842	2986.112357
866.088023	3004.356293
866.400162	3009.735204
866.712258	2978.144814
867.024313	2971.412353
867.336325	2978.555668
867.648296	3002.276817
867.960224	2996.217350
868.272110	2978.265801
868.583954	2983.463231
868.895755	2997.669203
869.207515	2981.542551
869.519233	2991.140908
869.830909	3000.930829
870.142542	3006.758403
870.454134	3008.661438
870.765684	3013.188395
871.077191	3012.157479
871.388657	3023.162318
871.700081	3035.450130
872.011463	3044.151162
872.322803	3047.279198
872.634101	3045.071172
872.945357	3065.767629
873.256571	3090.338213
873.567744	3083.298242
873.878874	3077.594176
874.189963	3099.855912
874.501010	3101.242229
874.812015	3089.821495
875.122979	3090.290322
875.433900	3084.177923
875.744780	3093.504058
876.055618	3103.566201
876.366415	3098.852722
876.677169	3110.049125
876.987882	3103.621653
877.298554	3102.227774
877.609183	3126.006897
877.919771	3147.943478
878.230317	3175.037159
878.540822	3230.482290
878.851285	3267.900254
879.161707	3312.537151
879.472087	3428.148453
879.782425	3672.420083
880.092722	4127.900936
880.402977	4668.526877
880.713191	5329.215459
881.023363	6541.451642
881.333494	7850.339347
881.643583	8371.211528
881.953631	8055.584885
882.263637	7380.919704
882.573602	6764.278204
882.883526	6172.043450
883.193408	5599.355770
883.503248	5140.126820
883.813048	4833.150797
884.122806	4505.014532
884.432522	4185.349925
884.742197	3942.656176
885.051831	3747.634098
885.361424	3621.517032
885.670975	3547.401988
885.980485	3452.981177
886.289954	3374.681975
886.599382	3328.535253
886.908768	3294.099131
887.218113	3248.900146
887.527417	3187.919828
887.836680	3138.932416
888.145901	3132.615850
888.455082	3118.409878
888.764221	3066.995150
889.073319	3038.961294
889.382376	3035.707229
889.691392	3042.079247
890.000366	3040.395502
890.309300	3027.699356
890.618193	3038.038763
890.927044	3054.346895
891.235855	3056.207081
891.544625	3040.360214
891.853353	3055.264385
892.162041	3073.349525
892.470687	3115.067593
892.779293	3168.695388
893.087858	3214.653067
893.396381	3289.942700
893.704864	3420.664860
894.013306	3675.464940
894.321707	3984.948936
894.630068	4185.770862
894.938387	4171.186803
895.246665	4131.107110
895.554903	4001.002491
895.863100	3798.030513
896.171256	3626.220429
896.479371	3481.171309
896.787446	3355.530632
897.095480	3249.454673
897.403473	3186.586443
897.711425	3148.853406
898.019336	3139.711274
898.327207	3109.275308
898.635038	3071.000347
898.942827	3058.692370
899.250576	3047.294321
899.558284	3016.036647
899.865952	2992.675940
900.173579	2973.567446
900.481165	2965.269707
900.788711	2950.839404
901.096216	2928.524736
901.403681	2915.148035
901.711105	2923.496185
902.018489	2922.891247
902.325832	2921.646082
902.633135	2934.238884
902.940397	2968.352372
903.247619	3057.290929
903.554800	3264.966303
903.861941	3630.180255
904.169041	4077.451589
904.476101	4370.761043
904.783121	4299.421154
905.090100	4042.692833
905.397039	3758.036519
905.703938	3505.227695
906.010796	3319.932524
906.317614	3204.308619
906.624391	3109.179526
906.931129	3033.766385
907.237826	2971.208186
907.544483	2923.642379
907.851099	2894.000394
908.157675	2873.384596
908.464211	2850.253261
908.770707	2836.780777
909.077163	2822.400886
909.383578	2809.122487
909.689954	2795.874335
909.996289	2794.369550
910.302584	2796.018007
910.608839	2796.665796
910.915054	2791.975002
911.221229	2785.174486
911.527363	2786.802778
911.833458	2795.380302
912.139513	2802.465643
912.445527	2803.158802
912.751502	2809.787919
913.057436	2826.733758
913.363331	2836.500993
913.669186	2858.505630
913.975000	2895.122051
914.280775	2959.084211
914.586510	3033.161446
914.892205	3115.478447
915.197859	3249.089189
915.503475	3455.602577
915.809050	3680.317051
916.114585	3826.291222
916.420081	3835.897141
916.725536	3773.618726
917.030952	3650.685148
917.336328	3515.720857
917.641665	3380.814539
917.946961	3279.699075
918.252218	3204.850543
918.557435	3121.641258
918.862612	3062.511044
919.167750	3011.366018
919.472848	2973.277580
919.777906	2946.377983
920.082925	2916.821698
920.387904	2884.462531
920.692843	2869.218082
920.997743	2856.017821
921.302603	2844.430728
921.607423	2830.877586
921.912204	2817.921821
922.216946	2808.187353
922.521647	2798.150416
922.826310	2789.270423
923.130932	2784.345216
923.435516	2773.738628
923.740059	2766.799480
924.044564	2758.577358
924.349028	2753.173241
924.653454	2745.666963
924.957840	2740.388875
925.262186	2735.221692
925.566493	2730.450240
925.870761	2724.753736
926.174989	2721.419013
926.479178	2717.343240
926.783328	2711.326623
927.087438	2711.717312
927.391509	2708.899307
927.695541	2705.720860
927.999533	2702.814635
928.303486	2700.412525
928.607400	2697.380271
928.911275	2698.375899
929.215110	2699.245498
929.518906	2696.430013
929.822663	2698.547298
930.126381	2696.551001
930.430060	2696.576207
930.733699	2697.740713
931.037299	2699.313553
931.340861	2699.144675
931.644383	2701.745910
931.947866	2697.783563
932.251309	2697.841536
932.554714	2698.385981
932.858080	2693.901875
933.161407	2694.900023
933.464694	2690.773839
933.767943	2689.034641
934.071153	2691.799713
934.374323	2691.537573
934.677455	2691.401462
934.980548	2687.517253
935.283602	2686.483817
935.586617	2687.865093
935.889593	2688.661595
936.192530	2689.200999
936.495428	2689.773170
936.798287	2693.037317
937.101108	2695.429344
937.403890	2696.503110
937.706632	2705.718339
938.009336	2709.254709
938.312002	2720.935062
938.614628	2727.357492
938.917216	2735.534244
939.219765	2732.565004
939.522275	2733.903430
939.824747	2730.724983
940.127179	2733.404356
940.429573	2724.720969
940.731929	2724.446226
941.034246	2718.379197
941.336524	2716.619834
941.638763	2714.799978
941.940964	2714.043805
942.243126	2710.111705
942.545250	2709.771427
942.847335	2705.481405
943.149381	2703.069213
943.451389	2697.707946
943.753359	2694.917667
944.055290	2694.224508
944.357182	2692.850794
944.659036	2690.259641
944.960851	2694.010259
945.262628	2688.843077
945.564367	2691.179652
945.866067	2689.551359
946.167729	2691.257789
946.469352	2692.525640
946.770937	2693.929601
947.072484	2689.221163
947.373992	2691.398942
947.675462	2685.873837
947.976893	2683.244875
948.278286	2683.136491
948.579641	2682.932324
948.880958	2678.954853
949.182236	2680.741942
949.483476	2680.671366
949.784678	2682.881912
950.085841	2682.786130
950.386967	2686.458611
950.688054	2681.921572
950.989103	2683.706141
951.290114	2684.293435
951.591087	2688.112109
951.892021	2688.417099
952.192917	2692.628983
952.493776	2694.847091
952.794596	2695.318439
953.095378	2692.455063
953.396122	2692.387008
953.696828	2694.637883
953.997496	2692.583613
954.298126	2689.586647
954.598718	2686.014989
954.899272	2684.691687
955.199788	2680.459638
955.500266	2679.736232
955.800706	2676.721622
956.101108	2673.104594
956.401472	2672.678617
956.701798	2668.184428
957.002087	2668.433965
957.302337	2669.066630
957.602550	2665.880621
957.902724	2664.096052
958.202861	2664.169149
958.502960	2661.595640
958.803022	2661.555311
959.103045	2660.544560
959.403031	2660.549601
959.702979	2658.616318
960.002889	2658.326452
960.302762	2656.975423
960.602596	2659.921977
960.902393	2654.966523
961.202153	2658.475166
961.501875	2654.497696
961.801559	2655.889054
962.101205	2655.284116
962.400814	2656.950217
962.700385	2653.179434
962.999918	2651.626758
963.299414	2653.212201
963.598873	2653.499547
963.898293	2650.137097
964.197677	2654.853097
964.497022	2653.020637
964.796331	2653.555000
965.095601	2653.814619
965.394835	2656.430978
965.694030	2653.118940
965.993189	2654.880823
966.292309	2652.453508
966.591393	2650.820174
966.890439	2654.636327
967.189447	2652.206491
967.488419	2654.351502
967.787353	2652.093065
968.086249	2652.841677
968.385108	2655.100113
968.683930	2653.340751
968.982714	2650.757159
969.281462	2653.625576
969.580172	2653.827222
969.878844	2652.259423
970.177480	2653.953251
970.476078	2652.703045
970.774639	2654.648930
971.073162	2654.444763
971.371649	2653.683549
971.670098	2652.332520
971.968510	2650.439567
972.266885	2650.953764
972.565223	2654.855617
972.863524	2653.285298
973.161788	2654.227994
973.460014	2653.479382
973.758204	2653.708755
974.056356	2652.647592
974.354471	2653.161790
974.652550	2651.415030
974.950591	2652.713127
975.248595	2653.363436
975.546563	2652.551810
975.844493	2655.490803
976.142386	2651.215904
976.440243	2653.653302
976.738062	2652.292191
977.035845	2651.228507
977.333590	2649.741367
977.631299	2651.921666
977.928971	2646.562919
978.226606	2647.898825
978.524204	2648.392858
978.821765	2648.100471
979.119290	2651.659526
979.416777	2651.760349
979.714228	2651.755308
980.011642	2651.077273
980.309020	2650.361429
980.606360	2651.432674
980.903664	2651.324289
981.200931	2653.290339
981.498162	2650.532828
981.795356	2652.554331
982.092513	2654.023827
982.389633	2656.012562
982.686717	2659.727893
982.983764	2664.731238
983.280775	2666.455312
983.577749	2670.483194
983.874686	2670.052176
984.171587	2666.016732
984.468451	2662.009015
984.765279	2661.701504
985.062070	2658.709580
985.358824	2657.388797
985.655543	2655.624393
985.952224	2654.197747
986.248869	2656.078097
986.545478	2651.972077
986.842050	2650.731954
987.138586	2650.255565
987.435086	2652.740853
987.731549	2647.215749
988.027975	2648.695327
988.324366	2646.958650
988.620719	2649.416212
988.917037	2647.316572
989.213318	2647.311531
989.509563	2649.292704
989.805772	2648.070224
990.101944	2649.083496
990.398080	2648.569299
990.694180	2646.711633
990.990244	2648.481078
991.286271	2646.290697
991.582262	2648.186171
991.878217	2650.661377
992.174136	2646.043681
992.470019	2647.911428
992.765865	2644.090233
993.061676	2643.427322
993.357450	2645.640388
993.653188	2643.369348
993.948890	2647.798002
994.244556	2646.890594
994.540186	2650.636172
994.835780	2648.692807
995.131337	2649.088537
995.426859	2649.995945
995.722345	2649.050729
996.017795	2650.651295
996.313208	2651.669608
996.608586	2652.259423
996.903928	2652.844197
997.199234	2653.691111
997.494504	2650.752118
997.789738	2651.546100
998.084936	2650.595842
998.380099	2651.281439
998.675225	2648.223980
998.970316	2651.664567
999.265371	2648.826397
999.560390	2647.493012
999.855373	2647.177940
1000.150320	2647.941675
1000.445232	2646.666263
1000.740108	2646.736839
1001.034948	2645.731129
1001.329752	2645.700882
1001.624521	2646.535193
1001.919254	2646.595687
1002.213951	2646.394041
1002.508613	2646.817498
1002.803239	2644.105357
1003.097829	2647.838331
1003.392384	2644.155768
1003.686903	2644.533855
1003.981386	2646.434370
1004.275834	2644.556540
1004.570246	2646.288177
1004.864623	2645.547127
1005.158964	2646.136942
1005.453270	2644.710295
1005.747540	2645.496715
1006.041775	2646.575522
1006.335974	2648.274391
1006.630138	2646.915800
1006.924266	2647.830770
1007.218359	2645.282466
1007.512416	2642.746766
1007.806438	2641.153761
1008.100425	2644.806077
1008.394376	2641.451189
1008.688292	2647.485451
1008.982172	2644.927065
1009.276017	2645.854637
1009.569827	2644.969915
1009.863602	2645.930255
1010.157341	2646.711633
1010.451045	2645.595018
1010.744714	2646.119298
1011.038347	2646.862868
1011.331945	2643.349184
1011.625508	2645.640388
1011.919036	2642.487147
1012.212528	2645.325316
1012.505986	2646.404123
1012.799408	2644.140645
1013.092795	2645.121149
1013.386147	2644.387662
1013.679464	2643.366828
1013.972745	2643.621406
1014.265992	2644.324647
1014.559204	2644.395223
1014.852380	2643.863382
1015.145521	2642.809780
1015.438628	2643.046715
1015.731699	2644.662404
1016.024736	2642.794657
1016.317737	2646.489823
1016.610703	2642.739204
1016.903635	2644.871612
1017.196531	2644.309524
1017.489393	2646.504946
1017.782219	2642.262815
1018.075011	2645.022847
1018.367768	2644.957312
1018.660490	2642.048566
1018.953177	2642.048566
1019.245829	2642.048566
