Dividing Wavelength (nm)	Counts (n)	Blue Motor Position (mm): 46.100000	Red Motor Position (mm): 0.000000	
326.493990	2274.271187
326.888308	2274.271187
327.282561	2274.271187
327.676750	2230.861812
328.070874	2227.620350
328.464933	2229.147819
328.858929	2232.956411
329.252859	2240.142576
329.646726	2245.513925
330.040528	2258.653693
330.434265	2269.948398
330.827938	2289.359361
331.221547	2307.273101
331.615091	2325.385967
332.008571	2344.252485
332.401986	2361.609178
332.795338	2385.368136
333.188625	2404.343039
333.581847	2421.034299
333.975006	2440.455344
334.368100	2459.357151
334.761129	2478.274081
335.154095	2494.246977
335.546996	2522.076666
335.939833	2560.439847
336.332606	2575.404512
336.725315	2589.532346
337.117960	2604.590272
337.510540	2612.978752
337.903056	2622.125926
338.295508	2633.743265
338.687896	2641.128556
339.080220	2647.924031
339.472480	2654.280926
339.864676	2659.095228
340.256807	2665.978923
340.648875	2670.052176
341.040879	2673.326405
341.432818	2673.296158
341.824694	2677.765141
342.216506	2677.472754
342.608253	2679.426201
342.999937	2679.650533
343.391557	2679.678259
343.783113	2679.355625
344.174605	2677.813032
344.566033	2677.387055
344.957397	2676.565347
345.348697	2675.390758
345.739934	2674.125428
346.131106	2673.391940
346.522215	2671.682989
346.913260	2671.100736
347.304241	2666.185611
347.695159	2663.622184
348.086012	2664.789211
348.476802	2663.831392
348.867528	2659.241421
349.258191	2652.410658
349.648789	2654.066677
350.039324	2652.607263
350.429796	2656.183962
350.820203	2654.028868
351.210548	2652.468631
351.600828	2652.292191
351.991045	2648.937303
352.381198	2648.158445
352.771288	2647.929072
353.161314	2649.517036
353.551276	2648.110554
353.941175	2647.959319
354.331010	2648.264309
354.720782	2647.974442
355.110490	2647.757673
355.500135	2648.612148
355.889717	2649.285142
356.279235	2646.378917
356.668689	2648.450832
357.058080	2647.976963
357.447408	2649.101140
357.836672	2649.960657
358.225873	2647.805564
358.615010	2649.514515
359.004084	2651.296563
359.393095	2652.209012
359.782043	2651.987201
360.170927	2653.386121
360.559748	2652.917294
360.948505	2654.258241
361.337199	2657.779487
361.725830	2654.802685
362.114398	2655.349651
362.502903	2656.173879
362.891344	2657.426606
363.279722	2658.286123
363.668037	2656.204126
364.056289	2658.805362
364.444478	2659.642193
364.832603	2660.491628
365.220665	2659.899292
365.608665	2660.179076
365.996601	2663.639828
366.384474	2662.467760
366.772284	2660.978099
367.160031	2662.576145
367.547715	2667.037566
367.935336	2666.011691
368.322893	2663.092863
368.710388	2664.927843
369.097820	2664.000271
369.485189	2663.102945
369.872495	2669.364058
370.259738	2665.943635
370.646918	2668.481856
371.034035	2670.649552
371.421090	2669.187618
371.808081	2673.079389
372.195010	2671.922444
372.581875	2673.785150
372.968678	2677.074503
373.355418	2680.469720
373.742096	2685.735205
374.128710	2689.458097
374.515262	2697.594520
374.901751	2705.015098
375.288177	2713.237220
375.674540	2730.127606
376.060841	2742.138155
376.447079	2762.857297
376.833254	2784.025102
377.219367	2800.388688
377.605417	2829.403049
377.991404	2849.517253
378.377329	2885.687532
378.763191	2904.811149
379.148991	2943.025615
379.534727	2984.852069
379.920402	3018.927748
380.306013	3043.717622
380.691563	3104.158536
381.077049	3131.836992
381.462474	3176.115966
381.847835	3232.062692
382.233134	3278.068262
382.618371	3313.265598
383.003545	3378.848489
383.388657	3411.452151
383.773706	3478.950681
384.158693	3514.301772
384.543618	3550.857699
384.928480	3613.620065
385.313280	3673.798839
385.698017	3701.724310
386.082692	3794.403403
386.467305	3802.318015
386.851856	3847.748893
387.236344	3928.755194
387.620770	3957.588074
388.005133	4013.812063
388.389435	4063.830391
388.773674	4073.358172
389.157851	4154.341788
389.541965	4220.985842
389.926018	4189.987787
390.310008	4294.513591
390.693936	4348.990820
391.077802	4383.192528
391.461606	4382.141448
391.845348	4451.117035
392.229027	4512.561139
392.612645	4511.603320
392.996200	4611.171149
393.379694	4674.122558
393.763125	4776.825985
394.146494	4806.977127
394.529801	4861.948389
394.913047	4946.440648
395.296230	4898.441301
395.679351	5005.729658
396.062410	5057.000713
396.445408	5026.627761
396.828343	5086.254529
397.211217	5146.115710
397.594028	5026.703379
397.976778	5141.470287
398.359466	5196.786868
398.742092	5214.264549
399.124656	5128.391013
399.507158	5252.521865
399.889598	5315.511083
400.271977	5435.959371
400.654294	5435.233445
401.036549	5477.682481
401.418742	5399.773969
401.800874	5601.364670
402.182944	5661.808105
402.564952	5767.742912
402.946898	5829.139124
403.328783	5668.207850
403.710606	5685.879614
404.092367	6004.399879
404.474067	6029.923241
404.855705	5925.422642
405.237282	5866.413416
405.618797	6118.445903
406.000250	6093.308189
406.381642	6303.675539
406.762972	6324.190514
407.144240	6375.612804
407.525447	6358.687130
407.906593	6379.544904
408.287677	6544.768722
408.668700	6456.455268
409.049661	6568.114305
409.430560	6595.389468
409.811399	6463.086906
410.192176	6725.867132
410.572891	6742.797848
410.953545	6934.449914
411.334138	6664.274315
411.714669	6837.475758
412.095139	6632.026053
412.475547	6879.213991
412.855894	6948.572706
413.236180	7127.321939
413.616405	6799.432690
413.996568	7013.575865
414.376670	7065.948412
414.756711	6954.496062
415.136691	7055.508182
415.516609	7256.251970
415.896466	7241.226811
416.276262	7449.118954
416.655997	7436.226203
417.035670	7603.582428
417.415283	7952.405069
417.794834	8015.366560
418.174324	7878.489151
418.553753	7798.251625
418.933121	8092.150895
419.312428	8198.720887
419.691674	7970.517935
420.070859	8453.062222
420.449983	8136.855847
420.829045	8501.618616
421.208047	8268.319057
421.586988	8581.886388
421.965867	8598.146630
422.344686	8692.776649
422.723444	8760.529757
423.102141	8100.708253
423.480777	8867.878607
423.859352	8395.068788
424.237866	9008.748610
424.616319	8875.352118
424.994712	9302.567221
425.373044	8844.757355
425.751314	9321.746291
426.129524	9203.959731
426.507673	9296.938773
426.885762	9447.560888
427.263789	9362.020069
427.641756	9311.558119
428.019662	9388.992763
428.397508	9664.290174
428.775292	9324.944903
429.153016	9703.510351
429.530679	9543.725939
429.908282	9555.187002
430.285824	9279.690465
430.663305	9970.633532
431.040726	9415.942771
431.418086	9399.622036
431.795385	9730.326769
432.172624	9830.973406
432.549802	9735.327594
432.926920	9812.709305
433.303977	9681.278863
433.680974	9881.742866
434.057910	9982.442435
434.434786	10059.020082
434.811601	9875.348162
435.188355	10436.980592
435.565050	10190.632006
435.941683	10098.726730
436.318257	10588.822666
436.694770	10760.390776
437.071222	10808.276696
437.447614	10633.336055
437.823946	10563.400127
438.200218	10649.752572
438.576429	10505.154636
438.952580	10750.182439
439.328670	10762.477813
439.704700	10565.172093
440.080670	10553.196832
440.456580	11083.639643
440.832429	10869.166273
441.208218	10467.492175
441.583947	10764.206929
441.959616	10946.689137
442.335224	10759.780796
442.710773	10862.489264
443.086261	11096.711354
443.461689	10364.569458
443.837057	11051.577904
444.212365	11287.627412
444.587612	10921.551423
444.962800	11138.578137
445.337927	10877.249763
445.712995	10546.698785
446.088002	11585.284862
446.462949	11280.947883
446.837837	11252.939233
447.212664	11177.510968
447.587431	11768.876123
447.962139	12513.033610
448.336786	14811.729187
448.711374	15301.449557
449.085901	13122.811579
449.460369	12762.820262
449.834776	12208.036240
450.209124	13147.314107
450.583412	13566.483529
450.957640	14490.529550
451.331808	13541.862534
451.705917	12607.129267
452.079965	11851.767816
452.453954	12768.115994
452.827883	12422.391143
453.201752	12710.034340
453.575562	12262.785692
453.949311	12670.967919
454.323001	12650.503355
454.696632	12893.363462
455.070202	13174.027182
455.443713	13365.712015
455.817164	13867.276576
456.190556	13823.647910
456.563888	14193.303119
456.937160	14328.829499
457.310373	13691.380636
457.683526	13801.799549
458.056619	13324.031755
458.429653	13532.238971
458.802628	12893.418914
459.175542	13305.273622
459.548398	14258.538170
459.921194	14618.426143
460.293930	14689.876937
460.666607	15531.946235
461.039224	16596.068277
461.411782	17317.633832
461.784280	17099.271212
462.156719	17214.262452
462.529099	16877.899023
462.901419	15838.196331
463.273680	15600.034579
463.645882	15504.512275
464.018024	15221.600201
464.390106	15454.657784
464.762130	16164.026268
465.134094	16964.586705
465.505999	19030.282673
465.877845	22299.012197
466.249631	25105.339364
466.621358	24714.924684
466.993026	23291.446510
467.364634	22707.176780
467.736184	21226.005121
468.107674	20438.546643
468.479105	20577.596790
468.850477	20023.636997
469.221790	19634.989241
469.593043	18940.068704
469.964238	18351.876955
470.335373	17996.538624
470.706449	18507.073918
471.077467	18102.012165
471.448425	19978.097733
471.819324	24119.173725
472.190164	25952.260772
472.560945	22257.273963
472.931667	19972.406271
473.302330	19362.963538
473.672934	18994.356890
474.043479	19215.464418
474.413965	19026.131282
474.784393	18623.625395
475.154761	19388.819616
475.525070	19308.088058
475.895321	19032.929278
476.265513	19637.078799
476.635645	20227.962524
477.005719	19975.060438
477.375734	20151.520988
477.745691	20646.398458
478.115588	21186.066580
478.485427	21753.319896
478.855207	22865.448846
479.224928	24645.399610
479.594591	26882.514973
479.964194	26777.041432
480.333739	27025.724072
480.703226	26606.453827
481.072653	26314.429867
481.442022	26941.625023
481.811333	27869.782104
482.180584	27739.717814
482.549777	26793.740254
482.918912	26473.105225
483.287988	26617.715765
483.657005	26223.971402
484.025964	26022.433633
484.394864	25889.654682
484.763706	25540.113677
485.132489	25016.877196
485.501213	25182.189234
485.869879	25096.794608
486.238487	24948.625014
486.607036	25080.287350
486.975527	24820.403266
487.343959	25120.485511
487.712333	25026.518403
488.080648	24690.981723
488.448905	25198.986358
488.817104	24970.722912
489.185244	25672.786764
489.553326	25616.620749
489.921350	26666.025142
490.289315	29033.716472
490.657222	30740.348695
491.025070	31236.662894
491.392861	30978.855766
491.760593	30133.938216
492.128267	29203.618480
492.495883	28152.260639
492.863440	27276.070292
493.230939	26415.255464
493.598380	26245.436635
493.965763	25864.552257
494.333088	25364.706729
494.700354	25339.773182
495.067563	25179.918194
495.434713	24936.352325
495.801805	25114.605005
496.168839	24885.136723
496.535815	24759.622074
496.902733	24964.408867
497.269593	24677.809188
497.636395	24832.824669
498.003139	24748.362657
498.369825	24497.696323
498.736453	24714.085332
499.103023	24595.109060
499.469535	24593.662248
499.835989	24815.019314
500.202385	24834.757952
500.568723	24380.053437
500.935003	24554.071547
501.301226	24258.339818
501.667390	25092.018115
502.033497	25283.448370
502.399546	25024.794328
502.765537	24555.974582
503.131470	24940.135711
503.497345	25094.952066
503.863163	24338.191695
504.228923	24862.824576
504.594625	25125.879545
504.960269	24675.339023
505.325856	25166.579301
505.691385	24548.619539
506.056856	25165.805484
506.422270	25149.457022
506.787625	24670.812067
507.152924	25113.024603
507.518164	25163.844475
507.883347	24957.638597
508.248472	24631.806139
508.613540	25414.236066
508.978550	25210.964140
509.343503	25223.249432
509.708398	25427.043117
510.073236	25591.001605
510.438016	25812.469576
510.802738	25462.759692
511.167403	25715.802930
511.532010	25467.132893
511.896561	26208.595883
512.261053	26183.490937
512.625488	26015.519691
512.989866	25904.851240
513.354186	25728.254580
513.718449	25863.455806
514.082655	26242.727015
514.446803	25955.290505
514.810894	26451.387935
515.174927	25942.044873
515.538904	25976.289432
515.902822	26479.628478
516.266684	26233.947846
516.630488	26134.165767
516.994235	26069.084471
517.357925	26420.616732
517.721558	26576.632881
518.085133	26691.089759
518.448651	26573.383858
518.812112	26349.808685
519.175516	26570.820431
519.538863	26719.206794
519.902152	26504.877097
520.265385	26760.445953
520.628560	26573.978714
520.991678	26546.685907
521.354739	26596.830264
521.717743	26700.589813
522.080690	26476.949105
522.443580	26803.106718
522.806413	26772.295186
523.169189	26891.241211
523.531908	26934.564887
523.894569	26569.744145
524.257174	26665.521027
524.619722	26794.133464
524.982213	26505.114032
525.344647	26532.147219
525.707025	26711.708078
526.069345	26650.107699
526.431608	26624.748174
526.793815	26791.950644
527.155964	26281.165813
527.518057	26468.847971
527.880093	26376.221810
528.242072	26598.340090
528.603995	26325.033934
528.965860	26101.262156
529.327669	26146.887119
529.689421	26136.651056
530.051117	25992.700908
530.412755	26153.448181
530.774337	25924.945280
531.135862	25820.003580
531.497331	26012.898291
531.858743	25607.511384
532.220098	26065.404429
532.581396	25750.843990
532.942638	25646.504709
533.303824	25776.316941
533.664953	25761.962255
534.026025	25425.961790
534.387040	25672.247361
534.747999	25714.792179
535.108902	25880.779731
535.469748	25391.810493
535.830537	25540.254830
536.191270	25689.457860
536.551947	25497.581462
536.912567	25125.982889
537.273131	25575.489974
537.633638	25238.698048
537.994089	25461.164167
538.354483	24944.347595
538.714821	25462.069054
539.075103	25503.966084
539.435328	25271.100064
539.795497	24882.094386
540.155609	25210.162596
540.515665	25539.977566
540.875665	24747.482976
541.235609	25087.395377
541.595496	25017.444326
541.955328	25382.630552
542.315102	25310.489120
542.674821	24821.466950
543.034483	24694.792836
543.394090	24867.948909
543.753640	24681.224570
544.113134	25309.400230
544.472571	24891.203751
544.831953	25203.697317
545.191278	24852.558266
545.550548	24739.044084
545.909761	24934.287973
546.268918	25169.614075
546.628019	25151.922146
546.987064	24834.788199
547.346053	24562.659152
547.704986	24664.762682
548.063863	24831.685368
548.422684	24853.385015
548.781449	24347.550597
549.140158	24754.782567
549.498811	24338.567261
549.857408	24104.657722
550.215949	24485.022863
550.574434	24185.502707
550.932864	24376.607808
551.291237	24581.087090
551.649555	24402.519339
552.007817	24492.950077
552.366022	24332.903525
552.724173	24348.715104
553.082267	24320.792152
553.440305	24812.375229
553.798288	24037.058370
554.156215	24526.254460
554.514086	24662.229502
554.871902	24054.760382
555.229661	24319.443644
555.587365	24161.784078
555.945014	24086.927984
556.302606	24278.905205
556.660143	24284.858808
557.017625	24500.123639
557.375050	24024.994889
557.732421	24414.252624
558.089735	24237.003134
558.446994	24276.654330
558.804197	24323.496732
559.161345	24219.462440
559.518437	24026.194683
559.875474	24190.715260
560.232455	24357.133831
560.589381	24176.773949
560.946251	24179.125647
561.303065	24469.163393
561.659825	24563.952208
562.016528	24173.603063
562.373177	23907.762856
562.729770	24268.364152
563.086307	24115.360092
563.442789	24290.164622
563.799216	24138.657785
564.155587	24126.783347
564.511904	24115.019814
564.868164	24066.894439
565.224370	24039.606673
565.580520	23978.119720
565.936615	24098.598256
566.292654	23791.665083
566.648638	24020.538509
567.004567	23867.037895
567.360441	23800.310662
567.716260	23537.734602
568.072023	23827.071627
568.427732	23620.165029
568.783385	23380.367423
569.138982	23633.398058
569.494525	23670.594212
569.850013	23429.314506
570.205445	23523.775647
570.560823	23355.363300
570.916145	23118.068627
571.271412	23304.876144
571.626625	23059.525707
571.981782	23160.497498
572.336884	22966.377787
572.691931	23101.624383
573.046923	22843.333304
573.401860	22717.866546
573.756743	22760.124018
574.111570	22640.958703
574.466342	22559.841497
574.821059	22638.102890
575.175722	22353.071010
575.530330	22296.284933
575.884882	22311.320174
576.239380	22238.455336
576.593823	22130.183954
576.948211	22106.873659
577.302544	21956.496040
577.656823	21812.339204
578.011047	21928.673912
578.365216	21791.463786
578.719330	21670.256804
579.073389	21545.636960
579.427394	21708.365406
579.781344	21464.847429
580.135239	21337.339004
580.489080	21282.390427
580.842866	21078.163202
581.196597	21303.374230
581.550273	21243.364334
581.903895	21123.415120
582.257463	21437.390784
582.610975	20971.704115
582.964434	21299.689146
583.317837	20974.446503
583.671186	21049.811753
584.024481	21053.315355
584.377721	20811.864250
584.730906	20902.794063
585.084037	20879.110722
585.437113	20806.818055
585.790135	21005.046307
586.143103	20469.070830
586.496016	20492.353399
586.848874	20734.734597
587.201679	20623.088162
587.554428	20338.507466
587.907124	20681.941113
588.259765	20426.652041
588.612352	20497.868421
588.964884	20068.488142
589.317362	20240.930892
589.669786	20309.556119
590.022155	20292.043151
590.374470	20545.189733
590.726731	20302.254008
591.078937	20097.356310
591.431090	20176.315903
591.783188	19939.616086
592.135232	19908.943185
592.487222	19996.429889
592.839157	20008.992445
593.191038	19885.557272
593.542866	19787.332910
593.894639	19482.292691
594.246358	19695.951914
594.598022	19580.491847
594.949633	19347.353605
595.301190	19331.484053
595.652692	19496.559156
596.004141	19716.933197
596.355535	19050.091887
596.706876	19067.100740
597.058162	18967.719433
597.409395	19197.737200
597.760573	19244.231762
598.111698	19013.120064
598.462768	18969.657756
598.813785	18957.044789
599.164748	18733.479699
599.515657	18801.373959
599.866511	18605.320965
600.217312	18947.895095
600.568060	18453.415876
600.918753	18769.077807
601.269392	18663.964708
601.619978	18467.485737
601.970510	18651.480290
602.320988	18603.165872
602.671412	18796.468916
603.021783	18737.830214
603.372100	18434.861909
603.722363	18595.241178
604.072572	18541.409217
604.422728	18684.731741
604.772830	18433.505839
605.122878	18406.548269
605.472872	18382.738899
605.822813	18363.406074
606.172701	18354.027008
606.522534	18518.333335
606.872314	18552.582934
607.222041	18390.346000
607.571714	18603.357436
607.921333	18430.024922
608.270899	18502.846910
608.620411	18652.153284
608.969870	18455.177759
609.319276	18446.610318
609.668627	18472.589905
610.017926	18617.573489
610.367171	18725.655828
610.716362	18783.142626
611.065500	18590.822607
611.414585	18745.979240
611.763616	18729.673628
612.112594	18658.762237
612.461518	18639.721799
612.810389	18822.004881
613.159207	18685.245939
613.507971	18593.859902
613.856682	18844.314507
614.205340	18753.311598
614.553945	18920.768646
614.902496	18674.422581
615.250994	18871.519094
615.599439	18826.630139
615.947830	18813.200506
616.296169	18883.922853
616.644454	18846.482203
616.992686	18824.568308
617.340864	19036.160658
617.688990	18798.291293
618.037063	18959.736766
618.385082	18829.039811
618.733048	19094.012939
619.080961	18991.864039
619.428821	19012.371453
619.776628	18878.279281
620.124382	18814.296957
620.472083	18872.570174
620.819731	18884.079129
621.167326	18565.266477
621.514868	18610.036964
621.862357	18404.098268
622.209793	18391.661742
622.557176	18218.588848
622.904506	18051.043579
623.251783	17998.068614
623.599007	17736.049602
623.946179	17679.671857
624.293297	17605.282071
624.640363	17328.139597
624.987376	17366.210391
625.334336	17159.999472
625.681243	17012.371802
626.028097	17032.909463
626.374899	16942.398066
626.721647	16812.666493
627.068343	16649.736400
627.414987	16576.248980
627.761577	16548.472222
628.108115	16572.001808
628.454600	16308.115048
628.801032	16408.877631
629.147412	16347.141141
629.493739	16350.042325
629.840014	16168.530539
630.186236	16269.101559
630.532405	16034.597164
630.878521	16227.484313
631.224585	16125.340454
631.570597	15948.547188
631.916556	15974.241950
632.262462	15945.663648
632.608316	15872.337545
632.954117	15810.472505
633.299866	15802.983871
633.645562	15720.208125
633.991206	15487.740357
634.336797	15363.188568
634.682336	15319.416230
635.027823	15186.722978
635.373257	15059.365788
635.718639	14972.680627
636.063968	14914.641823
636.409245	14672.489998
636.754470	14704.813876
637.099642	14551.255289
637.444762	14326.263552
637.789829	14372.271642
638.134845	14196.171535
638.479808	14229.274272
638.824719	14140.776816
639.169577	14014.687476
639.514383	14044.543710
639.859137	13876.154048
640.203839	13977.488802
640.548489	13827.181759
640.893086	13802.487667
641.237632	13684.149101
641.582125	13848.576416
641.926566	13646.499243
642.270955	13677.976208
642.615292	13632.162202
642.959576	13640.956495
643.303809	13661.486594
643.647990	13596.364968
643.992118	13662.371316
644.336195	13428.791973
644.680219	13661.032890
645.024192	13569.445207
645.368112	13802.893480
645.711981	13850.716386
646.055797	14038.799315
646.399562	14012.739070
646.743274	14276.343526
647.086935	14548.701944
647.430544	14516.282284
647.774101	14560.752823
648.117606	14696.614439
648.461059	14670.528989
648.804460	14650.288756
649.147810	14378.021078
649.491108	14293.919508
649.834354	14307.790243
650.177548	13978.371004
650.520690	13796.395432
650.863781	13717.337537
651.206820	13768.722018
651.549807	13591.878342
651.892742	13376.404303
652.235626	13314.277123
652.578458	13326.852281
652.921238	13027.639636
653.263967	13227.070202
653.606644	13054.166187
653.949269	13036.633054
654.291843	12820.599447
654.634365	12996.296262
654.976836	12842.609125
655.319255	12830.565808
655.661622	12798.672948
656.003938	12726.229047
656.346203	12647.443374
656.688416	12736.407137
657.030577	12685.322604
657.372687	12580.857294
657.714746	12571.894122
658.056753	12773.560441
658.398708	12572.206674
658.740612	12579.244124
659.082465	12686.308150
659.424266	12655.443685
659.766016	12683.538036
660.107715	12598.617279
660.449362	12684.790763
660.790958	12619.893468
661.132503	12571.584091
661.473996	12645.729382
661.815438	12650.147953
662.156829	12679.381604
662.498168	12641.857776
662.839456	12651.723314
663.180693	12667.819718
663.521879	12767.443000
663.863013	12733.175757
664.204097	12711.105586
664.545129	12840.002848
664.886110	12812.881441
665.227040	12907.340061
665.567918	12892.592165
665.908746	12921.051999
666.249522	12920.633583
666.590248	12972.587715
666.930922	13088.894696
667.271545	13054.972772
667.612118	13146.870486
667.952639	13041.890977
668.293109	13073.093199
668.633528	13012.637162
668.973896	12987.426351
669.314213	13048.363819
669.654480	12802.118577
669.994695	12878.968447
670.334859	12919.194334
670.674973	12856.815096
671.015035	12877.672870
671.355047	12838.188033
671.695008	12804.311479
672.034918	12813.234321
672.374777	12854.654962
672.714585	12772.229576
673.054342	12809.002273
673.394049	12760.271959
673.733705	12855.597658
674.073310	12750.184610
674.412864	12767.692538
674.752368	12615.701749
675.091820	12675.431860
675.431223	12639.725368
675.770574	12502.825273
676.109875	12422.353334
676.449125	12381.008311
676.788324	12338.806292
677.127473	12159.434476
677.466571	12154.219403
677.805619	12036.243800
678.144616	11981.486787
678.483562	11953.493259
678.822458	11819.675830
679.161303	11802.722430
679.500098	11770.214549
679.838842	11738.546021
680.177535	11773.468614
680.516179	11839.858090
680.854771	11779.278544
681.193314	11998.654436
681.531805	12164.664673
681.870247	12605.773197
682.208638	13014.467101
682.546978	13322.607629
682.885268	13333.098271
683.223508	13041.550700
683.561697	12895.344635
683.899836	12799.771920
684.237925	12594.047473
684.575963	12509.580419
684.913951	12416.364444
685.251889	12380.204247
685.589776	12477.309473
685.927614	12397.268553
686.265401	12369.877443
686.603137	12431.631578
686.940824	12578.059453
687.278460	12708.731202
687.616046	12745.997932
687.953582	12892.887073
688.291068	12837.177282
688.628504	13081.766504
688.965889	13078.451946
689.303224	13028.904965
689.640510	12909.658992
689.977745	12596.845313
690.314930	12379.826161
690.652065	12290.728808
690.989150	11985.035759
691.326185	11754.294586
691.663170	11557.797970
692.000105	11316.750158
692.336990	11189.725684
692.673825	10935.878382
693.010610	10825.371249
693.347345	10614.129258
693.684030	10432.725858
694.020665	10359.878664
694.357251	10168.768522
694.693786	10083.898176
695.030272	9942.380385
695.366707	9823.497374
695.703093	9762.378425
696.039429	9756.939020
696.375716	9656.753649
696.711952	9530.626501
697.048139	9590.712013
697.384276	9538.805773
697.720363	9565.029855
698.056400	9490.332558
698.392388	9437.685268
698.728326	9399.498527
699.064214	9343.766051
699.400053	9380.770641
699.735842	9201.401346
700.071581	9161.679574
700.407270	9080.189322
700.742910	9007.818518
701.078501	8908.222962
701.414042	8772.321016
701.749533	8720.404693
702.084974	8584.913601
702.420366	8703.305099
702.755709	8576.457065
703.091002	8445.712220
703.426246	8474.217424
703.761440	8424.592306
704.096584	8388.933704
704.431679	8318.816295
704.766725	8302.664438
705.101721	8256.565607
705.436668	8308.991086
705.771565	8199.708953
706.106413	8281.657950
706.441212	8319.486768
706.775961	8279.172661
707.110661	8332.946649
707.445311	8458.854508
707.779913	8354.590843
708.114465	8477.771438
708.448967	8518.352726
708.783421	8681.134104
709.117825	8847.121656
709.452180	8884.811843
709.786485	8974.506573
710.120742	9255.107278
710.454949	9268.443651
710.789107	9372.722439
711.123216	9601.769784
711.457275	9771.938973
711.791286	9913.587835
712.125247	9931.499054
712.459159	9914.565819
712.793023	10129.830650
713.126837	9709.050579
713.460602	9871.862204
713.794318	9696.729999
714.127985	9727.324762
714.461602	9385.474037
714.795171	9332.310029
715.128691	9083.687883
715.462162	8837.518258
715.795584	8782.559599
716.128957	8615.576419
716.462281	8449.926624
716.795556	8491.614446
717.128782	8287.926625
717.461960	8031.818365
717.795088	8100.988037
718.128167	8005.836258
718.461198	7847.370108
718.794180	7793.538147
719.127113	7786.974564
719.459997	7601.029084
719.792833	7393.419245
720.125619	7456.504244
720.458357	7313.038047
720.791046	7312.082748
721.123686	7294.776467
721.456278	7130.344111
721.788821	7148.872872
722.121315	7049.705814
722.453761	7129.560212
722.786158	7064.957825
723.118506	7071.082827
723.450805	7035.393978
723.783056	7094.907320
724.115259	7016.388828
724.447412	7015.839343
724.779518	7067.859009
725.111574	7057.925416
725.443582	7141.094372
725.775542	7117.209385
726.107453	7317.365878
726.439315	7224.124696
726.771129	7301.476161
727.102895	7482.350240
727.434612	7586.182886
727.766281	7631.636450
728.097901	7697.829320
728.429473	7707.205866
728.760996	7697.673044
729.092471	7669.649270
729.423897	7603.940350
729.755276	7594.646983
730.086606	7515.750405
730.417887	7623.326107
730.749120	7846.876075
731.080305	8032.766102
731.411442	8138.451372
731.742530	8118.934545
732.073570	8233.043583
732.404562	8316.141963
732.735506	8182.178341
733.066401	8304.300293
733.397249	8230.432265
733.728048	7984.897826
734.058798	7649.600601
734.389501	7411.033037
734.720156	7244.185968
735.050762	7017.029055
735.381320	6933.613082
735.711831	6868.395675
736.042293	6764.878101
736.372707	6780.740092
736.703073	6649.687736
737.033391	6686.062182
737.363661	6697.820673
737.693883	6736.889615
738.024056	6817.842984
738.354182	6850.807089
738.684260	6886.780763
739.014290	7018.599374
739.344272	7127.745396
739.674207	7154.985271
740.004093	7234.199442
740.333931	7242.832418
740.663722	7249.310301
740.993464	7325.164543
741.323159	7298.824514
741.652806	7053.930301
741.982405	7095.837413
742.311956	7129.232537
742.641460	6945.079187
742.970915	6755.219251
743.300323	6743.952272
743.629683	6711.086469
743.958996	6568.585653
744.288260	6478.580892
744.617477	6426.621719
744.946647	6416.940183
745.275768	6258.471512
745.604842	6210.613318
745.933869	6195.736873
746.262847	6154.469988
746.591778	6142.159490
746.920662	6100.194405
747.249498	6099.569302
747.578286	6147.271220
747.907027	6220.869546
748.235720	6282.863135
748.564365	6257.296923
748.892963	6308.131919
749.221514	6435.562206
749.550017	6240.391414
749.878473	6137.325024
750.206881	6198.000351
750.535242	6152.556870
750.863555	6080.617084
751.191821	6085.378454
751.520039	6083.099852
751.848210	5995.421584
752.176334	6026.323857
752.504411	6060.830555
752.832440	5984.842723
753.160421	5924.321150
753.488356	5972.559951
753.816243	5999.830073
754.144082	5851.153843
754.471875	5825.070913
754.799620	5864.419640
755.127318	5878.126537
755.454969	5837.704045
755.782572	5803.963602
756.110129	5846.639490
756.437638	5819.046734
756.765100	5765.721409
757.092515	5776.176762
757.419882	5830.384289
757.747203	5799.441687
758.074477	5861.909145
758.401703	5842.609088
758.728882	5805.049971
759.056014	5875.898347
759.383099	5985.661910
759.710138	5997.286811
760.037129	5988.308516
760.364073	5989.072251
760.690970	6071.474952
761.017820	6043.143667
761.344623	6011.591085
761.671379	6121.891531
761.998088	6249.871304
762.324751	6514.539442
762.651366	7165.934657
762.977935	8543.230820
763.304456	10207.474501
763.630931	11059.807588
763.957359	10588.525238
764.283740	9621.029512
764.610074	8737.695850
764.936362	7738.589570
765.262602	7148.444374
765.588796	6613.167097
765.914943	6287.259021
766.241044	6114.672599
766.567097	5898.820473
766.893104	5642.828161
767.219064	5465.127488
767.544978	5401.987036
767.870845	5322.820756
768.196665	5214.420824
768.522438	5145.203262
768.848165	5103.124750
769.173846	5039.581006
769.499479	4988.809025
769.825066	4942.805976
770.150607	4879.239546
770.476101	4861.267833
770.801548	4851.883725
771.126949	4764.301239
771.452303	4714.913054
771.777611	4678.604144
772.102872	4700.976785
772.428087	4656.967512
772.753256	4613.784988
773.078378	4563.265064
773.403453	4496.782328
773.728482	4480.048217
774.053465	4438.524233
774.378401	4426.039816
774.703291	4417.202673
775.028135	4344.244574
775.352932	4299.141370
775.677683	4286.712406
776.002388	4302.773522
776.327046	4308.722083
776.651658	4236.794900
776.976224	4178.350283
777.300743	4183.741797
777.625216	4206.404304
777.949643	4193.357798
778.274024	4156.335564
778.598359	4114.327629
778.922647	4143.984737
779.246889	4129.695587
779.571086	4119.764514
779.895236	4101.533181
780.219339	4096.953293
780.543397	4093.016151
780.867409	4143.263852
781.191374	4153.252899
781.515294	4088.511880
781.839167	4086.906273
782.162995	4108.585755
782.486776	4096.706276
782.810511	4106.584417
783.134201	4093.490020
783.457844	4046.627454
783.781441	3994.010410
784.104993	4001.226822
784.428498	4018.086961
784.751958	4011.969521
785.075372	3985.581601
785.398739	3956.451294
785.722061	3972.772029
786.045337	4014.911034
786.368568	4041.692164
786.691752	3949.675983
787.014891	4013.045807
787.337983	4147.392557
787.661030	4316.220800
787.984031	4471.085046
788.306987	4638.683247
788.629897	4726.911001
788.952760	4680.744114
789.275579	4613.066623
789.598351	4539.929563
789.921078	4384.480543
790.243759	4185.420501
790.566395	4180.533103
790.888984	4170.985157
791.211529	4061.758477
791.534027	4001.206657
791.856480	3979.247391
792.178888	3925.997683
792.501249	3880.944891
792.823566	3894.631624
793.145836	3914.062752
793.468062	3855.156869
793.790241	3820.521621
794.112375	3851.779296
794.434464	3923.305707
794.756507	3936.523612
795.078505	3913.956887
795.400457	3961.404227
795.722364	4104.988892
796.044226	4207.485632
796.366042	4284.136376
796.687812	4245.074995
797.009538	4253.009772
797.331218	4220.469123
797.652852	4196.516081
797.974442	4170.226464
798.295986	4168.129344
798.617484	4081.794543
798.938938	4003.747399
799.260346	4046.153585
799.581709	4034.213612
799.903026	3959.458342
800.224299	3923.441818
800.545526	3915.355807
800.866708	3875.583624
801.187845	3819.969615
801.508936	3852.991693
801.829983	3842.523737
802.150984	3766.619084
802.471940	3760.975512
802.792851	3771.488838
803.113717	3769.545474
803.434538	3768.703601
803.755314	3706.183211
804.076045	3689.557486
804.396731	3713.714695
804.717372	3736.304105
805.037967	3717.273749
805.358518	3707.675392
805.679024	3735.958786
805.999485	3750.734408
806.319901	3758.754884
806.640272	3767.468518
806.960598	3777.979324
807.280879	3756.173813
807.601115	3769.933643
807.921306	3787.817136
808.241453	3828.143846
808.561554	3797.667550
808.881611	3731.613312
809.201623	3778.617030
809.521590	3782.337402
809.841513	3754.046446
810.161390	3787.678504
810.481223	3761.547683
810.801011	3708.476936
811.120755	3708.116493
811.440453	3740.042121
811.760107	3735.318560
812.079716	3690.563196
812.399281	3667.237777
812.718801	3691.669729
813.038276	3662.652848
813.357707	3659.784431
813.677093	3675.089374
813.996434	3621.048205
814.315731	3632.771408
814.634983	3636.753920
814.954191	3655.514574
815.273354	3678.018284
815.592473	3673.123324
815.911547	3683.717309
816.230577	3729.871593
816.549562	3781.465282
816.868502	3822.444822
817.187399	3844.537678
817.506250	3838.042152
817.825058	3827.100327
818.143821	3919.933175
818.462539	4015.384903
818.781213	4060.041964
819.099843	4130.943272
819.418429	4401.320518
819.736970	4643.449658
820.055466	4900.724944
820.373919	5273.649341
820.692327	5690.625861
821.010691	6195.946081
821.329011	7703.621606
821.647286	10632.980653
821.965517	15420.491364
822.283704	19443.001938
822.601847	21421.659864
822.919945	19468.898345
823.237999	16785.272863
823.556010	14252.312345
823.873976	12067.695558
824.191897	9945.919275
824.509775	8603.767516
824.827609	7475.458983
825.145398	6947.793848
825.463144	6825.823131
825.780845	6928.980262
826.098502	7170.322982
826.416116	8135.726628
826.733685	9514.174695
827.051210	10609.846798
827.368692	10540.299040
827.686129	9187.515488
828.003522	7685.165942
828.320872	6645.995091
828.638177	5930.456234
828.955439	5345.856308
829.272656	4839.633721
829.589830	4572.210592
829.906960	4393.468921
830.224046	4199.429868
830.541088	4078.999223
830.858086	4025.424361
831.175041	3946.542906
831.491952	3935.137295
831.808819	3947.820838
832.125642	4032.812172
832.442421	4190.065925
832.759157	4484.507118
833.075849	5078.597016
833.392497	5984.358772
833.709101	6779.283198
834.025662	7081.943993
834.342179	6652.319218
834.658653	5966.187933
834.975083	5301.121109
835.291469	4714.166964
835.607811	4314.577383
835.924110	4165.946524
836.240366	3962.881285
836.556578	3754.270777
836.872746	3647.947802
837.188871	3600.192951
837.504952	3533.874052
837.820990	3449.898511
838.136984	3410.393509
838.452935	3434.051644
838.768842	3428.836570
839.084706	3452.257771
839.400526	3628.161273
839.716303	3995.351357
840.032037	4554.241399
840.347727	4784.664980
840.663373	4467.226043
840.978977	4072.211309
841.294537	3758.439812
841.610054	3534.804145
841.925527	3428.337496
842.240957	3357.867207
842.556344	3298.540388
842.871687	3237.668455
843.186987	3185.613500
843.502244	3151.409271
843.817458	3118.558592
844.132629	3089.272009
844.447756	3094.736620
844.762840	3076.089392
845.077881	3044.579660
845.392879	3028.687422
845.707833	3025.025024
846.022745	3024.513347
846.337613	3024.294057
846.652438	3008.041377
846.967221	3005.871160
847.281960	2993.444716
847.596656	2990.888851
847.911309	2992.197030
848.225919	2983.992552
848.540485	2978.611120
848.855009	2976.743373
849.169490	2967.271045
849.483928	2957.534056
849.798323	2957.415589
850.112675	2958.882565
850.426984	2968.861529
850.741251	2964.816003
851.055474	2949.579115
851.369654	2947.476954
851.683792	2954.315279
851.997887	2964.624439
852.311938	2963.159984
852.625947	2952.802933
852.939914	2958.121351
853.253837	2958.842236
853.567718	2945.248764
853.881555	2947.492078
854.195350	2963.434727
854.509103	2953.599436
854.822812	2947.691203
855.136479	2943.544854
855.450103	2949.027109
855.763685	2940.336160
856.077224	2940.162240
856.390720	2950.163889
856.704173	2958.673357
857.017584	2952.326544
857.330953	2948.621296
857.644278	2958.199488
857.957561	2969.307671
858.270802	2972.123155
858.584000	2967.560911
858.897155	2955.822584
859.210268	2954.433747
859.523339	2955.018520
859.836367	2954.055660
860.149352	2946.572067
860.462295	2943.844803
860.775195	2951.426698
861.088054	2950.889815
861.400869	2935.174018
861.713642	2933.147474
862.026373	2949.475772
862.339062	2952.780248
862.651708	2954.025413
862.964312	2958.108748
863.276873	2951.492233
863.589392	2965.405818
863.901869	2974.623568
864.214303	2996.729027
864.526696	3012.074300
864.839045	3009.299144
865.151353	3007.567508
865.463619	3005.707322
865.775842	3006.977693
866.088023	3029.108358
866.400162	3031.129861
866.712258	3003.189266
867.024313	2992.451608
867.336325	3004.404184
867.648296	3026.499561
867.960224	3019.094106
868.272110	3004.043742
868.583954	3005.051972
868.895755	3022.819519
869.207515	3009.939371
869.519233	3017.072604
869.830909	3026.676002
870.142542	3033.295037
870.454134	3033.673123
870.765684	3036.145809
871.077191	3037.595141
871.388657	3046.820452
871.700081	3060.386198
872.011463	3071.660738
872.322803	3071.630491
872.634101	3068.275603
872.945357	3089.692945
873.256571	3114.243365
873.567744	3104.909668
873.878874	3105.872529
874.189963	3125.336424
874.501010	3122.178141
874.812015	3113.088940
875.122979	3112.824280
875.433900	3112.788992
875.744780	3120.388531
876.055618	3127.559572
876.366415	3123.723254
876.677169	3134.407980
876.987882	3128.439254
877.298554	3129.447485
877.609183	3153.874396
877.919771	3173.345852
878.230317	3202.841643
878.540822	3257.434819
878.851285	3295.545942
879.161707	3346.154086
879.472087	3461.175572
879.782425	3716.257957
880.092722	4183.436807
880.402977	4729.933172
880.713191	5401.871089
881.023363	6639.116436
881.333494	7957.554607
881.643583	8479.808064
881.953631	8142.728791
882.263637	7452.506609
882.573602	6823.433624
882.883526	6228.915227
883.193408	5658.695192
883.503248	5203.771387
883.813048	4881.261049
884.122806	4547.834093
884.432522	4222.175554
884.742197	3976.154643
885.051831	3780.830097
885.361424	3658.526663
885.670975	3577.936257
885.980485	3486.212463
886.289954	3402.403280
886.599382	3358.449460
886.908768	3323.287412
887.218113	3276.649177
887.527417	3216.848489
887.836680	3164.445695
888.145901	3161.446209
888.455082	3149.390289
888.764221	3091.767380
889.073319	3063.186558
889.382376	3062.029614
889.691392	3068.288206
890.000366	3066.793504
890.309300	3053.245403
890.618193	3067.025397
890.927044	3079.507294
891.235855	3078.040318
891.544625	3067.766447
891.853353	3084.074579
892.162041	3097.907506
892.470687	3144.003816
892.779293	3196.446940
893.087858	3244.942840
893.396381	3321.707010
893.704864	3454.778348
894.013306	3712.091443
894.321707	4031.037685
894.630068	4225.459866
894.938387	4213.590469
895.246665	4171.335518
895.554903	4041.160322
895.863100	3830.709793
896.171256	3657.707476
896.479371	3513.399406
896.787446	3386.074983
897.095480	3275.956018
897.403473	3214.030484
897.711425	3177.363652
898.019336	3169.310409
898.327207	3133.097280
898.635038	3096.211157
898.942827	3084.016606
899.250576	3071.272569
899.558284	3039.483053
899.865952	3018.259795
900.173579	2994.710045
900.481165	2990.087307
900.788711	2975.717498
901.096216	2952.946606
901.403681	2942.506377
901.711105	2949.528704
902.018489	2947.429063
902.325832	2947.829835
902.633135	2957.186217
902.940397	2994.001763
903.247619	3086.040629
903.554800	3298.855460
903.861941	3672.803211
904.169041	4129.330103
904.476101	4418.780554
904.783121	4342.878421
905.090100	4078.578287
905.397039	3792.792755
905.703938	3531.603012
906.010796	3348.178109
906.317614	3229.852146
906.624391	3134.619708
906.931129	3059.665312
907.237826	2995.562000
907.544483	2946.272118
907.851099	2917.776996
908.157675	2894.078532
908.464211	2874.697816
908.770707	2858.780373
909.077163	2844.995338
909.383578	2830.633090
909.689954	2816.626244
909.996289	2819.812254
910.302584	2818.211687
910.608839	2820.979281
910.915054	2811.600214
911.221229	2804.961014
911.527363	2812.071562
911.833458	2816.182623
912.139513	2821.339723
912.445527	2824.480362
912.751502	2831.598471
913.057436	2843.966942
913.363331	2858.916484
913.669186	2880.850544
913.975000	2921.532656
914.280775	2986.586226
914.586510	3055.639951
914.892205	3142.211686
915.197859	3282.653191
915.503475	3494.795027
915.809050	3724.245665
916.114585	3869.927450
916.420081	3878.547823
916.725536	3810.212462
917.030952	3679.896114
917.336328	3549.594890
917.641665	3412.024322
917.946961	3308.748724
918.252218	3233.138978
918.557435	3151.058911
918.862612	3087.989035
919.167750	3035.437527
919.472848	2996.895385
919.777906	2971.762713
920.082925	2941.598969
920.387904	2910.348856
920.692843	2894.229767
920.997743	2880.210318
921.302603	2865.051568
921.607423	2854.213087
921.912204	2843.054493
922.216946	2828.828357
922.521647	2820.558344
922.826310	2810.937302
923.130932	2805.376910
923.435516	2795.158491
923.740059	2787.732871
924.044564	2777.683331
924.349028	2772.339708
924.653454	2768.226126
924.957840	2761.828902
925.262186	2755.580392
925.566493	2751.202150
925.870761	2745.374576
926.174989	2740.361148
926.479178	2736.229923
926.783328	2732.176835
927.087438	2731.282030
927.391509	2729.194993
927.695541	2728.461505
927.999533	2723.828684
928.303486	2719.213508
928.607400	2717.935576
928.911275	2718.253168
929.215110	2715.649412
929.518906	2717.065977
929.822663	2715.442725
930.126381	2716.892057
930.430060	2717.358363
930.733699	2719.291646
931.037299	2718.404403
931.340861	2720.299877
931.644383	2719.944475
931.947866	2717.401213
932.251309	2714.762169
932.554714	2717.166800
932.858080	2715.180585
933.161407	2712.266798
933.464694	2711.974411
933.767943	2706.111549
934.071153	2711.089689
934.374323	2710.507435
934.677455	2711.780327
934.980548	2709.862168
935.283602	2707.477702
935.586617	2706.857640
935.889593	2708.062476
936.192530	2708.301931
936.495428	2709.965511
936.798287	2710.827549
937.101108	2715.074721
937.403890	2716.957592
937.706632	2721.955896
938.009336	2729.837740
938.312002	2737.858216
938.614628	2746.803743
938.917216	2755.633324
939.219765	2755.313211
939.522275	2755.134250
939.824747	2751.058477
940.127179	2749.944382
940.429573	2747.827097
940.731929	2742.309554
941.034246	2738.354769
941.336524	2735.161198
941.638763	2734.440313
941.940964	2730.757750
942.243126	2729.016032
942.545250	2730.717421
942.847335	2725.416648
943.149381	2721.666029
943.451389	2719.936914
943.753359	2716.302242
944.055290	2713.562375
944.357182	2712.586911
944.659036	2712.339895
944.960851	2711.495502
945.262628	2710.124308
945.564367	2709.811756
945.866067	2709.113556
946.167729	2711.301417
946.469352	2711.669421
946.770937	2711.737477
947.072484	2710.535162
947.373992	2708.196066
947.675462	2706.867722
947.976893	2703.296065
948.278286	2701.287165
948.579641	2702.628112
948.880958	2698.630477
949.182236	2703.119624
949.483476	2701.960159
949.784678	2698.564942
950.085841	2702.010571
950.386967	2702.270190
950.688054	2703.225489
950.989103	2702.849923
951.290114	2706.681200
951.591087	2704.916796
951.892021	2708.095243
952.192917	2714.013558
952.493776	2712.632282
952.794596	2713.574977
953.095378	2712.929710
953.396122	2713.600183
953.696828	2711.475337
953.997496	2709.418546
954.298126	2704.251363
954.598718	2705.012578
954.899272	2701.960159
955.199788	2700.566280
955.500266	2696.601412
955.800706	2694.705939
956.101108	2693.637214
956.401472	2692.702080
956.701798	2691.910619
957.002087	2686.403158
957.302337	2687.487006
957.602550	2685.430216
957.902724	2682.040040
958.202861	2682.239165
958.502960	2680.691531
958.803022	2679.945440
959.103045	2680.615914
959.403031	2677.432425
959.702979	2675.179029
960.002889	2675.385717
960.302762	2678.332271
960.602596	2674.395130
960.902393	2678.251612
961.202153	2675.294976
961.501875	2676.421674
961.801559	2674.574091
962.101205	2675.680624
962.400814	2676.570388
962.700385	2676.451921
962.999918	2669.999244
963.299414	2670.190807
963.598873	2670.369768
963.898293	2669.611075
964.197677	2672.716426
964.497022	2674.218689
964.796331	2672.008143
965.095601	2674.609379
965.394835	2674.072496
965.694030	2672.774399
965.993189	2674.027126
966.292309	2670.221054
966.591393	2670.750376
966.890439	2672.177022
967.189447	2671.824141
967.488419	2670.044614
967.787353	2673.603669
968.086249	2668.454130
968.385108	2670.916734
968.683930	2673.966632
968.982714	2669.772392
969.281462	2671.486384
969.580172	2670.959583
969.878844	2672.444203
970.177480	2670.745334
970.476078	2671.993020
970.774639	2673.938905
971.073162	2673.240706
971.371649	2671.672907
971.670098	2672.071158
971.968510	2672.965963
972.266885	2669.588390
972.565223	2673.694409
972.863524	2673.374296
973.161788	2671.914882
973.460014	2671.725839
973.758204	2674.246416
974.056356	2673.288597
974.354471	2673.974193
974.652550	2672.736590
974.950591	2671.398164
975.248595	2671.695592
975.546563	2672.398833
975.844493	2671.357835
976.142386	2672.575273
976.440243	2671.655263
976.738062	2670.531085
977.035845	2675.173988
977.333590	2670.568894
977.631299	2670.788184
977.928971	2666.954387
978.226606	2667.115704
978.524204	2667.176197
978.821765	2666.883811
979.119290	2670.919254
979.416777	2668.257525
979.714228	2670.412618
980.011642	2670.972186
980.309020	2671.322547
980.606360	2670.296672
980.903664	2671.206600
981.200931	2670.271466
981.498162	2669.850530
981.795356	2671.085612
982.092513	2673.923782
982.389633	2674.826148
982.686717	2678.085254
982.983764	2680.515091
983.280775	2686.839218
983.577749	2686.998014
983.874686	2687.033302
984.171587	2686.340144
984.468451	2684.356450
984.765279	2680.431912
985.062070	2681.014165
985.358824	2675.602486
985.655543	2674.516117
985.952224	2672.529903
986.248869	2671.680468
986.545478	2671.637619
986.842050	2668.408760
987.138586	2671.312464
987.435086	2670.609223
987.731549	2666.853564
988.027975	2667.781136
988.324366	2666.362051
988.620719	2668.381033
988.917037	2665.489932
989.213318	2666.848522
989.509563	2667.655107
989.805772	2665.106804
990.101944	2667.556805
990.398080	2667.340035
990.694180	2667.466064
990.990244	2665.666372
991.286271	2666.041938
991.582262	2669.142247
991.878217	2668.370951
992.174136	2665.941115
992.470019	2665.883142
992.765865	2663.266783
993.061676	2661.648572
993.357450	2665.507576
993.653188	2664.300219
993.948890	2667.597134
994.244556	2668.844819
994.540186	2665.734427
994.835780	2668.507062
995.131337	2668.877587
995.426859	2664.690909
995.722345	2669.399346
996.017795	2669.180056
996.313208	2670.364727
996.608586	2672.993689
996.903928	2673.034018
997.199234	2670.601662
997.494504	2672.597958
997.789738	2671.546878
998.084936	2669.238029
998.380099	2667.196362
998.675225	2671.468740
998.970316	2666.228461
999.265371	2669.676610
999.560390	2666.228461
999.855373	2667.297185
1000.150320	2666.568738
1000.445232	2665.520178
1000.740108	2663.307112
1001.034948	2668.738955
1001.329752	2664.580003
1001.624521	2664.418686
1001.919254	2662.964313
1002.213951	2666.871208
1002.508613	2664.572442
1002.803239	2668.335663
1003.097829	2662.268634
1003.392384	2663.854077
1003.686903	2664.592606
1003.981386	2662.523212
1004.275834	2664.048162
1004.570246	2663.329797
1004.864623	2663.566731
1005.158964	2666.782987
1005.453270	2664.113697
1005.747540	2663.992709
1006.041775	2663.712925
1006.335974	2666.629232
1006.630138	2662.361896
1006.924266	2664.161587
1007.218359	2663.410456
1007.512416	2662.094714
1007.806438	2659.241421
1008.100425	2662.911381
1008.394376	2660.300064
1008.688292	2663.118069
1008.982172	2663.228974
1009.276017	2665.013543
1009.569827	2663.861639
1009.863602	2662.427431
1010.157341	2665.502534
1010.451045	2663.647390
1010.744714	2665.063954
1011.038347	2662.986999
1011.331945	2664.723676
1011.625508	2663.390291
1011.919036	2661.817451
1012.212528	2663.390291
1012.505986	2663.423058
1012.799408	2663.942297
1013.092795	2661.807369
1013.386147	2661.830054
1013.679464	2663.339879
1013.972745	2662.949190
1014.265992	2663.544046
1014.559204	2662.949190
1014.852380	2660.549601
1015.145521	2664.728717
1015.438628	2665.202586
1015.731699	2665.686537
1016.024736	2662.371978
1016.317737	2662.727379
1016.610703	2663.165960
1016.903635	2663.970024
1017.196531	2661.154539
1017.489393	2661.270486
1017.782219	2663.728048
1018.075011	2662.802997
1018.367768	2662.243428
1018.660490	2663.395332
1018.953177	2663.395332
1019.245829	2663.395332
