Dividing Wavelength (nm)	Counts (n)	Blue Motor Position (mm): 22.800000	Red Motor Position (mm): 0.000000	
326.493990	2192.377643
326.888308	2192.377643
327.282561	2192.377643
327.676750	2151.597229
328.070874	2148.837197
328.464933	2147.975160
328.858929	2152.512198
329.252859	2156.093938
329.646726	2165.629281
330.040528	2179.356343
330.434265	2188.566531
330.827938	2211.087886
331.221547	2225.003991
331.615091	2241.990159
332.008571	2262.767274
332.401986	2281.442229
332.795338	2300.051648
333.188625	2316.004379
333.581847	2336.088336
333.975006	2353.702128
334.368100	2375.857999
334.761129	2392.335010
335.154095	2407.108112
335.546996	2433.337235
335.939833	2467.730507
336.332606	2482.095275
336.725315	2495.966010
337.117960	2510.033350
337.510540	2520.710514
337.903056	2528.569672
338.295508	2541.926210
338.687896	2549.649257
339.080220	2555.998591
339.472480	2560.979251
339.864676	2569.017370
340.256807	2573.748493
340.648875	2576.677404
341.040879	2579.248392
341.432818	2580.362487
341.824694	2585.605287
342.216506	2586.989084
342.608253	2587.036975
342.999937	2587.377253
343.391557	2587.803230
343.783113	2588.582088
344.174605	2583.475400
344.566033	2583.883733
344.957397	2582.008424
345.348697	2584.229052
345.739934	2583.735019
346.131106	2579.971798
346.522215	2580.135635
346.913260	2577.317630
347.304241	2575.412074
347.695159	2571.588359
348.086012	2572.160530
348.476802	2570.171795
348.867528	2565.377657
349.258191	2559.781977
349.648789	2566.111145
350.039324	2556.651420
350.429796	2560.891030
350.820203	2558.493962
351.210548	2559.797100
351.600828	2556.714434
351.991045	2554.728220
352.381198	2557.662171
352.771288	2553.561193
353.161314	2557.768036
353.551276	2552.114382
353.941175	2551.053219
354.331010	2552.631100
354.720782	2551.867365
355.110490	2555.829712
355.500135	2550.738147
355.889717	2552.913404
356.279235	2551.557334
356.668689	2552.452139
357.058080	2550.014741
357.447408	2554.206460
357.836672	2552.696635
358.225873	2553.281409
358.615010	2552.638662
359.004084	2555.406255
359.393095	2555.174362
359.782043	2552.996583
360.170927	2555.786862
360.559748	2554.513971
360.948505	2558.680484
361.337199	2559.446740
361.725830	2559.106462
362.114398	2557.233673
362.502903	2557.379867
362.891344	2561.001936
363.279722	2559.474466
363.668037	2558.196534
364.056289	2560.480176
364.444478	2559.492110
364.832603	2561.866494
365.220665	2563.562842
365.608665	2562.821792
365.996601	2562.138716
366.384474	2563.923284
366.772284	2564.031669
367.160031	2564.576114
367.547715	2565.808676
367.935336	2564.992009
368.322893	2563.204920
368.710388	2560.651576
369.097820	2563.230126
369.485189	2561.901782
369.872495	2567.147102
370.259738	2566.320353
370.646918	2568.014181
371.034035	2567.510065
371.421090	2568.004098
371.808081	2566.206927
372.195010	2568.316650
372.581875	2569.065261
372.968678	2570.239850
373.355418	2568.588872
373.742096	2568.793039
374.128710	2570.295303
374.515262	2570.076013
374.901751	2569.040056
375.288177	2571.230437
375.674540	2569.801270
376.060841	2570.837227
376.447079	2569.564336
376.833254	2571.180025
377.219367	2573.362845
377.605417	2573.163719
377.991404	2570.295303
378.377329	2570.381003
378.763191	2572.697413
379.148991	2571.974007
379.534727	2573.372927
379.920402	2571.114490
380.306013	2574.328226
380.691563	2574.824780
381.077049	2573.919892
381.462474	2576.095150
381.847835	2574.653380
382.233134	2574.320664
382.618371	2573.594738
383.003545	2574.426528
383.388657	2574.481981
383.773706	2573.874522
384.158693	2574.711354
384.543618	2575.951477
384.928480	2575.628844
385.313280	2575.553226
385.698017	2578.252764
386.082692	2576.216138
386.467305	2578.411561
386.851856	2579.555902
387.236344	2577.741087
387.620770	2575.323854
388.005133	2577.483988
388.389435	2574.048442
388.773674	2574.789492
389.157851	2579.780234
389.541965	2579.283680
389.926018	2578.275449
390.310008	2581.005234
390.693936	2577.211766
391.077802	2580.501119
391.461606	2583.339288
391.845348	2580.743094
392.229027	2583.261151
392.612645	2583.956830
392.996200	2581.118660
393.379694	2581.539597
393.763125	2579.694534
394.146494	2585.126377
394.529801	2583.059504
394.913047	2583.177972
395.296230	2581.148907
395.679351	2583.382138
396.062410	2581.375759
396.445408	2584.236614
396.828343	2581.804257
397.211217	2584.549165
397.594028	2585.141501
397.976778	2584.899526
398.359466	2586.200143
398.742092	2586.545462
399.124656	2585.759042
399.507158	2587.354567
399.889598	2584.327355
400.271977	2585.736357
400.654294	2585.196954
401.036549	2586.437077
401.418742	2586.845411
401.800874	2588.861872
402.182944	2588.534197
402.564952	2587.241142
402.946898	2590.051585
403.328783	2588.395566
403.710606	2585.920359
404.092367	2587.548652
404.474067	2585.822057
404.855705	2589.779362
405.237282	2588.340113
405.618797	2587.757860
406.000250	2590.066708
406.381642	2588.849270
406.762972	2586.769794
407.144240	2587.425144
407.525447	2589.688622
407.906593	2585.023034
408.287677	2591.647110
408.668700	2585.832139
409.049661	2590.533015
409.430560	2588.130905
409.811399	2592.040320
410.192176	2589.902871
410.572891	2592.120978
410.953545	2593.615681
411.334138	2593.381267
411.714669	2591.589137
412.095139	2593.487131
412.475547	2593.277923
412.855894	2593.953438
413.236180	2591.931935
413.616405	2592.675505
413.996568	2594.465115
414.376670	2595.927050
414.756711	2593.577872
415.136691	2596.592482
415.516609	2596.279930
415.896466	2593.953438
416.276262	2593.973602
416.655997	2594.109714
417.035670	2597.121803
417.415283	2594.681885
417.794834	2596.579879
418.174324	2597.487287
418.553753	2596.118613
418.933121	2597.552822
419.312428	2594.891092
419.691674	2597.545260
420.070859	2597.351176
420.449983	2596.715990
420.829045	2596.625249
421.208047	2598.810590
421.586988	2599.781012
421.965867	2599.533995
422.344686	2602.200766
422.723444	2600.053234
423.102141	2599.798656
423.480777	2599.838985
423.859352	2597.767071
424.237866	2601.868049
424.616319	2599.165991
424.994712	2601.096753
425.373044	2603.748400
425.751314	2597.875456
426.129524	2596.723552
426.507673	2597.583069
426.885762	2598.795466
427.263789	2603.513986
427.641756	2603.201435
428.019662	2598.901330
428.397508	2602.062134
428.775292	2602.455344
429.153016	2601.580704
429.530679	2602.926692
429.908282	2605.480036
430.285824	2603.629933
430.663305	2604.796960
431.040726	2603.377875
431.418086	2602.689757
431.795385	2602.573811
432.172624	2603.667741
432.549802	2607.655294
432.926920	2603.057762
433.303977	2605.003647
433.680974	2605.853082
434.057910	2605.994234
434.434786	2604.181939
434.811601	2606.573967
435.188355	2605.401898
435.565050	2604.920468
435.941683	2607.781323
436.318257	2609.200408
436.694770	2607.819132
437.071222	2608.701333
437.447614	2607.403236
437.823946	2607.902311
438.200218	2605.933740
438.576429	2609.218052
438.952580	2607.748555
439.328670	2608.454317
439.704700	2611.113526
440.080670	2609.780140
440.456580	2609.938937
440.832429	2610.546396
441.208218	2611.640326
441.583947	2610.611931
441.959616	2612.772065
442.335224	2610.886674
442.710773	2612.764503
443.086261	2610.818618
443.461689	2610.039760
443.837057	2612.847682
444.212365	2613.765173
444.587612	2608.759307
444.962800	2608.988679
445.337927	2611.975563
445.712995	2608.139245
446.088002	2615.433794
446.462949	2617.336830
446.837837	2613.873557
447.212664	2614.304576
447.587431	2617.629217
447.962139	2616.943620
448.336786	2618.017386
448.711374	2619.446553
449.085901	2619.159207
449.460369	2619.070987
449.834776	2617.888836
450.209124	2620.364043
450.583412	2621.856224
450.957640	2622.090638
451.331808	2621.558796
451.705917	2622.115844
452.079965	2620.212808
452.453954	2622.642644
452.827883	2621.420165
453.201752	2626.287399
453.575562	2623.744137
453.949311	2624.596092
454.323001	2624.099538
454.696632	2623.262706
455.070202	2626.610033
455.443713	2627.363685
455.817164	2627.222533
456.190556	2630.872328
456.563888	2631.993985
456.937160	2631.499952
457.310373	2632.795528
457.683526	2631.976341
458.056619	2633.216465
458.429653	2634.446506
458.802628	2633.738224
459.175542	2635.810138
459.548398	2641.494039
459.921194	2642.041004
460.293930	2643.815491
460.666607	2650.709268
461.039224	2652.574495
461.411782	2657.862666
461.784280	2660.098417
462.156719	2662.273675
462.529099	2665.268121
462.901419	2663.919612
463.273680	2665.260559
463.645882	2665.865497
464.018024	2669.515293
464.390106	2675.302537
464.762130	2686.181347
465.134094	2696.566124
465.505999	2721.792058
465.877845	2758.915115
466.249631	2789.237656
466.621358	2790.306380
466.993026	2790.684467
467.364634	2798.417597
467.736184	2797.038841
468.107674	2803.985551
468.479105	2824.669405
468.850477	2839.540809
469.221790	2849.837366
469.593043	2858.246011
469.964238	2869.704553
470.335373	2887.683828
470.706449	2917.784558
471.077467	2931.214192
471.448425	3004.005933
471.819324	3144.442397
472.190164	3241.703898
472.560945	3184.688448
472.931667	3152.601504
473.302330	3172.967766
473.672934	3200.825182
474.043479	3259.685694
474.413965	3302.722025
474.784393	3339.517407
475.154761	3426.205088
475.525070	3484.465703
475.895321	3521.707227
476.265513	3624.173720
476.635645	3725.082497
477.005719	3783.396044
477.375734	3870.993654
477.745691	3991.905729
478.115588	4111.376034
478.485427	4246.347887
478.855207	4429.684570
479.224928	4714.968507
479.594591	5094.859779
479.964194	5197.139749
480.333739	5339.050750
480.703226	5367.762642
481.072653	5480.427389
481.442022	5712.388522
481.811333	5980.230067
482.180584	6128.455113
482.549777	6111.330314
482.918912	6225.467078
483.287988	6396.543675
483.657005	6500.497308
484.025964	6599.487926
484.394864	6738.679225
484.763706	6834.824111
485.132489	6918.955928
485.501213	7075.163641
485.869879	7251.094869
486.238487	7316.637431
486.607036	7575.760300
486.975527	7663.098291
487.343959	7902.845485
487.712333	8099.788243
488.080648	8152.685070
488.448905	8477.030388
488.817104	8580.134587
489.185244	8940.476264
489.553326	9162.649996
489.921350	9599.972613
490.289315	10505.832671
490.657222	11331.127529
491.025070	11716.896786
491.392861	11876.580375
491.760593	11828.235710
492.128267	11808.517236
492.495883	11624.101746
492.863440	11555.194214
493.230939	11426.148238
493.598380	11596.088054
493.965763	11630.851851
494.333088	11669.807368
494.700354	11839.033861
495.067563	12022.990606
495.434713	12128.454065
495.801805	12332.663646
496.168839	12519.957635
496.535815	12654.498469
496.902733	12963.659832
497.269593	12951.969396
497.636395	13296.474288
498.003139	13500.262932
498.369825	13618.392290
498.736453	13872.262277
499.103023	14009.086754
499.469535	14230.993306
499.835989	14545.735225
500.202385	14774.429690
500.568723	14698.005798
500.935003	15000.837992
501.301226	14990.871631
501.667390	15606.136896
502.033497	16020.676018
502.399546	15990.993704
502.765537	16016.171747
503.131470	16393.653347
503.497345	16695.482351
503.863163	16348.542582
504.228923	16972.869321
504.594625	17291.066952
504.960269	17108.667923
505.325856	17672.541145
505.691385	17462.874516
506.056856	18028.262605
506.422270	18245.864011
506.787625	18077.227332
507.152924	18609.197612
507.518164	18746.463190
507.883347	18769.274412
508.248472	18707.898363
508.613540	19453.278330
508.978550	19480.452670
509.343503	19614.454101
509.708398	19997.685137
510.073236	20262.602812
510.438016	20577.463199
510.802738	20497.626446
511.167403	20828.820171
511.532010	20722.492154
511.896561	21509.537257
512.261053	21650.266108
512.625488	21642.033904
512.989866	21682.673166
513.354186	21685.602076
513.718449	21909.515007
514.082655	22340.611798
514.446803	22252.648705
514.810894	22754.198142
515.174927	22419.349580
515.538904	22571.163928
515.902822	23086.415222
516.266684	23011.354962
516.630488	23006.656606
516.994235	23119.333956
517.357925	23455.314257
517.721558	23743.000304
518.085133	23913.781994
518.448651	23932.179685
518.812112	23762.461679
519.175516	23997.626465
519.538863	24256.545167
519.902152	24121.301092
520.265385	24497.487115
520.628560	24342.088507
520.991678	24437.757004
521.354739	24573.495112
521.717743	24699.927251
522.080690	24555.195724
522.443580	24943.914056
522.806413	24990.000284
523.169189	25143.047195
523.531908	25235.108746
523.894569	24910.125722
524.257174	25025.792477
524.619722	25268.352635
524.982213	25001.400854
525.344647	25135.440093
525.707025	25266.174857
526.069345	25321.793907
526.431608	25304.028881
526.793815	25529.534816
527.155964	25005.504353
527.518057	25196.707757
527.880093	25174.619941
528.242072	25412.738843
528.603995	25145.487113
528.965860	24975.360774
529.327669	25067.129938
529.689421	25067.548354
530.051117	24919.845067
530.412755	25125.488856
530.774337	24937.312665
531.135862	24821.600540
531.497331	25052.752567
531.858743	24596.240799
532.220098	25112.691887
532.581396	24794.746314
532.942638	24767.249340
533.303824	24856.873494
533.664953	24890.203082
534.026025	24559.067330
534.387040	24818.585930
534.747999	24896.186932
535.108902	25043.002976
535.469748	24546.860176
535.830537	24761.136941
536.191270	24877.191864
536.551947	24781.069663
536.912567	24467.404030
537.273131	24761.540233
537.633638	24493.668441
537.994089	24696.161509
538.354483	24270.461272
538.714821	24761.293217
539.075103	24814.094262
539.435328	24608.803354
539.795497	24154.267718
540.155609	24580.252779
540.515665	24849.934345
540.875665	24115.919660
541.235609	24377.008580
541.595496	24371.813671
541.955328	24716.013573
542.315102	24640.020699
542.674821	24217.279620
543.034483	24093.196659
543.394090	24241.973712
543.753640	24041.214801
544.113134	24673.279712
544.472571	24282.388642
544.831953	24567.801129
545.191278	24178.722355
545.550548	24111.491007
545.909761	24320.265352
546.268918	24557.189500
546.628019	24512.262737
546.987064	24216.498241
547.346053	23990.336956
547.704986	24129.003975
548.063863	24262.682772
548.422684	24247.050154
548.781449	23826.454086
549.140158	24221.846905
549.498811	23795.282111
549.857408	23531.596997
550.215949	23975.349606
550.574434	23651.906654
550.932864	23883.189752
551.291237	24013.821171
551.649555	23902.729264
552.007817	23941.127733
552.366022	23811.799452
552.724173	23862.647050
553.082267	23792.567450
553.440305	24260.595734
553.798288	23546.468401
554.156215	24077.611932
554.514086	24155.359127
554.871902	23521.731459
555.229661	23820.646677
555.587365	23675.476569
555.945014	23512.644779
556.302606	23775.692187
556.660143	23713.164235
557.017625	23978.759946
557.375050	23523.097612
557.732421	23899.414705
558.089735	23715.205903
558.446994	23776.259317
558.804197	23798.155569
559.161345	23760.624178
559.518437	23488.661490
559.875474	23705.360529
560.232455	23876.137178
560.589381	23715.034503
560.946251	23666.037009
561.303065	24005.518391
561.659825	24086.968314
562.016528	23683.660882
562.373177	23426.047839
562.729770	23783.604278
563.086307	23664.418798
563.442789	23834.530014
563.799216	23653.499659
564.155587	23669.807792
564.511904	23657.651049
564.868164	23581.539708
565.224370	23573.985539
565.580520	23473.921156
565.936615	23599.529066
566.292654	23270.707203
566.648638	23600.476803
567.004567	23419.600203
567.360441	23368.213201
567.716260	23086.899172
568.072023	23418.639863
568.427732	23181.493904
568.783385	22967.791831
569.138982	23192.927241
569.494525	23234.559610
569.850013	22980.926557
570.205445	23085.132248
570.560823	22881.688923
570.916145	22646.461123
571.271412	22823.347649
571.626625	22580.570721
571.981782	22684.693233
572.336884	22494.868585
572.691931	22629.500161
573.046923	22366.601467
573.401860	22249.192994
573.756743	22241.401891
574.111570	22171.954955
574.466342	22104.232094
574.821059	22196.891023
575.175722	21882.484340
575.530330	21878.849668
575.884882	21904.098287
576.239380	21808.409625
576.593823	21692.649609
576.948211	21683.081499
577.302544	21522.518229
577.656823	21394.946789
578.011047	21493.150987
578.365216	21374.063810
578.719330	21262.704721
579.073389	21159.736633
579.427394	21300.543622
579.781344	21080.088923
580.135239	20956.563010
580.489080	20944.376020
580.842866	20706.932633
581.196597	20872.443796
581.550273	20859.835870
581.903895	20760.396590
582.257463	21075.892163
582.610975	20610.578539
582.964434	20905.077706
583.317837	20621.694283
583.671186	20714.602749
584.024481	20677.320895
584.377721	20462.023297
584.730906	20503.832106
585.084037	20525.050323
585.437113	20436.003381
585.790135	20640.459978
586.143103	20109.210583
586.496016	20117.513364
586.848874	20371.295131
587.201679	20308.525203
587.554428	19968.413677
587.907124	20299.133534
588.259765	20079.087168
588.612352	20158.298819
588.964884	19726.259331
589.317362	19903.886908
589.669786	19949.461459
590.022155	20005.554378
590.374470	20181.561223
590.726731	19982.407920
591.078937	19731.040866
591.431090	19840.862402
591.783188	19585.530481
592.135232	19554.567714
592.487222	19659.975720
592.839157	19688.803558
593.191038	19576.305169
593.542866	19461.583631
593.894639	19178.691721
594.246358	19398.299506
594.598022	19319.806220
594.949633	19061.048834
595.301190	19016.837915
595.652692	19179.641979
596.004141	19428.551470
596.355535	18757.145395
596.706876	18764.755017
597.058162	18657.607813
597.409395	18878.604436
597.760573	18969.851841
598.111698	18750.256659
598.462768	18686.450774
598.813785	18641.695411
599.164748	18473.411613
599.515657	18498.486312
599.866511	18287.710629
600.217312	18651.044230
600.568060	18184.097273
600.918753	18490.700250
601.269392	18387.076812
601.619978	18167.010282
601.970510	18382.196975
602.320988	18332.508842
602.671412	18540.958033
603.021783	18433.157999
603.372100	18170.390376
603.722363	18305.238721
604.072572	18241.629441
604.422728	18378.837046
604.772830	18147.080080
605.122878	18095.405733
605.472872	18083.206141
605.822813	18066.903049
606.172701	18036.966157
606.522534	18238.917301
606.872314	18264.322195
607.222041	18093.109487
607.571714	18306.501530
607.921333	18129.695661
608.270899	18213.787149
608.620411	18402.729595
608.969870	18155.738262
609.319276	18170.806271
609.668627	18191.117080
610.017926	18333.207042
610.367171	18441.241490
610.716362	18484.166915
611.065500	18305.710068
611.414585	18436.855686
611.763616	18419.998067
612.112594	18379.134474
612.461518	18337.527311
612.810389	18543.198826
613.159207	18379.575575
613.507971	18296.603224
613.856682	18580.601667
614.205340	18514.186986
614.553945	18644.039547
614.902496	18393.037977
615.250994	18627.025653
615.599439	18570.191684
615.947830	18552.905568
616.296169	18598.190253
616.644454	18563.413853
616.992686	18540.637920
617.340864	18754.135827
617.688990	18522.822482
618.037063	18685.654272
618.385082	18531.667187
618.733048	18818.216454
619.080961	18679.819137
619.428821	18723.248677
619.776628	18612.136605
620.124382	18531.682310
620.472083	18565.768072
620.819731	18597.182022
621.167326	18294.387637
621.514868	18334.094285
621.862357	18095.627544
622.209793	18103.005272
622.557176	17937.698276
622.904506	17767.261906
623.251783	17673.282195
623.599007	17432.221780
623.946179	17387.393319
624.293297	17331.166810
624.640363	17078.988130
624.987376	17103.533508
625.334336	16899.686890
625.681243	16741.417345
626.028097	16743.670741
626.374899	16688.505394
626.721647	16544.540122
627.068343	16382.855195
627.414987	16312.435317
627.761577	16285.646626
628.108115	16333.706466
628.454600	16050.381017
628.801032	16145.391643
629.147412	16075.128041
629.493739	16099.691063
629.840014	15908.767443
630.186236	16008.158833
630.532405	15770.901968
630.878521	15976.933926
631.224585	15862.151894
631.570597	15685.159503
631.916556	15717.231324
632.262462	15700.083839
632.608316	15615.188288
632.954117	15560.073353
633.299866	15551.510953
633.645562	15480.813811
633.991206	15232.156377
634.336797	15098.381798
634.682336	15067.701336
635.027823	14960.697804
635.373257	14847.110526
635.718639	14741.445421
636.063968	14701.769019
636.409245	14447.836018
636.754470	14467.882166
637.099642	14323.221215
637.444762	14093.279065
637.789829	14134.409839
638.134845	13974.658194
638.479808	13998.850692
638.824719	13955.068270
639.169577	13800.761072
639.514383	13850.214791
639.859137	13672.975383
640.203839	13753.926232
640.548489	13587.270727
640.893086	13581.861569
641.237632	13451.898102
641.582125	13595.901182
641.926566	13437.825721
642.270955	13441.808233
642.615292	13412.733378
642.959576	13415.957196
643.303809	13453.833905
643.647990	13380.820353
643.992118	13442.337554
644.336195	13216.221639
644.680219	13413.736568
645.024192	13343.941792
645.368112	13576.074324
645.711981	13633.545999
646.055797	13819.166324
646.399562	13775.525056
646.743274	14049.279874
647.086935	14319.989836
647.430544	14286.892140
647.774101	14310.386437
648.117606	14476.346263
648.461059	14440.864102
648.804460	14434.716415
649.147810	14166.005271
649.491108	14061.602975
649.834354	14083.887395
650.177548	13782.391107
650.520690	13590.471860
650.863781	13509.584026
651.206820	13552.827043
651.549807	13381.894119
651.892742	13194.330429
652.235626	13129.102939
652.578458	13135.449752
652.921238	12819.956700
653.263967	13017.746371
653.606644	12840.585102
653.949269	12820.140702
654.291843	12625.418573
654.634365	12768.163885
654.976836	12635.528607
655.319255	12637.507260
655.661622	12592.217534
656.003938	12512.315245
656.346203	12442.712034
656.688416	12512.993281
657.030577	12469.999800
657.372687	12393.182698
657.714746	12361.052904
658.056753	12546.085935
658.398708	12381.260369
658.740612	12373.592774
659.082465	12475.061118
659.424266	12434.555447
659.766016	12465.462762
660.107715	12362.903007
660.449362	12441.751694
660.790958	12398.160837
661.132503	12353.874301
661.473996	12416.641707
661.815438	12430.875405
662.156829	12446.119854
662.498168	12428.969849
662.839456	12417.662541
663.180693	12443.427878
663.521879	12531.605221
663.863013	12511.372550
664.204097	12482.398518
664.545129	12601.699944
664.886110	12572.466293
665.227040	12660.908296
665.567918	12675.452025
665.908746	12697.754090
666.249522	12681.947552
666.590248	12729.054614
666.930922	12845.722037
667.271545	12823.137668
667.612118	12914.395156
667.952639	12813.133498
668.293109	12822.605826
668.633528	12782.833643
668.973896	12759.644335
669.314213	12842.851100
669.654480	12584.693612
669.994695	12640.358033
670.334859	12669.478258
670.674973	12622.071247
671.015035	12653.097028
671.355047	12591.723501
671.695008	12560.496073
672.034918	12570.215418
672.374777	12611.051285
672.714585	12532.154706
673.054342	12565.600242
673.394049	12515.274403
673.733705	12601.783123
674.073310	12514.936645
674.412864	12534.198894
674.752368	12403.433884
675.091820	12413.808579
675.431223	12408.459914
675.770574	12283.247735
676.109875	12201.631454
676.449125	12165.854386
676.788324	12097.004827
677.127473	11942.672423
677.466571	11931.405444
677.805619	11825.768065
678.144616	11752.383988
678.483562	11719.392157
678.822458	11578.708677
679.161303	11566.309959
679.500098	11559.254864
679.838842	11511.626042
680.177535	11529.527180
680.516179	11592.927251
680.854771	11535.072449
681.193314	11746.891651
681.531805	11903.933676
681.870247	12305.022999
682.208638	12714.500803
682.546978	13029.424204
682.885268	13096.169081
683.223508	12788.877987
683.561697	12629.154068
683.899836	12527.065662
684.237925	12331.859582
684.575963	12250.185328
684.913951	12171.679439
685.251889	12119.556429
685.589776	12213.853732
685.927614	12143.985860
686.265401	12108.970006
686.603137	12147.194555
686.940824	12296.856330
687.278460	12421.100608
687.616046	12462.813635
687.953582	12637.610604
688.291068	12556.611864
688.628504	12796.016260
688.965889	12801.392651
689.303224	12776.244855
689.640510	12668.969101
689.977745	12368.266795
690.314930	12135.390693
690.652065	12049.764174
690.989150	11766.030392
691.326185	11538.366843
691.663170	11327.762559
692.000105	11087.614592
692.336990	10981.468057
692.673825	10730.146373
693.010610	10615.555905
693.347345	10408.921529
693.684030	10209.929543
694.020665	10153.236727
694.357251	9956.452766
694.693786	9906.399149
695.030272	9735.226771
695.366707	9614.057597
695.703093	9550.465962
696.039429	9542.896669
696.375716	9476.023243
696.711952	9334.926388
697.048139	9374.902738
697.384276	9337.588117
697.720363	9345.711936
698.056400	9284.424108
698.392388	9235.479546
698.728326	9203.654742
699.064214	9137.976069
699.400053	9184.531124
699.735842	8999.056992
700.071581	8956.257596
700.407270	8887.902070
700.742910	8803.485429
701.078501	8714.809012
701.414042	8589.168335
701.749533	8519.902881
702.084974	8387.998570
702.420366	8498.702308
702.755709	8378.160758
703.091002	8254.171059
703.426246	8278.784492
703.761440	8226.308601
704.096584	8180.179523
704.431679	8114.268957
704.766725	8108.186805
705.101721	8052.419041
705.436668	8093.960669
705.771565	7990.778332
706.106413	8075.366373
706.441212	8116.673587
706.775961	8074.469047
707.110661	8108.617824
707.445311	8249.631500
707.779913	8144.762897
708.114465	8276.732743
708.448967	8312.371180
708.783421	8446.735574
709.117825	8630.815827
709.452180	8674.462137
709.786485	8756.310311
710.120742	9038.975369
710.454949	9038.168784
710.789107	9134.618660
711.123216	9345.989200
711.457275	9516.682669
711.791286	9671.521709
712.125247	9671.224281
712.459159	9659.649792
712.793023	9911.601620
713.126837	9488.979008
713.460602	9639.341504
713.794318	9459.672260
714.127985	9497.238939
714.461602	9181.292183
714.795171	9121.990570
715.128691	8886.762770
715.462162	8626.798027
715.795584	8579.043177
716.128957	8432.592617
716.462281	8258.617356
716.795556	8310.095099
717.128782	8107.760827
717.461960	7841.250147
717.795088	7907.243892
718.128167	7819.590830
718.461198	7653.189903
718.794180	7596.169412
719.127113	7585.096517
719.459997	7438.600587
719.792833	7204.544855
720.125619	7269.757221
720.458357	7129.560212
720.791046	7112.959692
721.123686	7118.830116
721.456278	6958.135775
721.788821	6979.779969
722.121315	6871.616972
722.453761	6934.598628
722.786158	6883.314970
723.118506	6892.981382
723.450805	6857.514344
723.783056	6924.912051
724.115259	6828.895714
724.447412	6826.997720
724.779518	6869.545058
725.111574	6872.930193
725.443582	6958.518903
725.775542	6933.139214
726.107453	7126.195242
726.439315	7040.515791
726.771129	7096.303720
727.102895	7263.160871
727.434612	7372.385031
727.766281	7408.330978
728.097901	7496.258784
728.429473	7474.246585
728.760996	7459.294523
729.092471	7433.698064
729.423897	7378.247893
729.755276	7398.104998
730.086606	7319.626835
730.417887	7423.678771
730.749120	7601.097140
731.080305	7802.433263
731.411442	7924.172087
731.742530	7917.628669
732.073570	8023.727313
732.404562	8112.345757
732.735506	7955.709545
733.066401	8098.366637
733.397249	8035.052266
733.728048	7802.332439
734.058798	7465.366593
734.389501	7245.189157
734.720156	7071.483599
735.050762	6836.676735
735.381320	6732.677731
735.711831	6690.064858
736.042293	6579.141829
736.372707	6601.572443
736.703073	6466.303162
737.033391	6499.332802
737.363661	6512.091962
737.693883	6538.895777
738.024056	6620.985927
738.354182	6666.260529
738.684260	6698.183636
739.014290	6813.479866
739.344272	6918.749240
739.674207	6950.931966
740.004093	7016.010742
740.333931	7038.327930
740.663722	7044.425206
740.993464	7119.051927
741.323159	7110.852490
741.652806	6859.745055
741.982405	6864.783688
742.311956	6931.523524
742.641460	6775.666171
742.970915	6581.614515
743.300323	6572.452218
743.629683	6517.606985
743.958996	6385.196038
744.288260	6295.995341
744.617477	6244.966261
744.946647	6253.173260
745.275768	6084.087918
745.604842	6038.601587
745.933869	6019.029307
746.262847	5977.777546
746.591778	5968.673222
746.920662	5928.049083
747.249498	5916.124234
747.578286	5962.376821
747.907027	6037.547986
748.235720	6100.658191
748.564365	6067.651236
748.892963	6092.857006
749.221514	6253.432879
749.550017	6092.219300
749.878473	5962.069310
750.206881	6015.944121
750.535242	5959.198373
750.863555	5892.506428
751.191821	5906.755250
751.520039	5907.319859
751.848210	5819.760058
752.176334	5835.609445
752.504411	5888.312188
752.832440	5812.974665
753.160421	5740.661833
753.488356	5789.762672
753.816243	5821.219472
754.144082	5674.466442
754.471875	5646.959386
754.799620	5686.844995
755.127318	5699.331933
755.454969	5655.365510
755.782572	5621.370489
756.110129	5659.620244
756.437638	5656.005737
756.765100	5592.139359
757.092515	5584.479325
757.419882	5635.475638
757.747203	5619.369151
758.074477	5684.924316
758.401703	5665.120143
758.728882	5619.661538
759.056014	5668.371687
759.383099	5801.581657
759.710138	5813.264531
760.037129	5798.960257
760.364073	5805.052491
760.690970	5883.258432
761.017820	5869.296956
761.344623	5820.929605
761.671379	5919.516931
761.998088	6034.979518
762.324751	6270.058604
762.651366	6851.782553
762.977935	8137.591855
763.304456	9759.106716
763.630931	10679.896152
763.957359	10310.165326
764.283740	9379.170074
764.610074	8559.791011
764.936362	7568.432983
765.262602	6975.323589
765.588796	6436.194871
765.914943	6091.458085
766.241044	5933.314569
766.567097	5735.212346
766.893104	5479.081401
767.219064	5297.700686
767.544978	5234.857662
767.870845	5160.329244
768.196665	5060.494233
768.522438	4977.194207
768.848165	4949.689671
769.173846	4888.038880
769.499479	4842.640769
769.825066	4787.150268
770.150607	4724.254312
770.476101	4701.117937
770.801548	4699.885375
771.126949	4629.112616
771.452303	4571.489707
771.777611	4531.858676
772.102872	4543.455850
772.428087	4509.027290
772.753256	4470.974140
773.078378	4428.449487
773.403453	4359.839383
773.728482	4344.214327
774.053465	4298.554076
774.378401	4281.114204
774.703291	4285.893218
775.028135	4215.372517
775.352932	4163.146163
775.677683	4150.986900
776.002388	4168.983819
776.327046	4181.579142
776.651658	4107.854788
776.976224	4046.148544
777.300743	4052.323958
777.625216	4069.378181
777.949643	4067.976740
778.274024	4030.024413
778.598359	3980.278307
778.922647	4005.196731
779.246889	3995.167355
779.571086	3990.660564
779.895236	3973.934015
780.219339	3962.062098
780.543397	3954.270995
780.867409	4003.865866
781.191374	4022.830687
781.515294	3961.996563
781.839167	3950.848051
782.162995	3968.973520
782.486776	3959.004638
782.810511	3966.284064
783.134201	3962.795586
783.457844	3922.055501
783.781441	3861.796068
784.104993	3871.825444
784.428498	3888.952764
784.751958	3884.140983
785.075372	3865.702963
785.398739	3829.721727
785.722061	3839.204137
786.045337	3884.166189
786.368568	3918.118360
786.691752	3832.902695
787.014891	3878.610837
787.337983	4001.854446
787.661030	4151.659894
787.984031	4319.711799
788.306987	4483.362776
788.629897	4569.264037
788.952760	4528.463459
789.275579	4460.798571
789.598351	4401.242380
789.921078	4264.750619
790.243759	4062.073549
790.566395	4037.810476
790.888984	4036.956000
791.211529	3932.520936
791.534027	3870.005587
791.856480	3863.850339
792.178888	3798.900113
792.501249	3749.688369
792.823566	3755.226076
793.145836	3789.705048
793.468062	3740.258890
793.790241	3692.559493
794.112375	3721.092423
794.434464	3784.326137
794.756507	3809.589879
795.078505	3791.547590
795.400457	3822.467507
795.722364	3956.872230
796.044226	4062.839804
796.366042	4133.267244
796.687812	4119.071355
797.009538	4123.931027
797.331218	4081.247578
797.652852	4054.821849
797.974442	4033.754867
798.295986	4037.167728
798.617484	3955.289308
798.938938	3869.304867
799.260346	3907.841968
799.581709	3904.746699
799.903026	3832.433868
800.224299	3796.941624
800.545526	3785.909059
800.866708	3752.004779
801.187845	3690.238041
801.508936	3725.616859
801.829983	3724.359091
802.150984	3646.785816
802.471940	3634.898775
802.792851	3647.143738
803.113717	3645.175167
803.434538	3647.700785
803.755314	3591.333123
804.076045	3566.981830
804.396731	3582.662339
804.717372	3610.771813
805.037967	3599.030965
805.358518	3585.631578
805.679024	3613.524283
805.999485	3627.082466
806.319901	3629.968527
806.640272	3642.737769
806.960598	3658.178823
807.280879	3632.403404
807.601115	3643.723315
807.921306	3661.064884
808.241453	3701.373950
808.561554	3679.190353
808.881611	3614.401443
809.201623	3647.000065
809.521590	3661.760563
809.841513	3631.127992
810.161390	3663.116634
810.481223	3642.710043
810.801011	3588.192485
811.120755	3577.369127
811.440453	3612.175774
811.760107	3616.664922
812.079716	3576.575146
812.399281	3542.060886
812.718801	3565.265317
813.038276	3541.050134
813.357707	3533.193496
813.677093	3556.347516
813.996434	3504.819362
814.315731	3510.851102
814.634983	3515.098274
814.954191	3526.002290
815.273354	3555.528328
815.592473	3555.931621
815.911547	3559.803227
816.230577	3596.979216
816.549562	3646.495949
816.868502	3689.701158
817.187399	3715.138821
817.506250	3712.255281
817.825058	3681.791588
818.143821	3769.716873
818.462539	3877.579921
818.781213	3923.444339
819.099843	3975.557267
819.418429	4213.141806
819.736970	4454.666008
820.055466	4697.407648
820.373919	5058.626485
820.692327	5463.678156
821.010691	5888.682713
821.329011	7224.376754
821.647286	9904.775898
821.965517	14399.945056
822.283704	18430.355118
822.601847	20662.877990
822.919945	18903.873219
823.237999	16346.644587
823.556010	13875.806208
823.873976	11798.016513
824.191897	9717.827228
824.509775	8359.158129
824.827609	7237.680359
825.145398	6686.518406
825.463144	6562.679941
825.780845	6678.354257
826.098502	6859.775302
826.416116	7703.888787
826.733685	9015.967543
827.051210	10127.620104
827.368692	10213.768382
827.686129	8988.226073
828.003522	7473.621482
828.320872	6455.525175
828.638177	5761.507004
828.955439	5207.350606
829.272656	4708.631777
829.589830	4422.228703
829.906960	4247.182198
830.224046	4065.786359
830.541088	3938.351031
830.858086	3889.529976
831.175041	3815.228410
831.491952	3797.115544
831.808819	3810.807318
832.125642	3876.886763
832.442421	4022.944113
832.759157	4287.869350
833.075849	4826.287266
833.392497	5680.974572
833.709101	6446.259534
834.025662	6804.647764
834.342179	6462.280321
834.658653	5798.940092
834.975083	5163.167413
835.291469	4583.943878
835.607811	4173.130168
835.924110	4032.217315
836.240366	3838.407635
836.556578	3633.184783
836.872746	3522.274357
837.188871	3485.673059
837.504952	3419.825508
837.820990	3336.470029
838.136984	3289.486475
838.452935	3315.135866
838.768842	3313.721822
839.084706	3335.242508
839.400526	3482.877740
839.716303	3814.235302
840.032037	4328.944672
840.347727	4606.656796
840.663373	4338.225436
840.978977	3961.676450
841.294537	3655.368380
841.610054	3425.393462
841.925527	3317.709375
842.240957	3247.347470
842.556344	3196.910726
842.871687	3138.519041
843.186987	3087.353850
843.502244	3052.280022
843.817458	3019.141997
844.132629	2985.305773
844.447756	2993.238028
844.762840	2977.998620
845.077881	2947.643312
845.392879	2930.624377
845.707833	2930.077412
846.022745	2928.928029
846.337613	2926.180600
846.652438	2916.118457
846.967221	2911.442787
847.281960	2898.068605
847.596656	2896.301681
847.911309	2893.314797
848.225919	2889.002090
848.540485	2881.427757
848.855009	2883.802140
849.169490	2873.387116
849.483928	2864.678523
849.798323	2862.959489
850.112675	2861.305991
850.426984	2875.060779
850.741251	2868.837475
851.055474	2859.438243
851.369654	2852.163858
851.683792	2858.845908
851.997887	2866.475694
852.311938	2868.081302
852.625947	2857.129395
852.939914	2860.837164
853.253837	2865.555684
853.567718	2850.893488
853.881555	2846.248064
854.195350	2864.073584
854.509103	2857.754498
854.822812	2852.113447
855.136479	2851.269054
855.450103	2848.456090
855.763685	2843.629185
856.077224	2840.067610
856.390720	2854.167717
856.704173	2862.964531
857.017584	2858.397245
857.330953	2852.000021
857.644278	2860.496886
857.957561	2871.645398
858.270802	2876.331150
858.584000	2874.193701
858.897155	2861.671475
859.210268	2862.036958
859.523339	2858.397245
859.836367	2858.069570
860.149352	2852.748632
860.462295	2846.714371
860.775195	2857.764580
861.088054	2854.230732
861.400869	2838.361179
861.713642	2837.673062
862.026373	2849.461800
862.339062	2854.318952
862.651708	2857.739375
862.964312	2863.188862
863.276873	2858.046885
863.589392	2862.581403
863.901869	2877.687220
864.214303	2897.141033
864.526696	2916.738519
864.839045	2909.396078
865.151353	2910.855492
865.463619	2908.871798
865.775842	2909.383475
866.088023	2925.681526
866.400162	2935.663010
866.712258	2907.301479
867.024313	2893.987791
867.336325	2901.544481
867.648296	2924.804365
867.960224	2918.999476
868.272110	2902.756878
868.583954	2907.684606
868.895755	2922.528284
869.207515	2909.670821
869.519233	2913.663415
869.830909	2925.547935
870.142542	2933.601178
870.454134	2933.137392
870.765684	2936.567897
871.077191	2935.685695
871.388657	2943.212138
871.700081	2955.023562
872.011463	2967.150057
872.322803	2965.799028
872.634101	2967.850778
872.945357	2982.810402
873.256571	3010.604803
873.567744	3001.593741
873.878874	2993.134685
874.189963	3019.560413
874.501010	3021.339940
874.812015	3010.317458
875.122979	3011.592869
875.433900	3007.859895
875.744780	3011.101357
876.055618	3024.014273
876.366415	3017.352388
876.677169	3027.338913
876.987882	3025.786238
877.298554	3016.979342
877.609183	3039.629247
877.919771	3059.362843
878.230317	3089.140939
878.540822	3141.389978
878.851285	3180.864733
879.161707	3218.149107
879.472087	3315.256854
879.782425	3536.326573
880.092722	3966.465546
880.402977	4485.525431
880.713191	5105.065595
881.023363	6236.953347
881.333494	7515.009355
881.643583	8082.524811
881.953631	7797.608878
882.263637	7182.217584
882.573602	6605.139059
882.883526	6025.918044
883.193408	5459.357887
883.503248	4992.708358
883.813048	4692.152245
884.122806	4392.075042
884.432522	4080.314964
884.742197	3844.698995
885.051831	3654.390396
885.361424	3514.611803
885.670975	3444.912810
885.980485	3359.969368
886.289954	3287.253244
886.599382	3242.223137
886.908768	3203.857436
887.218113	3159.094510
887.527417	3101.935387
887.836680	3054.840928
888.145901	3044.556974
888.455082	3039.505738
888.764221	2990.835918
889.073319	2957.161011
889.382376	2956.152780
889.691392	2961.871969
890.000366	2960.805765
890.309300	2945.195832
890.618193	2960.687298
890.927044	2977.628095
891.235855	2978.469968
891.544625	2961.471197
891.853353	2975.473002
892.162041	2988.970692
892.470687	3027.548121
892.779293	3080.772624
893.087858	3123.335086
893.396381	3193.999460
893.704864	3313.406750
894.013306	3547.074313
894.321707	3846.624716
894.630068	4055.290677
894.938387	4052.767579
895.246665	4009.915251
895.554903	3894.651789
895.863100	3690.792568
896.171256	3528.306097
896.479371	3392.472207
896.787446	3270.009977
897.095480	3167.324194
897.403473	3103.490583
897.711425	3066.004563
898.019336	3052.763973
898.327207	3027.764891
898.635038	2995.728358
898.942827	2979.226141
899.250576	2967.210551
899.558284	2936.502362
899.865952	2913.567633
900.173579	2895.535426
900.481165	2889.090310
900.788711	2876.774772
901.096216	2852.559589
901.403681	2841.832014
901.711105	2846.931141
902.018489	2844.781089
902.325832	2845.955677
902.633135	2853.262830
902.940397	2889.425547
903.247619	2964.712659
903.554800	3154.922956
903.861941	3487.303873
904.169041	3908.504879
904.476101	4213.572825
904.783121	4180.064275
905.090100	3937.592337
905.397039	3663.973630
905.703938	3418.227462
906.010796	3235.931777
906.317614	3121.122019
906.624391	3031.298740
906.931129	2961.193934
907.237826	2899.898544
907.544483	2851.107737
907.851099	2823.630928
908.157675	2801.245684
908.464211	2781.552417
908.770707	2766.610437
909.077163	2754.647778
909.383578	2738.727815
909.689954	2728.801783
909.996289	2726.399673
910.302584	2729.439489
910.608839	2731.965107
910.915054	2726.016545
911.221229	2715.808209
911.527363	2717.686038
911.833458	2727.455795
912.139513	2728.350599
912.445527	2733.931157
912.751502	2742.450707
913.057436	2750.826584
913.363331	2763.883172
913.669186	2784.027623
913.975000	2818.057932
914.280775	2875.993393
914.586510	2945.551233
914.892205	3022.859848
915.197859	3148.092192
915.503475	3336.704443
915.809050	3546.923079
916.114585	3692.095707
916.420081	3716.429356
916.725536	3661.861386
917.030952	3540.304044
917.336328	3416.205959
917.641665	3286.645785
917.946961	3190.677339
918.252218	3118.682101
918.557435	3040.655121
918.862612	2983.848879
919.167750	2934.911878
919.472848	2895.379150
919.777906	2867.758668
920.082925	2845.698579
920.387904	2813.586429
920.692843	2795.564304
920.997743	2783.911677
921.302603	2771.379368
921.607423	2761.352513
921.912204	2751.091244
922.216946	2736.741600
922.521647	2729.356310
922.826310	2722.780124
923.130932	2716.425750
923.435516	2705.461240
923.740059	2696.228367
924.044564	2693.586802
924.349028	2686.226718
924.653454	2681.089782
924.957840	2673.172650
925.262186	2669.157371
925.566493	2662.606392
925.870761	2659.364930
926.174989	2657.111534
926.479178	2653.207160
926.783328	2647.770276
927.087438	2644.150727
927.391509	2647.235913
927.695541	2642.857671
927.999533	2638.144192
928.303486	2634.872484
928.607400	2633.954994
928.911275	2634.784263
929.215110	2634.673358
929.518906	2631.835188
929.822663	2632.248563
930.126381	2631.694036
930.430060	2631.996505
930.733699	2631.837709
931.037299	2633.748306
931.340861	2634.673358
931.644383	2635.875673
931.947866	2634.985910
932.251309	2630.582462
932.554714	2633.634880
932.858080	2632.437606
933.161407	2630.068264
933.464694	2629.087760
933.767943	2621.405041
934.071153	2625.773201
934.374323	2626.201699
934.677455	2627.285547
934.980548	2626.221864
935.283602	2627.036010
935.586617	2622.113323
935.889593	2625.460649
936.192530	2626.680609
936.495428	2625.251442
936.798287	2625.760598
937.101108	2629.672533
937.403890	2633.284520
937.706632	2639.717032
938.009336	2645.673156
938.312002	2653.839825
938.614628	2661.641011
938.917216	2666.888852
939.219765	2667.937412
939.522275	2669.767351
939.824747	2664.799293
940.127179	2664.159067
940.429573	2661.746875
940.731929	2658.286123
941.034246	2654.986687
941.336524	2652.662716
941.638763	2648.995276
941.940964	2645.060656
942.243126	2642.446817
942.545250	2644.569143
942.847335	2641.804070
943.149381	2637.408184
943.451389	2636.006743
943.753359	2631.953656
944.055290	2631.363841
944.357182	2630.552215
944.659036	2628.780249
944.960851	2627.764457
945.262628	2625.725310
945.564367	2627.623304
945.866067	2628.066926
946.167729	2626.335290
946.469352	2627.930815
946.770937	2628.434930
947.072484	2628.825620
947.373992	2624.943931
947.675462	2622.607356
947.976893	2620.507716
948.278286	2615.627879
948.579641	2618.627365
948.880958	2613.482868
949.182236	2618.158538
949.483476	2615.027982
949.784678	2615.474124
950.085841	2616.734412
950.386967	2619.287757
950.688054	2616.893208
950.989103	2620.144753
951.290114	2620.878241
951.591087	2621.621811
951.892021	2625.586678
952.192917	2628.833181
952.493776	2629.758233
952.794596	2630.292595
953.095378	2631.008439
953.396122	2630.171608
953.696828	2629.657410
953.997496	2625.284209
954.298126	2624.817902
954.598718	2622.942593
954.899272	2619.746502
955.199788	2618.261882
955.500266	2616.583177
955.800706	2611.766355
956.101108	2611.559668
956.401472	2609.704523
956.701798	2609.313834
957.002087	2601.810076
957.302337	2603.879470
957.602550	2602.004161
957.902724	2600.143975
958.202861	2599.909561
958.502960	2596.862184
958.803022	2598.195569
959.103045	2596.476535
959.403031	2596.156422
959.702979	2596.751278
960.002889	2593.330855
960.302762	2594.076946
960.602596	2594.392018
960.902393	2594.681885
961.202153	2593.870259
961.501875	2591.503437
961.801559	2592.476380
962.101205	2593.308170
962.400814	2593.986205
962.700385	2592.189034
962.999918	2585.096131
963.299414	2589.134095
963.598873	2588.113261
963.898293	2587.157962
964.197677	2590.008735
964.497022	2589.950762
964.796331	2591.447984
965.095601	2591.637028
965.394835	2590.424630
965.694030	2589.786924
965.993189	2587.921697
966.292309	2590.696852
966.591393	2592.554518
966.890439	2588.574527
967.189447	2590.069229
967.488419	2592.922522
967.787353	2592.131061
968.086249	2590.890937
968.385108	2589.592840
968.683930	2587.319279
968.982714	2589.340782
969.281462	2588.229208
969.580172	2591.737851
969.878844	2588.030082
970.177480	2591.589137
970.476078	2591.279106
970.774639	2592.592326
971.073162	2592.204157
971.371649	2589.439085
971.670098	2593.038468
971.968510	2590.321287
972.266885	2592.365474
972.565223	2590.175093
972.863524	2591.642069
973.161788	2591.959662
973.460014	2589.527305
973.758204	2589.290371
974.056356	2590.497727
974.354471	2590.006214
974.652550	2588.894640
974.950591	2590.838005
975.248595	2589.794486
975.546563	2591.725248
975.844493	2591.982347
976.142386	2586.507654
976.440243	2589.096286
976.738062	2591.170721
977.035845	2587.725092
977.333590	2590.401945
977.631299	2589.353385
977.928971	2587.538570
978.226606	2582.661253
978.524204	2586.517736
978.821765	2581.189236
979.119290	2587.689804
979.416777	2589.313056
979.714228	2587.127716
980.011642	2585.630493
980.309020	2588.206522
980.606360	2588.133426
980.903664	2588.037644
981.200931	2590.606112
981.498162	2587.873806
981.795356	2589.348344
982.092513	2592.017635
982.389633	2596.668099
982.686717	2597.303285
982.983764	2599.438213
983.280775	2603.594645
983.577749	2608.013216
983.874686	2607.456168
984.171587	2601.827720
984.468451	2600.065837
984.765279	2599.085332
985.062070	2596.902513
985.358824	2594.397059
985.655543	2591.589137
985.952224	2590.535536
986.248869	2588.798858
986.545478	2588.065370
986.842050	2587.410020
987.138586	2585.696028
987.435086	2588.277099
987.731549	2583.450194
988.027975	2586.956316
988.324366	2585.370873
988.620719	2584.281984
988.917037	2584.526480
989.213318	2585.930442
989.509563	2582.250399
989.805772	2583.566140
990.101944	2583.488002
990.398080	2586.255596
990.694180	2582.716706
990.990244	2582.126891
991.286271	2583.220821
991.582262	2583.994638
991.878217	2585.045719
992.174136	2585.809454
992.470019	2584.145873
992.765865	2581.350553
993.061676	2579.886098
993.357450	2582.860379
993.653188	2580.216294
993.948890	2583.304000
994.244556	2584.556727
994.540186	2586.111923
994.835780	2583.412385
995.131337	2583.515729
995.426859	2585.375915
995.722345	2587.624269
996.017795	2587.246183
996.313208	2588.418251
996.608586	2588.151070
996.903928	2589.315576
997.199234	2588.256934
997.494504	2587.452870
997.789738	2589.081163
998.084936	2588.181317
998.380099	2587.140318
998.675225	2589.255083
998.970316	2585.945565
999.265371	2588.032603
999.560390	2586.338775
999.855373	2583.172930
1000.150320	2585.219639
1000.445232	2584.362643
1000.740108	2584.586974
1001.034948	2582.394072
1001.329752	2584.299628
1001.624521	2582.409196
1001.919254	2581.045563
1002.213951	2583.719896
1002.508613	2581.373238
1002.803239	2581.587487
1003.097829	2581.209401
1003.392384	2583.346850
1003.686903	2581.368197
1003.981386	2581.758887
1004.275834	2581.607652
1004.570246	2583.092272
1004.864623	2582.033630
1005.158964	2581.758887
1005.453270	2582.489854
1005.747540	2581.862230
1006.041775	2581.653022
1006.335974	2581.312745
1006.630138	2582.719227
1006.924266	2583.551017
1007.218359	2580.599421
1007.512416	2577.428536
1007.806438	2579.142528
1008.100425	2580.344843
1008.394376	2576.662280
1008.688292	2582.305852
1008.982172	2580.745615
1009.276017	2581.809298
1009.569827	2582.663774
1009.863602	2582.923393
1010.157341	2578.613207
1010.451045	2582.220152
1010.744714	2578.620768
1011.038347	2581.166551
1011.331945	2581.491706
1011.625508	2583.470358
1011.919036	2582.439442
1012.212528	2584.130750
1012.505986	2581.584967
1012.799408	2582.197467
1013.092795	2580.818712
1013.386147	2581.960533
1013.679464	2580.130594
1013.972745	2581.945409
1014.265992	2581.491706
1014.559204	2583.094793
1014.852380	2578.378793
1015.145521	2581.007755
1015.438628	2578.618248
1015.731699	2579.719740
1016.024736	2583.908939
1016.317737	2580.042374
1016.610703	2581.912642
1016.903635	2581.988259
1017.196531	2579.066911
1017.489393	2577.468865
1017.782219	2578.618248
1018.075011	2580.092785
1018.367768	2580.932137
1018.660490	2580.629668
1018.953177	2580.629668
1019.245829	2580.629668
