Dividing Wavelength (nm)	Counts (n)	Blue Motor Position (mm): 2.800000	Red Motor Position (mm): 0.000000	
326.493990	2162.528971
326.888308	2162.528971
327.282561	2162.528971
327.676750	2122.166973
328.070874	2118.365943
328.464933	2118.585233
328.858929	2122.154370
329.252859	2125.567231
329.646726	2134.185084
330.040528	2145.424336
330.434265	2158.959834
330.827938	2178.534635
331.221547	2194.257993
331.615091	2215.357743
332.008571	2233.798284
332.401986	2249.284708
332.795338	2266.442275
333.188625	2289.893723
333.581847	2305.291928
333.975006	2326.931080
334.368100	2343.367763
334.761129	2360.406863
335.154095	2378.381097
335.546996	2394.840464
335.939833	2411.682959
336.332606	2426.561924
336.725315	2438.890066
337.117960	2451.808023
337.510540	2463.301854
337.903056	2472.028091
338.295508	2480.683752
338.687896	2490.904692
339.080220	2500.694612
339.472480	2504.357011
339.864676	2513.317662
340.256807	2514.575429
340.648875	2518.835204
341.040879	2522.575741
341.432818	2525.318128
341.824694	2527.173273
342.216506	2529.530012
342.608253	2533.794828
342.999937	2531.029756
343.391557	2530.946577
343.783113	2529.913140
344.174605	2526.507841
344.566033	2530.359282
344.957397	2527.495907
345.348697	2526.505320
345.739934	2521.411234
346.131106	2522.618590
346.522215	2522.666481
346.913260	2520.138343
347.304241	2516.480986
347.695159	2514.595594
348.086012	2515.747498
348.476802	2510.242558
348.867528	2505.360200
349.258191	2504.964470
349.648789	2504.760303
350.039324	2497.059940
350.429796	2502.857267
350.820203	2502.421207
351.210548	2501.100425
351.600828	2499.308295
351.991045	2494.675475
352.381198	2497.725373
352.771288	2498.894920
353.161314	2496.371823
353.551276	2495.776967
353.941175	2496.265959
354.331010	2497.987513
354.720782	2495.534991
355.110490	2495.363592
355.500135	2492.732110
355.889717	2497.052379
356.279235	2493.410145
356.668689	2495.855105
357.058080	2496.397029
357.447408	2495.184631
357.836672	2496.641525
358.225873	2496.991885
358.615010	2496.548263
359.004084	2497.367451
359.393095	2495.587923
359.782043	2499.220075
360.170927	2497.115393
360.559748	2500.641680
360.948505	2501.024808
361.337199	2499.988851
361.725830	2501.186125
362.114398	2500.177894
362.502903	2502.935405
362.891344	2502.078409
363.279722	2504.500683
363.668037	2504.193173
364.056289	2504.493122
364.444478	2503.406753
364.832603	2506.020591
365.220665	2505.183760
365.608665	2507.348935
365.996601	2504.979593
366.384474	2506.229799
366.772284	2507.943792
367.160031	2510.603000
367.547715	2509.178874
367.935336	2507.911024
368.322893	2504.626712
368.710388	2503.048831
369.097820	2506.343225
369.485189	2506.502022
369.872495	2509.405726
370.259738	2507.898421
370.646918	2509.577125
371.034035	2508.455469
371.421090	2510.318175
371.808081	2511.802795
372.195010	2510.855058
372.581875	2509.420850
372.968678	2512.354801
373.355418	2511.530573
373.742096	2513.776407
374.128710	2512.969822
374.515262	2511.550737
374.901751	2512.347239
375.288177	2511.966632
375.674540	2513.683145
376.060841	2512.511077
376.447079	2515.286232
376.833254	2514.575429
377.219367	2513.005110
377.605417	2514.245234
377.991404	2514.855213
378.377329	2514.905625
378.763191	2514.898063
379.148991	2513.912518
379.534727	2515.109792
379.920402	2515.253465
380.306013	2513.607528
380.691563	2516.377642
381.077049	2514.099040
381.462474	2517.821933
381.847835	2515.893691
382.233134	2516.705317
382.618371	2515.853362
383.003545	2515.828156
383.388657	2516.168434
383.773706	2519.079700
384.158693	2517.884947
384.543618	2519.878723
384.928480	2517.398476
385.313280	2516.145749
385.698017	2518.676408
386.082692	2519.062056
386.467305	2520.760925
386.851856	2520.526512
387.236344	2520.972654
387.620770	2517.466531
388.005133	2515.800430
388.389435	2516.995183
388.773674	2514.111643
389.157851	2522.575741
389.541965	2519.452746
389.926018	2523.984743
390.310008	2517.678260
390.693936	2522.931142
391.077802	2520.004752
391.461606	2520.213960
391.845348	2521.507016
392.229027	2524.801410
392.612645	2522.099352
392.996200	2520.158507
393.379694	2523.195802
393.763125	2519.094824
394.146494	2521.723786
394.529801	2525.890299
394.913047	2520.972654
395.296230	2525.487007
395.679351	2524.635052
396.062410	2526.482635
396.445408	2520.639938
396.828343	2526.565814
397.211217	2522.333765
397.594028	2524.141019
397.976778	2525.756709
398.359466	2525.832326
398.742092	2525.938190
399.124656	2525.965917
399.507158	2525.408869
399.889598	2525.098838
400.271977	2524.456091
400.654294	2521.189423
401.036549	2525.350896
401.418742	2525.615556
401.800874	2526.724610
402.182944	2527.770650
402.564952	2528.665454
402.946898	2527.485824
403.328783	2525.398787
403.710606	2528.494055
404.092367	2528.163860
404.474067	2528.068078
404.855705	2525.151770
405.237282	2528.637728
405.618797	2527.785773
406.000250	2531.538912
406.381642	2526.800228
406.762972	2525.925587
407.144240	2525.182017
407.525447	2528.645290
407.906593	2521.736388
408.287677	2525.706297
408.668700	2529.340969
409.049661	2528.718387
409.430560	2530.286185
409.811399	2527.211082
410.192176	2532.620240
410.572891	2527.755526
410.953545	2529.787111
411.334138	2529.383819
411.714669	2530.273582
412.095139	2529.943387
412.475547	2530.429858
412.855894	2529.522451
413.236180	2529.887934
413.616405	2532.373223
413.996568	2529.499765
414.376670	2530.724766
414.756711	2529.850126
415.136691	2531.667462
415.516609	2533.935981
415.896466	2533.905734
416.276262	2533.704088
416.655997	2532.887421
417.035670	2530.891124
417.415283	2534.046886
417.794834	2532.068233
418.174324	2528.559590
418.553753	2531.385157
418.933121	2531.622091
419.312428	2534.409849
419.691674	2532.988244
420.070859	2531.201155
420.449983	2532.821886
420.829045	2531.599406
421.208047	2533.895652
421.586988	2534.072092
421.965867	2533.303316
422.344686	2535.980169
422.723444	2533.961187
423.102141	2537.870601
423.480777	2533.280631
423.859352	2535.181146
424.237866	2533.479756
424.616319	2533.648635
424.994712	2535.266845
425.373044	2538.044521
425.751314	2532.736186
426.129524	2532.380785
426.507673	2532.688295
426.885762	2530.634025
427.263789	2535.284489
427.641756	2535.355066
428.019662	2537.232895
428.397508	2536.872453
428.775292	2536.123842
429.153016	2536.655683
429.530679	2534.815662
429.908282	2537.172402
430.285824	2535.266845
430.663305	2534.588810
431.040726	2536.073430
431.418086	2537.994110
431.795385	2535.980169
432.172624	2536.748945
432.549802	2540.277752
432.926920	2539.113246
433.303977	2537.520241
433.680974	2538.329346
434.057910	2538.619213
434.434786	2537.033770
434.811601	2537.875643
435.188355	2538.977135
435.565050	2538.775488
435.941683	2538.911600
436.318257	2537.278266
436.694770	2537.570653
437.071222	2538.122659
437.447614	2537.558050
437.823946	2539.934954
438.200218	2539.440921
438.576429	2538.687268
438.952580	2539.471168
439.328670	2539.551826
439.704700	2538.039480
440.080670	2538.039480
440.456580	2539.345139
440.832429	2539.551826
441.208218	2541.268339
441.583947	2539.420756
441.959616	2540.169368
442.335224	2539.340098
442.710773	2539.448482
443.086261	2538.286497
443.461689	2539.692978
443.837057	2538.646939
444.212365	2542.584080
444.587612	2536.683410
444.962800	2537.056455
445.337927	2537.421939
445.712995	2533.353727
446.088002	2539.884542
446.462949	2539.418236
446.837837	2542.601724
447.212664	2539.375386
447.587431	2542.924358
447.962139	2542.044677
448.336786	2543.625078
448.711374	2540.529810
449.085901	2539.758513
449.460369	2539.423277
449.834776	2542.858823
450.209124	2540.507125
450.583412	2540.723894
450.957640	2541.248174
451.331808	2541.071734
451.705917	2544.426622
452.079965	2542.737835
452.453954	2543.441076
452.827883	2543.045346
453.201752	2542.145500
453.575562	2542.692465
453.949311	2543.123484
454.323001	2543.715819
454.696632	2544.023330
455.070202	2545.402085
455.443713	2545.137425
455.817164	2539.992927
456.190556	2545.190357
456.563888	2541.699358
456.937160	2544.179605
457.310373	2544.519883
457.683526	2541.076775
458.056619	2543.751107
458.429653	2545.094575
458.802628	2542.400078
459.175542	2543.491488
459.548398	2543.957795
459.921194	2544.056097
460.293930	2545.250851
460.666607	2543.685572
461.039224	2543.927548
461.411782	2544.812270
461.784280	2544.595501
462.156719	2543.194060
462.529099	2544.192208
462.901419	2544.507280
463.273680	2539.627443
463.645882	2541.386806
464.018024	2542.412681
464.390106	2541.336395
464.762130	2543.962836
465.134094	2546.264122
465.505999	2545.732281
465.877845	2543.647764
466.249631	2547.153886
466.621358	2546.372507
466.993026	2546.516180
467.364634	2548.396531
467.736184	2546.637168
468.107674	2543.814122
468.479105	2545.853268
468.850477	2545.021478
469.221790	2545.170192
469.593043	2545.500388
469.964238	2543.798998
470.335373	2545.729760
470.706449	2544.945861
471.077467	2547.252189
471.448425	2548.462066
471.819324	2543.037784
472.190164	2547.705892
472.560945	2546.811088
472.931667	2546.629606
473.302330	2546.080120
473.672934	2546.206149
474.043479	2544.136756
474.413965	2545.013916
474.784393	2547.416026
475.154761	2547.531973
475.525070	2543.829245
475.895321	2548.578012
476.265513	2544.078782
476.635645	2546.259081
477.005719	2547.030378
477.375734	2546.458207
477.745691	2547.985677
478.115588	2547.801674
478.485427	2549.613969
478.855207	2544.693803
479.224928	2549.371994
479.594591	2546.836293
479.964194	2546.264123
480.333739	2545.979297
480.703226	2545.114739
481.072653	2549.959288
481.442022	2547.665563
481.811333	2543.504091
482.180584	2540.502084
482.549777	2545.422250
482.918912	2545.147507
483.287988	2549.646737
483.657005	2547.305121
484.025964	2549.737478
484.394864	2549.049360
484.763706	2544.683721
485.132489	2547.259750
485.501213	2548.071376
485.869879	2550.115564
486.238487	2548.383928
486.607036	2549.346788
486.975527	2547.239586
487.343959	2548.114226
487.712333	2547.436191
488.080648	2549.535831
488.448905	2548.686397
488.817104	2549.011551
489.185244	2548.671273
489.553326	2547.831921
489.921350	2547.146324
490.289315	2549.734957
490.657222	2547.466438
491.025070	2549.210677
491.392861	2548.514998
491.760593	2548.305790
492.128267	2553.170503
492.495883	2547.136242
492.863440	2547.496685
493.230939	2548.260419
493.598380	2552.613456
493.965763	2548.845193
494.333088	2549.724875
494.700354	2549.669422
495.067563	2547.882333
495.434713	2548.749411
495.801805	2548.273022
496.168839	2549.682025
496.535815	2550.226469
496.902733	2549.228321
497.269593	2550.690256
497.636395	2552.116902
498.003139	2550.067673
498.369825	2550.198743
498.736453	2548.643547
499.103023	2549.087169
499.469535	2551.953065
499.835989	2549.223280
500.202385	2548.552806
500.568723	2545.407126
500.935003	2544.797147
501.301226	2545.434853
501.667390	2551.547252
502.033497	2550.080276
502.399546	2551.149001
502.765537	2548.509957
503.131470	2550.193702
503.497345	2550.806202
503.863163	2549.825698
504.228923	2550.133208
504.594625	2549.099772
504.960269	2548.472148
505.325856	2552.810061
505.691385	2549.936603
506.056856	2551.693445
506.422270	2549.989535
506.787625	2553.299053
507.152924	2551.017931
507.518164	2551.438867
507.883347	2550.425595
508.248472	2549.346788
508.613540	2550.120605
508.978550	2551.146480
509.343503	2549.404761
509.708398	2552.613456
510.073236	2549.351829
510.438016	2549.707231
510.802738	2550.478527
511.167403	2551.133877
511.532010	2550.148332
511.896561	2548.736808
512.261053	2552.099258
512.625488	2547.358053
512.989866	2547.620193
513.354186	2552.260575
513.718449	2550.753270
514.082655	2547.481561
514.446803	2551.350647
514.810894	2551.771583
515.174927	2549.533311
515.538904	2550.801161
515.902822	2550.879299
516.266684	2549.994576
516.630488	2552.570606
516.994235	2551.630431
517.357925	2551.517005
517.721558	2551.476676
518.085133	2549.699669
518.448651	2550.198743
518.812112	2546.032229
519.175516	2547.761345
519.538863	2545.533155
519.902152	2550.518856
520.265385	2551.607746
520.628560	2551.275029
520.991678	2550.760832
521.354739	2551.978270
521.717743	2553.140256
522.080690	2553.195709
522.443580	2552.116902
522.806413	2553.752757
523.169189	2549.911397
523.531908	2552.265616
523.894569	2550.864175
524.257174	2550.302087
524.619722	2550.148332
524.982213	2552.598332
525.344647	2550.773435
525.707025	2552.860472
526.069345	2551.791748
526.431608	2553.074721
526.793815	2552.991542
527.155964	2552.474824
527.518057	2549.460214
527.880093	2553.036913
528.242072	2556.646379
528.603995	2550.844011
528.965860	2552.437015
529.327669	2549.692107
529.689421	2553.107489
530.051117	2551.075904
530.412755	2551.990873
530.774337	2552.540359
531.135862	2552.419371
531.497331	2551.738816
531.858743	2551.141439
532.220098	2553.210832
532.581396	2551.514484
532.942638	2553.046995
533.303824	2549.046839
533.664953	2553.440205
534.026025	2551.428785
534.387040	2554.960113
534.747999	2553.011707
535.108902	2551.068342
535.469748	2551.983312
535.830537	2552.628579
536.191270	2552.736964
536.551947	2551.718651
536.912567	2548.585574
537.273131	2550.382745
537.633638	2545.374359
537.994089	2551.847200
538.354483	2552.184958
538.714821	2552.520194
539.075103	2551.834598
539.435328	2547.799154
539.795497	2550.281922
540.155609	2552.805020
540.515665	2551.859803
540.875665	2553.934238
541.235609	2552.356357
541.595496	2551.196892
541.955328	2553.470452
542.315102	2549.971891
542.674821	2553.122612
543.034483	2552.505071
543.394090	2553.357026
543.753640	2555.572613
544.113134	2553.485575
544.472571	2555.479352
544.831953	2553.788045
545.191278	2550.511295
545.550548	2550.528939
545.909761	2553.268806
546.268918	2552.626059
546.628019	2550.412992
546.987064	2553.039433
547.346053	2550.632282
547.704986	2555.582695
548.063863	2553.805689
548.422684	2549.203115
548.781449	2553.982129
549.140158	2553.566234
549.498811	2552.752088
549.857408	2553.848538
550.215949	2551.509443
550.574434	2555.486913
550.932864	2552.621018
551.291237	2552.414330
551.649555	2552.663867
552.007817	2552.989022
552.366022	2552.749567
552.724173	2551.857283
553.082267	2550.032385
553.440305	2553.147818
553.798288	2556.091852
554.156215	2553.679660
554.514086	2549.346788
554.871902	2549.087169
555.229661	2553.074721
555.587365	2548.119267
555.945014	2552.946172
556.302606	2554.138405
556.660143	2553.805689
557.017625	2553.679660
557.375050	2553.581357
557.732421	2552.273178
558.089735	2552.976419
558.446994	2554.360216
558.804197	2552.963816
559.161345	2554.425751
559.518437	2552.447098
559.875474	2553.783003
560.232455	2554.692932
560.589381	2552.966337
560.946251	2553.336861
561.303065	2553.576316
561.659825	2551.605225
562.016528	2552.862993
562.373177	2556.076728
562.729770	2553.467931
563.086307	2555.950700
563.442789	2555.529763
563.799216	2553.790565
564.155587	2554.100596
564.511904	2553.062118
564.868164	2554.546738
565.224370	2554.728220
565.580520	2552.648744
565.936615	2552.736964
566.292654	2553.160421
566.648638	2552.623538
567.004567	2555.423899
567.360441	2553.513302
567.716260	2553.977088
568.072023	2553.334341
568.427732	2552.305945
568.783385	2555.020607
569.138982	2552.172355
569.494525	2555.532284
569.850013	2553.934238
570.205445	2554.992880
570.560823	2555.096224
570.916145	2551.431305
571.271412	2548.900646
571.626625	2554.892057
571.981782	2553.651933
572.336884	2550.347457
572.691931	2548.232693
573.046923	2547.973074
573.401860	2547.864689
573.756743	2554.382901
574.111570	2552.058929
574.466342	2555.688560
574.821059	2551.322920
575.175722	2555.058415
575.530330	2552.192519
575.884882	2553.684701
576.239380	2553.997252
576.593823	2555.396173
576.948211	2553.104968
577.302544	2552.961295
577.656823	2555.227294
578.011047	2553.936759
578.365216	2554.420709
578.719330	2552.857952
579.073389	2552.046326
579.427394	2552.126984
579.781344	2555.585216
580.135239	2552.724361
580.489080	2553.455328
580.842866	2555.726368
581.196597	2555.953220
581.550273	2551.519525
581.903895	2551.632951
582.257463	2550.642365
582.610975	2555.063457
582.964434	2551.499361
583.317837	2552.857952
583.671186	2554.400545
584.024481	2555.680998
584.377721	2553.316697
584.730906	2553.137736
585.084037	2553.351985
585.437113	2553.750236
585.790135	2556.348951
586.143103	2553.871224
586.496016	2554.861810
586.848874	2557.765515
587.201679	2553.228477
587.554428	2554.584547
587.907124	2555.197047
588.259765	2554.703014
588.612352	2553.026830
588.964884	2554.284598
589.317362	2555.174362
589.669786	2556.288457
590.022155	2550.070194
590.374470	2550.627241
590.726731	2552.459701
591.078937	2550.700338
591.431090	2555.171841
591.783188	2555.862479
592.135232	2554.897098
592.487222	2556.321224
592.839157	2555.703683
593.191038	2557.901626
593.542866	2559.126627
593.894639	2551.670760
594.246358	2553.165462
594.598022	2552.462221
594.949633	2554.798796
595.301190	2552.522715
595.652692	2552.621018
596.004141	2553.725030
596.355535	2555.617983
596.706876	2553.147818
597.058162	2553.064639
597.409395	2552.386604
597.760573	2555.723848
598.111698	2555.738971
598.462768	2555.867521
598.813785	2554.972716
599.164748	2555.257541
599.515657	2555.325597
599.866511	2557.818447
600.217312	2556.273333
600.568060	2551.093548
600.918753	2556.893395
601.269392	2552.429454
601.619978	2553.944320
601.970510	2555.166800
602.320988	2552.477345
602.671412	2551.738816
603.021783	2551.965667
603.372100	2551.002807
603.722363	2553.646892
604.072572	2555.048333
604.422728	2552.757129
604.772830	2554.957592
605.122878	2555.108827
605.472872	2554.675288
605.822813	2551.380894
606.172701	2554.249310
606.522534	2552.668908
606.872314	2552.928528
607.222041	2553.432643
607.571714	2552.157231
607.921333	2550.690256
608.270899	2551.295194
608.620411	2548.043650
608.969870	2554.173693
609.319276	2555.761656
609.668627	2561.448078
610.017926	2566.247256
610.367171	2571.570715
610.716362	2568.256156
611.065500	2567.683985
611.414585	2564.719787
611.763616	2559.890361
612.112594	2560.759960
612.461518	2557.573951
612.810389	2558.884651
613.159207	2558.025134
613.507971	2555.706204
613.856682	2557.112686
614.205340	2557.468087
614.553945	2556.570762
614.902496	2557.019424
615.250994	2556.033879
615.599439	2555.718807
615.947830	2557.221070
616.296169	2556.676626
616.644454	2553.722510
616.992686	2555.643189
617.340864	2554.705535
617.688990	2553.979608
618.037063	2551.393497
618.385082	2553.432643
618.733048	2555.406255
619.080961	2554.382901
619.428821	2556.457336
619.776628	2555.615463
620.124382	2553.387273
620.472083	2552.857952
620.819731	2554.647561
621.167326	2554.602191
621.514868	2552.172355
621.862357	2556.235525
622.209793	2553.084804
622.557176	2556.578323
622.904506	2552.953734
623.251783	2555.260062
623.599007	2554.488765
623.946179	2553.563713
624.293297	2554.952551
624.640363	2556.711914
624.987376	2551.519525
625.334336	2551.126315
625.681243	2549.644216
626.028097	2550.967519
626.374899	2554.791234
626.721647	2554.312325
627.068343	2554.700493
627.414987	2552.056408
627.761577	2554.128322
628.108115	2554.140925
628.454600	2552.346275
628.801032	2553.601522
629.147412	2554.766028
629.493739	2554.619835
629.840014	2557.669733
630.186236	2553.435164
630.532405	2555.063457
630.878521	2554.017417
631.224585	2555.716286
631.570597	2552.169834
631.916556	2552.326110
632.262462	2552.774773
632.608316	2553.573796
632.954117	2550.934752
633.299866	2554.942469
633.645562	2554.350133
633.991206	2553.722510
634.336797	2551.887530
634.682336	2551.950544
635.027823	2555.857438
635.373257	2552.701676
635.718639	2550.894422
636.063968	2558.141081
636.409245	2551.325441
636.754470	2556.127140
637.099642	2554.030020
637.444762	2555.194527
637.789829	2554.715617
638.134845	2551.524567
638.479808	2549.999618
638.824719	2552.363919
639.169577	2551.610266
639.514383	2552.842828
639.859137	2552.056408
640.203839	2553.840977
640.548489	2552.053888
640.893086	2552.033723
641.237632	2553.505740
641.582125	2552.966337
641.926566	2555.118909
642.270955	2549.382076
642.615292	2551.890050
642.959576	2548.492313
643.303809	2549.611449
643.647990	2551.625390
643.992118	2555.028168
644.336195	2553.672098
644.680219	2551.038095
645.024192	2553.165462
645.368112	2552.764690
645.711981	2552.830225
646.055797	2549.676984
646.399562	2552.716799
646.743274	2553.843497
647.086935	2553.964485
647.430544	2551.786707
647.774101	2553.276367
648.117606	2550.216387
648.461059	2552.137067
648.804460	2555.126471
649.147810	2553.883827
649.491108	2552.689073
649.834354	2552.396686
650.177548	2555.509599
650.520690	2552.757129
650.863781	2552.505071
651.206820	2553.750236
651.549807	2554.496327
651.892742	2552.192519
652.235626	2552.454659
652.578458	2553.059598
652.921238	2554.771070
653.263967	2553.377191
653.606644	2554.917263
653.949269	2553.059598
654.291843	2552.174875
654.634365	2552.903322
654.976836	2553.856100
655.319255	2552.999104
655.661622	2553.886347
656.003938	2554.445915
656.346203	2551.847200
656.688416	2552.515153
657.030577	2552.137067
657.372687	2554.990360
657.714746	2552.923487
658.056753	2553.160421
658.398708	2549.490461
658.740612	2552.174875
659.082465	2551.514484
659.424266	2551.524567
659.766016	2548.479710
660.107715	2551.469114
660.449362	2549.067004
660.790958	2552.411810
661.132503	2554.425751
661.473996	2552.414330
661.815438	2552.061449
662.156829	2555.161759
662.498168	2552.658826
662.839456	2553.846018
663.180693	2552.154711
663.521879	2552.774773
663.863013	2551.809392
664.204097	2552.734443
664.545129	2553.374670
664.886110	2553.382232
665.227040	2551.751418
665.567918	2551.297715
665.908746	2555.018086
666.249522	2552.621018
666.590248	2550.967519
666.930922	2551.360729
667.271545	2554.826522
667.612118	2552.260575
667.952639	2553.906512
668.293109	2552.351316
668.633528	2555.181924
668.973896	2552.684032
669.314213	2553.110009
669.654480	2551.701007
669.994695	2551.859803
670.334859	2554.251831
670.674973	2554.027499
671.015035	2552.079093
671.355047	2552.331151
671.695008	2553.818292
672.034918	2554.549259
672.374777	2552.799978
672.714585	2551.116233
673.054342	2553.692263
673.394049	2550.886861
673.733705	2553.946841
674.073310	2553.977088
674.412864	2553.160421
674.752368	2556.512788
675.091820	2552.303425
675.431223	2553.233518
675.770574	2552.558003
676.109875	2554.813919
676.449125	2551.743857
676.788324	2550.841490
677.127473	2548.547765
677.466571	2546.223793
677.805619	2550.609597
678.144616	2550.029864
678.483562	2552.812581
678.822458	2550.753270
679.161303	2553.377191
679.500098	2553.223435
679.838842	2551.176727
680.177535	2551.448949
680.516179	2551.645554
680.854771	2553.936759
681.193314	2551.446429
681.531805	2552.484906
681.870247	2553.520863
682.208638	2553.223435
682.546978	2553.455328
682.885268	2554.173693
683.223508	2551.411141
683.561697	2554.569423
683.899836	2552.943651
684.237925	2553.422561
684.575963	2552.250493
684.913951	2551.252344
685.251889	2552.845349
685.589776	2550.460883
685.927614	2552.497509
686.265401	2550.705379
686.603137	2552.497509
686.940824	2552.263096
687.278460	2554.398024
687.616046	2552.303425
687.953582	2551.569937
688.291068	2553.462890
688.628504	2550.246634
688.965889	2553.972047
689.303224	2552.444577
689.640510	2554.198899
689.977745	2553.730071
690.314930	2550.806202
690.652065	2551.990873
690.989150	2552.603373
691.326185	2552.431974
691.663170	2552.437015
692.000105	2551.343085
692.336990	2551.017931
692.673825	2553.291491
693.010610	2554.120761
693.347345	2549.205636
693.684030	2548.028526
694.020665	2550.163455
694.357251	2546.526262
694.693786	2549.450132
695.030272	2551.617828
695.366707	2551.214536
695.703093	2554.733261
696.039429	2553.283929
696.375716	2550.599515
696.711952	2552.744526
697.048139	2553.631769
697.384276	2554.070349
697.720363	2547.259750
698.056400	2552.477345
698.392388	2553.810730
698.728326	2552.973898
699.064214	2553.064639
699.400053	2551.302756
699.735842	2550.544062
700.071581	2553.583878
700.407270	2551.080945
700.742910	2553.523384
701.078501	2551.534649
701.414042	2555.814588
701.749533	2553.518343
702.084974	2553.152859
702.420366	2551.103630
702.755709	2551.776624
703.091002	2553.808209
703.426246	2552.031203
703.761440	2551.479196
704.096584	2551.189330
704.431679	2550.823846
704.766725	2549.954247
705.101721	2552.482386
705.436668	2551.408620
705.771565	2551.113713
706.106413	2554.405586
706.441212	2550.216387
706.775961	2552.126984
707.110661	2551.610266
707.445311	2552.416851
707.779913	2552.366439
708.114465	2552.623538
708.448967	2552.288301
708.783421	2553.414999
709.117825	2548.751932
709.452180	2555.587737
709.786485	2551.335523
710.120742	2548.860317
710.454949	2546.614483
710.789107	2550.707900
711.123216	2546.715306
711.457275	2551.390976
711.791286	2550.508774
712.125247	2554.521533
712.459159	2553.014227
712.793023	2553.283929
713.126837	2551.091027
713.460602	2551.370811
713.794318	2552.157231
714.127985	2555.149156
714.461602	2548.567930
714.795171	2551.779145
715.128691	2552.686552
715.462162	2549.059442
715.795584	2553.120092
716.128957	2553.929197
716.462281	2552.865513
716.795556	2551.007848
717.128782	2554.506409
717.461960	2552.192519
717.795088	2550.344937
718.128167	2553.619166
718.461198	2551.597663
718.794180	2551.456511
719.127113	2551.340564
719.459997	2551.597663
719.792833	2553.646892
720.125619	2550.428116
720.458357	2549.258568
720.791046	2552.900802
721.123686	2549.006510
721.456278	2552.381563
721.788821	2552.316028
722.121315	2552.779814
722.453761	2550.912066
722.786158	2551.617828
723.118506	2552.401727
723.450805	2550.256716
723.783056	2552.094217
724.115259	2548.066335
724.447412	2549.818136
724.779518	2551.723692
725.111574	2551.980791
725.443582	2552.744526
725.775542	2552.265616
726.107453	2552.046326
726.439315	2553.137736
726.771129	2554.493806
727.102895	2548.149514
727.434612	2549.437529
727.766281	2547.814277
728.097901	2553.551110
728.429473	2551.776624
728.760996	2549.883671
729.092471	2548.787220
729.423897	2552.500030
729.755276	2552.903322
730.086606	2551.123795
730.417887	2550.264278
730.749120	2553.278888
731.080305	2553.326779
731.411442	2551.428785
731.742530	2549.644216
732.073570	2551.839639
732.404562	2550.987684
732.735506	2550.720502
733.066401	2551.224618
733.397249	2551.121274
733.728048	2551.998435
734.058798	2551.307797
734.389501	2551.852242
734.720156	2552.593291
735.050762	2550.586912
735.381320	2551.063301
735.711831	2552.069011
736.042293	2552.061449
736.372707	2552.502550
736.703073	2551.708569
737.033391	2549.276212
737.363661	2551.723692
737.693883	2552.641182
738.024056	2552.147149
738.354182	2548.595656
738.684260	2550.637323
739.014290	2550.188661
739.344272	2550.647406
739.674207	2549.908877
740.004093	2550.896943
740.333931	2549.800492
740.663722	2550.488609
740.993464	2551.995914
741.323159	2550.967519
741.652806	2551.166645
741.982405	2549.477858
742.311956	2551.640513
742.641460	2550.786037
742.970915	2550.193702
743.300323	2548.109185
743.629683	2547.887374
743.958996	2546.460728
744.288260	2545.306303
744.617477	2548.885523
744.946647	2551.690925
745.275768	2551.340564
745.604842	2549.742519
745.933869	2548.981304
746.262847	2548.779658
746.591778	2547.214380
746.920662	2552.091696
747.249498	2550.196222
747.578286	2550.964998
747.907027	2550.975081
748.235720	2550.637323
748.564365	2550.680173
748.892963	2552.137067
749.221514	2553.442726
749.550017	2552.247972
749.878473	2551.355688
750.206881	2548.101623
750.535242	2549.314021
750.863555	2551.766542
751.191821	2551.138918
751.520039	2547.940306
751.848210	2550.022303
752.176334	2550.256716
752.504411	2549.271171
752.832440	2550.521377
753.160421	2549.001469
753.488356	2550.995245
753.816243	2549.389638
754.144082	2551.282591
754.471875	2550.818805
754.799620	2552.250493
755.127318	2549.702189
755.454969	2550.700338
755.782572	2550.841490
756.110129	2549.918959
756.437638	2548.083979
756.765100	2552.023641
757.092515	2550.314690
757.419882	2550.498692
757.747203	2550.218908
758.074477	2551.864844
758.401703	2552.111861
758.728882	2550.206305
759.056014	2550.788558
759.383099	2548.691438
759.710138	2549.881150
760.037129	2548.595656
760.364073	2546.957281
760.690970	2544.754297
761.017820	2550.075235
761.344623	2550.528939
761.671379	2547.521890
761.998088	2548.336037
762.324751	2550.604556
762.651366	2549.944165
762.977935	2550.120605
763.304456	2551.156562
763.630931	2549.230842
763.957359	2550.523897
764.283740	2545.578526
764.610074	2550.198743
764.936362	2551.675801
765.262602	2551.269988
765.588796	2552.658826
765.914943	2549.460214
766.241044	2551.980791
766.567097	2549.490461
766.893104	2552.565565
767.219064	2549.785368
767.544978	2547.118598
767.870845	2551.635472
768.196665	2551.708569
768.522438	2549.929041
768.848165	2551.539690
769.173846	2549.225800
769.499479	2550.249155
769.825066	2549.868547
770.150607	2550.118085
770.476101	2549.757642
770.801548	2550.110523
771.126949	2544.673638
771.452303	2551.648075
771.777611	2551.151521
772.102872	2549.687066
772.428087	2548.474668
772.753256	2551.706048
773.078378	2550.589433
773.403453	2550.481048
773.728482	2548.804864
774.053465	2548.988866
774.378401	2549.334185
774.703291	2549.384597
775.028135	2547.670604
775.352932	2553.427602
775.677683	2550.680173
776.002388	2545.928886
776.327046	2545.739842
776.651658	2547.670604
776.976224	2545.477702
777.300743	2548.459545
777.625216	2549.233362
777.949643	2550.803682
778.274024	2548.444422
778.598359	2551.917777
778.922647	2550.231511
779.246889	2549.661860
779.571086	2550.382745
779.895236	2551.559855
780.219339	2548.288146
780.543397	2550.385266
780.867409	2549.692107
781.191374	2550.972560
781.515294	2549.641696
781.839167	2550.541542
782.162995	2548.078938
782.486776	2549.906356
782.810511	2550.213867
783.134201	2546.969884
783.457844	2549.911397
783.781441	2553.530946
784.104993	2548.109185
784.428498	2551.113712
784.751958	2549.916438
785.075372	2548.819987
785.398739	2549.694628
785.722061	2553.266285
786.045337	2547.897456
786.368568	2550.725544
786.691752	2548.139432
787.014891	2549.273691
787.337983	2547.867209
787.661030	2551.617828
787.984031	2549.016592
788.306987	2549.314021
788.629897	2549.671943
788.952760	2552.862993
789.275579	2547.975594
789.598351	2552.253013
789.921078	2549.286294
790.243759	2549.291335
790.566395	2551.524567
790.888984	2549.518187
791.211529	2549.911397
791.534027	2548.189843
791.856480	2551.338044
792.178888	2543.836807
792.501249	2545.099616
792.823566	2545.729760
793.145836	2546.150697
793.468062	2548.572971
793.790241	2546.695141
794.112375	2548.953578
794.434464	2548.499874
794.756507	2548.620862
795.078505	2550.228990
795.400457	2547.622713
795.722364	2551.837118
796.044226	2550.072714
796.366042	2550.433157
796.687812	2550.844011
797.009538	2548.588094
797.331218	2550.692776
797.652852	2549.293856
797.974442	2549.336706
798.295986	2547.350491
798.617484	2549.762683
798.938938	2548.585574
799.260346	2551.116233
799.581709	2548.943496
799.903026	2553.699824
800.224299	2547.466438
800.545526	2550.228990
800.866708	2549.293856
801.187845	2549.739998
801.508936	2547.962991
801.829983	2551.806871
802.150984	2548.625903
802.471940	2550.919628
802.792851	2550.405430
803.113717	2549.427447
803.434538	2548.431819
803.755314	2547.819318
804.076045	2550.710420
804.396731	2549.122457
804.717372	2548.865358
805.037967	2550.070194
805.358518	2549.422405
805.679024	2549.926521
805.999485	2549.160265
806.319901	2548.459545
806.640272	2551.360729
806.960598	2551.517005
807.280879	2548.252858
807.601115	2550.864175
807.921306	2546.024668
808.241453	2546.987528
808.561554	2543.471323
808.881611	2547.700851
809.201623	2543.801519
809.521590	2550.402910
809.841513	2547.733619
810.161390	2548.998948
810.481223	2548.391489
810.801011	2548.499874
811.120755	2548.512477
811.440453	2547.592467
811.760107	2549.021634
812.079716	2548.762014
812.399281	2549.808054
812.718801	2547.988197
813.038276	2549.676984
813.357707	2549.155224
813.677093	2547.065666
813.996434	2547.554658
814.315731	2547.637837
814.634983	2545.709596
814.954191	2545.462579
815.273354	2547.869730
815.592473	2546.248999
815.911547	2547.690769
816.230577	2550.566747
816.549562	2546.916952
816.868502	2547.756304
817.187399	2546.881664
817.506250	2549.543393
817.825058	2547.264792
818.143821	2551.900133
818.462539	2551.421223
818.781213	2548.502395
819.099843	2549.596325
819.418429	2545.260933
819.736970	2549.503064
820.055466	2549.611449
820.373919	2548.996428
820.692327	2550.773435
821.010691	2552.487427
821.329011	2548.802343
821.647286	2548.116747
821.965517	2549.205636
822.283704	2549.059442
822.601847	2549.442570
822.919945	2549.608928
823.237999	2546.801005
823.556010	2550.024823
823.873976	2545.328988
824.191897	2549.190512
824.509775	2542.808412
824.827609	2544.464431
825.145398	2543.809081
825.463144	2546.884184
825.780845	2546.848896
826.098502	2548.051212
826.416116	2548.625903
826.733685	2546.722867
827.051210	2546.967363
827.368692	2548.661191
827.686129	2548.036088
828.003522	2548.946016
828.320872	2546.748073
828.638177	2549.145142
828.955439	2547.068187
829.272656	2549.392158
829.589830	2549.170348
829.906960	2548.162117
830.224046	2546.589277
830.541088	2548.552806
830.858086	2549.185471
831.175041	2547.542055
831.491952	2548.038609
831.808819	2547.877292
832.125642	2550.523897
832.442421	2546.344781
832.759157	2549.130018
833.075849	2548.220090
833.392497	2547.635316
833.709101	2546.841335
834.025662	2551.428785
834.342179	2547.854607
834.658653	2548.346119
834.975083	2548.855276
835.291469	2555.212171
835.607811	2547.728578
835.924110	2549.424926
836.240366	2550.357539
836.556578	2549.674463
836.872746	2551.333003
837.188871	2548.585574
837.504952	2549.561037
837.820990	2547.088351
838.136984	2548.696479
838.452935	2546.821170
838.768842	2546.329658
839.084706	2550.735626
839.400526	2546.932075
839.716303	2549.712272
840.032037	2545.369318
840.347727	2545.112219
840.663373	2547.058104
840.978977	2541.454862
841.294537	2548.693959
841.610054	2547.821839
841.925527	2547.620193
842.240957	2548.890564
842.556344	2544.918134
842.871687	2548.429298
843.186987	2549.230842
843.502244	2548.847714
843.817458	2547.973074
844.132629	2547.418547
844.447756	2548.426777
844.762840	2547.975594
845.077881	2547.562220
845.392879	2549.303938
845.707833	2544.625747
846.022745	2547.877292
846.337613	2548.630944
846.652438	2548.217570
846.967221	2548.346119
847.281960	2549.089689
847.596656	2547.494164
847.911309	2547.922662
848.225919	2545.265974
848.540485	2547.942827
848.855009	2548.888043
849.169490	2545.838145
849.483928	2545.560882
849.798323	2547.196736
850.112675	2547.579864
850.426984	2547.171530
850.741251	2547.670604
851.055474	2548.204967
851.369654	2546.496016
851.683792	2546.032229
851.997887	2549.772766
852.311938	2547.597508
852.625947	2548.048691
852.939914	2546.773279
853.253837	2549.147663
853.567718	2545.734801
853.881555	2544.819832
854.195350	2545.036602
854.509103	2547.035419
854.822812	2545.611293
855.136479	2546.248999
855.450103	2545.611293
855.763685	2547.413506
856.077224	2544.161961
856.390720	2545.427291
856.704173	2544.444266
857.017584	2550.044988
857.330953	2545.785213
857.644278	2546.654812
857.957561	2550.874258
858.270802	2547.375697
858.584000	2546.009544
858.897155	2547.879812
859.210268	2549.808054
859.523339	2547.537014
859.836367	2545.152548
860.149352	2546.289328
860.462295	2548.318393
860.775195	2547.771428
861.088054	2546.022147
861.400869	2547.663043
861.713642	2545.666746
862.026373	2545.870912
862.339062	2548.285625
862.651708	2548.139432
862.964312	2551.549772
863.276873	2546.858979
863.589392	2547.617672
863.901869	2547.380738
864.214303	2547.103475
864.526696	2545.281097
864.839045	2544.499719
865.151353	2547.816798
865.463619	2546.982487
865.775842	2546.559030
866.088023	2548.099103
866.400162	2544.366128
866.712258	2548.489792
867.024313	2545.369318
867.336325	2546.569112
867.648296	2547.957950
867.960224	2546.750594
868.272110	2548.278063
868.583954	2547.216901
868.895755	2547.431150
869.207515	2548.361243
869.519233	2546.107847
869.830909	2546.929555
870.142542	2546.009544
870.454134	2544.716488
870.765684	2548.998948
871.077191	2547.453835
871.388657	2544.277908
871.700081	2543.380582
872.011463	2544.857641
872.322803	2544.524924
872.634101	2547.010213
872.945357	2546.533824
873.256571	2548.283105
873.567744	2546.891746
873.878874	2548.305790
874.189963	2544.366128
874.501010	2551.537169
874.812015	2547.864689
875.122979	2547.350491
875.433900	2546.806047
875.744780	2543.519214
876.055618	2546.299411
876.366415	2548.570450
876.677169	2546.037271
876.987882	2549.051881
877.298554	2548.308310
877.609183	2545.039122
877.919771	2547.504246
878.230317	2545.999462
878.540822	2550.412992
878.851285	2548.257899
879.161707	2547.733619
879.472087	2548.409133
879.782425	2546.632127
880.092722	2547.947868
880.402977	2545.986859
880.713191	2547.332847
881.023363	2546.493495
881.333494	2547.408464
881.643583	2547.398382
881.953631	2548.242775
882.263637	2545.956612
882.573602	2546.014585
882.883526	2545.649102
883.193408	2548.545245
883.503248	2545.956612
883.813048	2546.115408
884.122806	2546.906870
884.432522	2545.313865
884.742197	2547.476520
885.051831	2550.259237
885.361424	2547.350491
885.670975	2547.277394
885.980485	2543.912424
886.289954	2546.133052
886.599382	2547.050543
886.908768	2544.388813
887.218113	2545.402085
887.527417	2542.027033
887.836680	2540.960829
888.145901	2547.022816
888.455082	2548.404092
888.764221	2545.757487
889.073319	2546.291849
889.382376	2546.203629
889.691392	2546.259081
890.000366	2548.557848
890.309300	2547.489123
890.618193	2548.890564
890.927044	2546.206149
891.235855	2549.399720
891.544625	2546.039791
891.853353	2545.374359
892.162041	2548.721685
892.470687	2547.479041
892.779293	2548.116747
893.087858	2545.472661
893.396381	2546.291849
893.704864	2544.333361
894.013306	2546.579195
894.321707	2544.061138
894.630068	2546.014585
894.938387	2548.134391
895.246665	2547.078269
895.554903	2546.813608
895.863100	2545.686910
896.171256	2547.433670
896.479371	2544.812270
896.787446	2546.889226
897.095480	2544.935778
897.403473	2546.674977
897.711425	2544.696324
898.019336	2547.491643
898.327207	2545.951571
898.635038	2547.204298
898.942827	2544.782023
899.250576	2548.704041
899.558284	2544.008206
899.865952	2547.226983
900.173579	2547.781510
900.481165	2547.156407
900.788711	2545.639019
901.096216	2546.687579
901.403681	2546.490974
901.711105	2545.336550
902.018489	2546.682538
902.325832	2544.025850
902.633135	2541.192722
902.940397	2544.701365
903.247619	2542.374872
903.554800	2546.445604
903.861941	2545.815460
904.169041	2545.991900
904.476101	2545.344112
904.783121	2545.797816
905.090100	2546.959802
905.397039	2545.719678
905.703938	2543.259595
906.010796	2547.365615
906.317614	2545.238248
906.624391	2547.789072
906.931129	2545.707075
907.237826	2545.432332
907.544483	2544.260264
907.851099	2545.888557
908.157675	2547.017775
908.464211	2544.250182
908.770707	2546.942158
909.077163	2546.014585
909.383578	2543.060469
909.689954	2544.683721
909.996289	2545.593649
910.302584	2545.470141
910.608839	2542.334543
910.915054	2545.956612
911.221229	2546.415357
911.527363	2544.177085
911.833458	2546.624565
912.139513	2545.986859
912.445527	2543.526776
912.751502	2546.107847
913.057436	2546.420398
913.363331	2547.695810
913.669186	2544.628268
913.975000	2544.787064
914.280775	2546.342260
914.586510	2547.380738
914.892205	2547.670604
915.197859	2547.229503
915.503475	2546.664894
915.809050	2545.228165
916.114585	2548.686397
916.420081	2544.018288
916.725536	2542.815973
917.030952	2547.526932
917.336328	2546.100285
917.641665	2545.238248
917.946961	2543.012578
918.252218	2544.998793
918.557435	2541.671631
918.862612	2543.730943
919.167750	2547.547096
919.472848	2545.815460
919.777906	2544.391334
920.082925	2545.828063
920.387904	2546.909390
920.692843	2548.908208
920.997743	2545.830583
921.302603	2546.755635
921.607423	2545.424770
921.912204	2543.967877
922.216946	2546.080120
922.521647	2546.566592
922.826310	2546.755635
923.130932	2544.608103
923.435516	2546.390151
923.740059	2546.468289
924.044564	2546.831252
924.349028	2547.736139
924.653454	2544.459389
924.957840	2545.265974
925.262186	2545.316386
925.566493	2545.124822
925.870761	2546.329657
926.174989	2544.577857
926.479178	2544.935778
926.783328	2544.502239
927.087438	2546.508618
927.391509	2546.140614
927.695541	2545.795295
927.999533	2546.440563
928.303486	2547.078269
928.607400	2543.834286
928.911275	2544.618186
929.215110	2545.739842
929.518906	2542.415202
929.822663	2545.112219
930.126381	2544.401416
930.430060	2544.759338
930.733699	2544.739173
931.037299	2545.011396
931.340861	2546.077600
931.644383	2544.403937
931.947866	2543.065510
932.251309	2547.869730
932.554714	2544.734132
932.858080	2540.466796
933.161407	2540.018133
933.464694	2543.617517
933.767943	2540.781868
934.071153	2544.920655
934.374323	2543.834286
934.677455	2542.891591
934.980548	2544.547610
935.283602	2546.433001
935.586617	2544.237579
935.889593	2544.867723
936.192530	2542.508463
936.495428	2544.345963
936.798287	2544.408978
937.101108	2546.553989
937.403890	2545.495347
937.706632	2546.231355
938.009336	2542.700027
938.312002	2546.178423
938.614628	2542.450490
938.917216	2545.628937
939.219765	2545.039122
939.522275	2545.618855
939.824747	2544.035932
940.127179	2544.161961
940.429573	2545.709596
940.731929	2544.141797
941.034246	2545.303783
941.336524	2543.970398
941.638763	2544.124153
941.940964	2545.084492
942.243126	2544.774462
942.545250	2544.892929
942.847335	2544.726571
943.149381	2544.136756
943.451389	2543.156251
943.753359	2543.506611
944.055290	2544.013247
944.357182	2545.331509
944.659036	2544.323278
944.960851	2545.265974
945.262628	2545.949050
945.564367	2544.779503
945.866067	2543.221786
946.167729	2546.622044
946.469352	2543.630120
946.770937	2545.944009
947.072484	2545.515511
947.373992	2546.836293
947.675462	2548.391489
947.976893	2539.854295
948.278286	2541.379244
948.579641	2542.175747
948.880958	2541.434697
949.182236	2542.982331
949.483476	2545.777651
949.784678	2542.931920
950.085841	2544.726571
950.386967	2544.078782
950.688054	2544.207332
950.989103	2544.640871
951.290114	2542.813453
951.591087	2544.494678
951.892021	2547.055584
952.192917	2544.943340
952.493776	2544.847558
952.794596	2546.344781
953.095378	2543.867054
953.396122	2546.256561
953.696828	2544.817311
953.997496	2543.176416
954.298126	2544.464431
954.598718	2543.161292
954.899272	2544.721529
955.199788	2543.574667
955.500266	2543.430994
955.800706	2545.878474
956.101108	2544.035932
956.401472	2544.487116
956.701798	2545.006355
957.002087	2542.379913
957.302337	2544.703885
957.602550	2543.786395
957.902724	2543.509132
958.202861	2544.351005
958.502960	2543.428473
958.803022	2544.136756
959.103045	2541.785057
959.403031	2545.056766
959.702979	2543.819163
960.002889	2548.089020
960.302762	2542.964687
960.602596	2545.772610
960.902393	2543.662887
961.202153	2542.639533
961.501875	2543.123484
961.801559	2543.143648
962.101205	2541.081816
962.400814	2543.829245
962.700385	2547.342929
962.999918	2540.345808
963.299414	2540.832279
963.598873	2540.986034
963.898293	2539.642567
964.197677	2544.416540
964.497022	2544.451828
964.796331	2544.567774
965.095601	2544.189688
965.394835	2543.869574
965.694030	2542.924358
965.993189	2544.713968
966.292309	2543.337733
966.591393	2542.861344
966.890439	2542.884029
967.189447	2545.150027
967.488419	2542.480737
967.787353	2544.650953
968.086249	2542.599204
968.385108	2545.127342
968.683930	2545.303783
968.982714	2544.618186
969.281462	2541.109543
969.580172	2542.480737
969.878844	2545.770089
970.177480	2544.900490
970.476078	2543.859492
970.774639	2543.448638
971.073162	2544.882846
971.371649	2545.535676
971.670098	2541.790098
971.968510	2541.248174
972.266885	2545.429812
972.565223	2545.449976
972.863524	2543.995603
973.161788	2542.271529
973.460014	2544.340922
973.758204	2544.771941
974.056356	2542.095088
974.354471	2543.345294
974.652550	2541.890922
974.950591	2543.020140
975.248595	2540.013092
975.546563	2546.430481
975.844493	2545.424770
976.142386	2545.515511
976.440243	2544.237579
976.738062	2545.671787
977.035845	2543.204142
977.333590	2542.427804
977.631299	2541.364121
977.928971	2540.557536
978.226606	2542.087527
978.524204	2539.481250
978.821765	2541.926210
979.119290	2544.340922
979.416777	2541.895963
979.714228	2542.478216
980.011642	2544.739173
980.309020	2545.858310
980.606360	2543.312527
980.903664	2544.217414
981.200931	2541.485109
981.498162	2542.785726
981.795356	2539.879501
982.092513	2543.239430
982.389633	2542.944523
982.686717	2543.118442
982.983764	2542.793288
983.280775	2543.453679
983.577749	2542.271529
983.874686	2543.781354
984.171587	2544.408978
984.468451	2546.982487
984.765279	2542.982331
985.062070	2546.420398
985.358824	2545.286139
985.655543	2547.063145
985.952224	2542.490819
986.248869	2542.886549
986.545478	2542.727753
986.842050	2543.443597
987.138586	2543.199101
987.435086	2543.788916
987.731549	2546.395192
988.027975	2543.940151
988.324366	2541.918648
988.620719	2544.900490
988.917037	2542.866385
989.213318	2545.195398
989.509563	2542.987373
989.805772	2541.477547
990.101944	2543.367980
990.398080	2545.328988
990.694180	2544.076262
990.990244	2541.076775
991.286271	2542.846220
991.582262	2542.042156
991.878217	2541.520397
992.174136	2544.928217
992.470019	2544.061138
992.765865	2538.972093
993.061676	2541.038967
993.357450	2540.852444
993.653188	2537.394212
993.948890	2542.947043
994.244556	2541.757331
994.540186	2542.621889
994.835780	2542.042156
995.131337	2540.058462
995.426859	2541.941333
995.722345	2544.114070
996.017795	2542.417722
996.313208	2543.965356
996.608586	2540.895294
996.903928	2546.218752
997.199234	2542.332023
997.494504	2544.489636
997.789738	2542.992414
998.084936	2543.995603
998.380099	2544.653474
998.675225	2543.045346
998.970316	2544.051056
999.265371	2543.567105
999.560390	2542.488298
999.855373	2545.694472
1000.150320	2544.356046
1000.445232	2544.958464
1000.740108	2545.175233
1001.034948	2542.188350
1001.329752	2545.074410
1001.624521	2542.778165
1001.919254	2542.732794
1002.213951	2543.735984
1002.508613	2540.585263
1002.803239	2544.398896
1003.097829	2542.019471
1003.392384	2542.067362
1003.686903	2541.543082
1003.981386	2544.497198
1004.275834	2543.181457
1004.570246	2544.235058
1004.864623	2543.446118
1005.158964	2545.432332
1005.453270	2547.048022
1005.747540	2539.947557
1006.041775	2542.881508
1006.335974	2544.981149
1006.630138	2543.970397
1006.924266	2541.467465
1007.218359	2542.954605
1007.512416	2538.992258
1007.806438	2539.829090
1008.100425	2541.696837
1008.394376	2539.420756
1008.688292	2543.511653
1008.982172	2541.533000
1009.276017	2544.227496
1009.569827	2540.234902
1009.863602	2541.164995
1010.157341	2541.908566
1010.451045	2543.985521
1010.744714	2541.855633
1011.038347	2543.675490
1011.331945	2544.086344
1011.625508	2543.683052
1011.919036	2541.633823
1012.212528	2543.972918
1012.505986	2543.166333
1012.799408	2542.969728
1013.092795	2541.749769
1013.386147	2543.582229
1013.679464	2542.596683
1013.972745	2543.209183
1014.265992	2544.053577
1014.559204	2546.097764
1014.852380	2542.546272
1015.145521	2540.492001
1015.438628	2544.393854
1015.731699	2544.408978
1016.024736	2539.884542
1016.317737	2542.798329
1016.610703	2543.236910
1016.903635	2543.131045
1017.196531	2541.013761
1017.489393	2543.128525
1017.782219	2542.531148
1018.075011	2543.259595
1018.367768	2542.778165
1018.660490	2543.234389
1018.953177	2543.234389
1019.245829	2543.234389
