Dividing Wavelength (nm)	Counts (n)	Blue Motor Position (mm): 22.300000	Red Motor Position (mm): 0.000000	
326.493990	2190.159535
326.888308	2190.159535
327.282561	2190.159535
327.676750	2152.149235
328.070874	2144.027937
328.464933	2145.106743
328.858929	2149.585809
329.252859	2154.790800
329.646726	2164.653818
330.040528	2176.460200
330.434265	2189.557118
330.827938	2209.356249
331.221547	2225.926522
331.615091	2243.245406
332.008571	2258.575555
332.401986	2278.004162
332.795338	2297.684826
333.188625	2318.225008
333.581847	2335.133038
333.975006	2353.732375
334.368100	2368.802904
334.761129	2389.310318
335.154095	2409.893349
335.546996	2431.293047
335.939833	2466.233285
336.332606	2479.768783
336.725315	2495.197234
337.117960	2505.443379
337.510540	2516.526356
337.903056	2533.159643
338.295508	2536.958152
338.687896	2544.850079
339.080220	2552.878116
339.472480	2560.066802
339.864676	2565.939746
340.256807	2569.909655
340.648875	2575.109605
341.040879	2579.238310
341.432818	2582.749473
341.824694	2582.958681
342.216506	2585.549834
342.608253	2582.164700
342.999937	2584.292067
343.391557	2587.210895
343.783113	2586.981522
344.174605	2586.666450
344.566033	2582.008424
344.957397	2583.540935
345.348697	2582.515060
345.739934	2580.168403
346.131106	2577.373083
346.522215	2575.054152
346.913260	2571.636250
347.304241	2573.516600
347.695159	2569.755899
348.086012	2567.005950
348.476802	2565.370096
348.867528	2562.446226
349.258191	2557.831050
349.648789	2557.442881
350.039324	2556.112017
350.429796	2557.387428
350.820203	2555.365926
351.210548	2554.881975
351.600828	2554.208981
351.991045	2555.171841
352.381198	2554.057746
352.771288	2552.633620
353.161314	2551.343085
353.551276	2551.547252
353.941175	2550.443239
354.331010	2550.717982
354.720782	2548.870399
355.110490	2550.082797
355.500135	2550.337375
355.889717	2549.820657
356.279235	2551.212015
356.668689	2552.005997
357.058080	2548.504915
357.447408	2552.240410
357.836672	2549.997097
358.225873	2551.592622
358.615010	2549.334185
359.004084	2550.249155
359.393095	2553.152859
359.782043	2554.398024
360.170927	2553.372149
360.559748	2553.271326
360.948505	2556.946327
361.337199	2557.238714
361.725830	2556.527912
362.114398	2556.333827
362.502903	2556.815257
362.891344	2555.597819
363.279722	2556.878272
363.668037	2557.657130
364.056289	2560.490259
364.444478	2555.161759
364.832603	2558.743499
365.220665	2558.990515
365.608665	2561.057388
365.996601	2560.941442
366.384474	2559.315670
366.772284	2561.790876
367.160031	2563.020918
367.547715	2560.260886
367.935336	2562.370609
368.322893	2560.994374
368.710388	2561.095197
369.097820	2561.659806
369.485189	2560.339024
369.872495	2566.305230
370.259738	2563.512430
370.646918	2566.055693
371.034035	2563.724159
371.421090	2565.274314
371.808081	2565.382698
372.195010	2564.480332
372.581875	2566.428738
372.968678	2566.973182
373.355418	2566.161557
373.742096	2568.525858
374.128710	2566.343038
374.515262	2568.493090
374.901751	2565.430589
375.288177	2569.045097
375.674540	2569.166084
376.060841	2567.457133
376.447079	2565.891855
376.833254	2569.087947
377.219367	2567.865467
377.605417	2569.642473
377.991404	2568.750189
378.377329	2570.290262
378.763191	2566.993347
379.148991	2569.203893
379.534727	2569.365210
379.920402	2570.411249
380.306013	2570.653225
380.691563	2570.620457
381.077049	2572.767989
381.462474	2569.876887
381.847835	2571.212793
382.233134	2571.916034
382.618371	2571.129614
383.003545	2571.374110
383.388657	2569.818914
383.773706	2574.784450
384.158693	2574.665983
384.543618	2572.284038
384.928480	2572.483164
385.313280	2573.128431
385.698017	2574.461817
386.082692	2577.884760
386.467305	2576.513566
386.851856	2576.841241
387.236344	2576.828638
387.620770	2573.468709
388.005133	2570.940571
388.389435	2573.141034
388.773674	2571.197669
389.157851	2578.197312
389.541965	2573.662794
389.926018	2575.767475
390.310008	2577.862075
390.693936	2577.168916
391.077802	2576.163206
391.461606	2578.444328
391.845348	2577.531879
392.229027	2577.723443
392.612645	2576.301838
392.996200	2579.467682
393.379694	2579.268557
393.763125	2581.443815
394.146494	2582.497416
394.529801	2579.318968
394.913047	2582.263002
395.296230	2580.450707
395.679351	2580.649833
396.062410	2582.653692
396.445408	2581.748804
396.828343	2579.898701
397.211217	2580.191088
397.594028	2581.451376
397.976778	2580.145717
398.359466	2582.419278
398.742092	2583.982036
399.124656	2583.235945
399.507158	2581.431212
399.889598	2582.429360
400.271977	2581.287539
400.654294	2586.028744
401.036549	2583.409865
401.418742	2586.792479
401.800874	2582.802406
402.182944	2585.864907
402.564952	2582.996490
402.946898	2585.355750
403.328783	2582.988928
403.710606	2586.908425
404.092367	2584.009762
404.474067	2585.393559
404.855705	2588.322469
405.237282	2589.040833
405.618797	2585.746439
406.000250	2588.234249
406.381642	2587.881368
406.762972	2588.884558
407.144240	2585.310380
407.525447	2583.329206
407.906593	2584.392890
408.287677	2587.916656
408.668700	2586.638724
409.049661	2588.037644
409.430560	2590.384301
409.811399	2590.326328
410.192176	2588.052767
410.572891	2589.202150
410.953545	2589.534867
411.334138	2589.955803
411.714669	2590.233066
412.095139	2589.998653
412.475547	2589.958323
412.855894	2591.924373
413.236180	2591.145515
413.616405	2589.812130
413.996568	2590.830443
414.376670	2589.965885
414.756711	2591.062336
415.136691	2593.408993
415.516609	2593.386308
415.896466	2592.473859
416.276262	2591.475711
416.655997	2592.635176
417.035670	2593.973602
417.415283	2592.236925
417.794834	2593.358582
418.174324	2593.540063
418.553753	2593.013263
418.933121	2594.830599
419.312428	2594.031576
419.691674	2593.918150
420.070859	2593.434199
420.449983	2595.251535
420.829045	2594.981833
421.208047	2594.699529
421.586988	2595.077615
421.965867	2596.905033
422.344686	2598.009046
422.723444	2598.019128
423.102141	2596.194231
423.480777	2594.402101
423.859352	2593.212388
424.237866	2596.461412
424.616319	2596.534509
424.994712	2597.399067
425.373044	2597.184817
425.751314	2595.634663
426.129524	2594.205496
426.507673	2596.254725
426.885762	2593.708942
427.263789	2595.881679
427.641756	2597.809921
428.019662	2599.100456
428.397508	2601.179932
428.775292	2599.455857
429.153016	2600.630446
429.530679	2600.403594
429.908282	2599.841506
430.285824	2602.220930
430.663305	2598.959304
431.040726	2598.515682
431.418086	2602.470467
431.795385	2600.068357
432.172624	2596.287492
432.549802	2601.860488
432.926920	2603.519027
433.303977	2602.170519
433.680974	2604.343256
434.057910	2601.913420
434.434786	2603.818976
434.811601	2604.015581
435.188355	2602.319233
435.565050	2601.328646
435.941683	2604.005499
436.318257	2602.583893
436.694770	2604.688575
437.071222	2603.516507
437.447614	2603.178749
437.823946	2607.289810
438.200218	2603.864346
438.576429	2603.294696
438.952580	2603.521548
439.328670	2606.246292
439.704700	2605.633791
440.080670	2605.817793
440.456580	2607.143617
440.832429	2607.073041
441.208218	2606.899121
441.583947	2608.000613
441.959616	2609.364245
442.335224	2607.418360
442.710773	2607.486415
443.086261	2606.468102
443.461689	2607.246961
443.837057	2610.259050
444.212365	2609.482712
444.587612	2605.875767
444.962800	2608.608072
445.337927	2607.209152
445.712995	2607.188987
446.088002	2609.689400
446.462949	2611.332816
446.837837	2610.571602
447.212664	2611.874740
447.587431	2611.390789
447.962139	2611.171499
448.336786	2617.505709
448.711374	2616.812550
449.085901	2615.348095
449.460369	2614.980091
449.834776	2611.443721
450.209124	2616.321037
450.583412	2617.714917
450.957640	2616.187447
451.331808	2617.520832
451.705917	2615.723661
452.079965	2615.995883
452.453954	2616.404217
452.827883	2616.782303
453.201752	2614.274329
453.575562	2615.617797
453.949311	2615.247272
454.323001	2618.892026
454.696632	2617.488065
455.070202	2621.253807
455.443713	2619.622993
455.817164	2621.614249
456.190556	2621.520988
456.563888	2624.051647
456.937160	2625.092645
457.310373	2623.630711
457.683526	2622.302367
458.056619	2625.095166
458.429653	2623.870165
458.802628	2624.104579
459.175542	2625.856380
459.548398	2628.003912
459.921194	2628.830661
460.293930	2632.056999
460.666607	2633.622277
461.039224	2636.669655
461.411782	2636.722587
461.784280	2639.553195
462.156719	2638.774337
462.529099	2642.567805
462.901419	2641.045377
463.273680	2638.794501
463.645882	2638.645787
464.018024	2641.521766
464.390106	2638.408853
464.762130	2650.016110
465.134094	2653.784372
465.505999	2664.806855
465.877845	2679.317817
466.249631	2692.830629
466.621358	2694.700897
466.993026	2692.674354
467.364634	2697.168542
467.736184	2694.431196
468.107674	2697.105528
468.479105	2703.112063
468.850477	2708.826211
469.221790	2715.961964
469.593043	2718.288456
469.964238	2721.343396
470.335373	2727.554097
470.706449	2741.230747
471.077467	2747.353229
471.448425	2779.067128
471.819324	2834.842454
472.190164	2876.358876
472.560945	2848.622448
472.931667	2839.810511
473.302330	2849.610514
473.672934	2866.185828
474.043479	2892.107441
474.413965	2911.651994
474.784393	2929.374171
475.154761	2971.213227
475.525070	2998.480828
475.895321	3021.266844
476.265513	3068.389029
476.635645	3122.273923
477.005719	3152.236021
477.375734	3201.115048
477.745691	3261.543359
478.115588	3329.455263
478.485427	3405.256573
478.855207	3508.668283
479.224928	3665.526305
479.594591	3879.830796
479.964194	3947.856126
480.333739	4030.667161
480.703226	4063.187644
481.072653	4141.940549
481.442022	4290.440339
481.811333	4465.882575
482.180584	4565.006783
482.549777	4578.179318
482.918912	4668.589892
483.287988	4792.927431
483.657005	4881.324063
484.025964	4956.606134
484.394864	5062.364501
484.763706	5142.362571
485.132489	5220.356783
485.501213	5336.411706
485.869879	5468.641172
486.238487	5533.157859
486.607036	5721.563422
486.975527	5799.613086
487.343959	5969.101720
487.712333	6125.657273
488.080648	6178.274316
488.448905	6425.384116
488.817104	6515.222519
489.185244	6780.014166
489.553326	6958.891948
489.921350	7280.099148
490.289315	7953.093186
490.657222	8555.619456
491.025070	8853.160959
491.392861	8996.901899
491.760593	8994.436775
492.128267	9011.687603
492.495883	8900.446982
492.863440	8892.734016
493.230939	8836.540274
493.598380	8989.224222
493.965763	9047.303355
494.333088	9107.204866
494.700354	9263.047096
495.067563	9432.694525
495.434713	9549.366990
495.801805	9724.103465
496.168839	9906.159695
496.535815	10037.086022
496.902733	10291.823087
497.269593	10318.407612
497.636395	10610.466860
498.003139	10794.050560
498.369825	10932.939389
498.736453	11153.908286
499.103023	11298.425564
499.469535	11508.613953
499.835989	11783.671910
500.202385	12018.335101
500.568723	11991.954743
500.935003	12252.627767
501.301226	12294.605455
501.667390	12833.474554
502.033497	13212.811299
502.399546	13231.057755
502.765537	13302.175833
503.131470	13639.910455
503.497345	13916.989915
503.863163	13704.414539
504.228923	14230.516917
504.594625	14532.020766
504.960269	14449.691162
505.325856	14920.008131
505.691385	14820.301670
506.056856	15293.174503
506.422270	15532.031934
506.787625	15443.232009
507.152924	15933.219560
507.518164	16089.613797
507.883347	16155.040412
508.248472	16138.455016
508.613540	16823.131928
508.978550	16904.518836
509.343503	17070.476142
509.708398	17447.398173
510.073236	17715.360706
510.438016	18044.525367
510.802738	18040.731899
511.167403	18374.468886
511.532010	18335.722578
511.896561	19071.627696
512.261053	19260.272714
512.625488	19291.558115
512.989866	19392.227436
513.354186	19426.330842
513.718449	19696.340083
514.082655	20130.242277
514.446803	20116.610997
514.810894	20605.640729
515.174927	20360.766681
515.538904	20547.077645
515.902822	21070.281358
516.266684	21050.628420
516.630488	21090.609811
516.994235	21254.175089
517.357925	21608.837906
517.721558	21916.507087
518.085133	22117.802881
518.448651	22188.212676
518.812112	22093.749015
519.175516	22340.077436
519.538863	22652.671824
519.902152	22572.572931
520.265385	22968.744609
520.628560	22878.074416
520.991678	23018.435262
521.354739	23188.780892
521.717743	23355.708619
522.080690	23257.559874
522.443580	23663.569364
522.806413	23772.823771
523.169189	23953.730617
523.531908	24087.427059
523.894569	23818.673065
524.257174	23952.462767
524.619722	24240.468928
524.982213	24021.796277
525.344647	24189.248284
525.707025	24353.340362
526.069345	24430.719553
526.431608	24460.243071
526.793815	24717.372164
527.155964	24240.005142
527.518057	24470.953002
527.880093	24479.959023
528.242072	24736.261367
528.603995	24516.162070
528.965860	24361.136507
529.327669	24488.962524
529.689421	24504.242262
530.051117	24381.462439
530.412755	24613.174034
530.774337	24470.642971
531.135862	24378.387335
531.497331	24616.682678
531.858743	24199.045767
532.220098	24717.374684
532.581396	24417.168932
532.942638	24428.549337
533.303824	24522.181208
533.664953	24581.044240
534.026025	24280.379743
534.387040	24531.628330
534.747999	24634.198167
535.108902	24814.764736
535.469748	24321.654190
535.830537	24546.436719
536.191270	24649.321628
536.551947	24590.224182
536.912567	24287.016422
537.273131	24582.324693
537.633638	24331.408823
537.994089	24544.621904
538.354483	24124.076247
538.714821	24626.288596
539.075103	24680.279354
539.435328	24485.181659
539.795497	24044.731006
540.155609	24474.620442
540.515665	24758.392033
540.875665	24026.159395
541.235609	24298.926148
541.595496	24294.154696
541.955328	24638.815863
542.315102	24555.359562
542.674821	24154.169415
543.034483	24034.812536
543.394090	24198.839079
543.753640	23983.859073
544.113134	24636.207066
544.472571	24223.124838
544.831953	24518.899416
545.191278	24134.776096
545.550548	24096.294448
545.909761	24288.669920
546.268918	24518.707852
546.628019	24479.235618
546.987064	24187.632594
547.346053	23970.371466
547.704986	24083.673920
548.063863	24248.277675
548.422684	24238.875923
548.781449	23806.808709
549.140158	24207.772004
549.498811	23779.296612
549.857408	23511.916333
550.215949	23963.891063
550.574434	23649.370954
550.932864	23870.551579
551.291237	24007.764225
551.649555	23884.119845
552.007817	23924.892697
552.366022	23811.721314
552.724173	23860.101267
553.082267	23770.958544
553.440305	24260.714202
553.798288	23534.747718
554.156215	24058.576535
554.514086	24142.393280
554.871902	23507.689325
555.229661	23809.278875
555.587365	23666.500795
555.945014	23498.683304
556.302606	23780.869452
556.660143	23708.632238
557.017625	23975.420182
557.375050	23513.093442
557.732421	23890.149065
558.089735	23714.732034
558.446994	23776.284523
558.804197	23783.359782
559.161345	23750.756120
559.518437	23490.337674
559.875474	23700.483213
560.232455	23872.351271
560.589381	23723.380134
560.946251	23673.613863
561.303065	24008.195244
561.659825	24080.918929
562.016528	23685.261449
562.373177	23433.082769
562.729770	23779.402476
563.086307	23667.065404
563.442789	23816.470081
563.799216	23647.818279
564.155587	23672.509850
564.511904	23654.679289
564.868164	23580.929729
565.224370	23570.489499
565.580520	23468.965702
565.936615	23608.530046
566.292654	23275.337503
566.648638	23594.921451
567.004567	23421.089864
567.360441	23357.634340
567.716260	23087.234409
568.072023	23420.996602
568.427732	23180.329397
568.783385	22967.945586
569.138982	23193.138969
569.494525	23237.128078
569.850013	22987.815294
570.205445	23079.443306
570.560823	22879.296895
570.916145	22655.245333
571.271412	22823.478719
571.626625	22583.315630
571.981782	22689.487371
572.336884	22498.271364
572.691931	22641.674547
573.046923	22373.021376
573.401860	22250.778437
573.756743	22242.594123
574.111570	22163.238800
574.466342	22099.755550
574.821059	22195.338347
575.175722	21883.311089
575.530330	21874.627701
575.884882	21898.018655
576.239380	21810.519348
576.593823	21697.766380
576.948211	21676.202845
577.302544	21524.844721
577.656823	21391.775904
578.011047	21491.701655
578.365216	21371.069364
578.719330	21252.072928
579.073389	21156.749750
579.427394	21295.905760
579.781344	21084.835169
580.135239	20967.880400
580.489080	20936.640370
580.842866	20696.363854
581.196597	20881.999303
581.550273	20861.078515
581.903895	20763.025552
582.257463	21076.953325
582.610975	20603.901531
582.964434	20910.481822
583.317837	20613.782192
583.671186	20709.496060
584.024481	20682.041936
584.377721	20459.777463
584.730906	20494.952114
585.084037	20541.509690
585.437113	20425.981568
585.790135	20641.397633
586.143103	20116.442118
586.496016	20114.130749
586.848874	20371.471571
587.201679	20308.711726
587.554428	19960.728438
587.907124	20297.331321
588.259765	20082.381563
588.612352	20163.244191
588.964884	19730.425845
589.317362	19895.548839
589.669786	19949.980698
590.022155	20010.716519
590.374470	20174.347332
590.726731	19982.788527
591.078937	19726.861749
591.431090	19833.535085
591.783188	19577.729295
592.135232	19550.746519
592.487222	19655.758795
592.839157	19686.023362
593.191038	19560.942253
593.542866	19458.506007
593.894639	19173.360701
594.246358	19392.532426
594.598022	19305.247368
594.949633	19068.905473
595.301190	19011.829529
595.652692	19170.162089
596.004141	19422.257590
596.355535	18747.146267
596.706876	18763.651004
597.058162	18650.492224
597.409395	18871.451038
597.760573	18958.688206
598.111698	18746.979909
598.462768	18676.945679
598.813785	18632.696951
599.164748	18460.917113
599.515657	18490.526330
599.866511	18284.559907
600.217312	18644.369743
600.568060	18178.753650
600.918753	18486.911823
601.269392	18387.076812
601.619978	18161.722112
601.970510	18370.403196
602.320988	18321.380495
602.671412	18536.839411
603.021783	18425.941588
603.372100	18177.042178
603.722363	18297.631619
604.072572	18246.867200
604.422728	18373.309421
604.772830	18136.609604
605.122878	18084.700843
605.472872	18081.802179
605.822813	18071.926559
606.172701	18021.794804
606.522534	18228.081340
606.872314	18250.506913
607.222041	18086.407273
607.571714	18299.020457
607.921333	18127.722050
608.270899	18193.637657
608.620411	18392.982524
608.969870	18148.927663
609.319276	18162.589190
609.668627	18189.347635
610.017926	18321.519127
610.367171	18438.851983
610.716362	18471.145614
611.065500	18300.850396
611.414585	18433.674718
611.763616	18415.755936
612.112594	18366.677783
612.461518	18327.046752
612.810389	18528.234161
613.159207	18376.787817
613.507971	18274.147404
613.856682	18561.828410
614.205340	18496.961363
614.553945	18644.669691
614.902496	18384.866266
615.250994	18619.637842
615.599439	18564.671621
615.947830	18546.762922
616.296169	18588.463347
616.644454	18563.880160
616.992686	18523.003964
617.340864	18735.309637
617.688990	18507.676336
618.037063	18680.532460
618.385082	18522.386423
618.733048	18806.115164
619.080961	18668.365635
619.428821	18711.197799
619.776628	18604.892467
620.124382	18523.762658
620.472083	18553.180311
620.819731	18584.266586
621.167326	18279.770811
621.514868	18324.513572
621.862357	18082.969206
622.209793	18096.681145
622.557176	17924.077078
622.904506	17750.593330
623.251783	17655.229823
623.599007	17427.702385
623.946179	17371.201133
624.293297	17318.001837
624.640363	17072.734578
624.987376	17092.206035
625.334336	16885.485960
625.681243	16732.499544
626.028097	16738.536325
626.374899	16671.572158
626.721647	16534.402362
627.068343	16372.115017
627.414987	16297.566434
627.761577	16273.562980
628.108115	16324.493757
628.454600	16033.155394
628.801032	16139.793442
629.147412	16061.640434
629.493739	16092.406596
629.840014	15897.303860
630.186236	16002.278327
630.532405	15754.132570
630.878521	15953.374093
631.224585	15849.808629
631.570597	15672.065106
631.916556	15711.567587
632.262462	15693.641244
632.608316	15608.856598
632.954117	15555.246448
633.299866	15551.226128
633.645562	15471.207893
633.991206	15218.777155
634.336797	15095.906592
634.682336	15055.990735
635.027823	14950.532318
635.373257	14837.255070
635.718639	14722.979674
636.063968	14680.271019
636.409245	14441.511890
636.754470	14461.600888
637.099642	14304.352176
637.444762	14083.310183
637.789829	14125.930618
638.134845	13967.366165
638.479808	13991.024300
638.824719	13945.464872
639.169577	13787.054174
639.514383	13842.063245
639.859137	13656.679854
640.203839	13734.797574
640.548489	13575.696238
640.893086	13573.112646
641.237632	13439.771607
641.582125	13586.365840
641.926566	13420.627825
642.270955	13429.404474
642.615292	13396.458013
642.959576	13401.973035
643.303809	13441.110033
643.647990	13371.952964
643.992118	13435.736163
644.336195	13210.000855
644.680219	13405.602666
645.024192	13324.210716
645.368112	13565.356831
645.711981	13624.393784
646.055797	13805.288028
646.399562	13761.193055
646.743274	14043.611097
647.086935	14314.815091
647.430544	14277.271098
647.774101	14307.076920
648.117606	14460.103666
648.461059	14428.977061
648.804460	14430.310446
649.147810	14148.010872
649.491108	14051.208115
649.834354	14068.809304
650.177548	13766.577008
650.520690	13585.040016
650.863781	13495.304957
651.206820	13539.586453
651.549807	13368.406512
651.892742	13182.665199
652.235626	13113.573665
652.578458	13119.718831
652.921238	12800.291159
653.263967	13000.818177
653.606644	12831.047238
653.949269	12803.938434
654.291843	12609.811161
654.634365	12768.312599
654.976836	12622.686268
655.319255	12623.845733
655.661622	12580.716141
656.003938	12498.061383
656.346203	12436.241713
656.688416	12498.830159
657.030577	12456.282820
657.372687	12387.334959
657.714746	12351.532685
658.056753	12535.224769
658.398708	12358.043335
658.740612	12358.804549
659.082465	12460.441772
659.424266	12417.004670
659.766016	12446.140019
660.107715	12358.794467
660.449362	12434.714244
660.790958	12392.255125
661.132503	12337.971981
661.473996	12395.972976
661.815438	12421.438365
662.156829	12429.587390
662.498168	12417.075246
662.839456	12403.718709
663.180693	12422.930547
663.521879	12518.286492
663.863013	12495.918893
664.204097	12475.401396
664.545129	12591.040424
664.886110	12564.387844
665.227040	12646.354485
665.567918	12655.219354
665.908746	12686.585413
666.249522	12668.578412
666.590248	12722.090260
666.930922	12834.611334
667.271545	12813.481338
667.612118	12899.110377
667.952639	12807.822643
668.293109	12812.309270
668.633528	12769.643464
668.973896	12736.530645
669.314213	12835.876664
669.654480	12572.035274
669.994695	12627.429993
670.334859	12655.262204
670.674973	12596.177360
671.015035	12637.754277
671.355047	12579.985174
671.695008	12545.932180
672.034918	12555.230588
672.374777	12603.282867
672.714585	12512.761388
673.054342	12543.938403
673.394049	12501.033143
673.733705	12587.078078
674.073310	12509.078825
674.412864	12520.741534
674.752368	12391.463664
675.091820	12397.699572
675.431223	12392.784447
675.770574	12274.692897
676.109875	12187.155781
676.449125	12150.304947
676.788324	12088.792787
677.127473	11928.232037
677.466571	11910.028431
677.805619	11819.907723
678.144616	11735.821277
678.483562	11708.533512
678.822458	11576.603995
679.161303	11546.904037
679.500098	11543.133254
679.838842	11499.484423
680.177535	11520.140551
680.516179	11576.359499
680.854771	11524.717919
681.193314	11739.460990
681.531805	11889.783157
681.870247	12293.541771
682.208638	12712.139022
682.546978	13023.906661
682.885268	13081.297677
683.223508	12774.412396
683.561697	12608.530708
683.899836	12516.317922
684.237925	12316.615133
684.575963	12237.113616
684.913951	12161.370279
685.251889	12112.889503
685.589776	12204.537680
685.927614	12133.175106
686.265401	12089.072571
686.603137	12137.707103
686.940824	12291.351390
687.278460	12403.633010
687.616046	12452.295268
687.953582	12631.881332
688.291068	12552.601626
688.628504	12774.813167
688.965889	12793.601548
689.303224	12762.051486
689.640510	12661.016681
689.977745	12353.745751
690.314930	12130.049590
690.652065	12044.531457
690.989150	11764.283632
691.326185	11537.212419
691.663170	11323.429687
692.000105	11076.357696
692.336990	10967.705707
692.673825	10723.015661
693.010610	10600.734913
693.347345	10401.039685
693.684030	10203.605416
694.020665	10142.030242
694.357251	9943.655797
694.693786	9892.858610
695.030272	9721.718999
695.366707	9611.705898
695.703093	9544.459427
696.039429	9538.170587
696.375716	9463.022107
696.711952	9330.984205
697.048139	9366.662972
697.384276	9318.179675
697.720363	9335.155760
698.056400	9286.024675
698.392388	9234.945183
698.728326	9195.959420
699.064214	9125.829408
699.400053	9183.515332
699.735842	8989.670364
700.071581	8947.687634
700.407270	8873.711222
700.742910	8800.095253
701.078501	8704.459523
701.414042	8584.596008
701.749533	8519.756687
702.084974	8374.768062
702.420366	8493.890527
702.755709	8377.560861
703.091002	8241.883246
703.426246	8267.502390
703.761440	8219.984474
704.096584	8179.153648
704.431679	8113.290973
704.766725	8102.495342
705.101721	8049.056591
705.436668	8090.946059
705.771565	7987.738516
706.106413	8062.881955
706.441212	8112.963298
706.775961	8068.270949
707.110661	8094.802542
707.445311	8241.084223
707.779913	8134.935167
708.114465	8270.615303
708.448967	8309.341446
708.783421	8448.131973
709.117825	8627.118141
709.452180	8665.168770
709.786485	8755.405424
710.120742	9036.343887
710.454949	9038.975369
710.789107	9136.214185
711.123216	9339.387809
711.457275	9502.143981
711.791286	9669.747223
712.125247	9660.232045
712.459159	9652.004882
712.793023	9909.554912
713.126837	9482.057504
713.460602	9629.448239
713.794318	9460.146129
714.127985	9488.439605
714.461602	9173.458230
714.795171	9120.692473
715.128691	8879.054845
715.462162	8626.243501
715.795584	8573.076972
716.128957	8426.752440
716.462281	8255.461594
716.795556	8305.888256
717.128782	8105.046166
717.461960	7832.304620
717.795088	7907.458141
718.128167	7818.421282
718.461198	7644.950137
718.794180	7588.169101
719.127113	7581.287926
719.459997	7440.556554
719.792833	7207.440997
720.125619	7260.909996
720.458357	7123.765405
720.791046	7112.934486
721.123686	7115.765094
721.456278	6951.786442
721.788821	6972.734957
722.121315	6864.647577
722.453761	6927.331805
722.786158	6879.967644
723.118506	6885.439816
723.450805	6855.550815
723.783056	6921.332832
724.115259	6834.874523
724.447412	6827.491753
724.779518	6871.135542
725.111574	6874.755091
725.443582	6950.884075
725.775542	6937.827487
726.107453	7122.976465
726.439315	7041.279526
726.771129	7093.256342
727.102895	7258.631394
727.434612	7375.921400
727.766281	7403.478868
728.097901	7494.385995
728.429473	7478.234138
728.760996	7450.653985
729.092471	7429.884432
729.423897	7377.489199
729.755276	7395.171046
730.086606	7320.269582
730.417887	7408.325937
730.749120	7598.566480
731.080305	7794.432951
731.411442	7921.691839
731.742530	7918.357116
732.073570	8021.390739
732.404562	8106.578677
732.735506	7954.880275
733.066401	8096.564425
733.397249	8031.001698
733.728048	7797.014022
734.058798	7461.946170
734.389501	7242.860144
734.720156	7061.003040
735.050762	6832.835376
735.381320	6733.519604
735.711831	6685.293406
736.042293	6579.966058
736.372707	6599.868533
736.703073	6462.610517
737.033391	6497.064283
737.363661	6508.059039
737.693883	6537.106168
738.024056	6622.825948
738.354182	6669.328071
738.684260	6697.455189
739.014290	6806.989380
739.344272	6920.213695
739.674207	6946.793179
740.004093	7014.821030
740.333931	7034.637805
740.663722	7039.774741
740.993464	7118.953624
741.323159	7114.255269
741.652806	6863.089861
741.982405	6869.582867
742.311956	6929.065962
742.641460	6779.976357
742.970915	6579.892961
743.300323	6569.969450
743.629683	6512.273444
743.958996	6384.515482
744.288260	6296.194467
744.617477	6244.704121
744.946647	6251.371047
745.275768	6077.962917
745.604842	6034.102358
745.933869	6020.639956
746.262847	5976.161856
746.591778	5963.465710
746.920662	5923.408701
747.249498	5916.862763
747.578286	5965.504857
747.907027	6039.153594
748.235720	6095.347336
748.564365	6069.002266
748.892963	6092.357931
749.221514	6249.825933
749.550017	6091.435400
749.878473	5963.392613
750.206881	6016.591910
750.535242	5957.670903
750.863555	5886.063834
751.191821	5910.478142
751.520039	5909.416979
751.848210	5817.864584
752.176334	5835.506102
752.504411	5886.167177
752.832440	5811.006094
753.160421	5743.787349
753.488356	5784.416528
753.816243	5825.819525
754.144082	5673.740516
754.471875	5641.928315
754.799620	5687.260891
755.127318	5696.529052
755.454969	5657.059338
755.782572	5617.667762
756.110129	5663.196943
756.437638	5651.418287
756.765100	5590.513587
757.092515	5584.804480
757.419882	5629.043125
757.747203	5617.143482
758.074477	5680.122617
758.401703	5673.024672
758.728882	5615.835302
759.056014	5664.434546
759.383099	5805.186082
759.710138	5814.809645
760.037129	5794.445904
760.364073	5798.970339
760.690970	5880.344645
761.017820	5870.668150
761.344623	5822.245347
761.671379	5918.980048
761.998088	6033.179826
762.324751	6267.376711
762.651366	6851.313725
762.977935	8142.648133
763.304456	9763.701728
763.630931	10682.366317
763.957359	10312.484256
764.283740	9385.824398
764.610074	8566.621774
764.936362	7569.113539
765.262602	6974.048177
765.588796	6431.743532
765.914943	6091.354742
766.241044	5933.438077
766.567097	5736.865844
766.893104	5478.499148
767.219064	5292.722547
767.544978	5232.858845
767.870845	5159.888143
768.196665	5049.864960
768.522438	4980.912058
768.848165	4947.433755
769.173846	4879.605030
769.499479	4838.638093
769.825066	4784.743117
770.150607	4727.253799
770.476101	4698.993091
770.801548	4697.021999
771.126949	4628.800064
771.452303	4570.242021
771.777611	4530.149725
772.102872	4546.319226
772.428087	4511.779760
772.753256	4467.883913
773.078378	4431.113737
773.403453	4357.946430
773.728482	4343.483360
774.053465	4293.447387
774.378401	4281.850213
774.703291	4284.700985
775.028135	4215.337229
775.352932	4166.937111
775.677683	4151.274246
776.002388	4171.393491
776.327046	4181.979914
776.651658	4111.562556
776.976224	4048.139800
777.300743	4048.296076
777.625216	4071.770208
777.949643	4070.414138
778.274024	4025.250441
778.598359	3977.571208
778.922647	4001.118437
779.246889	3994.350688
779.571086	3989.816170
779.895236	3977.054489
780.219339	3959.402889
780.543397	3950.830407
780.867409	4003.029035
781.191374	4022.787837
781.515294	3960.799289
781.839167	3952.231848
782.162995	3971.176504
782.486776	3959.125626
782.810511	3964.139053
783.134201	3965.134681
783.457844	3920.187753
783.781441	3859.938403
784.104993	3868.352089
784.428498	3888.990573
784.751958	3886.157444
785.075372	3866.058364
785.398739	3825.361129
785.722061	3837.306143
786.045337	3880.871795
786.368568	3916.268256
786.691752	3826.916325
787.014891	3870.892831
787.337983	3996.120133
787.661030	4155.909587
787.984031	4318.663239
788.306987	4487.657839
788.629897	4571.789656
788.952760	4527.004045
789.275579	4458.275474
789.598351	4398.895723
789.921078	4258.736522
790.243759	4058.524577
790.566395	4037.636556
790.888984	4037.097152
791.211529	3931.079166
791.534027	3869.612378
791.856480	3859.300697
792.178888	3798.065802
792.501249	3747.346753
792.823566	3757.814709
793.145836	3793.798465
793.468062	3740.652100
793.790241	3690.951365
794.112375	3719.023030
794.434464	3785.392341
794.756507	3810.257832
795.078505	3793.372487
795.400457	3819.581446
795.722364	3953.650933
796.044226	4062.076070
796.366042	4134.933346
796.687812	4117.475830
797.009538	4123.484885
797.331218	4081.093823
797.652852	4053.571643
797.974442	4034.833674
798.295986	4037.460115
798.617484	3953.290490
798.938938	3865.471070
799.260346	3908.701484
799.581709	3904.441709
799.903026	3835.453519
800.224299	3795.724186
800.545526	3786.335037
800.866708	3750.469747
801.187845	3688.042619
801.508936	3725.377404
801.829983	3724.578381
802.150984	3644.832369
802.471940	3633.830050
802.792851	3647.700785
803.113717	3643.211638
803.434538	3648.421670
803.755314	3592.318669
804.076045	3564.204154
804.396731	3582.440528
804.717372	3612.654684
805.037967	3597.808486
805.358518	3589.001590
805.679024	3613.294910
805.999485	3625.144142
806.319901	3628.735964
806.640272	3644.199704
806.960598	3658.720747
807.280879	3632.408445
807.601115	3642.911689
807.921306	3660.089421
808.241453	3700.355637
808.561554	3675.495187
808.881611	3612.062348
809.201623	3646.858913
809.521590	3657.538597
809.841513	3630.679329
810.161390	3660.918691
810.481223	3643.199035
810.801011	3584.648553
811.120755	3575.108170
811.440453	3613.133593
811.760107	3615.268522
812.079716	3574.808221
812.399281	3538.796739
812.718801	3562.306160
813.038276	3539.215154
813.357707	3533.581665
813.677093	3552.780899
813.996434	3503.246522
814.315731	3509.295906
814.634983	3512.688603
814.954191	3527.126467
815.273354	3557.655695
815.592473	3550.088923
815.911547	3554.845252
816.230577	3594.882096
816.549562	3645.762462
816.868502	3690.704348
817.187399	3710.208572
817.506250	3707.680434
817.825058	3679.901155
818.143821	3770.364661
818.462539	3876.521279
818.781213	3920.475099
819.099843	3974.775888
819.418429	4209.544943
819.736970	4452.614258
820.055466	4691.940516
820.373919	5053.875198
820.692327	5462.299400
821.010691	5885.768926
821.329011	7218.556742
821.647286	9894.348271
821.965517	14374.174678
822.283704	18392.826248
822.601847	20610.318920
822.919945	18854.684161
823.237999	16316.115359
823.556010	13857.282489
823.873976	11784.730552
824.191897	9707.160147
824.509775	8354.827777
824.827609	7229.458237
825.145398	6679.740575
825.463144	6561.452420
825.780845	6675.395100
826.098502	6853.733479
826.416116	7690.653238
826.733685	9004.065378
827.051210	10120.519638
827.368692	10207.406446
827.686129	8982.446390
828.003522	7468.451779
828.320872	6456.397295
828.638177	5759.419967
828.955439	5203.267272
829.272656	4708.898958
829.589830	4419.282149
829.906960	4244.759923
830.224046	4061.075401
830.541088	3934.880196
830.858086	3887.155593
831.175041	3812.601969
831.491952	3794.375677
831.808819	3805.909837
832.125642	3881.930437
832.442421	4016.957743
832.759157	4283.881798
833.075849	4826.302390
833.392497	5675.146998
833.709101	6449.027128
834.025662	6798.774820
834.342179	6461.355269
834.658653	5799.532428
834.975083	5156.437473
835.291469	4580.899021
835.607811	4169.160260
835.924110	4030.440309
836.240366	3837.212882
836.556578	3628.967857
836.872746	3521.848379
837.188871	3483.155003
837.504952	3421.060591
837.820990	3336.386850
838.136984	3289.660395
838.452935	3313.139569
838.768842	3307.634629
839.084706	3330.723114
839.400526	3482.348418
839.716303	3812.917041
840.032037	4322.716326
840.347727	4601.860138
840.663373	4337.484387
840.978977	3959.377683
841.294537	3654.644975
841.610054	3425.597629
841.925527	3314.377172
842.240957	3247.793612
842.556344	3191.481403
842.871687	3136.278248
843.186987	3086.572471
843.502244	3050.187943
843.817458	3017.039836
844.132629	2982.414671
844.447756	2993.280878
844.762840	2978.038949
845.077881	2947.487037
845.392879	2925.991557
845.707833	2927.274530
846.022745	2924.249838
846.337613	2925.792431
846.652438	2913.819691
846.967221	2913.071079
847.281960	2897.002401
847.596656	2890.985784
847.911309	2894.386043
848.225919	2886.819271
848.540485	2881.001779
848.855009	2881.135370
849.169490	2870.503576
849.483928	2861.696680
849.798323	2860.753985
850.112675	2854.966740
850.426984	2865.492669
850.741251	2868.411497
851.055474	2854.812985
851.369654	2850.311234
851.683792	2852.781400
851.997887	2863.942514
852.311938	2868.532485
852.625947	2854.044209
852.939914	2859.188706
853.253837	2861.421938
853.567718	2850.127232
853.881555	2846.984073
854.195350	2861.056454
854.509103	2857.373891
854.822812	2848.017509
855.136479	2846.951305
855.450103	2848.289732
855.763685	2844.140862
856.077224	2839.704647
856.390720	2851.294259
856.704173	2863.098121
857.017584	2854.346678
857.330953	2850.691842
857.644278	2859.992770
857.957561	2866.679861
858.270802	2871.942826
858.584000	2869.901158
858.897155	2860.673326
859.210268	2858.603932
859.523339	2857.414220
859.836367	2853.595546
860.149352	2849.575226
860.462295	2844.980214
860.775195	2851.140504
861.088054	2857.414220
861.400869	2838.222548
861.713642	2834.630725
862.026373	2848.509022
862.339062	2853.131760
862.651708	2858.435054
862.964312	2861.421937
863.276873	2853.182172
863.589392	2861.694160
863.901869	2875.310316
864.214303	2894.330590
864.526696	2912.294742
864.839045	2910.326171
865.151353	2906.706623
865.463619	2905.486663
865.775842	2906.091602
866.088023	2927.287133
866.400162	2931.975406
866.712258	2904.501118
867.024313	2894.111300
867.336325	2898.418966
867.648296	2924.302770
867.960224	2915.591656
868.272110	2899.820406
868.583954	2906.567991
868.895755	2920.852100
869.207515	2906.499935
869.519233	2911.578898
869.830909	2922.293870
870.142542	2931.178904
870.454134	2930.793256
870.765684	2933.245777
871.077191	2935.657969
871.388657	2941.031839
871.700081	2952.669343
872.011463	2964.148050
872.322803	2968.904379
872.634101	2968.216261
872.945357	2983.034733
873.256571	3008.916017
873.567744	3001.233298
873.878874	2993.195178
874.189963	3014.264681
874.501010	3018.844569
874.812015	3007.547343
875.122979	3006.155985
875.433900	3007.507014
875.744780	3009.485667
876.055618	3017.715351
876.366415	3014.877181
876.677169	3024.203316
876.987882	3022.254910
877.298554	3015.202336
877.609183	3038.149668
877.919771	3058.989798
878.230317	3083.875454
878.540822	3137.140285
878.851285	3174.744772
879.161707	3213.801112
879.472087	3311.841472
879.782425	3531.744164
880.092722	3960.491778
880.402977	4482.016788
880.713191	5090.070683
881.023363	6219.891562
881.333494	7488.621436
881.643583	8057.250987
881.953631	7768.531503
882.263637	7152.752040
882.573602	6585.569300
882.883526	6010.799624
883.193408	5440.902223
883.503248	4982.401719
883.813048	4678.571376
884.122806	4384.354514
884.432522	4075.730035
884.742197	3840.401412
885.051831	3645.860764
885.361424	3508.559898
885.670975	3440.269907
885.980485	3357.564737
886.289954	3283.106895
886.599382	3237.640728
886.908768	3198.788556
887.218113	3157.206598
887.527417	3099.684512
887.836680	3050.634085
888.145901	3045.411450
888.455082	3036.002136
888.764221	2987.324755
889.073319	2956.664457
889.382376	2952.283694
889.691392	2957.748305
890.000366	2957.271916
890.309300	2944.472427
890.618193	2957.163531
890.927044	2971.571149
891.235855	2974.396716
891.544625	2959.089252
891.853353	2967.318936
892.162041	2986.530773
892.470687	3026.728934
892.779293	3077.677355
893.087858	3125.149901
893.396381	3192.789583
893.704864	3309.336018
894.013306	3541.619785
894.321707	3840.466947
894.630068	4045.722567
894.938387	4045.089902
895.246665	3997.597191
895.554903	3884.166189
895.863100	3688.760983
896.171256	3521.850900
896.479371	3387.267216
896.787446	3266.604678
897.095480	3160.049809
897.403473	3101.373299
897.711425	3061.596074
898.019336	3051.475958
898.327207	3025.725744
898.635038	2992.280209
898.942827	2976.997951
899.250576	2964.195941
899.558284	2934.372475
899.865952	2913.063518
900.173579	2894.212123
900.481165	2887.787172
900.788711	2873.765203
901.096216	2851.584126
901.403681	2838.950994
901.711105	2845.020543
902.018489	2845.950636
902.325832	2842.089112
902.633135	2853.414065
902.940397	2885.876575
903.247619	2962.441619
903.554800	3148.568581
903.861941	3480.914210
904.169041	3902.090011
904.476101	4207.588975
904.783121	4167.509282
905.090100	3930.743930
905.397039	3662.221829
905.703938	3413.163623
906.010796	3229.169069
906.317614	3118.190588
906.624391	3029.458719
906.931129	2954.572378
907.237826	2895.482493
907.544483	2848.698065
907.851099	2818.246975
908.157675	2798.407514
908.464211	2775.830707
908.770707	2766.113883
909.077163	2755.598036
909.383578	2739.337794
909.689954	2728.277503
909.996289	2727.733058
910.302584	2724.668037
910.608839	2727.964951
910.915054	2719.800802
911.221229	2715.422560
911.527363	2715.457848
911.833458	2723.064950
912.139513	2729.351268
912.445527	2730.538460
912.751502	2740.378792
913.057436	2746.168558
913.363331	2759.847729
913.669186	2781.542334
913.975000	2814.778662
914.280775	2872.504914
914.586510	2942.387909
914.892205	3015.953468
915.197859	3142.123466
915.503475	3331.045748
915.809050	3542.438972
916.114585	3683.651774
916.420081	3711.385682
916.725536	3657.646982
917.030952	3539.409239
917.336328	3411.237902
917.641665	3286.325672
917.946961	3181.734332
918.252218	3116.290073
918.557435	3039.561191
918.862612	2979.866368
919.167750	2930.919284
919.472848	2892.888820
919.777906	2866.314377
920.082925	2839.480315
920.387904	2810.954946
920.692843	2795.108079
920.997743	2782.139711
921.302603	2770.545057
921.607423	2760.714807
921.912204	2747.078486
922.216946	2736.630695
922.521647	2727.811196
922.826310	2718.752242
923.130932	2712.907025
923.435516	2706.103987
923.740059	2698.872452
924.044564	2689.700073
924.349028	2685.659588
924.653454	2680.230265
924.957840	2673.742300
925.262186	2667.884480
925.566493	2664.335507
925.870761	2660.007677
926.174989	2654.606080
926.479178	2649.010400
926.783328	2644.470841
927.087438	2644.755666
927.391509	2642.658546
927.695541	2639.933802
927.999533	2637.017495
928.303486	2632.780405
928.607400	2633.826444
928.911275	2632.462812
929.215110	2630.211937
929.518906	2630.897534
929.822663	2628.039200
930.126381	2631.663789
930.430060	2633.082874
930.733699	2632.856022
931.037299	2634.892648
931.340861	2635.807618
931.644383	2635.447175
931.947866	2632.339304
932.251309	2631.507513
932.554714	2630.118676
932.858080	2628.321504
933.161407	2629.480970
933.464694	2626.597430
933.767943	2623.381173
934.071153	2625.412758
934.374323	2622.998046
934.677455	2622.463683
934.980548	2618.574433
935.283602	2622.410751
935.586617	2623.434106
935.889593	2621.810854
936.192530	2623.829836
936.495428	2624.568365
936.798287	2625.029631
937.101108	2628.167749
937.403890	2635.482463
937.706632	2639.061682
938.009336	2644.581746
938.312002	2650.800009
938.614628	2659.095228
938.917216	2667.687875
939.219765	2667.430776
939.522275	2667.687875
939.824747	2665.137051
940.127179	2660.617656
940.429573	2659.390135
940.731929	2656.224291
941.034246	2654.172541
941.336524	2648.450832
941.638763	2647.026706
941.940964	2643.548309
942.243126	2643.704585
942.545250	2641.025212
942.847335	2640.327012
943.149381	2636.765437
943.451389	2632.992133
943.753359	2630.673202
944.055290	2628.876031
944.357182	2628.298819
944.659036	2626.063067
944.960851	2627.915691
945.262628	2622.619959
945.564367	2624.638941
945.866067	2624.207923
946.167729	2627.628346
946.469352	2626.103397
946.770937	2628.555918
947.072484	2622.902264
947.373992	2621.596605
947.675462	2621.589043
947.976893	2617.215842
948.278286	2614.254164
948.579641	2619.653240
948.880958	2614.506222
949.182236	2616.784824
949.483476	2615.874895
949.784678	2615.534617
950.085841	2616.048815
950.386967	2616.474793
950.688054	2617.356995
950.989103	2616.479834
951.290114	2618.408075
951.591087	2621.029475
951.892021	2623.262706
952.192917	2625.788324
952.493776	2626.791514
952.794596	2628.863428
953.095378	2631.328552
953.396122	2628.823099
953.696828	2625.858901
953.997496	2624.127264
954.298126	2621.883951
954.598718	2620.447222
954.899272	2618.261882
955.199788	2614.206273
955.500266	2611.783999
955.800706	2609.391972
956.101108	2612.545213
956.401472	2606.992382
956.701798	2603.655138
957.002087	2602.546085
957.302337	2601.787391
957.602550	2601.207658
957.902724	2600.784201
958.202861	2596.186669
958.502960	2596.610126
958.803022	2593.688777
959.103045	2597.242791
959.403031	2592.448653
959.702979	2592.211719
960.002889	2595.291864
960.302762	2595.992585
960.602596	2594.331524
960.902393	2593.197265
961.202153	2593.303129
961.501875	2591.402614
961.801559	2588.451018
962.101205	2592.078129
962.400814	2590.969075
962.700385	2590.439754
962.999918	2588.589650
963.299414	2584.392890
963.598873	2587.152921
963.898293	2585.569999
964.197677	2587.707448
964.497022	2587.752819
964.796331	2589.857500
965.095601	2587.120154
965.394835	2588.251893
965.694030	2588.564444
965.993189	2588.216605
966.292309	2587.190730
966.591393	2586.888261
966.890439	2587.609146
967.189447	2589.113930
967.488419	2587.137798
967.787353	2587.334403
968.086249	2590.144846
968.385108	2584.929772
968.683930	2584.357602
968.982714	2587.800710
969.281462	2588.297263
969.580172	2588.239290
969.878844	2588.413210
970.177480	2588.587130
970.476078	2587.654516
970.774639	2589.602922
971.073162	2587.155442
971.371649	2584.728126
971.670098	2588.211564
971.968510	2586.984043
972.266885	2588.206522
972.565223	2588.287181
972.863524	2589.920515
973.161788	2588.508992
973.460014	2586.744588
973.758204	2590.046544
974.056356	2588.065370
974.354471	2585.887592
974.652550	2590.147367
974.950591	2587.997315
975.248595	2590.641400
975.546563	2586.757191
975.844493	2588.748447
976.142386	2589.499578
976.440243	2589.421441
976.738062	2588.665268
977.035845	2589.701225
977.333590	2587.347006
977.631299	2587.019331
977.928971	2582.333578
978.226606	2580.158320
978.524204	2584.377766
978.821765	2583.208218
979.119290	2585.431367
979.416777	2583.896336
979.714228	2587.251224
980.011642	2584.513877
980.309020	2584.110585
980.606360	2587.079825
980.903664	2585.396079
981.200931	2589.302973
981.498162	2585.696028
981.795356	2588.224167
982.092513	2588.992942
982.389633	2591.072418
982.686717	2594.452512
982.983764	2598.611464
983.280775	2602.750251
983.577749	2600.232195
983.874686	2603.582042
984.171587	2600.506938
984.468451	2597.910744
984.765279	2594.727255
985.062070	2592.544435
985.358824	2592.153746
985.655543	2590.709455
985.952224	2590.762387
986.248869	2585.285174
986.545478	2587.730133
986.842050	2584.617221
987.138586	2586.061512
987.435086	2586.273240
987.731549	2584.241655
988.027975	2584.365163
988.324366	2582.875502
988.620719	2584.899526
988.917037	2583.125039
989.213318	2580.876685
989.509563	2580.536407
989.805772	2582.646130
990.101944	2583.266192
990.398080	2583.198136
990.694180	2581.015317
990.990244	2580.039853
991.286271	2582.056315
991.582262	2581.219483
991.878217	2581.766448
992.174136	2584.856676
992.470019	2579.666808
992.765865	2580.856520
993.061676	2579.452559
993.357450	2579.124884
993.653188	2576.427867
993.948890	2582.719227
994.244556	2584.839032
994.540186	2583.049422
994.835780	2585.794330
995.131337	2583.780389
995.426859	2581.912642
995.722345	2583.155286
996.017795	2585.116295
996.313208	2588.632500
996.608586	2583.122519
996.903928	2586.772314
997.199234	2587.641913
997.494504	2586.968919
997.789738	2584.309711
998.084936	2589.184506
998.380099	2586.311049
998.675225	2584.783579
998.970316	2584.886923
999.265371	2584.082859
999.560390	2583.561099
999.855373	2584.783579
1000.150320	2582.938517
1000.445232	2581.842066
1000.740108	2583.150245
1001.034948	2581.219483
1001.329752	2580.702765
1001.624521	2581.695872
1001.919254	2579.308886
1002.213951	2580.669997
1002.508613	2581.070769
1002.803239	2578.409040
1003.097829	2579.313927
1003.392384	2580.780903
1003.686903	2578.900553
1003.981386	2582.557910
1004.275834	2579.878536
1004.570246	2581.766448
1004.864623	2579.424832
1005.158964	2580.334761
1005.453270	2581.093454
1005.747540	2579.134966
1006.041775	2578.956005
1006.335974	2580.382652
1006.630138	2579.462641
1006.924266	2579.991962
1007.218359	2579.074472
1007.512416	2578.585480
1007.806438	2576.528690
1008.100425	2578.149421
1008.394376	2574.466858
1008.688292	2578.467013
1008.982172	2580.143197
1009.276017	2581.068249
1009.569827	2578.691345
1009.863602	2581.169072
1010.157341	2579.969277
1010.451045	2579.828125
1010.744714	2579.538258
1011.038347	2581.728640
1011.331945	2578.527507
1011.625508	2578.603124
1011.919036	2581.521953
1012.212528	2579.656726
1012.505986	2579.626479
1012.799408	2582.593198
1013.092795	2581.267374
1013.386147	2579.606314
1013.679464	2582.010944
1013.972745	2578.787127
1014.265992	2581.055646
1014.559204	2578.532548
1014.852380	2579.674370
1015.145521	2577.201684
1015.438628	2578.310738
1015.731699	2579.359298
1016.024736	2578.900552
1016.317737	2578.467013
1016.610703	2581.161510
1016.903635	2581.063207
1017.196531	2579.666808
1017.489393	2577.415933
1017.782219	2580.743094
1018.075011	2578.819894
1018.367768	2575.964080
1018.660490	2579.518094
1018.953177	2579.518094
1019.245829	2579.518094
