Dividing Wavelength (nm)	Counts (n)	Blue Motor Position (mm): 19.200000	Red Motor Position (mm): 0.000000	
326.493990	2184.006807
326.888308	2184.006807
327.282561	2184.006807
327.676750	2141.477113
328.070874	2140.738584
328.464933	2142.127422
328.858929	2143.455766
329.252859	2149.479944
329.646726	2161.162818
330.040528	2170.060455
330.434265	2181.108144
330.827938	2203.871474
331.221547	2217.265820
331.615091	2235.653428
332.008571	2253.849473
332.401986	2274.112391
332.795338	2290.314659
333.188625	2308.949285
333.581847	2326.248004
333.975006	2345.469924
334.368100	2365.790815
334.761129	2384.203629
335.154095	2400.673079
335.546996	2424.510175
335.939833	2456.687860
336.332606	2468.085909
336.725315	2482.112919
337.117960	2495.434168
337.510540	2503.384068
337.903056	2518.510050
338.295508	2525.784435
338.687896	2535.027391
339.080220	2543.030222
339.472480	2548.429298
339.864676	2553.616645
340.256807	2560.099569
340.648875	2565.402863
341.040879	2566.968141
341.432818	2569.098029
341.824694	2572.006775
342.216506	2571.053997
342.608253	2574.935685
342.999937	2573.854357
343.391557	2575.583473
343.783113	2574.822259
344.174605	2568.851012
344.566033	2573.945098
344.957397	2571.117011
345.348697	2571.061558
345.739934	2567.600806
346.131106	2566.935374
346.522215	2566.335477
346.913260	2561.493448
347.304241	2559.459343
347.695159	2557.594116
348.086012	2556.459856
348.476802	2558.332645
348.867528	2551.277550
349.258191	2545.636499
349.648789	2549.147663
350.039324	2543.569626
350.429796	2549.377035
350.820203	2545.452497
351.210548	2544.764379
351.600828	2543.723381
351.991045	2539.382948
352.381198	2541.248174
352.771288	2540.406302
353.161314	2537.600900
353.551276	2539.874460
353.941175	2538.737680
354.331010	2538.778009
354.720782	2539.786240
355.110490	2539.564429
355.500135	2538.631816
355.889717	2538.276414
356.279235	2538.639377
356.668689	2537.835313
357.058080	2539.035108
357.447408	2537.389171
357.836672	2539.813966
358.225873	2539.350180
358.615010	2541.699358
359.004084	2542.047197
359.393095	2541.422094
359.782043	2544.603062
360.170927	2543.325130
360.559748	2543.630120
360.948505	2542.589121
361.337199	2544.275387
361.725830	2545.250851
362.114398	2542.740356
362.502903	2544.199770
362.891344	2544.842517
363.279722	2547.050542
363.668037	2545.475182
364.056289	2547.809236
364.444478	2550.211346
364.832603	2548.134391
365.220665	2551.680842
365.608665	2552.353836
365.996601	2547.305121
366.384474	2546.808567
366.772284	2550.831408
367.160031	2548.746891
367.547715	2550.980122
367.935336	2552.260575
368.322893	2549.432488
368.710388	2547.146324
369.097820	2549.987015
369.485189	2547.519370
369.872495	2551.975750
370.259738	2553.478014
370.646918	2552.593291
371.034035	2553.107489
371.421090	2554.171172
371.808081	2552.573127
372.195010	2555.315514
372.581875	2554.093034
372.968678	2555.365926
373.355418	2554.773590
373.742096	2555.280226
374.128710	2556.928683
374.515262	2556.759805
374.901751	2556.190154
375.288177	2555.376008
375.674540	2554.413148
376.060841	2555.993549
376.447079	2555.766697
376.833254	2558.975392
377.219367	2558.226781
377.605417	2555.784342
377.991404	2558.856925
378.377329	2558.577141
378.763191	2555.237376
379.148991	2560.394477
379.534727	2560.606205
379.920402	2557.858776
380.306013	2559.020762
380.691563	2560.260886
381.077049	2560.575958
381.462474	2558.718293
381.847835	2560.394477
382.233134	2561.246432
382.618371	2559.776935
383.003545	2561.596792
383.388657	2561.004456
383.773706	2562.050496
384.158693	2560.359189
384.543618	2564.298850
384.928480	2562.053016
385.313280	2562.569735
385.698017	2562.403377
386.082692	2560.016390
386.467305	2562.627708
386.851856	2562.849519
387.236344	2562.189127
387.620770	2558.309960
388.005133	2560.807851
388.389435	2561.551422
388.773674	2559.310629
389.157851	2562.894889
389.541965	2565.417987
389.926018	2564.324056
390.310008	2564.387071
390.693936	2565.443192
391.077802	2565.024777
391.461606	2566.337997
391.845348	2565.680127
392.229027	2564.681978
392.612645	2565.763306
392.996200	2566.756413
393.379694	2564.321536
393.763125	2566.801783
394.146494	2565.055023
394.529801	2568.099880
394.913047	2567.946125
395.296230	2567.245405
395.679351	2568.503173
396.062410	2568.253636
396.445408	2566.829510
396.828343	2569.186249
397.211217	2567.482339
397.594028	2569.324881
397.976778	2570.166753
398.359466	2570.018039
398.742092	2570.428893
399.124656	2568.099880
399.507158	2568.588872
399.889598	2569.219017
400.271977	2569.002247
400.654294	2570.126424
401.036549	2572.747824
401.418742	2571.479974
401.800874	2571.353945
402.182944	2571.784964
402.564952	2573.163719
402.946898	2572.710016
403.328783	2574.945767
403.710606	2571.989131
404.092367	2574.340829
404.474067	2574.295458
404.855705	2572.024419
405.237282	2572.896538
405.618797	2574.270253
406.000250	2575.676735
406.381642	2574.978535
406.762972	2572.082392
407.144240	2569.345045
407.525447	2571.341342
407.906593	2568.142730
408.287677	2576.800912
408.668700	2573.791343
409.049661	2575.878381
409.430560	2574.890315
409.811399	2576.803432
410.192176	2577.322671
410.572891	2578.172106
410.953545	2573.574573
411.334138	2576.387537
411.714669	2577.481468
412.095139	2577.214287
412.475547	2574.555078
412.855894	2578.822415
413.236180	2576.201015
413.616405	2576.193453
413.996568	2575.585994
414.376670	2577.277301
414.756711	2577.980542
415.136691	2577.103381
415.516609	2576.962229
415.896466	2578.083886
416.276262	2578.199832
416.655997	2578.419122
417.035670	2576.155644
417.415283	2581.693352
417.794834	2580.657395
418.174324	2579.666808
418.553753	2580.402816
418.933121	2579.230748
419.312428	2579.828125
419.691674	2578.063721
420.070859	2581.781572
420.449983	2579.628999
420.829045	2580.004565
421.208047	2580.662436
421.586988	2579.573547
421.965867	2582.411716
422.344686	2579.966757
422.723444	2583.019175
423.102141	2581.461459
423.480777	2581.549679
423.859352	2578.537589
424.237866	2582.404154
424.616319	2582.343661
424.994712	2583.193095
425.373044	2582.636047
425.751314	2579.029102
426.129524	2578.076324
426.507673	2581.869792
426.885762	2581.191757
427.263789	2582.830132
427.641756	2585.345668
428.019662	2583.939186
428.397508	2583.530852
428.775292	2585.443970
429.153016	2584.418095
429.530679	2584.287025
429.908282	2585.431367
430.285824	2582.857858
430.663305	2584.347519
431.040726	2583.074628
431.418086	2585.186871
431.795385	2585.859865
432.172624	2583.767787
432.549802	2583.334247
432.926920	2585.343147
433.303977	2586.704259
433.680974	2587.427664
434.057910	2586.200143
434.434786	2585.375915
434.811601	2584.871799
435.188355	2587.538570
435.565050	2583.495564
435.941683	2585.191912
436.318257	2589.323138
436.694770	2587.276430
437.071222	2584.153435
437.447614	2585.244845
437.823946	2588.607294
438.200218	2590.918663
438.576429	2588.151070
438.952580	2587.019331
439.328670	2589.950762
439.704700	2588.637541
440.080670	2590.865731
440.456580	2585.665781
440.832429	2590.676688
441.208218	2588.766091
441.583947	2590.399424
441.959616	2587.488158
442.335224	2588.249372
442.710773	2591.866400
443.086261	2587.800710
443.461689	2590.041502
443.837057	2590.386822
444.212365	2591.412696
444.587612	2586.328693
444.962800	2587.946903
445.337927	2586.152252
445.712995	2586.681573
446.088002	2593.189703
446.462949	2591.299270
446.837837	2588.987901
447.212664	2591.707604
447.587431	2591.677357
447.962139	2591.815989
448.336786	2596.300095
448.711374	2594.344127
449.085901	2592.743561
449.460369	2589.567634
449.834776	2591.238777
450.209124	2594.402101
450.583412	2595.606936
450.957640	2595.130547
451.331808	2596.355548
451.705917	2593.928232
452.079965	2597.184817
452.453954	2593.323294
452.827883	2595.743047
453.201752	2596.143819
453.575562	2595.823706
453.949311	2594.586103
454.323001	2594.520568
454.696632	2595.533840
455.070202	2596.831937
455.443713	2596.859663
455.817164	2595.765733
456.190556	2597.973758
456.563888	2598.896289
456.937160	2599.234047
457.310373	2599.531475
457.683526	2597.562904
458.056619	2597.303285
458.429653	2598.790425
458.802628	2599.728080
459.175542	2598.034252
459.548398	2601.288317
459.921194	2599.687750
460.293930	2603.340066
460.666607	2601.328646
461.039224	2601.023656
461.411782	2601.958790
461.784280	2603.292175
462.156719	2604.146651
462.529099	2604.900303
462.901419	2603.652618
463.273680	2598.641711
463.645882	2599.133223
464.018024	2600.045672
464.390106	2598.308995
464.762130	2601.608430
465.134094	2602.188163
465.505999	2604.360900
465.877845	2611.284925
466.249631	2612.981273
466.621358	2612.114195
466.993026	2613.190481
467.364634	2617.472941
467.736184	2609.429780
468.107674	2608.676128
468.479105	2612.141921
468.850477	2605.515324
469.221790	2610.410285
469.593043	2610.122939
469.964238	2609.460027
470.335373	2608.522372
470.706449	2609.888525
471.077467	2609.757455
471.448425	2614.150821
471.819324	2616.736933
472.190164	2619.229783
472.560945	2616.928497
472.931667	2614.584360
473.302330	2613.601335
473.672934	2614.808691
474.043479	2612.691407
474.413965	2615.108640
474.784393	2614.544031
475.154761	2613.802981
475.525070	2615.874895
475.895321	2617.364556
476.265513	2615.771552
476.635645	2618.851697
477.005719	2616.442025
477.375734	2618.924793
477.745691	2619.184413
478.115588	2621.704990
478.485427	2620.041409
478.855207	2623.882768
479.224928	2626.506689
479.594591	2633.148409
479.964194	2629.422996
480.333739	2633.166053
480.703226	2632.581279
481.072653	2634.572535
481.442022	2634.943060
481.811333	2636.031949
482.180584	2633.834006
482.549777	2635.096815
482.918912	2635.522792
483.287988	2638.113946
483.657005	2641.438587
484.025964	2641.809111
484.394864	2642.484626
484.763706	2643.760038
485.132489	2640.677372
485.501213	2643.044194
485.869879	2646.908238
486.238487	2643.611324
486.607036	2649.648106
486.975527	2649.716161
487.343959	2651.563744
487.712333	2653.668426
488.080648	2656.133550
488.448905	2655.972233
488.817104	2658.424754
489.185244	2663.022287
489.553326	2665.179901
489.921350	2671.682989
490.289315	2683.272602
490.657222	2692.810465
491.025070	2696.800538
491.392861	2704.135417
491.760593	2703.888400
492.128267	2704.276569
492.495883	2703.490149
492.863440	2706.023329
493.230939	2708.473330
493.598380	2715.513301
493.965763	2717.456666
494.333088	2719.783158
494.700354	2728.791700
495.067563	2732.950652
495.434713	2741.603793
495.801805	2755.698859
496.168839	2757.788417
496.535815	2764.576331
496.902733	2775.177877
497.269593	2787.866462
497.636395	2801.452371
498.003139	2817.833601
498.369825	2824.034220
498.736453	2838.083916
499.103023	2858.271216
499.469535	2873.384596
499.835989	2892.984602
500.202385	2908.922210
500.568723	2919.836308
500.935003	2948.633899
501.301226	2962.537401
501.667390	3005.964421
502.033497	3037.955583
502.399546	3054.528377
502.765537	3072.931109
503.131470	3110.948971
503.497345	3140.626243
503.863163	3159.132319
504.228923	3205.034545
504.594625	3247.274373
504.960269	3265.367075
505.325856	3320.726506
505.691385	3350.310517
506.056856	3408.563570
506.422270	3456.958647
506.787625	3486.222545
507.152924	3558.613514
507.518164	3596.134822
507.883347	3642.417656
508.248472	3681.683203
508.613540	3771.808952
508.978550	3834.397397
509.343503	3895.478538
509.708398	3969.061740
510.073236	4041.354407
510.438016	4122.867344
510.802738	4176.469933
511.167403	4262.449332
511.532010	4309.092608
511.896561	4446.794246
512.261053	4541.124317
512.625488	4591.833283
512.989866	4662.439684
513.354186	4721.900094
513.718449	4838.091128
514.082655	4943.297488
514.446803	5023.232544
514.810894	5164.614224
515.174927	5195.367783
515.538904	5298.696314
515.902822	5445.998829
516.266684	5534.864289
516.630488	5612.119972
516.994235	5716.892793
517.357925	5856.867991
517.721558	6003.547924
518.085133	6128.795391
518.448651	6226.558488
518.812112	6305.949099
519.175516	6436.091527
519.538863	6601.436332
519.902152	6671.092475
520.265385	6852.707604
520.628560	6936.877229
520.991678	7075.163641
521.354739	7215.947945
521.717743	7362.653083
522.080690	7431.905934
522.443580	7667.763879
522.806413	7766.232737
523.169189	7964.208931
523.531908	8068.391937
523.894569	8148.730285
524.257174	8299.498593
524.619722	8485.991039
524.982213	8540.448103
525.344647	8730.204696
525.707025	8880.630206
526.069345	9045.780927
526.431608	9192.274337
526.793815	9405.091687
527.155964	9365.448054
527.518057	9568.057068
527.880093	9713.101146
528.242072	9882.829235
528.603995	9962.860073
528.965860	10045.973576
529.327669	10269.505899
529.689421	10381.364062
530.051117	10470.773967
530.412755	10732.109902
530.774337	10772.436613
531.135862	10895.680221
531.497331	11112.848088
531.858743	11102.244021
532.220098	11474.802934
532.581396	11450.249994
532.942638	11662.558188
533.303824	11808.761732
533.664953	11987.926861
534.026025	12030.121318
534.387040	12250.419741
534.747999	12486.680978
535.108902	12683.580886
535.469748	12633.005510
535.830537	12893.542423
536.191270	13074.300556
536.551947	13243.953027
536.912567	13192.366899
537.273131	13491.166170
537.633638	13502.859126
537.994089	13798.295947
538.354483	13706.410836
538.714821	14115.326551
539.075103	14323.180886
539.435328	14357.054919
539.795497	14275.211787
540.155609	14647.012006
540.515665	14949.246823
540.875665	14691.737123
541.235609	14976.932840
541.595496	15145.272091
541.955328	15462.406038
542.315102	15576.452061
542.674821	15500.068498
543.034483	15559.486058
543.394090	15772.583193
543.753640	15794.267716
544.113134	16316.480843
544.472571	16252.362407
544.831953	16606.715193
545.191278	16468.953062
545.550548	16603.027589
545.909761	16809.578786
546.268918	17141.891647
546.628019	17220.296713
546.987064	17231.097385
547.346053	17198.549176
547.704986	17396.976553
548.063863	17658.035225
548.422684	17729.256647
548.781449	17596.575998
549.140158	18011.964554
549.498811	17879.404893
549.857408	17769.732071
550.215949	18240.568278
550.574434	18103.816898
550.932864	18399.205828
551.291237	18606.016644
551.649555	18668.111057
552.007817	18812.250248
552.366022	18855.077371
552.724173	18971.933837
553.082267	19040.828766
553.440305	19518.220994
553.798288	19060.837106
554.156215	19584.181972
554.514086	19758.999105
554.871902	19371.835969
555.229661	19695.142809
555.587365	19696.758499
555.945014	19644.532145
556.302606	19994.360496
556.660143	19996.755044
557.017625	20328.901547
557.375050	20061.501103
557.732421	20444.664084
558.089735	20399.142464
558.446994	20530.991323
558.804197	20644.134980
559.161345	20714.106195
559.518437	20543.712674
559.875474	20838.660504
560.232455	21038.506966
560.589381	21014.420333
560.946251	21035.925895
561.303065	21417.831107
561.659825	21551.348587
562.016528	21292.944082
562.373177	21155.144142
562.729770	21508.143378
563.086307	21499.417141
563.442789	21717.041232
563.799216	21628.717696
564.155587	21686.277591
564.511904	21741.868915
564.868164	21724.562634
565.224370	21795.673150
565.580520	21734.327349
565.936615	21943.827620
566.292654	21679.015809
566.648638	22047.720760
567.004567	21918.974732
567.360441	21925.548396
567.716260	21720.605328
568.072023	22082.993713
568.427732	21910.251015
568.783385	21752.084813
569.138982	21995.811999
569.494525	22083.994382
569.850013	21892.516236
570.205445	22010.159122
570.560823	21862.523891
570.916145	21694.330834
571.271412	21869.437833
571.626625	21694.857635
571.981782	21827.868479
572.336884	21672.197648
572.691931	21820.515956
573.046923	21601.316504
573.401860	21529.134743
573.756743	21547.499667
574.111570	21500.889158
574.466342	21460.131429
574.821059	21577.766754
575.175722	21299.202675
575.530330	21326.717293
575.884882	21373.877287
576.239380	21297.541615
576.593823	21224.369267
576.948211	21223.222404
577.302544	21077.956515
577.656823	20978.998665
578.011047	21088.931107
578.365216	20990.000983
578.719330	20892.318545
579.073389	20809.537758
579.427394	20960.550563
579.781344	20761.813154
580.135239	20661.083339
580.489080	20650.151597
580.842866	20424.570044
581.196597	20606.684248
581.550273	20603.762899
581.903895	20523.764829
582.257463	20836.006336
582.610975	20380.180164
582.964434	20678.571102
583.317837	20414.838097
583.671186	20510.030205
584.024481	20476.695575
584.377721	20264.462998
584.730906	20311.938065
585.084037	20377.112622
585.437113	20259.547873
585.790135	20472.438321
586.143103	19963.274221
586.496016	19972.504573
586.848874	20228.932946
587.201679	20179.481747
587.554428	19833.492235
587.907124	20175.617703
588.259765	19957.973447
588.612352	20042.579132
588.964884	19614.716241
589.317362	19803.734304
589.669786	19837.585652
590.022155	19909.079296
590.374470	20072.173226
590.726731	19888.261851
591.078937	19640.698348
591.431090	19754.764536
591.783188	19501.388582
592.135232	19474.529314
592.487222	19584.020655
592.839157	19617.050295
593.191038	19488.571448
593.542866	19384.748885
593.894639	19118.923801
594.246358	19327.652776
594.598022	19238.416791
594.949633	18997.807559
595.301190	18951.388615
595.652692	19116.680488
596.004141	19372.675321
596.355535	18704.823260
596.706876	18708.122695
597.058162	18603.652343
597.409395	18825.090067
597.760573	18905.879598
598.111698	18696.880922
598.462768	18630.287279
598.813785	18583.865814
599.164748	18422.571576
599.515657	18446.328014
599.866511	18235.146518
600.217312	18606.475389
600.568060	18131.888563
600.918753	18447.369012
601.269392	18341.043516
601.619978	18125.292213
601.970510	18348.242283
602.320988	18276.857024
602.671412	18495.653184
603.021783	18385.624960
603.372100	18135.992063
603.722363	18261.184077
604.072572	18211.674905
604.422728	18342.996963
604.772830	18103.741281
605.122878	18038.372639
605.472872	18041.596457
605.822813	18035.007669
606.172701	17994.915372
606.522534	18195.797791
606.872314	18221.517758
607.222041	18048.023928
607.571714	18268.680273
607.921333	18094.952029
608.270899	18162.427873
608.620411	18364.706692
608.969870	18124.999827
609.319276	18133.421074
609.668627	18157.936205
610.017926	18284.847253
610.367171	18408.925173
610.716362	18449.471173
611.065500	18274.223022
611.414585	18395.225837
611.763616	18384.699908
612.112594	18333.386003
612.461518	18298.523904
612.810389	18493.046907
613.159207	18359.070682
613.507971	18246.211850
613.856682	18541.956182
614.205340	18474.858424
614.553945	18614.362274
614.902496	18352.960803
615.250994	18604.622765
615.599439	18538.306386
615.947830	18519.011370
616.296169	18556.288182
616.644454	18534.086941
616.992686	18500.172578
617.340864	18707.880719
617.688990	18471.460686
618.037063	18659.009253
618.385082	18504.296242
618.733048	18775.901008
619.080961	18639.255492
619.428821	18686.097894
619.776628	18580.195854
620.124382	18495.532196
620.472083	18529.000416
620.819731	18559.118790
621.167326	18249.395339
621.514868	18293.429818
621.862357	18045.150470
622.209793	18074.457218
622.557176	17910.662568
622.904506	17727.358652
623.251783	17623.319319
623.599007	17404.114827
623.946179	17357.010285
624.293297	17300.433415
624.640363	17055.513997
624.987376	17067.194350
625.334336	16854.724839
625.681243	16712.655042
626.028097	16703.356633
626.374899	16649.625495
626.721647	16514.031059
627.068343	16349.860843
627.414987	16279.143537
627.761577	16244.916623
628.108115	16296.497709
628.454600	16017.439597
628.801032	16113.077847
629.147412	16038.504058
629.493739	16062.005917
629.840014	15879.150665
630.186236	15977.354862
630.532405	15737.305198
630.878521	15933.998418
631.224585	15830.662326
631.570597	15647.807073
631.916556	15679.178174
632.262462	15657.566747
632.608316	15577.911475
632.954117	15523.300656
633.299866	15515.673390
633.645562	15451.300376
633.991206	15188.416806
634.336797	15066.282251
634.682336	15028.103072
635.027823	14932.061530
635.373257	14815.373942
635.718639	14706.469895
636.063968	14661.664120
636.409245	14412.182457
636.754470	14445.050780
637.099642	14287.010607
637.444762	14057.658272
637.789829	14107.452269
638.134845	13942.989666
638.479808	13957.104897
638.824719	13928.587089
639.169577	13763.985854
639.514383	13814.919152
639.859137	13638.168737
640.203839	13717.226632
640.548489	13558.258887
640.893086	13548.998287
641.237632	13412.869489
641.582125	13569.656935
641.926566	13401.960432
642.270955	13407.314138
642.615292	13379.184499
642.959576	13383.109037
643.303809	13414.094489
643.647990	13355.095345
643.992118	13402.840113
644.336195	13175.867203
644.680219	13371.726112
645.024192	13306.377635
645.368112	13546.258420
645.711981	13606.364097
646.055797	13780.934214
646.399562	13735.062234
646.743274	14020.197458
647.086935	14286.811482
647.430544	14253.527263
647.774101	14280.593218
648.117606	14438.283031
648.461059	14407.897476
648.804460	14398.379778
649.147810	14120.438281
649.491108	14027.391184
649.834354	14046.580336
650.177548	13750.979677
650.520690	13554.243607
650.863781	13483.579233
651.206820	13526.194628
651.549807	13349.292977
651.892742	13161.230212
652.235626	13098.430038
652.578458	13094.069440
652.921238	12784.540074
653.263967	12976.350936
653.606644	12803.893063
653.949269	12770.192950
654.291843	12583.501379
654.634365	12737.228845
654.976836	12589.986823
655.319255	12606.408382
655.661622	12558.648490
656.003938	12480.833240
656.346203	12406.899677
656.688416	12475.766880
657.030577	12432.231475
657.372687	12358.335722
657.714746	12328.411433
658.056753	12504.859379
658.398708	12339.559944
658.740612	12340.457270
659.082465	12431.704675
659.424266	12399.491702
659.766016	12419.999116
660.107715	12334.286897
660.449362	12402.559244
660.790958	12369.123791
661.132503	12318.132520
661.473996	12372.730737
661.815438	12395.872153
662.156829	12400.265519
662.498168	12380.126109
662.839456	12380.852035
663.180693	12403.867423
663.521879	12484.606543
663.863013	12466.450828
664.204097	12444.794031
664.545129	12564.279459
664.886110	12527.819314
665.227040	12613.891975
665.567918	12626.714150
665.908746	12660.038697
666.249522	12643.115544
666.590248	12681.322449
666.930922	12797.873926
667.271545	12783.415896
667.612118	12871.520142
667.952639	12772.789144
668.293109	12779.148560
668.633528	12733.518556
668.973896	12704.352960
669.314213	12801.596818
669.654480	12541.309442
669.994695	12585.875762
670.334859	12621.483953
670.674973	12571.258937
671.015035	12608.003907
671.355047	12545.561655
671.695008	12516.486800
672.034918	12523.877132
672.374777	12566.616034
672.714585	12482.191831
673.054342	12510.283660
673.394049	12457.386833
673.733705	12552.326883
674.073310	12471.686066
674.412864	12492.286741
674.752368	12364.100281
675.091820	12369.393493
675.431223	12364.130528
675.770574	12238.804923
676.109875	12154.685709
676.449125	12122.147582
676.788324	12055.001933
677.127473	11895.318344
677.466571	11883.769060
677.805619	11782.121755
678.144616	11705.917153
678.483562	11672.688387
678.822458	11549.659027
679.161303	11523.099708
679.500098	11516.566373
679.838842	11466.001079
680.177535	11488.482105
680.516179	11547.516537
680.854771	11488.953453
681.193314	11701.226359
681.531805	11850.525171
681.870247	12257.495001
682.208638	12656.976196
682.546978	12974.349598
682.885268	13046.581771
683.223508	12742.501892
683.561697	12569.708782
683.899836	12474.312507
684.237925	12288.062037
684.575963	12197.454858
684.913951	12124.794187
685.251889	12066.130280
685.589776	12167.707010
685.927614	12094.133890
686.265401	12053.464381
686.603137	12089.508631
686.940824	12248.554514
687.278460	12368.128163
687.616046	12414.284968
687.953582	12590.954725
688.291068	12506.966581
688.628504	12737.768248
688.965889	12746.285278
689.303224	12719.121020
689.640510	12613.781069
689.977745	12323.831544
690.314930	12091.348652
690.652065	12001.059066
690.989150	11715.518030
691.326185	11494.952426
691.663170	11293.848196
692.000105	11041.326718
692.336990	10941.300143
692.673825	10692.196567
693.010610	10570.276261
693.347345	10369.819820
693.684030	10168.347586
694.020665	10103.041958
694.357251	9910.182535
694.693786	9872.101659
695.030272	9692.233290
695.366707	9573.272142
695.703093	9508.755455
696.039429	9497.576696
696.375716	9431.668651
696.711952	9299.550091
697.048139	9338.550977
697.384276	9291.058267
697.720363	9311.255650
698.056400	9248.309282
698.392388	9198.600985
698.728326	9161.311570
699.064214	9092.414120
699.400053	9139.145616
699.735842	8956.575189
700.071581	8918.118747
700.407270	8838.362652
700.742910	8767.771374
701.078501	8675.631685
701.414042	8558.780259
701.749533	8479.689597
702.084974	8351.621604
702.420366	8456.722100
702.755709	8345.625151
703.091002	8213.925007
703.426246	8236.098522
703.761440	8187.330400
704.096584	8144.969584
704.431679	8081.330058
704.766725	8071.449396
705.101721	8015.106940
705.436668	8057.442550
705.771565	7951.414482
706.106413	8033.890280
706.441212	8080.770490
706.775961	8031.450361
707.110661	8058.445740
707.445311	8217.940286
707.779913	8104.206814
708.114465	8237.600786
708.448967	8278.403885
708.783421	8408.831138
709.117825	8593.024817
709.452180	8631.236763
709.786485	8718.136173
710.120742	8997.179162
710.454949	8992.538780
710.789107	9092.852701
711.123216	9303.199886
711.457275	9462.021438
711.791286	9634.108786
712.125247	9625.175862
712.459159	9610.226320
712.793023	9872.295744
713.126837	9445.146175
713.460602	9594.964227
713.794318	9420.351260
714.127985	9449.705899
714.461602	9145.933530
714.795171	9087.320034
715.128691	8844.878343
715.462162	8583.388652
715.795584	8532.546095
716.128957	8394.279848
716.462281	8226.933704
716.795556	8270.131352
717.128782	8068.275990
717.461960	7799.461502
717.795088	7876.734829
718.128167	7782.419882
718.461198	7617.906867
718.794180	7553.720376
719.127113	7550.642751
719.459997	7406.072541
719.792833	7173.824063
720.125619	7234.814463
720.458357	7092.888338
720.791046	7085.702173
721.123686	7083.864673
721.456278	6929.315499
721.788821	6948.292922
722.121315	6835.671025
722.453761	6901.314410
722.786158	6844.296439
723.118506	6859.316557
723.450805	6824.169632
723.783056	6895.048255
724.115259	6797.328009
724.447412	6797.509490
724.779518	6837.803433
725.111574	6842.680749
725.443582	6926.139572
725.775542	6896.931126
726.107453	7091.812052
726.439315	7002.994483
726.771129	7053.889972
727.102895	7228.439924
727.434612	7337.374217
727.766281	7368.062241
728.097901	7457.462064
728.429473	7439.767614
728.760996	7418.337669
729.092471	7396.610296
729.423897	7340.441759
729.755276	7356.744851
730.086606	7283.073429
730.417887	7382.696711
730.749120	7563.197745
731.080305	7750.277485
731.411442	7884.019296
731.742530	7880.949234
732.073570	7982.125191
732.404562	8065.616781
732.735506	7915.150942
733.066401	8058.551604
733.397249	7997.294023
733.728048	7763.082016
734.058798	7431.797549
734.389501	7213.742440
734.720156	7036.871037
735.050762	6805.303114
735.381320	6699.963163
735.711831	6655.132182
736.042293	6550.475308
736.372707	6571.078503
736.703073	6432.114057
737.033391	6465.037832
737.363661	6473.149049
737.693883	6502.095354
738.024056	6583.376398
738.354182	6630.443131
738.684260	6667.576270
739.014290	6772.767507
739.344272	6883.388067
739.674207	6914.421410
740.004093	6979.268292
740.333931	6997.159347
740.663722	7001.119173
740.993464	7081.936431
741.323159	7083.428613
741.652806	6828.424366
741.982405	6830.372772
742.311956	6888.817389
742.641460	6742.467652
742.970915	6543.798299
743.300323	6538.313524
743.629683	6482.906202
743.958996	6352.002560
744.288260	6259.817500
744.617477	6205.746084
744.946647	6214.673968
745.275768	6046.861518
745.604842	6009.191496
745.933869	5987.927909
746.262847	5948.395180
746.591778	5931.593015
746.920662	5895.271501
747.249498	5883.218102
747.578286	5929.327016
747.907027	6008.364747
748.235720	6062.572274
748.564365	6038.228542
748.892963	6056.270832
749.221514	6216.806376
749.550017	6060.099588
749.878473	5934.264826
750.206881	5981.162680
750.535242	5923.675883
750.863555	5856.502508
751.191821	5875.127050
751.520039	5879.555704
751.848210	5789.757631
752.176334	5802.708355
752.504411	5859.007961
752.832440	5785.994409
753.160421	5707.438109
753.488356	5755.588690
753.816243	5790.596983
754.144082	5647.161032
754.471875	5613.370178
754.799620	5661.374566
755.127318	5669.311862
755.454969	5622.877794
755.782572	5587.138534
756.110129	5630.726871
756.437638	5624.243947
756.765100	5559.351694
757.092515	5552.800715
757.419882	5600.116985
757.747203	5583.919757
758.074477	5653.258308
758.401703	5641.363705
758.728882	5586.581487
759.056014	5632.375328
759.383099	5772.335403
759.710138	5778.745230
760.037129	5762.268219
760.364073	5767.132932
760.690970	5851.090829
761.017820	5837.600701
761.344623	5784.361075
761.671379	5883.588627
761.998088	5994.327654
762.324751	6227.932202
762.651366	6805.103988
762.977935	8071.996362
763.304456	9680.038739
763.630931	10604.969482
763.957359	10247.778526
764.283740	9328.020007
764.610074	8517.261316
764.936362	7538.740587
765.262602	6936.781448
765.588796	6398.928141
765.914943	6057.238733
766.241044	5895.354680
766.567097	5701.834866
766.893104	5451.765909
767.219064	5268.411582
767.544978	5203.277354
767.870845	5129.948730
768.196665	5027.328482
768.522438	4950.234116
768.848165	4923.808387
769.173846	4858.454869
769.499479	4814.685051
769.825066	4759.784365
770.150607	4701.932083
770.476101	4676.033155
770.801548	4669.061240
771.126949	4598.298563
771.452303	4547.327457
771.777611	4504.911188
772.102872	4521.473899
772.428087	4488.429136
772.753256	4444.523206
773.078378	4403.783121
773.403453	4334.968851
773.728482	4320.215914
774.053465	4275.422742
774.378401	4258.474382
774.703291	4263.754991
775.028135	4193.040205
775.352932	4145.461795
775.677683	4130.068632
776.002388	4144.708143
776.327046	4165.349147
776.651658	4088.670677
776.976224	4022.891181
777.300743	4033.593550
777.625216	4050.804050
777.949643	4050.403278
778.274024	4002.512316
778.598359	3954.170172
778.922647	3980.197649
779.246889	3969.759940
779.571086	3971.075681
779.895236	3959.276860
780.219339	3937.050413
780.543397	3933.408179
780.867409	3981.490705
781.191374	3997.879496
781.515294	3940.271710
781.839167	3932.241152
782.162995	3947.288997
782.486776	3934.141667
782.810511	3945.040642
783.134201	3945.940488
783.457844	3902.049682
783.781441	3844.696475
784.104993	3850.829038
784.428498	3870.144219
784.751958	3869.158674
785.075372	3845.172864
785.398739	3807.066782
785.722061	3817.827125
786.045337	3859.298177
786.368568	3894.845873
786.691752	3810.227585
787.014891	3851.416333
787.337983	3975.370744
787.661030	4129.214157
787.984031	4292.514774
788.306987	4464.675219
788.629897	4543.700346
788.952760	4501.016897
789.275579	4431.333027
789.598351	4375.938308
789.921078	4240.875714
790.243759	4043.138975
790.566395	4013.524717
790.888984	4012.486239
791.211529	3908.366248
791.534027	3848.270653
791.856480	3843.710929
792.178888	3781.172895
792.501249	3728.223136
792.823566	3737.912233
793.145836	3772.492028
793.468062	3721.140314
793.790241	3669.705422
794.112375	3700.789176
794.434464	3762.835698
794.756507	3788.656488
795.078505	3772.817183
795.400457	3800.838436
795.722364	3933.196451
796.044226	4039.406001
796.366042	4107.668265
796.687812	4095.451029
797.009538	4104.832616
797.331218	4058.829567
797.652852	4033.865773
797.974442	4013.151672
798.295986	4013.885159
798.617484	3934.877676
798.938938	3846.407946
799.260346	3884.173750
799.581709	3885.567629
799.903026	3812.362514
800.224299	3776.368675
800.545526	3768.610340
800.866708	3731.104155
801.187845	3669.503776
801.508936	3704.451575
801.829983	3707.698078
802.150984	3626.575830
802.471940	3613.667956
802.792851	3627.775625
803.113717	3631.196047
803.434538	3631.375008
803.755314	3576.008016
804.076045	3545.556926
804.396731	3561.670974
804.717372	3589.309100
805.037967	3578.274014
805.358518	3568.625246
805.679024	3593.500820
805.999485	3605.707974
806.319901	3608.914147
806.640272	3624.945017
806.960598	3639.468581
807.280879	3614.552678
807.601115	3622.817650
807.921306	3636.416162
808.241453	3680.327133
808.561554	3659.257630
808.881611	3593.284050
809.201623	3624.198926
809.521590	3638.082264
809.841513	3612.752986
810.161390	3642.921771
810.481223	3623.866210
810.801011	3568.239598
811.120755	3555.183009
811.440453	3590.682815
811.760107	3597.536263
812.079716	3560.123340
812.399281	3521.389634
812.718801	3541.397974
813.038276	3518.755632
813.357707	3517.328985
813.677093	3535.333466
813.996434	3484.516115
814.315731	3488.657422
814.634983	3492.531549
814.954191	3507.823889
815.273354	3537.566697
815.592473	3536.639125
815.911547	3536.747510
816.230577	3578.105136
816.549562	3625.252527
816.868502	3669.067716
817.187399	3695.735420
817.506250	3690.311138
817.825058	3658.839215
818.143821	3746.855240
818.462539	3851.827187
818.781213	3897.817633
819.099843	3952.456179
819.418429	4180.878422
819.736970	4420.118980
820.055466	4657.975742
820.373919	5015.012943
820.692327	5418.907668
821.010691	5832.705741
821.329011	7138.261243
821.647286	9768.760526
821.965517	14185.592674
822.283704	18184.808076
822.601847	20434.985068
822.919945	18704.538434
823.237999	16202.129830
823.556010	13756.240122
823.873976	11712.117772
824.191897	9650.174943
824.509775	8297.751834
824.827609	7177.650299
825.145398	6622.410053
825.463144	6509.694894
825.780845	6622.621781
826.098502	6790.935826
826.416116	7614.819160
826.733685	8905.921675
827.051210	10016.747487
827.368692	10119.340008
827.686129	8920.654447
828.003522	7414.075373
828.320872	6408.103041
828.638177	5718.490839
828.955439	5171.495399
829.272656	4675.188762
829.589830	4392.059918
829.906960	4220.126325
830.224046	4040.184859
830.541088	3914.831527
830.858086	3863.996532
831.175041	3792.215542
831.491952	3774.843726
831.808819	3781.314047
832.125642	3850.728215
832.442421	3993.067715
832.759157	4252.412395
833.075849	4783.248415
833.392497	5619.653976
833.709101	6380.301077
834.025662	6736.355253
834.342179	6413.567652
834.658653	5756.324698
834.975083	5124.433708
835.291469	4558.372625
835.607811	4146.744769
835.924110	4010.058924
836.240366	3815.525838
836.556578	3613.320116
836.872746	3500.640245
837.188871	3466.196562
837.504952	3404.132396
837.820990	3319.073007
838.136984	3271.718928
838.452935	3293.516878
838.768842	3292.717855
839.084706	3314.251143
839.400526	3458.667598
839.716303	3783.217083
840.032037	4288.769196
840.347727	4563.774221
840.663373	4313.632167
840.978977	3938.978654
841.294537	3634.518168
841.610054	3408.407294
841.925527	3301.227323
842.240957	3229.186713
842.556344	3177.051100
842.871687	3125.054119
843.186987	3070.730645
843.502244	3036.004657
843.817458	3000.066271
844.132629	2970.416725
844.447756	2980.083137
844.762840	2967.631487
845.077881	2934.480860
845.392879	2916.899836
845.707833	2913.368507
846.022745	2913.025709
846.337613	2910.593352
846.652438	2900.760582
846.967221	2899.028945
847.281960	2885.627038
847.596656	2881.967160
847.911309	2882.607387
848.225919	2873.971890
848.540485	2867.433513
848.855009	2868.224975
849.169490	2864.406301
849.483928	2851.011955
849.798323	2849.265195
850.112675	2845.391068
850.426984	2858.162832
850.741251	2857.651154
851.055474	2846.774865
851.369654	2839.490398
851.683792	2844.808815
851.997887	2851.490864
852.311938	2854.898684
852.625947	2842.061386
852.939914	2844.773527
853.253837	2853.766945
853.567718	2836.465705
853.881555	2833.987978
854.195350	2851.460617
854.509103	2847.868795
854.822812	2842.633557
855.136479	2836.390088
855.450103	2837.967969
855.763685	2832.523523
856.077224	2828.135199
856.390720	2842.305882
856.704173	2853.938345
857.017584	2842.177333
857.330953	2838.857733
857.644278	2846.943744
857.957561	2855.004549
858.270802	2860.471680
858.584000	2861.164839
858.897155	2848.249402
859.210268	2843.818228
859.523339	2845.499453
859.836367	2844.559278
860.149352	2839.467712
860.462295	2835.512927
860.775195	2840.581807
861.088054	2842.804956
861.400869	2827.769715
861.713642	2824.472800
862.026373	2837.647856
862.339062	2839.661797
862.651708	2843.072137
862.964312	2848.234279
863.276873	2841.060717
863.589392	2849.688652
863.901869	2861.638707
864.214303	2882.269629
864.526696	2899.679254
864.839045	2897.803945
865.151353	2894.441495
865.463619	2893.138357
865.775842	2896.510889
866.088023	2910.437076
866.400162	2917.136770
866.712258	2889.649878
867.024313	2879.824670
867.336325	2883.877757
867.648296	2911.639392
867.960224	2900.997516
868.272110	2886.983108
868.583954	2893.886968
868.895755	2910.711819
869.207515	2895.603481
869.519233	2899.936353
869.830909	2909.940523
870.142542	2916.965371
870.454134	2918.699528
870.765684	2919.856472
871.077191	2922.223294
871.388657	2926.241094
871.700081	2941.553598
872.011463	2952.651699
872.322803	2952.318983
872.634101	2951.386369
872.945357	2968.130562
873.256571	2993.036382
873.567744	2988.300218
873.878874	2978.064155
874.189963	2999.121055
874.501010	3006.135820
874.812015	2993.477483
875.122979	2997.263390
875.433900	2991.196361
875.744780	2995.272134
876.055618	3003.378309
876.366415	2998.629542
876.677169	3011.660925
876.987882	3007.902745
877.298554	2999.370592
877.609183	3022.736340
877.919771	3045.582849
878.230317	3066.659913
878.540822	3120.358284
878.851285	3159.049140
879.161707	3196.973740
879.472087	3292.692649
879.782425	3503.886748
880.092722	3919.088782
880.402977	4434.266979
880.713191	5038.020769
881.023363	6144.536394
881.333494	7399.324957
881.643583	7965.731359
881.953631	7683.603184
882.263637	7089.281392
882.573602	6522.779208
882.883526	5956.289627
883.193408	5390.851127
883.503248	4929.956075
883.813048	4635.373729
884.122806	4350.510728
884.432522	4043.035632
884.742197	3815.586332
885.051831	3624.428298
885.361424	3484.959736
885.670975	3415.734612
885.980485	3335.872652
886.289954	3261.659306
886.599382	3221.027606
886.908768	3180.635361
887.218113	3140.079278
887.527417	3083.325968
887.836680	3035.530788
888.145901	3028.788245
888.455082	3021.491175
888.764221	2971.082157
889.073319	2940.618464
889.382376	2939.937909
889.691392	2945.664659
890.000366	2942.990327
890.309300	2931.667896
890.618193	2943.522169
890.927044	2957.158490
891.235855	2960.644448
891.544625	2943.847323
891.853353	2953.843932
892.162041	2974.472333
892.470687	3009.319309
892.779293	3060.711352
893.087858	3104.632405
893.396381	3171.931809
893.704864	3285.461114
894.013306	3514.125332
894.321707	3808.347235
894.630068	4015.097557
894.938387	4015.654604
895.246665	3969.354127
895.554903	3854.478834
895.863100	3663.613187
896.171256	3499.163187
896.479371	3364.879452
896.787446	3246.399733
897.095480	3146.095895
897.403473	3080.674321
897.711425	3046.528066
898.019336	3038.363917
898.327207	3009.762931
898.635038	2975.709936
898.942827	2960.094962
899.250576	2953.402831
899.558284	2919.468303
899.865952	2896.100035
900.173579	2880.046480
900.481165	2875.171685
900.788711	2862.135261
901.096216	2837.287413
901.403681	2826.030517
901.711105	2833.229285
902.018489	2833.428410
902.325832	2830.570076
902.633135	2839.482836
902.940397	2869.144985
903.247619	2944.177519
903.554800	3125.956486
903.861941	3454.501085
904.169041	3868.596585
904.476101	4162.384949
904.783121	4136.596926
905.090100	3902.979775
905.397039	3633.290647
905.703938	3389.727299
906.010796	3209.974876
906.317614	3103.936726
906.624391	3010.458610
906.931129	2943.290276
907.237826	2882.587222
907.544483	2836.231292
907.851099	2807.307672
908.157675	2786.084414
908.464211	2768.515993
908.770707	2755.648447
909.077163	2744.008423
909.383578	2728.587534
909.689954	2716.445915
909.996289	2714.368959
910.302584	2716.864330
910.608839	2718.545555
910.915054	2711.251006
911.221229	2706.053576
911.527363	2707.807897
911.833458	2713.857282
912.139513	2714.842828
912.445527	2718.893395
912.751502	2726.813047
913.057436	2737.696899
913.363331	2749.820874
913.669186	2768.775612
913.975000	2801.538071
914.280775	2857.663757
914.586510	2926.508275
914.892205	3000.162053
915.197859	3121.837863
915.503475	3303.410142
915.809050	3508.413704
916.114585	3653.523318
916.420081	3679.424766
916.725536	3623.110037
917.030952	3511.468644
917.336328	3389.664284
917.641665	3258.826177
917.946961	3162.318328
918.252218	3093.705704
918.557435	3023.215250
918.862612	2964.311888
919.167750	2914.356573
919.472848	2875.085985
919.777906	2852.796523
920.082925	2827.275682
920.387904	2798.394912
920.692843	2781.386058
920.997743	2772.243926
921.302603	2755.978643
921.607423	2747.809453
921.912204	2738.064903
922.216946	2725.943448
922.521647	2717.214691
922.826310	2707.442414
923.130932	2702.854964
923.435516	2692.268541
923.740059	2690.277285
924.044564	2677.568536
924.349028	2677.608865
924.653454	2667.345076
924.957840	2662.114879
925.262186	2659.014569
925.566493	2653.335710
925.870761	2648.435708
926.174989	2648.037457
926.479178	2641.725932
926.783328	2636.367186
927.087438	2634.340642
927.391509	2635.421969
927.695541	2631.207565
927.999533	2628.492903
928.303486	2626.015176
928.607400	2625.483335
928.911275	2625.145577
929.215110	2623.144239
929.518906	2623.882768
929.822663	2623.970988
930.126381	2619.149125
930.430060	2622.695577
930.733699	2622.272120
931.037299	2625.064919
931.340861	2626.466360
931.644383	2626.121041
931.947866	2624.422172
932.251309	2624.782614
932.554714	2622.909826
932.858080	2621.800772
933.161407	2616.600822
933.464694	2619.197016
933.767943	2613.727364
934.071153	2618.085441
934.374323	2616.643671
934.677455	2616.832715
934.980548	2614.917076
935.283602	2613.084617
935.586617	2614.352467
935.889593	2613.165275
936.192530	2616.235338
936.495428	2613.505553
936.798287	2615.060749
937.101108	2619.522170
937.403890	2623.053498
937.706632	2628.475259
938.009336	2634.849798
938.312002	2644.012096
938.614628	2650.973929
938.917216	2657.645896
939.219765	2660.116062
939.522275	2657.993736
939.824747	2653.280257
940.127179	2651.064670
940.429573	2649.738846
940.731929	2648.690286
941.034246	2641.577218
941.336524	2641.468833
941.638763	2639.112094
941.940964	2632.707308
942.243126	2633.534057
942.545250	2636.132772
942.847335	2631.068933
943.149381	2625.831174
943.451389	2623.537449
943.753359	2618.889505
944.055290	2619.464197
944.357182	2616.888167
944.659036	2620.752212
944.960851	2616.361367
945.262628	2615.411109
945.564367	2616.273147
945.866067	2618.695421
946.167729	2619.048302
946.469352	2616.862962
946.770937	2617.041922
947.072484	2616.714247
947.373992	2617.344392
947.675462	2613.838269
947.976893	2610.639657
948.278286	2608.918103
948.579641	2607.433483
948.880958	2604.270159
949.182236	2607.718308
949.483476	2609.029008
949.784678	2607.340222
950.085841	2605.961466
950.386967	2609.689400
950.688054	2609.462548
950.989103	2609.255860
951.290114	2609.162599
951.591087	2612.257867
951.892021	2614.347426
952.192917	2617.183075
952.493776	2617.876233
952.794596	2622.350257
953.095378	2618.057715
953.396122	2620.295987
953.696828	2619.287757
953.997496	2615.156531
954.298126	2611.370624
954.598718	2611.226952
954.899272	2609.374327
955.199788	2607.125973
955.500266	2605.220417
955.800706	2603.776126
956.101108	2599.246649
956.401472	2598.180445
956.701798	2598.177925
957.002087	2596.975610
957.302337	2593.855135
957.602550	2593.353541
957.902724	2591.755495
958.202861	2591.140474
958.502960	2590.033941
958.803022	2588.340113
959.103045	2588.135946
959.403031	2588.776173
959.702979	2583.896336
960.002889	2587.835998
960.302762	2584.400451
960.602596	2581.345512
960.902393	2584.092941
961.202153	2583.848445
961.501875	2584.070256
961.801559	2584.009762
962.101205	2584.450863
962.400814	2583.387179
962.700385	2582.895667
962.999918	2578.300655
963.299414	2576.984914
963.598873	2580.085224
963.898293	2575.631364
964.197677	2579.896180
964.497022	2580.806109
964.796331	2582.021027
965.095601	2579.994483
965.394835	2580.337281
965.694030	2579.205542
965.993189	2581.673187
966.292309	2581.305183
966.591393	2581.642940
966.890439	2581.489185
967.189447	2579.654205
967.488419	2580.765779
967.787353	2579.369380
968.086249	2577.857034
968.385108	2582.696541
968.683930	2578.446849
968.982714	2582.126891
969.281462	2579.568505
969.580172	2581.292580
969.878844	2580.319637
970.177480	2576.944585
970.476078	2581.063207
970.774639	2581.219483
971.073162	2580.823753
971.371649	2579.187898
971.670098	2582.383990
971.968510	2577.794019
972.266885	2582.525142
972.565223	2580.193608
972.863524	2582.084041
973.161788	2577.615058
973.460014	2579.444997
973.758204	2580.770821
974.056356	2580.264185
974.354471	2580.589339
974.652550	2581.728640
974.950591	2581.075810
975.248595	2579.583629
975.546563	2581.721078
975.844493	2581.723599
976.142386	2581.395924
976.440243	2578.371231
976.738062	2578.693865
977.035845	2580.246541
977.333590	2581.839545
977.631299	2576.657239
977.928971	2576.821077
978.226606	2574.446693
978.524204	2577.058011
978.821765	2576.014492
979.119290	2578.638413
979.416777	2574.406364
979.714228	2576.069945
980.011642	2576.425346
980.309020	2579.308886
980.606360	2577.242013
980.903664	2576.725295
981.200931	2577.804102
981.498162	2580.601942
981.795356	2580.246541
982.092513	2583.659402
982.389633	2581.738722
982.686717	2588.171234
982.983764	2592.541915
983.280775	2594.707090
983.577749	2595.579210
983.874686	2595.715321
984.171587	2591.027048
984.468451	2592.118458
984.765279	2589.391194
985.062070	2588.357757
985.358824	2582.820050
985.655543	2583.971953
985.952224	2580.969946
986.248869	2580.501119
986.545478	2578.701427
986.842050	2578.154462
987.138586	2578.295614
987.435086	2578.144379
987.731549	2575.840572
988.027975	2579.137487
988.324366	2574.993658
988.620719	2577.655388
988.917037	2573.829152
989.213318	2576.085068
989.509563	2575.742270
989.805772	2575.442321
990.101944	2576.722774
990.398080	2576.652198
990.694180	2576.175809
990.990244	2578.114133
991.286271	2573.062896
991.582262	2573.007444
991.878217	2574.645819
992.174136	2576.448031
992.470019	2573.496436
992.765865	2574.920562
993.061676	2570.592731
993.357450	2572.417629
993.653188	2571.469892
993.948890	2573.602300
994.244556	2575.848134
994.540186	2578.469534
994.835780	2574.532393
995.131337	2575.817887
995.426859	2579.502970
995.722345	2576.122877
996.017795	2578.199832
996.313208	2576.503484
996.608586	2580.821232
996.903928	2579.182857
997.199234	2579.036664
997.494504	2578.479616
997.789738	2577.975501
998.084936	2580.281829
998.380099	2578.469534
998.675225	2579.283680
998.970316	2577.637743
999.265371	2577.640264
999.560390	2577.751169
999.855373	2576.372414
1000.150320	2573.330077
1000.445232	2572.334450
1000.740108	2571.878225
1001.034948	2574.615572
1001.329752	2575.275963
1001.624521	2573.942578
1001.919254	2572.193297
1002.213951	2575.170099
1002.508613	2573.168761
1002.803239	2574.643298
1003.097829	2573.433421
1003.392384	2574.113977
1003.686903	2571.711867
1003.981386	2575.563309
1004.275834	2574.040880
1004.570246	2573.095664
1004.864623	2574.250088
1005.158964	2572.604151
1005.453270	2572.004254
1005.747540	2573.118349
1006.041775	2574.290417
1006.335974	2575.903587
1006.630138	2571.023750
1006.924266	2572.195818
1007.218359	2569.750858
1007.512416	2571.956363
1007.806438	2568.475446
1008.100425	2571.464851
1008.394376	2569.019891
1008.688292	2573.080540
1008.982172	2573.219172
1009.276017	2571.200190
1009.569827	2573.758576
1009.863602	2572.256312
1010.157341	2572.684810
1010.451045	2571.737073
1010.744714	2573.360324
1011.038347	2573.239337
1011.331945	2572.447876
1011.625508	2570.872515
1011.919036	2573.451065
1012.212528	2573.819069
1012.505986	2572.498287
1012.799408	2572.800756
1013.092795	2570.975859
1013.386147	2572.145406
1013.679464	2573.829152
1013.972745	2571.542988
1014.265992	2570.373441
1014.559204	2571.805128
1014.852380	2572.029460
1015.145521	2572.987279
1015.438628	2571.442165
1015.731699	2571.011147
1016.024736	2572.795715
1016.317737	2570.716239
1016.610703	2569.917216
1016.903635	2571.941240
1017.196531	2571.512742
1017.489393	2573.670355
1017.782219	2570.459140
1018.075011	2570.144068
1018.367768	2570.559963
1018.660490	2569.405539
1018.953177	2569.405539
1019.245829	2569.405539
