Dividing Wavelength (nm)	Counts (n)	Blue Motor Position (mm): 11.500000	Red Motor Position (mm): 0.000000	
326.493990	2161.571152
326.888308	2161.571152
327.282561	2161.571152
327.676750	2125.720986
328.070874	2117.607249
328.464933	2120.402569
328.858929	2121.816613
329.252859	2126.777108
329.646726	2138.722122
330.040528	2147.680253
330.434265	2161.460247
330.827938	2179.641168
331.221547	2197.990968
331.615091	2214.026878
332.008571	2232.742162
332.401986	2250.965933
332.795338	2268.998140
333.188625	2289.344237
333.581847	2305.304530
333.975006	2325.358240
334.368100	2342.498163
334.761129	2360.679085
335.154095	2377.758514
335.546996	2397.373644
335.939833	2422.435740
336.332606	2438.448965
336.725315	2448.969853
337.117960	2461.234981
337.510540	2475.234265
337.903056	2486.034937
338.295508	2495.068685
338.687896	2503.631084
339.080220	2509.163751
339.472480	2517.537107
339.864676	2524.725793
340.256807	2529.280475
340.648875	2533.656197
341.040879	2533.182328
341.432818	2534.755168
341.824694	2542.344625
342.216506	2539.501415
342.608253	2542.637012
342.999937	2543.463762
343.391557	2541.238092
343.783113	2542.982331
344.174605	2540.270191
344.566033	2541.797660
344.957397	2539.239275
345.348697	2536.441434
345.739934	2534.326670
346.131106	2534.228368
346.522215	2535.864222
346.913260	2535.350024
347.304241	2528.330218
347.695159	2527.044723
348.086012	2527.276617
348.476802	2523.594054
348.867528	2520.362674
349.258191	2516.178516
349.648789	2515.986953
350.039324	2510.928155
350.429796	2515.729854
350.820203	2514.887981
351.210548	2512.125429
351.600828	2509.007475
351.991045	2508.460510
352.381198	2507.674090
352.771288	2508.112670
353.161314	2509.299862
353.551276	2507.608555
353.941175	2505.561846
354.331010	2507.782475
354.720782	2506.769203
355.110490	2507.316168
355.500135	2507.353977
355.889717	2508.876405
356.279235	2506.217196
356.668689	2507.311127
357.058080	2506.222237
357.447408	2508.314316
357.836672	2507.069151
358.225873	2507.580828
358.615010	2506.832217
359.004084	2512.551406
359.393095	2508.019409
359.782043	2513.738598
360.170927	2506.595283
360.559748	2509.940088
360.948505	2513.110974
361.337199	2510.345901
361.725830	2512.271622
362.114398	2512.863958
362.502903	2511.931344
362.891344	2515.213135
363.279722	2513.365552
363.668037	2514.532580
364.056289	2513.302538
364.444478	2516.861593
364.832603	2515.273629
365.220665	2516.480986
365.608665	2517.277488
365.996601	2515.838238
366.384474	2517.073321
366.772284	2517.826974
367.160031	2518.953672
367.547715	2519.339320
367.935336	2519.412417
368.322893	2515.671880
368.710388	2516.264216
369.097820	2518.958713
369.485189	2517.176665
369.872495	2520.284536
370.259738	2522.016173
370.646918	2521.328055
371.034035	2522.434588
371.421090	2522.948786
371.808081	2524.103210
372.195010	2523.838550
372.581875	2519.140194
372.968678	2522.938704
373.355418	2521.373425
373.742096	2522.752181
374.128710	2522.832839
374.515262	2523.359640
374.901751	2522.631193
375.288177	2523.233611
375.674540	2525.487007
376.060841	2526.739734
376.447079	2525.565145
376.833254	2525.426513
377.219367	2523.173117
377.605417	2525.643283
377.991404	2525.373581
378.377329	2525.751667
378.763191	2527.057326
379.148991	2526.003725
379.534727	2529.799714
379.920402	2528.148736
380.306013	2526.870804
380.691563	2529.396422
381.077049	2526.533046
381.462474	2527.639580
381.847835	2526.792666
382.233134	2528.186545
382.618371	2527.296781
383.003545	2528.844415
383.388657	2527.619415
383.773706	2529.356093
384.158693	2528.678057
384.543618	2530.407173
384.928480	2529.214940
385.313280	2526.903571
385.698017	2529.920702
386.082692	2529.729138
386.467305	2531.745599
386.851856	2530.011443
387.236344	2530.253418
387.620770	2528.577234
388.005133	2527.059847
388.389435	2529.411545
388.773674	2528.920033
389.157851	2531.037317
389.541965	2532.239633
389.926018	2533.399098
390.310008	2531.286854
390.693936	2531.773326
391.077802	2532.196783
391.461606	2533.043697
391.845348	2533.066382
392.229027	2534.518234
392.612645	2534.732483
392.996200	2533.199972
393.379694	2534.067051
393.763125	2531.939684
394.146494	2534.901362
394.529801	2534.551002
394.913047	2533.046217
395.296230	2535.055117
395.679351	2534.389685
396.062410	2534.866074
396.445408	2536.766589
396.828343	2535.523944
397.211217	2536.522093
397.594028	2537.822710
397.976778	2536.930426
398.359466	2533.842719
398.742092	2537.492515
399.124656	2536.968235
399.507158	2536.207021
399.889598	2537.936136
400.271977	2538.994779
400.654294	2538.651980
401.036549	2540.731456
401.418742	2539.045190
401.800874	2539.206507
402.182944	2538.417567
402.564952	2538.319264
402.946898	2538.750283
403.328783	2539.004861
403.710606	2537.371527
404.092367	2538.664583
404.474067	2536.718698
404.855705	2536.650642
405.237282	2540.852444
405.618797	2538.304141
406.000250	2539.942516
406.381642	2538.835982
406.762972	2539.393030
407.144240	2538.697351
407.525447	2535.723070
407.906593	2537.852957
408.287677	2541.154913
408.668700	2540.408822
409.049661	2541.780016
409.430560	2541.071734
409.811399	2541.759852
410.192176	2538.775488
410.572891	2541.608617
410.953545	2541.926210
411.334138	2541.681714
411.714669	2542.700027
412.095139	2541.916127
412.475547	2542.289173
412.855894	2541.913607
413.236180	2542.193391
413.616405	2544.880326
413.996568	2539.362783
414.376670	2543.045346
414.756711	2543.499050
415.136691	2541.427135
415.516609	2542.904193
415.896466	2541.933771
416.276262	2543.703216
416.655997	2543.521735
417.035670	2544.782023
417.415283	2544.688762
417.794834	2544.509801
418.174324	2544.396375
418.553753	2544.381252
418.933121	2546.596839
419.312428	2548.782179
419.691674	2545.679349
420.070859	2544.560212
420.449983	2544.315717
420.829045	2547.544576
421.208047	2545.802857
421.586988	2544.648433
421.965867	2546.584236
422.344686	2547.027857
422.723444	2548.474668
423.102141	2545.671787
423.480777	2547.589946
423.859352	2547.179092
424.237866	2545.089534
424.616319	2546.990049
424.994712	2544.661036
425.373044	2545.802857
425.751314	2544.519883
426.129524	2542.521066
426.507673	2545.664225
426.885762	2542.153062
427.263789	2548.041129
427.641756	2546.740512
428.019662	2546.783361
428.397508	2547.819318
428.775292	2547.501726
429.153016	2549.472817
429.530679	2548.119267
429.908282	2548.484751
430.285824	2552.384083
430.663305	2548.540203
431.040726	2550.118085
431.418086	2549.200595
431.795385	2550.831408
432.172624	2549.296377
432.549802	2547.484082
432.926920	2548.676315
433.303977	2549.732436
433.680974	2549.803012
434.057910	2549.230842
434.434786	2547.443752
434.811601	2549.016593
435.188355	2549.087169
435.565050	2545.520552
435.941683	2548.542724
436.318257	2548.446942
436.694770	2549.356870
437.071222	2548.928372
437.447614	2551.431305
437.823946	2549.918959
438.200218	2549.185471
438.576429	2547.811757
438.952580	2550.901984
439.328670	2550.944834
439.704700	2550.513815
440.080670	2550.266799
440.456580	2548.877961
440.832429	2550.186140
441.208218	2549.954247
441.583947	2550.544062
441.959616	2553.888868
442.335224	2551.499361
442.710773	2552.497509
443.086261	2553.263765
443.461689	2550.171017
443.837057	2550.907025
444.212365	2550.516336
444.587612	2549.634134
444.962800	2547.481561
445.337927	2547.206818
445.712995	2546.347302
446.088002	2552.348795
446.462949	2549.724875
446.837837	2554.191337
447.212664	2553.651933
447.587431	2552.442057
447.962139	2549.775286
448.336786	2551.055739
448.711374	2550.990204
449.085901	2551.615307
449.460369	2552.028682
449.834776	2552.817623
450.209124	2553.785524
450.583412	2553.044474
450.957640	2555.514640
451.331808	2553.742674
451.705917	2552.661347
452.079965	2553.457849
452.453954	2557.629404
452.827883	2553.770401
453.201752	2553.588919
453.575562	2551.874927
453.949311	2552.880637
454.323001	2554.360216
454.696632	2554.723179
455.070202	2554.715617
455.443713	2553.936759
455.817164	2552.794937
456.190556	2556.832902
456.563888	2553.843497
456.937160	2556.157387
457.310373	2554.519012
457.683526	2554.705535
458.056619	2554.239228
458.429653	2553.856100
458.802628	2556.669064
459.175542	2554.095555
459.548398	2555.499516
459.921194	2556.106975
460.293930	2556.913560
460.666607	2556.485062
461.039224	2556.888354
461.411782	2559.464384
461.784280	2556.406924
462.156719	2555.504558
462.529099	2559.918088
462.901419	2554.942469
463.273680	2555.355843
463.645882	2552.568085
464.018024	2554.682849
464.390106	2551.428785
464.762130	2556.613611
465.134094	2558.743499
465.505999	2558.441030
465.877845	2557.584033
466.249631	2560.112172
466.621358	2559.164435
466.993026	2559.436657
467.364634	2563.933367
467.736184	2559.852553
468.107674	2558.418344
468.479105	2559.156873
468.850477	2558.746019
469.221790	2560.155022
469.593043	2558.430947
469.964238	2559.275341
470.335373	2558.115875
470.706449	2557.342058
471.077467	2561.432954
471.448425	2560.505382
471.819324	2560.356668
472.190164	2560.727193
472.560945	2562.040413
472.931667	2558.206616
473.302330	2562.662996
473.672934	2560.371792
474.043479	2559.285423
474.413965	2559.628221
474.784393	2559.734086
475.154761	2562.990671
475.525070	2561.349775
475.895321	2558.191492
476.265513	2561.727862
476.635645	2561.231308
477.005719	2560.308777
477.375734	2562.572255
477.745691	2561.657286
478.115588	2560.190310
478.485427	2562.899930
478.855207	2562.418500
479.224928	2561.490928
479.594591	2563.956052
479.964194	2566.718604
480.333739	2562.973027
480.703226	2562.239539
481.072653	2565.803635
481.442022	2563.250290
481.811333	2564.601320
482.180584	2561.057388
482.549777	2562.045455
482.918912	2559.905485
483.287988	2564.671896
483.657005	2563.459498
484.025964	2567.459654
484.394864	2567.588203
484.763706	2566.413614
485.132489	2564.319015
485.501213	2565.506207
485.869879	2565.748182
486.238487	2567.462174
486.607036	2561.818603
486.975527	2564.485373
487.343959	2564.928995
487.712333	2564.916392
488.080648	2566.622822
488.448905	2569.324881
488.817104	2567.598286
489.185244	2567.084088
489.553326	2565.362534
489.921350	2568.430076
490.289315	2568.586352
490.657222	2565.791032
491.025070	2569.594582
491.392861	2568.503173
491.760593	2566.857236
492.128267	2568.409911
492.495883	2569.085426
492.863440	2567.232802
493.230939	2566.728687
493.598380	2568.205745
493.965763	2568.830848
494.333088	2567.361351
494.700354	2566.842112
495.067563	2567.920919
495.434713	2565.707853
495.801805	2567.552915
496.168839	2567.973852
496.535815	2567.061403
496.902733	2569.415622
497.269593	2570.476784
497.636395	2566.138872
498.003139	2567.994016
498.369825	2565.357493
498.736453	2565.755744
499.103023	2566.960580
499.469535	2565.193655
499.835989	2567.255487
500.202385	2565.186093
500.568723	2563.968655
500.935003	2565.717935
501.301226	2561.190979
501.667390	2568.026784
502.033497	2569.521486
502.399546	2568.798080
502.765537	2567.774726
503.131470	2569.292113
503.497345	2567.731876
503.863163	2566.945456
504.228923	2568.636763
504.594625	2568.354459
504.960269	2568.581311
505.325856	2567.179870
505.691385	2570.423852
506.056856	2568.331773
506.422270	2569.045097
506.787625	2570.287741
507.152924	2570.045766
507.518164	2569.019891
507.883347	2570.023081
508.248472	2571.633729
508.613540	2571.890828
508.978550	2573.660273
509.343503	2567.472257
509.708398	2570.675910
510.073236	2573.244378
510.438016	2572.163050
510.802738	2571.865622
511.167403	2570.673389
511.532010	2570.345714
511.896561	2572.921744
512.261053	2570.665828
512.625488	2570.935529
512.989866	2571.837896
513.354186	2576.362332
513.718449	2572.886456
514.082655	2576.193453
514.446803	2575.495253
514.810894	2574.124059
515.174927	2576.422825
515.538904	2577.390727
515.902822	2574.837382
516.266684	2578.494740
516.630488	2578.391396
516.994235	2577.418453
517.357925	2582.953640
517.721558	2580.637230
518.085133	2580.054977
518.448651	2579.434915
518.812112	2576.594225
519.175516	2578.898032
519.538863	2577.635223
519.902152	2583.926583
520.265385	2583.135122
520.628560	2583.913980
520.991678	2582.608321
521.354739	2585.023034
521.717743	2582.981367
522.080690	2587.094948
522.443580	2586.585792
522.806413	2588.508992
523.169189	2588.876996
523.531908	2592.499065
523.894569	2588.861872
524.257174	2590.507809
524.619722	2589.991091
524.982213	2592.120978
525.344647	2594.366812
525.707025	2592.748602
526.069345	2593.860177
526.431608	2594.036617
526.793815	2594.626432
527.155964	2595.213726
527.518057	2594.651638
527.880093	2594.563418
528.242072	2597.290682
528.603995	2602.800663
528.965860	2600.022987
529.327669	2600.713625
529.689421	2601.941146
530.051117	2601.104315
530.412755	2598.669437
530.774337	2601.968872
531.135862	2602.674634
531.497331	2605.202773
531.858743	2608.091354
532.220098	2606.536158
532.581396	2609.248299
532.942638	2608.960953
533.303824	2608.839965
533.664953	2610.616972
534.026025	2609.684358
534.387040	2612.061263
534.747999	2609.379369
535.108902	2613.487909
535.469748	2610.964812
535.830537	2611.874740
536.191270	2612.557816
536.551947	2611.380707
536.912567	2612.068824
537.273131	2615.829525
537.633638	2611.047991
537.994089	2617.994701
538.354483	2617.193157
538.714821	2620.782459
539.075103	2619.270112
539.435328	2620.371605
539.795497	2621.331944
540.155609	2620.759773
540.515665	2620.681636
540.875665	2621.780607
541.235609	2620.739609
541.595496	2623.756739
541.955328	2622.491410
542.315102	2626.264713
542.674821	2625.390073
543.034483	2624.754888
543.394090	2627.441823
543.753640	2629.329735
544.113134	2631.469705
544.472571	2630.174128
544.831953	2631.247894
545.191278	2630.584982
545.550548	2630.292595
545.909761	2631.540281
546.268918	2634.091105
546.628019	2635.459778
546.987064	2634.597741
547.346053	2633.899541
547.704986	2634.270066
548.063863	2634.938019
548.422684	2636.026908
548.781449	2636.977165
549.140158	2633.287041
549.498811	2636.105046
549.857408	2635.026239
550.215949	2635.283338
550.574434	2637.345170
550.932864	2637.708133
551.291237	2637.549336
551.649555	2637.020015
552.007817	2638.484470
552.366022	2637.410705
552.724173	2636.919192
553.082267	2638.315592
553.440305	2640.271559
553.798288	2640.374903
554.156215	2640.528658
554.514086	2639.074285
554.871902	2637.907258
555.229661	2639.301137
555.587365	2635.903400
555.945014	2640.422794
556.302606	2641.453710
556.660143	2644.866571
557.017625	2646.562919
557.375050	2641.879687
557.732421	2645.169040
558.089735	2644.533855
558.446994	2645.663073
558.804197	2644.367497
559.161345	2646.003351
559.518437	2642.666107
559.875474	2648.143321
560.232455	2648.937303
560.589381	2651.636841
560.946251	2649.078455
561.303065	2649.350677
561.659825	2652.395534
562.016528	2650.300935
562.373177	2649.239772
562.729770	2650.116933
563.086307	2654.613642
563.442789	2652.801347
563.799216	2653.749084
564.155587	2653.164310
564.511904	2654.923673
564.868164	2652.907212
565.224370	2654.059115
565.580520	2652.917294
565.936615	2655.526091
566.292654	2653.534835
566.648638	2659.758140
567.004567	2655.707572
567.360441	2656.720844
567.716260	2654.873262
568.072023	2661.724190
568.427732	2657.356030
568.783385	2658.999446
569.138982	2659.430465
569.494525	2661.126813
569.850013	2663.415497
570.205445	2661.280568
570.560823	2660.978099
570.916145	2662.936587
571.271412	2663.647390
571.626625	2666.944304
571.981782	2665.316012
572.336884	2661.517502
572.691931	2662.873573
573.046923	2662.618994
573.401860	2664.295178
573.756743	2670.352124
574.111570	2669.800118
574.466342	2671.801456
574.821059	2673.974193
575.175722	2672.199707
575.530330	2674.367403
575.884882	2676.043587
576.239380	2677.180367
576.593823	2679.869823
576.948211	2680.169772
577.302544	2677.140038
577.656823	2680.557940
578.011047	2680.643640
578.365216	2682.234124
578.719330	2684.046419
579.073389	2685.999866
579.427394	2691.106555
579.781344	2687.429033
580.135239	2691.126719
580.489080	2690.516740
580.842866	2692.152594
581.196597	2702.532330
581.550273	2692.432378
581.903895	2702.348328
582.257463	2703.197762
582.610975	2705.488967
582.964434	2707.331508
583.317837	2708.203628
583.671186	2712.082796
584.024481	2719.757953
584.377721	2719.160576
584.730906	2719.548745
585.084037	2722.712069
585.437113	2726.097204
585.790135	2730.828327
586.143103	2729.686505
586.496016	2732.814541
586.848874	2737.177660
587.201679	2738.238823
587.554428	2740.769482
587.907124	2748.961357
588.259765	2749.536048
588.612352	2756.240783
588.964884	2756.989394
589.317362	2759.547780
589.669786	2764.808224
590.022155	2770.729059
590.374470	2773.723505
590.726731	2779.372117
591.078937	2778.391613
591.431090	2788.831843
591.783188	2787.541307
592.135232	2790.387039
592.487222	2797.210240
592.839157	2802.674851
593.191038	2808.482260
593.542866	2808.152065
593.894639	2813.843527
594.246358	2826.340548
594.598022	2827.908347
594.949633	2831.225426
595.301190	2830.350786
595.652692	2842.568022
596.004141	2849.144207
596.355535	2848.176306
596.706876	2853.729137
597.058162	2857.588140
597.409395	2865.742206
597.760573	2869.644059
598.111698	2875.075903
598.462768	2884.507902
598.813785	2888.354302
599.164748	2892.009138
599.515657	2901.917526
599.866511	2903.681930
600.217312	2915.359763
600.568060	2913.030750
600.918753	2935.511776
601.269392	2941.288938
601.619978	2942.801284
601.970510	2958.817030
602.320988	2966.885397
602.671412	2976.221613
603.021783	2983.795947
603.372100	2985.577995
603.722363	2998.727845
604.072572	3013.732839
604.422728	3021.622245
604.772830	3030.414017
605.122878	3032.528781
605.472872	3049.288097
605.822813	3059.501475
606.172701	3069.989596
606.522534	3085.591967
606.872314	3094.174531
607.222041	3101.224585
607.571714	3119.770990
607.921333	3135.940491
608.270899	3146.479023
608.620411	3170.553053
608.969870	3167.717404
609.319276	3191.854449
609.668627	3215.363870
610.017926	3233.791807
610.367171	3254.717637
610.716362	3279.598252
611.065500	3282.133952
611.414585	3304.917447
611.763616	3317.167451
612.112594	3334.980368
612.461518	3345.241637
612.810389	3373.719115
613.159207	3377.079044
613.507971	3397.788104
613.856682	3439.175977
614.205340	3454.715334
614.553945	3495.757888
614.902496	3486.305724
615.250994	3530.970347
615.599439	3549.012637
615.947830	3572.111204
616.296169	3592.580809
616.644454	3618.426805
616.992686	3631.314515
617.340864	3681.857123
617.688990	3700.287582
618.037063	3747.734922
618.385082	3758.462497
618.733048	3804.359682
619.080961	3823.987415
619.428821	3864.581306
619.776628	3890.661715
620.124382	3900.058426
620.472083	3929.513888
620.819731	3966.878920
621.167326	3959.607056
621.514868	3976.046259
621.862357	3988.129904
622.209793	4003.306298
622.557176	4011.709902
622.904506	4010.255529
623.251783	4028.824619
623.599007	4036.325856
623.946179	4055.504926
624.293297	4074.247936
624.640363	4078.943770
624.987376	4092.779217
625.334336	4090.772838
625.681243	4102.773305
626.028097	4122.963126
626.374899	4165.724713
626.721647	4159.234228
627.068343	4169.813089
627.414987	4191.071635
627.761577	4229.462542
628.108115	4262.842542
628.454600	4253.065224
628.801032	4286.843476
629.147412	4309.372392
629.493739	4342.891024
629.840014	4358.805947
630.186236	4393.231986
630.532405	4395.014034
630.878521	4456.868992
631.224585	4470.959017
631.570597	4492.888036
631.916556	4514.249926
632.262462	4535.914284
632.608316	4571.978699
632.954117	4593.015434
633.299866	4626.110609
633.645562	4645.753465
633.991206	4632.548162
634.336797	4621.543323
634.682336	4660.513963
635.027823	4652.914424
635.373257	4680.706305
635.718639	4669.943442
636.063968	4693.049570
636.409245	4682.266542
636.754470	4713.277200
637.099642	4720.276842
637.444762	4696.666598
637.789829	4741.976489
638.134845	4737.441971
638.479808	4770.219553
638.824719	4788.423160
639.169577	4784.992655
639.514383	4822.017409
639.859137	4820.079085
640.203839	4865.242783
640.548489	4848.049927
640.893086	4892.182709
641.237632	4866.510633
641.582125	4949.666986
641.926566	4935.738278
642.270955	4960.202998
642.615292	4983.246112
642.959576	5009.223178
643.303809	5060.025406
643.647990	5061.068924
643.992118	5123.009582
644.336195	5079.794290
644.680219	5154.720960
645.024192	5189.295714
645.368112	5263.710706
645.711981	5326.442825
646.055797	5389.893307
646.399562	5424.243730
646.743274	5512.922667
647.086935	5635.722654
647.430544	5671.940824
647.774101	5703.122881
648.117606	5803.875382
648.461059	5796.631244
648.804460	5853.997054
649.147810	5808.132636
649.491108	5784.345952
649.834354	5838.203119
650.177548	5778.629283
650.520690	5756.327219
650.863781	5757.968114
651.206820	5795.796933
651.549807	5771.695176
651.892742	5758.915851
652.235626	5762.565647
652.578458	5792.447086
652.921238	5723.060645
653.263967	5809.370240
653.606644	5791.514473
653.949269	5805.319673
654.291843	5801.947141
654.634365	5853.689544
654.976836	5848.847515
655.319255	5882.202310
655.661622	5906.533439
656.003938	5901.706534
656.346203	5905.265589
656.688416	5961.958405
657.030577	5972.154138
657.372687	5984.121838
657.714746	5998.930227
658.056753	6080.634728
658.398708	6068.712399
658.740612	6091.495894
659.082465	6161.814949
659.424266	6157.955946
659.766016	6202.766762
660.107715	6205.214243
660.449362	6245.961889
660.790958	6281.144102
661.132503	6287.488394
661.473996	6329.629919
661.815438	6374.410489
662.156829	6399.959057
662.498168	6432.751762
662.839456	6449.848836
663.180693	6481.489638
663.521879	6564.124232
663.863013	6577.405152
664.204097	6605.789368
664.545129	6675.533732
664.886110	6680.428692
665.227040	6755.746051
665.567918	6790.832482
665.908746	6839.797209
666.249522	6844.913980
666.590248	6892.520117
666.930922	6975.247972
667.271545	6996.362845
667.612118	7059.893986
667.952639	7054.779736
668.293109	7074.087355
668.633528	7098.385716
668.973896	7103.449555
669.314213	7205.482509
669.654480	7090.526557
669.994695	7139.171172
670.334859	7188.813934
670.674973	7197.517486
671.015035	7250.061433
671.355047	7251.291474
671.695008	7260.985613
672.034918	7292.044162
672.374777	7335.970256
672.714585	7329.769637
673.054342	7372.851338
673.394049	7376.218828
673.733705	7440.788447
674.073310	7436.863909
674.412864	7478.113150
674.752368	7444.072759
675.091820	7449.975950
675.431223	7506.789754
675.770574	7458.291333
676.109875	7440.004548
676.449125	7454.865869
676.788324	7447.278933
677.127473	7398.740183
677.466571	7418.078049
677.805619	7399.740852
678.144616	7383.720065
678.483562	7397.580718
678.822458	7352.041454
679.161303	7364.964452
679.500098	7388.920015
679.838842	7381.900209
680.177535	7424.497959
680.516179	7468.497149
680.854771	7468.232489
681.193314	7626.068495
681.531805	7694.504679
681.870247	7957.136192
682.208638	8182.284205
682.546978	8391.313128
682.885268	8465.833985
683.223508	8318.612128
683.561697	8271.419367
683.899836	8231.523675
684.237925	8135.088922
684.575963	8130.340156
684.913951	8118.695090
685.251889	8072.515600
685.589776	8190.561779
685.927614	8168.519334
686.265401	8136.669324
686.603137	8201.465795
686.940824	8317.777817
687.278460	8390.017552
687.616046	8451.018034
687.953582	8566.999861
688.291068	8516.401799
688.628504	8670.083895
688.965889	8688.315228
689.303224	8713.127787
689.640510	8685.111575
689.977745	8526.365640
690.314930	8416.085358
690.652065	8406.159327
690.989150	8255.781707
691.326185	8141.062690
691.663170	8043.816312
692.000105	7909.351094
692.336990	7891.641521
692.673825	7738.657625
693.010610	7688.440171
693.347345	7568.695123
693.684030	7449.570137
694.020665	7442.709127
694.357251	7331.108063
694.693786	7341.225659
695.030272	7222.168728
695.366707	7179.013931
695.703093	7140.015565
696.039429	7160.780077
696.375716	7145.840618
696.711952	7050.976185
697.048139	7099.517455
697.384276	7078.694969
697.720363	7088.792401
698.056400	7073.857982
698.392388	7058.835344
698.728326	7035.310799
699.064214	7006.891295
699.400053	7070.155255
699.735842	6953.697039
700.071581	6945.633714
700.407270	6912.407469
700.742910	6873.845162
701.078501	6835.020716
701.414042	6763.055724
701.749533	6728.037349
702.084974	6642.768752
702.420366	6736.372897
702.755709	6673.441653
703.091002	6596.715291
703.426246	6623.246884
703.761440	6607.861282
704.096584	6581.687612
704.431679	6547.841305
704.766725	6555.166101
705.101721	6523.689137
705.436668	6569.127577
705.771565	6504.663822
706.106413	6569.021713
706.441212	6625.805270
706.775961	6596.216217
707.110661	6620.600278
707.445311	6752.466781
707.779913	6675.662281
708.114465	6786.658407
708.448967	6828.777247
708.783421	6917.821668
709.117825	7071.849083
709.452180	7105.423167
709.786485	7163.343504
710.120742	7381.262503
710.454949	7376.405351
710.789107	7450.727082
711.123216	7595.219154
711.457275	7728.487097
711.791286	7856.446705
712.125247	7840.859458
712.459159	7860.772015
712.793023	8062.944970
713.126837	7744.865806
713.460602	7878.206846
713.794318	7756.798217
714.127985	7814.978174
714.461602	7607.748942
714.795171	7580.859428
715.128691	7422.486538
715.462162	7237.047694
715.795584	7222.917340
716.128957	7134.283773
716.462281	7000.199163
716.795556	7072.141469
717.128782	6929.819614
717.461960	6713.685184
717.795088	6785.821575
718.128167	6726.071299
718.461198	6609.703824
718.794180	6568.580612
719.127113	6581.128044
719.459997	6475.125181
719.792833	6278.222753
720.125619	6343.906467
720.458357	6233.406895
720.791046	6232.562502
721.123686	6254.582262
721.456278	6125.243898
721.788821	6142.227546
722.121315	6053.047014
722.453761	6112.552794
722.786158	6083.593885
723.118506	6099.740701
723.450805	6082.394091
723.783056	6144.828781
724.115259	6055.988527
724.447412	6058.861985
724.779518	6099.685248
725.111574	6108.560200
725.443582	6184.613567
725.775542	6168.484396
726.107453	6324.361914
726.439315	6258.607623
726.771129	6294.833355
727.102895	6428.406288
727.434612	6540.443412
727.766281	6548.852056
728.097901	6624.940712
728.429473	6618.566173
728.760996	6598.230158
729.092471	6591.805207
729.423897	6578.393218
729.755276	6598.131856
730.086606	6553.167284
730.417887	6631.549664
730.749120	6779.452077
731.080305	6955.249715
731.411442	7079.005000
731.742530	7081.555824
732.073570	7187.087339
732.404562	7264.224554
732.735506	7124.435879
733.066401	7256.723317
733.397249	7215.101031
733.728048	7041.161058
734.058798	6777.601974
734.389501	6609.431602
734.720156	6471.157793
735.050762	6259.242809
735.381320	6169.908522
735.711831	6142.353575
736.042293	6048.648607
736.372707	6079.581127
736.703073	5954.762158
737.033391	5990.355224
737.363661	6002.892574
737.693883	6021.907806
738.024056	6094.664259
738.354182	6145.494213
738.684260	6170.813409
739.014290	6255.005719
739.344272	6349.403845
739.674207	6369.152566
740.004093	6424.088540
740.333931	6445.536129
740.663722	6459.605989
740.993464	6532.377565
741.323159	6551.201234
741.652806	6321.460730
741.982405	6319.867725
742.311956	6403.205560
742.641460	6286.263393
742.970915	6107.892247
743.300323	6110.695128
743.629683	6065.481020
743.958996	5953.229647
744.288260	5885.579883
744.617477	5841.046330
744.946647	5861.029464
745.275768	5713.323656
745.604842	5675.651113
745.933869	5664.558054
746.262847	5620.853771
746.591778	5619.969048
746.920662	5587.241878
747.249498	5573.335855
747.578286	5617.874449
747.907027	5690.358680
748.235720	5746.451598
748.564365	5712.743923
748.892963	5730.382921
749.221514	5893.461727
749.550017	5759.934164
749.878473	5627.066993
750.206881	5684.374830
750.535242	5632.660153
750.863555	5577.033541
751.191821	5599.542293
751.520039	5604.580926
751.848210	5525.893556
752.176334	5536.414444
752.504411	5594.092806
752.832440	5525.623854
753.160421	5447.911947
753.488356	5497.116129
753.816243	5537.518457
754.144082	5405.785545
754.471875	5365.249627
754.799620	5409.826030
755.127318	5427.674235
755.454969	5379.352255
755.782572	5347.101473
756.110129	5393.336416
756.437638	5393.228031
756.765100	5330.611859
757.092515	5322.523327
757.419882	5364.957240
757.747203	5353.377710
758.074477	5420.808183
758.401703	5411.335855
758.728882	5356.180591
759.056014	5397.449997
759.383099	5534.372777
759.710138	5541.939549
760.037129	5522.899111
760.364073	5532.252972
760.690970	5612.210713
761.017820	5609.556545
761.344623	5557.350356
761.671379	5640.612573
761.998088	5752.924440
762.324751	5964.965453
762.651366	6496.935733
762.977935	7659.188876
763.304456	9151.526690
763.630931	10038.104335
763.957359	9760.147715
764.283740	8918.461545
764.610074	8184.121705
764.936362	7257.245077
765.262602	6688.297933
765.588796	6173.991856
765.914943	5845.227967
766.241044	5695.392272
766.567097	5522.505901
766.893104	5273.639259
767.219064	5102.928145
767.544978	5044.533940
767.870845	4983.283921
768.196665	4878.374988
768.522438	4801.620901
768.848165	4783.419815
769.173846	4719.707192
769.499479	4690.448335
769.825066	4635.519922
770.150607	4576.961879
770.476101	4549.981624
770.801548	4554.647212
771.126949	4491.050536
771.452303	4440.815437
771.777611	4395.268612
772.102872	4406.719593
772.428087	4374.292371
772.753256	4341.965972
773.078378	4302.564314
773.403453	4234.906988
773.728482	4228.265268
774.053465	4181.059903
774.378401	4167.287471
774.703291	4175.078574
775.028135	4111.549953
775.352932	4061.113209
775.677683	4042.657545
776.002388	4069.937749
776.327046	4082.666663
776.651658	4006.472143
776.976224	3943.248512
777.300743	3952.854430
777.625216	3969.344045
777.949643	3976.031135
778.274024	3927.583126
778.598359	3876.158316
778.922647	3896.174217
779.246889	3898.472983
779.571086	3891.322107
779.895236	3883.299110
780.219339	3864.084752
780.543397	3856.379349
780.867409	3901.941297
781.191374	3922.161365
781.515294	3867.248076
781.839167	3854.539328
782.162995	3873.322667
782.486776	3860.457642
782.810511	3868.137840
783.134201	3872.727811
783.457844	3837.742203
783.781441	3776.348511
784.104993	3782.075262
784.428498	3798.038075
784.751958	3802.854898
785.075372	3785.054583
785.398739	3742.103953
785.722061	3750.754573
786.045337	3792.313845
786.368568	3829.096624
786.691752	3746.101588
787.014891	3783.905200
787.337983	3902.909199
787.661030	4049.243812
787.984031	4205.643090
788.306987	4380.195563
788.629897	4455.679280
788.952760	4411.251591
789.275579	4349.431921
789.598351	4292.492088
789.921078	4171.859798
790.243759	3975.857215
790.566395	3949.280252
790.888984	3946.885704
791.211529	3845.223275
791.534027	3787.640695
791.856480	3785.079789
792.178888	3719.257443
792.501249	3667.880524
792.823566	3675.348993
793.145836	3710.727811
793.468062	3665.354906
793.790241	3616.453193
794.112375	3645.989313
794.434464	3703.166080
794.756507	3725.914287
795.078505	3714.130590
795.400457	3737.072881
795.722364	3863.381511
796.044226	3968.915547
796.366042	4036.333417
796.687812	4028.038199
797.009538	4039.126217
797.331218	3991.373887
797.652852	3962.523363
797.974442	3946.132052
798.295986	3948.834110
798.617484	3873.153788
798.938938	3785.044501
799.260346	3826.308866
799.581709	3824.700738
799.903026	3757.746653
800.224299	3715.955488
800.545526	3711.478943
800.866708	3675.283458
801.187845	3614.305662
801.508936	3647.685662
801.829983	3655.983401
802.150984	3573.336204
802.471940	3559.145356
802.792851	3575.907193
803.113717	3575.090526
803.434538	3575.914754
803.755314	3524.363915
804.076045	3494.500120
804.396731	3511.846730
804.717372	3536.198024
805.037967	3526.881972
805.358518	3514.337060
805.679024	3539.469733
805.999485	3550.250240
806.319901	3553.332906
806.640272	3567.284299
806.960598	3585.182916
807.280879	3557.489337
807.601115	3567.243970
807.921306	3582.904314
808.241453	3625.980974
808.561554	3603.953652
808.881611	3543.147254
809.201623	3571.370154
809.521590	3586.380190
809.841513	3560.332548
810.161390	3587.794233
810.481223	3571.886872
810.801011	3513.308665
811.120755	3502.278620
811.440453	3537.155843
811.760107	3546.529869
812.079716	3509.290865
812.399281	3471.625884
812.718801	3492.849142
813.038276	3465.720173
813.357707	3465.911736
813.677093	3483.273470
813.996434	3434.938887
814.315731	3439.788477
814.634983	3446.455403
814.954191	3452.887915
815.273354	3487.140035
815.592473	3487.470231
815.911547	3486.721619
816.230577	3521.462731
816.549562	3569.499886
816.868502	3615.999489
817.187399	3636.945483
817.506250	3634.999598
817.825058	3603.865432
818.143821	3689.491951
818.462539	3791.827374
818.781213	3838.173222
819.099843	3888.433525
819.418429	4111.025673
819.736970	4339.089994
820.055466	4568.833019
820.373919	4919.427625
820.692327	5321.832689
821.010691	5707.821237
821.329011	6950.702594
821.647286	9452.786044
821.965517	13676.789016
822.283704	17534.176596
822.601847	19860.482573
822.919945	18234.344974
823.237999	15855.500091
823.556010	13482.323986
823.873976	11502.710762
824.191897	9490.415737
824.509775	8144.483113
824.827609	7049.448715
825.145398	6497.182750
825.463144	6384.785184
825.780845	6503.612742
826.098502	6649.748230
826.416116	7423.298164
826.733685	8670.010798
827.051210	9778.623543
827.368692	9932.230022
827.686129	8775.449052
828.003522	7299.111860
828.320872	6305.810467
828.638177	5631.215863
828.955439	5093.594449
829.272656	4611.637456
829.589830	4320.911593
829.906960	4152.826921
830.224046	3976.101711
830.541088	3854.264585
830.858086	3807.633912
831.175041	3743.729725
831.491952	3716.590673
831.808819	3724.568299
832.125642	3788.031385
832.442421	3921.848814
832.759157	4178.012526
833.075849	4684.194783
833.392497	5500.841542
833.709101	6244.081539
834.025662	6609.197188
834.342179	6313.258772
834.658653	5669.783210
834.975083	5051.578952
835.291469	4495.096062
835.607811	4084.483998
835.924110	3952.131025
836.240366	3766.631687
836.556578	3561.451684
836.872746	3448.902883
837.188871	3417.083120
837.504952	3356.765714
837.820990	3273.987448
838.136984	3225.199161
838.452935	3249.114395
838.768842	3245.784712
839.084706	3266.738268
839.400526	3404.444948
839.716303	3714.163358
840.032037	4196.445505
840.347727	4486.780678
840.663373	4253.002210
840.978977	3887.846231
841.294537	3589.982094
841.610054	3364.390460
841.925527	3255.998090
842.240957	3185.847914
842.556344	3136.810090
842.871687	3082.844538
843.186987	3031.162629
843.502244	2994.846156
843.817458	2965.499079
844.132629	2929.026331
844.447756	2940.424380
844.762840	2931.186466
845.077881	2896.836043
845.392879	2881.556306
845.707833	2875.143958
846.022745	2875.091026
846.337613	2876.293341
846.652438	2863.375385
846.967221	2862.561238
847.281960	2848.614886
847.596656	2841.869822
847.911309	2843.180522
848.225919	2835.943946
848.540485	2831.033862
848.855009	2831.666527
849.169490	2823.590598
849.483928	2815.769248
849.798323	2813.306645
850.112675	2808.262970
850.426984	2820.676812
850.741251	2821.551452
851.055474	2808.237764
851.369654	2806.695171
851.683792	2806.201138
851.997887	2813.425112
852.311938	2817.221101
852.625947	2807.438742
852.939914	2807.849596
853.253837	2817.142963
853.567718	2800.040848
853.881555	2794.223357
854.195350	2812.805050
854.509103	2811.743887
854.822812	2803.983031
855.136479	2802.853812
855.450103	2801.517906
855.763685	2795.198820
856.077224	2789.363684
856.390720	2804.570325
856.704173	2813.392344
857.017584	2808.469657
857.330953	2802.188380
857.644278	2811.625420
857.957561	2816.906028
858.270802	2821.380052
858.584000	2822.657985
858.897155	2811.325471
859.210268	2805.820531
859.523339	2806.629636
859.836367	2807.882363
860.149352	2802.349697
860.462295	2796.713687
860.775195	2806.138124
861.088054	2807.688279
861.400869	2793.320990
861.713642	2784.183899
862.026373	2796.827113
862.339062	2800.812145
862.651708	2809.094761
862.964312	2811.779175
863.276873	2806.322126
863.589392	2811.854792
863.901869	2823.822492
864.214303	2845.254957
864.526696	2862.021835
864.839045	2857.389014
865.151353	2853.872810
865.463619	2853.900536
865.775842	2852.012624
866.088023	2874.251674
866.400162	2877.397354
866.712258	2854.301308
867.024313	2840.339832
867.336325	2848.418281
867.648296	2870.196066
867.960224	2863.098121
868.272110	2847.742767
868.583954	2856.055629
868.895755	2870.405274
869.207515	2855.460773
869.519233	2858.225846
869.830909	2869.470140
870.142542	2879.527242
870.454134	2877.553630
870.765684	2882.556975
871.077191	2880.686707
871.388657	2883.945813
871.700081	2899.769995
872.011463	2908.360121
872.322803	2909.496901
872.634101	2909.857344
872.945357	2926.483069
873.256571	2954.000207
873.567744	2945.752880
873.878874	2935.978082
874.189963	2956.704786
874.501010	2961.204016
874.812015	2952.238324
875.122979	2951.116667
875.433900	2949.135494
875.744780	2955.242852
876.055618	2960.488172
876.366415	2956.281329
876.677169	2969.761375
876.987882	2968.468319
877.298554	2958.663275
877.609183	2974.724391
877.919771	2996.703822
878.230317	3021.269364
878.540822	3074.642581
878.851285	3107.208434
879.161707	3143.671100
879.472087	3235.019328
879.782425	3438.238322
880.092722	3835.319928
880.402977	4334.008511
880.713191	4914.230195
881.023363	5978.569007
881.333494	7198.843310
881.643583	7777.903008
881.953631	7507.838314
882.263637	6939.551562
882.573602	6402.517442
882.883526	5849.669223
883.193408	5293.012413
883.503248	4837.536601
883.813048	4547.191345
884.122806	4279.498514
884.432522	3977.609016
884.742197	3754.066611
885.051831	3564.504103
885.361424	3428.188782
885.670975	3361.897609
885.980485	3285.715692
886.289954	3210.491594
886.599382	3168.438289
886.908768	3132.782208
887.218113	3091.112030
887.527417	3037.942981
887.836680	2989.981443
888.145901	2983.070021
888.455082	2978.253198
888.764221	2928.376022
889.073319	2896.984757
889.382376	2896.336969
889.691392	2899.003739
890.000366	2900.208575
890.309300	2886.801627
890.618193	2898.839902
890.927044	2919.085176
891.235855	2916.395720
891.544625	2903.528175
891.853353	2911.682241
892.162041	2928.950714
892.470687	2964.311888
892.779293	3014.153776
893.087858	3057.444684
893.396381	3119.939868
893.704864	3227.482803
894.013306	3449.858182
894.321707	3735.500041
894.630068	3939.404632
894.938387	3943.296403
895.246665	3897.505082
895.554903	3792.739823
895.863100	3597.500975
896.171256	3443.650001
896.479371	3314.288952
896.787446	3195.176569
897.095480	3096.954727
897.403473	3036.097918
897.711425	2996.232474
898.019336	2989.850373
898.327207	2968.402784
898.635038	2933.641508
898.942827	2918.165165
899.250576	2908.365162
899.558284	2877.354504
899.865952	2858.692153
900.173579	2838.701457
900.481165	2833.176352
900.788711	2822.995742
901.096216	2799.791311
901.403681	2785.106430
901.711105	2795.334931
902.018489	2790.452574
902.325832	2789.222532
902.633135	2800.862556
902.940397	2827.779797
903.247619	2900.876528
903.554800	3073.999833
903.861941	3382.614231
904.169041	3780.830097
904.476101	4084.786468
904.783121	4068.311977
905.090100	3839.647759
905.397039	3581.921289
905.703938	3343.777182
906.010796	3163.699604
906.317614	3058.843604
906.624391	2969.085860
906.931129	2902.933319
907.237826	2842.331088
907.544483	2796.948100
907.851099	2767.646394
908.157675	2751.393714
908.464211	2731.221537
908.770707	2717.406254
909.077163	2706.482074
909.383578	2691.751822
909.689954	2682.314782
909.996289	2677.485357
910.302584	2679.305214
910.608839	2681.293949
910.915054	2675.839420
911.221229	2669.442196
911.527363	2672.678617
911.833458	2677.399657
912.139513	2680.517611
912.445527	2683.789320
912.751502	2692.480269
913.057436	2702.181970
913.363331	2712.259236
913.669186	2732.933008
913.975000	2759.638521
914.280775	2813.636840
914.586510	2881.107643
914.892205	2953.859055
915.197859	3068.217630
915.503475	3244.531986
915.809050	3442.553550
916.114585	3582.624530
916.420081	3614.623254
916.725536	3563.233732
917.030952	3452.882874
917.336328	3332.336283
917.641665	3209.569063
917.946961	3114.497943
918.252218	3046.591080
918.557435	2975.956953
918.862612	2923.627255
919.167750	2872.938453
919.472848	2836.347238
919.777906	2812.426963
920.082925	2789.283026
920.387904	2758.864704
920.692843	2746.604617
920.997743	2734.936867
921.302603	2723.170814
921.607423	2709.529452
921.912204	2701.582072
922.216946	2690.607481
922.521647	2682.861748
922.826310	2673.286076
923.130932	2666.598985
923.435516	2658.371822
923.740059	2653.625576
924.044564	2647.112405
924.349028	2641.758700
924.653454	2635.059006
924.957840	2628.107255
925.262186	2626.163890
925.566493	2620.343878
925.870761	2617.039402
926.174989	2611.514297
926.479178	2609.520521
926.783328	2603.435848
927.087438	2600.317895
927.391509	2601.270673
927.695541	2598.888727
927.999533	2595.269179
928.303486	2592.743561
928.607400	2591.185844
928.911275	2591.664754
929.215110	2589.227356
929.518906	2588.914805
929.822663	2588.216605
930.126381	2590.119640
930.430060	2588.778693
930.733699	2590.354054
931.037299	2592.047882
931.340861	2592.478900
931.644383	2592.272213
931.947866	2588.670309
932.251309	2592.443612
932.554714	2588.403128
932.858080	2588.143508
933.161407	2583.757704
933.464694	2585.101172
933.767943	2582.900708
934.071153	2586.416913
934.374323	2580.173444
934.677455	2583.830801
934.980548	2580.982549
935.283602	2581.242168
935.586617	2581.408527
935.889593	2580.932138
936.192530	2582.867941
936.495428	2583.082190
936.798287	2583.374577
937.101108	2587.034454
937.403890	2590.205340
937.706632	2593.882862
938.009336	2599.763368
938.312002	2610.906838
938.614628	2615.905142
938.917216	2624.086935
939.219765	2625.848818
939.522275	2625.717748
939.824747	2620.230452
940.127179	2620.195164
940.429573	2617.961933
940.731929	2616.169803
941.034246	2613.497991
941.336524	2608.789554
941.638763	2604.386106
941.940964	2603.009871
942.243126	2602.856116
942.545250	2602.873760
942.847335	2598.843357
943.149381	2595.836309
943.451389	2593.948397
943.753359	2588.544280
944.055290	2586.167376
944.357182	2586.875658
944.659036	2587.851121
944.960851	2584.027406
945.262628	2585.761563
945.564367	2583.238465
945.866067	2584.695359
946.167729	2585.161666
946.469352	2587.684763
946.770937	2584.193764
947.072484	2584.566809
947.373992	2583.518249
947.675462	2581.058166
947.976893	2577.110943
948.278286	2572.261353
948.579641	2579.223186
948.880958	2572.389902
949.182236	2575.994327
949.483476	2574.721436
949.784678	2576.556416
950.085841	2575.074317
950.386967	2576.437949
950.688054	2574.129100
950.989103	2578.676221
951.290114	2578.472054
951.591087	2580.085224
951.892021	2585.527149
952.192917	2585.229721
952.493776	2589.381111
952.794596	2586.757191
953.095378	2586.943713
953.396122	2589.330700
953.696828	2584.281984
953.997496	2586.321131
954.298126	2579.709658
954.598718	2576.916858
954.899272	2577.229410
955.199788	2574.366035
955.500266	2572.316806
955.800706	2572.094995
956.101108	2569.491239
956.401472	2567.724314
956.701798	2565.964952
957.002087	2562.935218
957.302337	2565.153326
957.602550	2564.160219
957.902724	2561.226267
958.202861	2562.874724
958.502960	2560.099569
958.803022	2560.807851
959.103045	2555.068498
959.403031	2556.938766
959.702979	2557.624363
960.002889	2553.813250
960.302762	2556.278375
960.602596	2554.622356
960.902393	2554.808878
961.202153	2553.057077
961.501875	2553.659495
961.801559	2550.864175
962.101205	2555.267623
962.400814	2552.489947
962.700385	2549.845862
962.999918	2547.814277
963.299414	2549.966850
963.598873	2548.144473
963.898293	2547.668084
964.197677	2552.220246
964.497022	2553.606563
964.796331	2552.941131
965.095601	2551.935421
965.394835	2552.109340
965.694030	2553.346944
965.993189	2550.702858
966.292309	2550.710420
966.591393	2550.707900
966.890439	2552.492468
967.189447	2549.848383
967.488419	2550.846531
967.787353	2550.239072
968.086249	2551.448949
968.385108	2552.615976
968.683930	2551.718651
968.982714	2552.341233
969.281462	2551.050698
969.580172	2551.214536
969.878844	2549.833259
970.177480	2550.115564
970.476078	2550.697817
970.774639	2551.469114
971.073162	2550.271840
971.371649	2552.719320
971.670098	2548.134391
971.968510	2554.110678
972.266885	2548.583053
972.565223	2555.812068
972.863524	2552.888199
973.161788	2554.133364
973.460014	2553.556152
973.758204	2551.206974
974.056356	2550.533980
974.354471	2553.556152
974.652550	2551.890050
974.950591	2553.530946
975.248595	2552.247972
975.546563	2553.258723
975.844493	2549.717313
976.142386	2550.239072
976.440243	2552.500030
976.738062	2550.266799
977.035845	2552.469783
977.333590	2551.179247
977.631299	2551.222097
977.928971	2548.182282
978.226606	2543.773792
978.524204	2549.682025
978.821765	2544.565254
979.119290	2549.699669
979.416777	2547.181612
979.714228	2549.634134
980.011642	2547.544576
980.309020	2549.001469
980.606360	2550.218908
980.903664	2549.235883
981.200931	2552.318548
981.498162	2550.831408
981.795356	2550.654968
982.092513	2552.898281
982.389633	2554.435833
982.686717	2559.174517
982.983764	2562.673078
983.280775	2564.319015
983.577749	2567.472257
983.874686	2565.992678
984.171587	2564.624005
984.468451	2559.426575
984.765279	2558.975392
985.062070	2558.751061
985.358824	2559.073694
985.655543	2556.316183
985.952224	2555.799465
986.248869	2553.256203
986.545478	2551.174206
986.842050	2549.513146
987.138586	2549.341747
987.435086	2550.110523
987.731549	2548.651109
988.027975	2548.865358
988.324366	2548.260419
988.620719	2548.968702
988.917037	2547.889895
989.213318	2548.867878
989.509563	2546.392672
989.805772	2550.206305
990.101944	2547.652960
990.398080	2550.085317
990.694180	2546.233876
990.990244	2547.456355
991.286271	2548.913249
991.582262	2546.916952
991.878217	2549.180430
992.174136	2549.908877
992.470019	2545.855789
992.765865	2546.140614
993.061676	2542.279090
993.357450	2545.918803
993.653188	2542.931920
993.948890	2548.605738
994.244556	2545.994421
994.540186	2545.719678
994.835780	2550.309648
995.131337	2549.911397
995.426859	2549.626572
995.722345	2552.938610
996.017795	2549.860986
996.313208	2553.079762
996.608586	2550.481048
996.903928	2553.755277
997.199234	2552.825184
997.494504	2555.471790
997.789738	2550.367622
998.084936	2552.298384
998.380099	2550.788558
998.675225	2552.041285
998.970316	2550.307128
999.265371	2551.600184
999.560390	2549.475337
999.855373	2548.683876
1000.150320	2548.290666
1000.445232	2549.866027
1000.740108	2547.022816
1001.034948	2546.019627
1001.329752	2546.851417
1001.624521	2546.493495
1001.919254	2547.405944
1002.213951	2549.172868
1002.508613	2546.165820
1002.803239	2545.807898
1003.097829	2546.949719
1003.392384	2544.661036
1003.686903	2547.463917
1003.981386	2546.377548
1004.275834	2547.325285
1004.570246	2547.877292
1004.864623	2548.288146
1005.158964	2547.234545
1005.453270	2546.690100
1005.747540	2545.772610
1006.041775	2546.690100
1006.335974	2545.661705
1006.630138	2547.060625
1006.924266	2545.341591
1007.218359	2544.832435
1007.512416	2543.950233
1007.806438	2542.919317
1008.100425	2545.172713
1008.394376	2540.706250
1008.688292	2545.366797
1008.982172	2546.322096
1009.276017	2546.811088
1009.569827	2543.983000
1009.863602	2548.265461
1010.157341	2545.134904
1010.451045	2546.339740
1010.744714	2543.289842
1011.038347	2546.695141
1011.331945	2546.312013
1011.625508	2545.989380
1011.919036	2547.494164
1012.212528	2547.799154
1012.505986	2545.596170
1012.799408	2545.570964
1013.092795	2544.706406
1013.386147	2544.978628
1013.679464	2546.556509
1013.972745	2546.433001
1014.265992	2547.232024
1014.559204	2543.335212
1014.852380	2545.775131
1015.145521	2543.662887
1015.438628	2546.412837
1015.731699	2544.920655
1016.024736	2545.271015
1016.317737	2544.645912
1016.610703	2547.030378
1016.903635	2547.252189
1017.196531	2547.708413
1017.489393	2545.689431
1017.782219	2547.358053
1018.075011	2548.245296
1018.367768	2543.425953
1018.660490	2546.548948
1018.953177	2546.548948
1019.245829	2546.548948
