Dividing Wavelength (nm)	Counts (n)	Blue Motor Position (mm): 13.500000	Red Motor Position (mm): 0.000000	
326.493990	2167.648263
326.888308	2167.648263
327.282561	2167.648263
327.676750	2127.442540
328.070874	2125.191665
328.464933	2124.934566
328.858929	2129.224588
329.252859	2131.301544
329.646726	2142.994500
330.040528	2154.841212
330.434265	2165.243633
330.827938	2187.296160
331.221547	2204.047914
331.615091	2220.741695
332.008571	2239.199880
332.401986	2256.521285
332.795338	2276.214552
333.188625	2295.277675
333.581847	2313.750984
333.975006	2329.547439
334.368100	2349.533094
334.761129	2367.870291
335.154095	2386.323434
335.546996	2405.058883
335.939833	2432.197934
336.332606	2445.763679
336.725315	2458.394290
337.117960	2470.619088
337.510540	2484.404124
337.903056	2493.006853
338.295508	2504.266270
338.687896	2511.525531
339.080220	2518.172293
339.472480	2527.347193
339.864676	2530.356762
340.256807	2536.925385
340.648875	2542.586601
341.040879	2541.447300
341.432818	2544.875285
341.824694	2546.448125
342.216506	2549.051881
342.608253	2550.806202
342.999937	2550.362581
343.391557	2551.486758
343.783113	2551.375852
344.174605	2548.184802
344.566033	2548.935934
344.957397	2545.979297
345.348697	2546.286808
345.739934	2543.093237
346.131106	2542.415202
346.522215	2542.410160
346.913260	2538.006713
347.304241	2537.197607
347.695159	2534.838347
348.086012	2535.516382
348.476802	2531.609488
348.867528	2526.903571
349.258191	2526.107069
349.648789	2523.969620
350.039324	2518.575585
350.429796	2524.897192
350.820203	2521.441481
351.210548	2521.370905
351.600828	2520.725637
351.991045	2518.878054
352.381198	2518.545338
352.771288	2518.227745
353.161314	2518.096675
353.551276	2515.613907
353.941175	2515.528208
354.331010	2513.695748
354.720782	2512.153155
355.110490	2514.714061
355.500135	2512.949657
355.889717	2516.181037
356.279235	2517.335461
356.668689	2516.019720
357.058080	2513.582322
357.447408	2516.554082
357.836672	2514.761952
358.225873	2517.670698
358.615010	2519.372087
359.004084	2517.683301
359.393095	2517.539628
359.782043	2517.156500
360.170927	2518.290760
360.559748	2519.621624
360.948505	2519.651871
361.337199	2522.842922
361.725830	2520.345030
362.114398	2522.656399
362.502903	2520.629855
362.891344	2522.396780
363.279722	2520.629855
363.668037	2524.788807
364.056289	2522.674043
364.444478	2525.582789
364.832603	2524.483817
365.220665	2526.953983
365.608665	2523.926770
365.996601	2526.212933
366.384474	2525.323169
366.772284	2528.637728
367.160031	2524.786287
367.547715	2528.231915
367.935336	2527.195958
368.322893	2525.434075
368.710388	2525.418951
369.097820	2527.281658
369.485189	2526.031452
369.872495	2527.861390
370.259738	2531.730476
370.646918	2532.317770
371.034035	2531.178470
371.421090	2530.805424
371.808081	2531.803573
372.195010	2531.591844
372.581875	2531.334745
372.968678	2532.148892
373.355418	2532.360620
373.742096	2530.684437
374.128710	2532.456402
374.515262	2530.679395
374.901751	2534.351876
375.288177	2533.943542
375.674540	2530.876000
376.060841	2534.545960
376.447079	2535.271887
376.833254	2534.971938
377.219367	2533.809952
377.605417	2532.211906
377.991404	2531.700229
378.377329	2533.661238
378.763191	2533.015970
379.148991	2536.083512
379.534727	2533.215096
379.920402	2535.092926
380.306013	2534.772812
380.691563	2537.172402
381.077049	2536.083512
381.462474	2536.045704
381.847835	2538.677186
382.233134	2539.582073
382.618371	2540.948226
383.003545	2538.888914
383.388657	2535.738193
383.773706	2538.795653
384.158693	2536.955632
384.543618	2536.832124
384.928480	2539.448483
385.313280	2538.425128
385.698017	2538.704912
386.082692	2535.140817
386.467305	2537.948739
386.851856	2541.878319
387.236344	2538.863709
387.620770	2536.312885
388.005133	2534.215765
388.389435	2538.427649
388.773674	2538.553678
389.157851	2542.304296
389.541965	2542.432846
389.926018	2542.427804
390.310008	2539.851775
390.693936	2542.314378
391.077802	2544.691282
391.461606	2540.867567
391.845348	2542.921837
392.229027	2543.735984
392.612645	2541.989224
392.996200	2542.712630
393.379694	2541.671631
393.763125	2541.964018
394.146494	2543.214224
394.529801	2542.831097
394.913047	2543.466282
395.296230	2542.473175
395.679351	2543.637681
396.062410	2543.985521
396.445408	2545.026519
396.828343	2544.020809
397.211217	2546.617003
397.594028	2545.311344
397.976778	2544.595501
398.359466	2547.065666
398.742092	2547.131201
399.124656	2545.346632
399.507158	2541.422094
399.889598	2547.196736
400.271977	2546.223793
400.654294	2544.328319
401.036549	2546.198588
401.418742	2545.744884
401.800874	2547.151366
402.182944	2547.663043
402.564952	2546.591798
402.946898	2548.736808
403.328783	2547.910059
403.710606	2548.202446
404.092367	2549.079607
404.474067	2546.352343
404.855705	2547.746222
405.237282	2546.206149
405.618797	2547.819318
406.000250	2548.467107
406.381642	2548.817467
406.762972	2548.353681
407.144240	2546.518701
407.525447	2546.906870
407.906593	2544.282949
408.287677	2547.325285
408.668700	2549.215718
409.049661	2549.283774
409.430560	2550.047508
409.811399	2551.136398
410.192176	2549.795451
410.572891	2551.330482
410.953545	2553.510781
411.334138	2551.713610
411.714669	2550.657488
412.095139	2550.332334
412.475547	2552.351316
412.855894	2552.628579
413.236180	2553.795606
413.616405	2552.648744
413.996568	2551.217056
414.376670	2552.321069
414.756711	2550.768393
415.136691	2553.646892
415.516609	2552.958775
415.896466	2551.811912
416.276262	2552.318548
416.655997	2555.239897
417.035670	2550.869217
417.415283	2554.110678
417.794834	2554.483724
418.174324	2552.724361
418.553753	2552.449618
418.933121	2554.571944
419.312428	2553.213353
419.691674	2552.011038
420.070859	2551.098589
420.449983	2555.338199
420.829045	2552.605894
421.208047	2556.076728
421.586988	2551.852242
421.965867	2556.207798
422.344686	2554.604712
422.723444	2555.590257
423.102141	2555.829712
423.480777	2554.755946
423.859352	2556.119578
424.237866	2553.530946
424.616319	2554.667726
424.994712	2555.267623
425.373044	2554.377860
425.751314	2557.465566
426.129524	2551.186809
426.507673	2553.939279
426.885762	2551.390976
427.263789	2555.423899
427.641756	2556.379198
428.019662	2555.985988
428.397508	2556.454815
428.775292	2553.719989
429.153016	2558.672923
429.530679	2557.067315
429.908282	2557.551266
430.285824	2556.946328
430.663305	2559.030845
431.040726	2556.361554
431.418086	2556.101934
431.795385	2558.844322
432.172624	2556.273333
432.549802	2556.737120
432.926920	2559.476987
433.303977	2557.589075
433.680974	2555.214691
434.057910	2556.908519
434.434786	2557.132850
434.811601	2560.205433
435.188355	2558.919939
435.565050	2558.509085
435.941683	2558.501523
436.318257	2557.636966
436.694770	2559.502192
437.071222	2557.747871
437.447614	2559.187120
437.823946	2559.945814
438.200218	2558.309960
438.576429	2559.572769
438.952580	2559.940773
439.328670	2561.223747
439.704700	2562.340362
440.080670	2559.398849
440.456580	2560.848181
440.832429	2561.385063
441.208218	2561.180897
441.583947	2560.608726
441.959616	2561.082594
442.335224	2558.448591
442.710773	2561.332131
443.086261	2562.867163
443.461689	2562.342883
443.837057	2561.722821
444.212365	2562.121072
444.587612	2557.324414
444.962800	2557.200906
445.337927	2558.146122
445.712995	2554.980278
446.088002	2564.228274
446.462949	2561.700136
446.837837	2561.054868
447.212664	2562.231977
447.587431	2562.383212
447.962139	2560.144940
448.336786	2561.064950
448.711374	2562.380691
449.085901	2563.913202
449.460369	2562.683161
449.834776	2562.229457
450.209124	2564.445044
450.583412	2560.714590
450.957640	2564.376988
451.331808	2562.458829
451.705917	2565.087791
452.079965	2566.045610
452.453954	2562.080743
452.827883	2563.842626
453.201752	2562.554611
453.575562	2564.104766
453.949311	2564.122410
454.323001	2564.218192
454.696632	2567.187432
455.070202	2567.338666
455.443713	2561.974878
455.817164	2565.455795
456.190556	2565.284396
456.563888	2564.508058
456.937160	2561.553942
457.310373	2565.410425
457.683526	2563.840105
458.056619	2563.220043
458.429653	2565.077709
458.802628	2563.182235
459.175542	2563.940928
459.548398	2566.728687
459.921194	2564.286247
460.293930	2565.443192
460.666607	2567.797411
461.039224	2565.528892
461.411782	2567.875549
461.784280	2567.129458
462.156719	2566.232133
462.529099	2567.988975
462.901419	2563.454457
463.273680	2564.888665
463.645882	2565.433110
464.018024	2564.558470
464.390106	2562.693243
464.762130	2568.803121
465.134094	2566.935374
465.505999	2570.701116
465.877845	2569.826476
466.249631	2571.762279
466.621358	2571.386713
466.993026	2571.137176
467.364634	2575.273442
467.736184	2572.624316
468.107674	2572.737742
468.479105	2571.638770
468.850477	2570.892680
469.221790	2571.822772
469.593043	2572.836044
469.964238	2569.977710
470.335373	2570.118863
470.706449	2570.638101
471.077467	2568.790518
471.448425	2573.415777
471.819324	2573.458627
472.190164	2573.856878
472.560945	2571.258163
472.931667	2572.790674
473.302330	2570.345714
473.672934	2574.413926
474.043479	2571.527865
474.413965	2571.782443
474.784393	2575.127249
475.154761	2570.539799
475.525070	2574.424008
475.895321	2571.974007
476.265513	2574.514749
476.635645	2571.371589
477.005719	2574.121539
477.375734	2574.454255
477.745691	2573.370407
478.115588	2575.785119
478.485427	2574.512228
478.855207	2576.064903
479.224928	2577.468865
479.594591	2577.657908
479.964194	2578.986252
480.333739	2579.855851
480.703226	2575.676735
481.072653	2577.085737
481.442022	2578.295614
481.811333	2575.142372
482.180584	2575.603638
482.549777	2575.510377
482.918912	2575.825449
483.287988	2578.726633
483.657005	2580.324678
484.025964	2579.596232
484.394864	2578.779565
484.763706	2580.947261
485.132489	2578.046077
485.501213	2576.548854
485.869879	2579.974318
486.238487	2578.656057
486.607036	2578.527507
486.975527	2582.157138
487.343959	2578.489698
487.712333	2581.201839
488.080648	2577.700758
488.448905	2580.735533
488.817104	2578.963567
489.185244	2580.798547
489.553326	2581.622776
489.921350	2581.640420
490.289315	2581.811819
490.657222	2582.444484
491.025070	2583.598908
491.392861	2586.890781
491.760593	2582.351222
492.128267	2582.336099
492.495883	2583.805595
492.863440	2584.813826
493.230939	2579.147569
493.598380	2582.822570
493.965763	2580.032292
494.333088	2579.755028
494.700354	2578.784606
495.067563	2582.184864
495.434713	2582.245358
495.801805	2586.265678
496.168839	2580.193608
496.535815	2581.768969
496.902733	2583.959350
497.269593	2581.945409
497.636395	2581.690831
498.003139	2584.009762
498.369825	2582.522622
498.736453	2580.480954
499.103023	2583.175451
499.469535	2581.647981
499.835989	2579.732343
500.202385	2583.735019
500.568723	2578.162023
500.935003	2581.189236
501.301226	2579.480285
501.667390	2582.104206
502.033497	2583.195616
502.399546	2582.570512
502.765537	2582.613362
503.131470	2586.056470
503.497345	2583.122519
503.863163	2583.848445
504.228923	2584.760894
504.594625	2586.507654
504.960269	2582.807447
505.325856	2584.299628
505.691385	2588.524115
506.056856	2587.735175
506.422270	2586.593353
506.787625	2587.372212
507.152924	2588.216605
507.518164	2586.129567
507.883347	2587.858683
508.248472	2589.696183
508.613540	2588.216605
508.978550	2591.344641
509.343503	2587.916656
509.708398	2589.786924
510.073236	2590.865731
510.438016	2592.201637
510.802738	2591.909250
511.167403	2592.678026
511.532010	2592.325145
511.896561	2596.794128
512.261053	2594.011411
512.625488	2595.874117
512.989866	2594.951586
513.354186	2598.898810
513.718449	2598.997112
514.082655	2599.841506
514.446803	2599.697833
514.810894	2602.210848
515.174927	2603.269490
515.538904	2599.536516
515.902822	2602.372165
516.266684	2602.316712
516.630488	2600.564911
516.994235	2602.508276
517.357925	2603.967690
517.721558	2607.867022
518.085133	2607.627568
518.448651	2605.167485
518.812112	2603.942484
519.175516	2607.872064
519.538863	2604.615478
519.902152	2608.424070
520.265385	2612.736777
520.628560	2609.981787
520.991678	2611.133690
521.354739	2614.299535
521.717743	2613.200563
522.080690	2614.549072
522.443580	2617.898919
522.806413	2619.108796
523.169189	2617.115019
523.531908	2620.643827
523.894569	2619.010493
524.257174	2624.102058
524.619722	2622.524177
524.982213	2620.684156
525.344647	2623.958386
525.707025	2625.823612
526.069345	2626.408386
526.431608	2623.996194
526.793815	2625.627007
527.155964	2628.893675
527.518057	2626.841926
527.880093	2628.034158
528.242072	2631.804942
528.603995	2631.263017
528.965860	2631.237812
529.327669	2629.087760
529.689421	2633.234109
530.051117	2633.632360
530.412755	2633.977679
530.774337	2638.257618
531.135862	2635.187556
531.497331	2640.448000
531.858743	2637.851806
532.220098	2640.657208
532.581396	2641.378093
532.942638	2638.383647
533.303824	2644.037301
533.664953	2643.901190
534.026025	2643.432363
534.387040	2645.171561
534.747999	2646.081489
535.108902	2650.920997
535.469748	2649.239772
535.830537	2650.742036
536.191270	2654.154897
536.551947	2649.660708
536.912567	2647.314051
537.273131	2651.500730
537.633638	2652.498878
537.994089	2656.738488
538.354483	2656.960299
538.714821	2662.891217
539.075103	2661.036072
539.435328	2661.530105
539.795497	2663.319715
540.155609	2662.918943
540.515665	2664.151505
540.875665	2666.188131
541.235609	2666.273831
541.595496	2668.517144
541.955328	2668.940601
542.315102	2673.525531
542.674821	2670.427742
543.034483	2671.420849
543.394090	2674.695078
543.753640	2677.939061
544.113134	2683.045750
544.472571	2683.539783
544.831953	2682.634896
545.191278	2682.939886
545.550548	2684.973991
545.909761	2688.374249
546.268918	2691.144363
546.628019	2691.948427
546.987064	2697.534026
547.346053	2696.702236
547.704986	2695.600743
548.063863	2698.365816
548.422684	2701.423276
548.781449	2702.648277
549.140158	2704.349666
549.498811	2708.218752
549.857408	2702.991075
550.215949	2712.339895
550.574434	2712.912066
550.932864	2720.211657
551.291237	2719.773076
551.649555	2727.092832
552.007817	2726.346741
552.366022	2726.949159
552.724173	2728.663151
553.082267	2733.656414
553.440305	2739.037846
553.798288	2737.797722
554.156215	2746.609659
554.514086	2747.728795
554.871902	2742.044894
555.229661	2748.237951
555.587365	2753.702562
555.945014	2758.146339
556.302606	2766.824686
556.660143	2768.067330
557.017625	2779.762807
557.375050	2779.304062
557.732421	2783.775565
558.089735	2788.458797
558.446994	2792.955507
558.804197	2800.139151
559.161345	2806.392702
559.518437	2804.590490
559.875474	2814.632468
560.232455	2819.227480
560.589381	2826.758964
560.946251	2832.352124
561.303065	2842.378979
561.659825	2850.066738
562.016528	2853.305680
562.373177	2858.404807
562.729770	2866.311857
563.086307	2877.949360
563.442789	2885.006976
563.799216	2891.867986
564.155587	2899.142371
564.511904	2914.107036
564.868164	2912.728281
565.224370	2930.425251
565.580520	2930.513472
565.936615	2946.080555
566.292654	2948.177675
566.648638	2970.232723
567.004567	2972.826396
567.360441	2982.507932
567.716260	2989.797441
568.072023	3011.202180
568.427732	3019.830115
568.783385	3025.503933
569.138982	3042.293496
569.494525	3063.587330
569.850013	3078.801532
570.205445	3086.844693
570.560823	3092.337031
570.916145	3111.231275
571.271412	3124.103862
571.626625	3144.845689
571.981782	3161.599964
572.336884	3169.123886
572.691931	3190.667257
573.046923	3191.178934
573.401860	3211.046121
573.756743	3242.318919
574.111570	3257.817947
574.466342	3271.890328
574.821059	3292.667443
575.175722	3296.743216
575.530330	3322.982422
575.884882	3344.460258
576.239380	3365.073536
576.593823	3383.536762
576.948211	3397.286509
577.302544	3414.277718
577.656823	3428.980243
578.011047	3456.136939
578.365216	3470.663024
578.719330	3502.901203
579.073389	3517.727236
579.427394	3561.025707
579.781344	3562.051581
580.135239	3592.162393
580.489080	3616.062504
580.842866	3622.928555
581.196597	3682.053728
581.550273	3693.547559
581.903895	3736.069692
582.257463	3775.015126
582.610975	3789.856282
582.964434	3835.745906
583.317837	3855.348433
583.671186	3896.222108
584.024481	3938.782049
584.377721	3940.266669
584.730906	3982.183863
585.084037	4023.901932
585.437113	4043.451527
585.790135	4090.845935
586.143103	4098.886575
586.496016	4116.603710
586.848874	4190.582643
587.201679	4213.345973
587.554428	4224.610431
587.907124	4296.003252
588.259765	4315.018484
588.612352	4379.734297
588.964884	4377.347311
589.317362	4428.353705
589.669786	4471.783246
590.022155	4515.570708
590.374470	4579.613526
590.726731	4604.436168
591.078937	4620.774547
591.431090	4669.648534
591.783188	4676.965769
592.135232	4703.593143
592.487222	4779.643990
592.839157	4814.322088
593.191038	4855.248695
593.542866	4863.075087
593.894639	4894.428543
594.246358	4964.079645
594.598022	4985.144106
594.949633	4999.433257
595.301190	5029.060118
595.652692	5106.729175
596.004141	5172.942211
596.355535	5130.152897
596.706876	5178.137120
597.058162	5208.772212
597.409395	5270.967447
597.760573	5344.328838
598.111698	5361.115881
598.462768	5397.669287
598.813785	5435.251089
599.164748	5448.408501
599.515657	5500.586964
599.866511	5516.653121
600.217312	5624.463237
600.568060	5583.042597
600.918753	5701.487027
601.269392	5746.512092
601.619978	5734.234362
601.970510	5849.586044
602.320988	5871.812492
602.671412	5965.078879
603.021783	5995.635833
603.372100	5998.244630
603.722363	6083.475418
604.072572	6133.367718
604.422728	6194.121183
604.772830	6227.712912
605.122878	6236.683645
605.472872	6308.726775
605.822813	6369.805395
606.172701	6413.444143
606.522534	6509.591550
606.872314	6567.000210
607.222041	6563.357976
607.571714	6677.701428
607.921333	6708.175203
608.270899	6780.515761
608.620411	6899.192084
608.969870	6858.633481
609.319276	6934.533093
609.668627	7021.682040
610.017926	7107.555575
610.367171	7190.243101
610.716362	7294.894934
611.065500	7276.124198
611.414585	7376.347378
611.763616	7432.473064
612.112594	7487.048596
612.461518	7514.868203
612.810389	7646.142370
613.159207	7640.236658
613.507971	7684.893719
613.856682	7872.540589
614.205340	7902.653922
614.553945	8035.725260
614.902496	7974.434911
615.250994	8155.893764
615.599439	8187.365688
615.947830	8233.741783
616.296169	8290.729506
616.644454	8369.641208
616.992686	8389.074856
617.340864	8548.324906
617.688990	8542.043628
618.037063	8669.577259
618.385082	8679.462962
618.733048	8837.104884
619.080961	8844.623765
619.428821	8934.749513
619.776628	8986.176844
620.124382	8986.189447
620.472083	9079.491122
620.819731	9158.468359
621.167326	9082.432636
621.514868	9144.653077
621.862357	9127.245973
622.209793	9178.007871
622.557176	9172.815483
622.904506	9138.853229
623.251783	9156.018358
623.599007	9151.841762
623.946179	9182.456690
624.293297	9213.568171
624.640363	9164.258124
624.987376	9208.022901
625.334336	9169.238784
625.681243	9157.823091
626.028097	9207.634733
626.374899	9271.601934
626.721647	9215.272081
627.068343	9181.834107
627.414987	9212.355773
627.761577	9283.446125
628.108115	9360.142239
628.454600	9250.305579
628.801032	9334.717180
629.147412	9355.267443
629.493739	9427.182024
629.840014	9391.835973
630.186236	9474.079878
630.532405	9418.097864
630.878521	9563.789731
631.224585	9560.298732
631.570597	9540.174446
631.916556	9570.106297
632.262462	9603.635011
632.608316	9643.749993
632.954117	9639.691864
633.299866	9693.370070
633.645562	9709.781547
633.991206	9611.360579
634.336797	9565.942304
634.682336	9622.882137
635.027823	9585.282691
635.373257	9591.775697
635.718639	9557.001817
636.063968	9565.544053
636.409245	9498.347992
636.754470	9550.687772
637.099642	9506.393674
637.444762	9407.672758
637.789829	9498.584927
638.134845	9435.915823
638.479808	9486.569337
638.824719	9504.036935
639.169577	9444.445455
639.514383	9518.394141
639.859137	9443.016288
640.203839	9539.960197
640.548489	9463.362385
640.893086	9521.885140
641.237632	9439.008571
641.582125	9605.747255
641.926566	9534.508189
642.270955	9570.585207
642.615292	9586.384183
642.959576	9624.971695
643.303809	9706.809786
643.647990	9676.688892
643.992118	9769.690619
644.336195	9625.274164
644.680219	9798.049630
645.024192	9807.711001
645.368112	9975.261311
645.711981	10057.986646
646.055797	10203.882679
646.399562	10217.277025
646.743274	10405.521271
647.086935	10644.033383
647.430544	10651.834569
647.774101	10683.208190
648.117606	10845.591317
648.461059	10832.814512
648.804460	10902.304298
649.147810	10752.037584
649.491108	10687.503253
649.834354	10765.638617
650.177548	10589.488098
650.520690	10494.064097
650.863781	10472.833278
651.206820	10529.788234
651.549807	10439.360016
651.892742	10346.721253
652.235626	10324.162089
652.578458	10362.822698
652.921238	10163.404734
653.263967	10326.778448
653.606644	10233.953162
653.949269	10228.728006
654.291843	10138.171239
654.634365	10261.760166
654.976836	10184.733856
655.319255	10222.532428
655.661622	10225.065607
656.003938	10190.236276
656.346203	10156.425257
656.688416	10234.555580
657.030577	10235.110107
657.372687	10208.739831
657.714746	10207.018277
658.056753	10362.071566
658.398708	10282.053331
658.740612	10300.960179
659.082465	10398.375436
659.424266	10378.634277
659.766016	10428.415671
660.107715	10392.376462
660.449362	10451.652870
660.790958	10461.009252
661.132503	10437.489748
661.473996	10495.334468
661.815438	10547.714577
662.156829	10563.435415
662.498168	10585.162788
662.839456	10603.076529
663.180693	10644.461881
663.521879	10732.891281
663.863013	10748.896945
664.204097	10749.718653
664.545129	10858.960457
664.886110	10850.844199
665.227040	10941.887438
665.567918	10966.374842
665.908746	11020.153872
666.249522	11015.364775
666.590248	11072.297046
666.930922	11179.512306
667.271545	11191.830366
667.612118	11275.563931
667.952639	11230.508619
668.293109	11238.055226
668.633528	11243.199723
668.973896	11232.018444
669.314213	11351.950015
669.654480	11141.794393
669.994695	11199.276150
670.334859	11248.492935
670.674973	11223.791281
671.015035	11277.174580
671.355047	11243.890362
671.695008	11224.202135
672.034918	11254.738925
672.374777	11307.575258
672.714585	11251.835220
673.054342	11289.343925
673.394049	11266.628486
673.733705	11348.179232
674.073310	11308.948972
674.412864	11345.678819
674.752368	11255.348904
675.091820	11261.975501
675.431223	11283.407967
675.770574	11189.382886
676.109875	11139.518312
676.449125	11127.341405
676.788324	11082.200393
677.127473	10962.435181
677.466571	10956.655498
677.805619	10897.258102
678.144616	10832.806951
678.483562	10818.258181
678.822458	10709.417148
679.161303	10706.526047
679.500098	10725.526156
679.838842	10685.058293
680.177535	10718.604651
680.516179	10777.510534
680.854771	10741.572148
681.193314	10951.904210
681.531805	11084.186608
681.870247	11454.005654
682.208638	11807.922380
682.546978	12107.626538
682.885268	12200.391331
683.223508	11924.917479
683.561697	11805.149746
683.899836	11717.741179
684.237925	11548.590303
684.575963	11489.623926
684.913951	11434.352716
685.251889	11377.906916
685.589776	11488.426652
685.927614	11418.543657
686.265401	11383.391691
686.603137	11430.680235
686.940824	11582.182032
687.278460	11686.811180
687.616046	11737.222718
687.953582	11896.205587
688.291068	11827.386275
688.628504	12023.328363
688.965889	12040.964840
689.303224	12035.999304
689.640510	11959.280504
689.977745	11696.843076
690.314930	11498.067859
690.652065	11438.040320
690.989150	11175.328149
691.326185	10983.257667
691.663170	10802.093721
692.000105	10586.297048
692.336990	10505.925932
692.673825	10268.855590
693.010610	10161.879785
693.347345	9976.423297
693.684030	9790.147621
694.020665	9742.463347
694.357251	9565.939783
694.693786	9533.973827
695.030272	9365.995019
695.366707	9255.936548
695.703093	9193.685860
696.039429	9200.287251
696.375716	9139.906831
696.711952	9016.391000
697.048139	9050.882574
697.384276	9016.494343
697.720363	9024.330817
698.056400	8970.370306
698.392388	8928.127957
698.728326	8903.809431
699.064214	8839.396088
699.400053	8897.266014
699.735842	8717.753046
700.071581	8682.696862
700.407270	8615.687324
700.742910	8547.881285
701.078501	8468.467988
701.414042	8350.547838
701.749533	8283.379504
702.084974	8151.694483
702.420366	8266.287472
702.755709	8156.292016
703.091002	8041.421763
703.426246	8061.046975
703.761440	8022.958538
704.096584	7975.168399
704.431679	7914.440139
704.766725	7909.151969
705.101721	7858.977365
705.436668	7897.244763
705.771565	7804.215310
706.106413	7881.382773
706.441212	7932.472347
706.775961	7882.766570
707.110661	7907.193481
707.445311	8064.873211
707.779913	7963.540978
708.114465	8095.523427
708.448967	8132.616237
708.783421	8258.161132
709.117825	8444.454452
709.452180	8484.198909
709.786485	8562.099859
710.120742	8840.389195
710.454949	8834.291920
710.789107	8934.930995
711.123216	9131.616653
711.457275	9284.698851
711.791286	9453.443915
712.125247	9434.093446
712.459159	9430.000029
712.793023	9687.897898
713.126837	9271.397767
713.460602	9412.955888
713.794318	9244.553623
714.127985	9284.272874
714.461602	8994.537598
714.795171	8942.396943
715.128691	8711.134011
715.462162	8461.322153
715.795584	8412.642250
716.128957	8288.145915
716.462281	8113.043957
716.795556	8162.507758
717.128782	7965.635577
717.461960	7696.886624
717.795088	7769.466637
718.128167	7671.363263
718.461198	7517.136722
718.794180	7456.627753
719.127113	7454.495345
719.459997	7317.116341
719.792833	7085.513130
720.125619	7143.274671
720.458357	7006.767786
720.791046	6992.725652
721.123686	6999.944585
721.456278	6843.497416
721.788821	6861.184304
722.121315	6751.859322
722.453761	6816.668395
722.786158	6767.388596
723.118506	6788.745444
723.450805	6752.635659
723.783056	6822.672410
724.115259	6718.948149
724.447412	6712.102262
724.779518	6759.627740
725.111574	6767.111333
725.443582	6848.170566
725.775542	6823.839437
726.107453	7002.016499
726.439315	6922.706546
726.771129	6970.310162
727.102895	7138.334340
727.434612	7255.445385
727.766281	7273.951461
728.097901	7361.385233
728.429473	7343.695824
728.760996	7321.255128
729.092471	7299.431973
729.423897	7256.831702
729.755276	7273.679238
730.086606	7206.399999
730.417887	7303.507746
730.749120	7472.184753
731.080305	7655.004718
731.411442	7801.425032
731.742530	7798.672562
732.073570	7898.409270
732.404562	7982.536045
732.735506	7830.139444
733.066401	7974.180333
733.397249	7911.826301
733.728048	7680.825508
734.058798	7355.043462
734.389501	7143.330123
734.720156	6965.994934
735.050762	6730.169757
735.381320	6625.381813
735.711831	6585.299598
736.042293	6476.055274
736.372707	6496.905486
736.703073	6365.303645
737.033391	6399.409571
737.363661	6413.993629
737.693883	6429.099447
738.024056	6511.537435
738.354182	6566.569191
738.684260	6601.368276
739.014290	6699.080961
739.344272	6808.529453
739.674207	6837.440470
740.004093	6906.138794
740.333931	6917.060454
740.663722	6926.482370
740.993464	7003.780903
741.323159	7007.902046
741.652806	6755.713284
741.982405	6747.307160
742.311956	6817.159908
742.641460	6678.339134
742.970915	6478.843032
743.300323	6470.048739
743.629683	6413.736530
743.958996	6286.938908
744.288260	6194.489188
744.617477	6142.106558
744.946647	6156.327653
745.275768	5991.166850
745.604842	5947.507937
745.933869	5927.023209
746.262847	5880.659717
746.591778	5873.428182
746.920662	5835.312017
747.249498	5825.978321
747.578286	5867.792172
747.907027	5947.291168
748.235720	6003.439539
748.564365	5976.807123
748.892963	5991.411346
749.221514	6147.893803
749.550017	6008.258882
749.878473	5869.130598
750.206881	5916.779584
750.535242	5864.754876
750.863555	5798.050329
751.191821	5820.584286
751.520039	5820.808618
751.848210	5731.365946
752.176334	5740.951700
752.504411	5803.293129
752.832440	5723.534513
753.160421	5648.015508
753.488356	5694.981418
753.816243	5741.440692
754.144082	5592.996355
754.471875	5552.210900
754.799620	5606.090752
755.127318	5610.022852
755.454969	5560.334719
755.782572	5525.603690
756.110129	5570.399383
756.437638	5565.721192
756.765100	5503.311707
757.092515	5497.768959
757.419882	5542.100866
757.747203	5525.853227
758.074477	5592.358649
758.401703	5586.848668
758.728882	5530.803640
759.056014	5572.073046
759.383099	5712.995981
759.710138	5720.890428
760.037129	5700.231779
760.364073	5710.929108
760.690970	5796.825328
761.017820	5782.218585
761.344623	5728.384103
761.671379	5821.605120
761.998088	5933.186019
762.324751	6158.502911
762.651366	6715.933539
762.977935	7956.997560
763.304456	9548.953615
763.630931	10474.879986
763.957359	10150.428804
764.283740	9231.161798
764.610074	8435.708050
764.936362	7467.599824
765.262602	6874.029164
765.588796	6334.817267
765.914943	5991.013095
766.241044	5834.581050
766.567097	5656.086395
766.893104	5393.570829
767.219064	5216.366710
767.544978	5152.815404
767.870845	5085.324436
768.196665	4975.858301
768.522438	4900.921549
768.848165	4870.422568
769.173846	4809.452333
769.499479	4772.382208
769.825066	4713.945153
770.150607	4650.897962
770.476101	4622.105412
770.801548	4626.377790
771.126949	4559.925300
771.452303	4500.880786
771.777611	4459.576092
772.102872	4473.179645
772.428087	4439.300571
772.753256	4400.922267
773.078378	4359.360474
773.403453	4293.613745
773.728482	4278.326446
774.053465	4233.802975
774.378401	4216.670614
774.703291	4223.834094
775.028135	4154.414885
775.352932	4105.767750
775.677683	4094.599074
776.002388	4110.120786
776.327046	4127.618631
776.651658	4049.064852
776.976224	3984.129749
777.300743	3992.215760
777.625216	4014.084285
777.949643	4012.695447
778.274024	3969.616267
778.598359	3917.712547
778.922647	3940.518727
779.246889	3933.322480
779.571086	3931.517747
779.895236	3918.776230
780.219339	3902.579003
780.543397	3889.620717
780.867409	3942.066361
781.191374	3957.837611
781.515294	3900.658323
781.839167	3891.551479
782.162995	3906.773243
782.486776	3899.708066
782.810511	3905.528078
783.134201	3906.039755
783.457844	3865.095504
783.781441	3806.204744
784.104993	3815.425015
784.428498	3830.966892
784.751958	3832.174248
785.075372	3810.580466
785.398739	3770.818365
785.722061	3780.552833
786.045337	3822.013803
786.368568	3857.947148
786.691752	3774.747944
787.014891	3814.434428
787.337983	3932.445319
787.661030	4082.160027
787.984031	4245.256477
788.306987	4419.521604
788.629897	4498.335003
788.952760	4455.691882
789.275579	4385.418198
789.598351	4328.977439
789.921078	4199.712173
790.243759	4004.145650
790.566395	3971.516782
790.888984	3975.310250
791.211529	3870.562635
791.534027	3807.538130
791.856480	3807.283551
792.178888	3747.639140
792.501249	3691.946993
792.823566	3701.260524
793.145836	3730.065677
793.468062	3685.292669
793.790241	3634.750061
794.112375	3664.225687
794.434464	3722.710634
794.756507	3750.288266
795.078505	3737.208992
795.400457	3761.058691
795.722364	3887.493350
796.044226	3993.614680
796.366042	4068.397677
796.687812	4055.396541
797.009538	4064.742840
797.331218	4019.634595
797.652852	3987.232579
797.974442	3969.439827
798.295986	3972.633397
798.617484	3896.746388
798.938938	3810.330929
799.260346	3846.642360
799.581709	3844.698995
799.903026	3774.828603
800.224299	3738.660845
800.545526	3734.063312
800.866708	3696.877241
801.187845	3633.857777
801.508936	3665.324659
801.829983	3673.085515
802.150984	3594.667847
802.471940	3578.412646
802.792851	3591.454111
803.113717	3593.397476
803.434538	3599.182200
803.755314	3542.844785
804.076045	3511.473685
804.396731	3527.486910
804.717372	3554.515056
805.037967	3545.554405
805.358518	3536.447561
805.679024	3557.811971
805.999485	3567.185997
806.319901	3572.154054
806.640272	3588.321034
806.960598	3605.108076
807.280879	3580.292997
807.601115	3588.013524
807.921306	3602.781584
808.241453	3645.059221
808.561554	3625.307980
808.881611	3561.013104
809.201623	3588.777258
809.521590	3605.289558
809.841513	3575.579518
810.161390	3605.639918
810.481223	3590.057712
810.801011	3534.148795
811.120755	3521.160262
811.440453	3556.831467
811.760107	3564.564597
812.079716	3521.792927
812.399281	3487.966784
812.718801	3509.283303
813.038276	3482.792040
813.357707	3480.483192
813.677093	3498.616222
813.996434	3448.877677
814.315731	3455.935293
814.634983	3456.497382
814.954191	3469.894248
815.273354	3504.753827
815.592473	3497.870131
815.911547	3503.740555
816.230577	3535.313301
816.549562	3586.276846
816.868502	3630.883496
817.187399	3656.222856
817.506250	3649.233296
817.825058	3621.925366
818.143821	3704.375957
818.462539	3807.543171
818.781213	3854.897249
819.099843	3904.855084
819.418429	4129.917398
819.736970	4365.346844
820.055466	4597.423923
820.373919	4952.527841
820.692327	5354.708574
821.010691	5743.817596
821.329011	7005.643609
821.647286	9563.013393
821.965517	13904.959201
822.283704	17890.505514
822.601847	20196.414983
822.919945	18477.074011
823.237999	16028.575506
823.556010	13612.713430
823.873976	11592.415574
824.191897	9553.513339
824.509775	8202.010240
824.827609	7094.229285
825.145398	6538.018617
825.463144	6428.416370
825.780845	6538.215222
826.098502	6691.841864
826.416116	7488.792835
826.733685	8754.984488
827.051210	9871.249704
827.368692	10004.079067
827.686129	8820.703490
828.003522	7336.547468
828.320872	6339.639130
828.638177	5656.280480
828.955439	5118.880877
829.272656	4633.392556
829.589830	4341.381198
829.906960	4175.572607
830.224046	3993.980163
830.541088	3866.060885
830.858086	3824.935152
831.175041	3753.207094
831.491952	3731.207499
831.808819	3741.826689
832.125642	3804.566369
832.442421	3941.481587
832.759157	4197.335268
833.075849	4706.711097
833.392497	5532.968815
833.709101	6285.282889
834.025662	6650.973230
834.342179	6339.530746
834.658653	5697.655750
834.975083	5068.320624
835.291469	4512.649359
835.607811	4100.817337
835.924110	3969.170125
836.240366	3777.510497
836.556578	3571.995257
836.872746	3463.244966
837.188871	3434.732200
837.504952	3371.382540
837.820990	3289.126033
838.136984	3236.342631
838.452935	3261.387084
838.768842	3258.858945
839.084706	3279.598252
839.400526	3418.817277
839.716303	3733.720514
840.032037	4226.896595
840.347727	4511.615923
840.663373	4266.250362
840.978977	3898.450298
841.294537	3601.811162
841.610054	3374.573590
841.925527	3264.860439
842.240957	3197.676981
842.556344	3147.411636
842.871687	3094.439192
843.186987	3043.957077
843.502244	3009.074813
843.817458	2974.648773
844.132629	2940.409257
844.447756	2953.975002
844.762840	2938.254163
845.077881	2907.959349
845.392879	2889.531411
845.707833	2886.625186
846.022745	2884.228118
846.337613	2885.203581
846.652438	2874.733104
846.967221	2875.786705
847.281960	2860.509489
847.596656	2854.621421
847.911309	2854.190402
848.225919	2847.120184
848.540485	2840.440655
848.855009	2845.622961
849.169490	2833.793894
849.483928	2825.201247
849.798323	2822.940290
850.112675	2818.977943
850.426984	2826.990857
850.741251	2828.694767
851.055474	2819.156904
851.369654	2814.098106
851.683792	2815.103816
851.997887	2824.679488
852.311938	2831.028821
852.625947	2818.446101
852.939914	2820.139929
853.253837	2825.987667
853.567718	2808.724236
853.881555	2809.326654
854.195350	2824.203099
854.509103	2819.761842
854.822812	2814.168682
855.136479	2810.765903
855.450103	2810.765903
855.763685	2807.728608
856.077224	2800.701239
856.390720	2814.995431
856.704173	2823.845177
857.017584	2821.770742
857.330953	2814.118270
857.644278	2822.635300
857.957561	2829.677792
858.270802	2830.524706
858.584000	2833.456137
858.897155	2820.860814
859.210268	2819.882830
859.523339	2815.933086
859.836367	2818.597336
860.149352	2811.552323
860.462295	2808.560398
860.775195	2815.781851
861.088054	2817.722695
861.400869	2798.770477
861.713642	2796.023049
862.026373	2810.849082
862.339062	2812.673980
862.651708	2822.161431
862.964312	2823.537666
863.276873	2816.079279
863.589392	2823.267965
863.901869	2833.912361
864.214303	2856.716020
864.526696	2872.908207
864.839045	2865.560725
865.151353	2867.229347
865.463619	2864.774305
865.775842	2865.901003
866.088023	2881.876419
866.400162	2892.241032
866.712258	2866.551312
867.024313	2854.031606
867.336325	2858.074611
867.648296	2878.355173
867.960224	2873.079606
868.272110	2861.323635
868.583954	2865.248173
868.895755	2882.801471
869.207515	2865.749768
869.519233	2867.146168
869.830909	2878.584546
870.142542	2889.173489
870.454134	2891.724313
870.765684	2893.269427
871.077191	2891.852863
871.388657	2897.458626
871.700081	2910.227868
872.011463	2923.554159
872.322803	2923.231525
872.634101	2922.107348
872.945357	2939.615275
873.256571	2963.545632
873.567744	2957.619756
873.878874	2950.312603
874.189963	2973.043166
874.501010	2975.775471
874.812015	2965.607464
875.122979	2964.649645
875.433900	2960.004222
875.744780	2965.864563
876.055618	2973.237250
876.366415	2968.843885
876.677169	2981.345946
876.987882	2979.339567
877.298554	2967.603761
877.609183	2987.216370
877.919771	3008.371572
878.230317	3036.652445
878.540822	3086.451483
878.851285	3121.197636
879.161707	3158.224911
879.472087	3249.384096
879.782425	3455.670632
880.092722	3855.625696
880.402977	4363.615207
880.713191	4951.648160
881.023363	6032.935330
881.333494	7275.234434
881.643583	7853.653906
881.953631	7575.795588
882.263637	7001.005747
882.573602	6449.173321
882.883526	5884.354883
883.193408	5322.125076
883.503248	4863.317062
883.813048	4571.300664
884.122806	4297.382008
884.432522	3996.624249
884.742197	3771.559415
885.051831	3583.347936
885.361424	3447.564457
885.670975	3380.355794
885.980485	3300.352682
886.289954	3227.465159
886.599382	3184.590146
886.908768	3147.517501
887.218113	3103.399843
887.527417	3053.381514
887.836680	3002.037362
888.145901	2996.613081
888.455082	2986.717296
888.764221	2943.665842
889.073319	2911.619227
889.382376	2906.996489
889.691392	2914.727098
890.000366	2910.908424
890.309300	2900.700088
890.618193	2912.390523
890.927044	2931.004984
891.235855	2930.032041
891.544625	2912.065369
891.853353	2924.423758
892.162041	2941.964453
892.470687	2977.925523
892.779293	3026.814633
893.087858	3069.672003
893.396381	3136.003505
893.704864	3244.872264
894.013306	3465.226139
894.321707	3752.309769
894.630068	3962.919094
894.938387	3963.859269
895.246665	3914.955036
895.554903	3805.879590
895.863100	3616.740539
896.171256	3458.740695
896.479371	3327.179183
896.787446	3210.867160
897.095480	3113.905607
897.403473	3049.043601
897.711425	3009.581449
898.019336	3002.463340
898.327207	2981.950885
898.635038	2945.377314
898.942827	2930.205961
899.250576	2919.974939
899.558284	2891.323542
899.865952	2869.490304
900.173579	2849.817201
900.481165	2844.765965
900.788711	2836.556446
901.096216	2810.292035
901.403681	2795.213943
901.711105	2805.520582
902.018489	2803.070582
902.325832	2802.752989
902.633135	2812.046356
902.940397	2841.138855
903.247619	2912.090575
903.554800	3086.355702
903.861941	3407.204979
904.169041	3806.439158
904.476101	4107.227164
904.783121	4089.699072
905.090100	3857.863968
905.397039	3596.681788
905.703938	3355.969212
906.010796	3177.403981
906.317614	3070.493711
906.624391	2981.106492
906.931129	2913.479413
907.237826	2852.695700
907.544483	2809.172898
907.851099	2776.135697
908.157675	2760.200609
908.464211	2744.033629
908.770707	2731.022411
909.077163	2716.271995
909.383578	2703.089377
909.689954	2693.117975
909.996289	2691.577903
910.302584	2691.638397
910.608839	2692.218129
910.915054	2688.515402
911.221229	2679.627847
911.527363	2682.924762
911.833458	2686.798889
912.139513	2691.414065
912.445527	2694.819365
912.751502	2704.694985
913.057436	2710.560367
913.363331	2726.278685
913.669186	2742.614544
913.975000	2772.352311
914.280775	2828.304077
914.586510	2894.416289
914.892205	2968.906899
915.197859	3083.525094
915.503475	3260.643513
915.809050	3460.026189
916.114585	3604.117490
916.420081	3632.126140
916.725536	3582.221238
917.030952	3467.943321
917.336328	3346.658201
917.641665	3222.252606
917.946961	3130.675006
918.252218	3065.422310
918.557435	2990.772904
918.862612	2932.061106
919.167750	2883.834908
919.472848	2849.250072
919.777906	2823.489775
920.082925	2800.257618
920.387904	2770.184615
920.692843	2756.021493
920.997743	2744.411716
921.302603	2731.511403
921.607423	2721.053529
921.912204	2712.733105
922.216946	2701.950077
922.521647	2694.738706
922.826310	2685.299146
923.130932	2677.991993
923.435516	2672.802125
923.740059	2662.729900
924.044564	2656.020124
924.349028	2651.142808
924.653454	2647.004020
924.957840	2636.725108
925.262186	2635.742083
925.566493	2629.296967
925.870761	2626.133643
926.174989	2621.957047
926.479178	2616.590739
926.783328	2612.693927
927.087438	2609.775099
927.391509	2612.862806
927.695541	2607.012547
927.999533	2604.791919
928.303486	2601.978955
928.607400	2600.448965
928.911275	2602.999788
929.215110	2599.254211
929.518906	2598.694643
929.822663	2601.197576
930.126381	2596.715990
930.430060	2602.006681
930.733699	2599.710436
931.037299	2598.913933
931.340861	2603.869387
931.644383	2602.876280
931.947866	2601.421907
932.251309	2602.720004
932.554714	2600.363265
932.858080	2598.455188
933.161407	2596.090887
933.464694	2595.075095
933.767943	2590.384301
934.071153	2596.710949
934.374323	2594.444950
934.677455	2593.565269
934.980548	2592.292378
935.283602	2592.594847
935.586617	2590.081832
935.889593	2591.936976
936.192530	2591.546287
936.495428	2592.834302
936.798287	2597.003336
937.101108	2598.235898
937.403890	2602.777978
937.706632	2603.781167
938.009336	2608.325767
938.312002	2619.015534
938.614628	2625.768160
938.917216	2632.505662
939.219765	2635.164871
939.522275	2636.011784
939.824747	2629.556587
940.127179	2629.228912
940.429573	2627.277985
940.731929	2622.715741
941.034246	2622.554424
941.336524	2615.890019
941.638763	2616.547889
941.940964	2614.745677
942.243126	2609.825511
942.545250	2612.686366
942.847335	2610.017075
943.149381	2607.183946
943.451389	2602.712443
943.753359	2598.261104
944.055290	2598.883686
944.357182	2594.820516
944.659036	2596.499221
944.960851	2592.574682
945.262628	2591.952100
945.564367	2594.881010
945.866067	2593.429158
946.167729	2594.102152
946.469352	2595.690115
946.770937	2595.410331
947.072484	2593.177100
947.373992	2596.340424
947.675462	2589.101327
947.976893	2585.169227
948.278286	2587.667119
948.579641	2584.715523
948.880958	2584.614700
949.182236	2587.195771
949.483476	2582.613362
949.784678	2587.956985
950.085841	2586.754670
950.386967	2586.434557
950.688054	2585.927921
950.989103	2586.109403
951.290114	2587.828436
951.591087	2592.577203
951.892021	2592.423448
952.192917	2596.602564
952.493776	2595.944694
952.794596	2597.774632
953.095378	2597.623398
953.396122	2598.346803
953.696828	2595.768253
953.997496	2594.475197
954.298126	2592.385639
954.598718	2590.197778
954.899272	2585.590164
955.199788	2585.315421
955.500266	2580.763259
955.800706	2578.638413
956.101108	2577.027764
956.401472	2577.955336
956.701798	2575.764955
957.002087	2572.979717
957.302337	2572.825962
957.602550	2570.519634
957.902724	2571.253122
958.202861	2568.266238
958.502960	2568.112483
958.803022	2568.782957
959.103045	2568.024263
959.403031	2565.244067
959.702979	2564.850857
960.002889	2566.363203
960.302762	2565.443192
960.602596	2563.020918
960.902393	2563.988819
961.202153	2561.470763
961.501875	2563.267934
961.801559	2561.937070
962.101205	2560.212995
962.400814	2566.819427
962.700385	2560.059240
962.999918	2557.342058
963.299414	2559.071174
963.598873	2558.526729
963.898293	2555.227294
964.197677	2561.508572
964.497022	2558.453632
964.796331	2559.386246
965.095601	2559.194682
965.394835	2560.230639
965.694030	2561.541339
965.993189	2559.802141
966.292309	2558.133519
966.591393	2560.530588
966.890439	2558.645196
967.189447	2559.086297
967.488419	2560.114693
967.787353	2559.998746
968.086249	2558.516647
968.385108	2558.894733
968.683930	2557.460525
968.982714	2561.891699
969.281462	2558.786349
969.580172	2559.361040
969.878844	2559.479507
970.177480	2559.908005
970.476078	2559.396328
970.774639	2559.976061
971.073162	2559.053530
971.371649	2559.575289
971.670098	2557.407593
971.968510	2559.633263
972.266885	2560.565876
972.565223	2561.372461
972.863524	2562.191648
973.161788	2559.265258
973.460014	2558.826678
973.758204	2561.984961
974.056356	2561.932029
974.354471	2560.757440
974.652550	2560.003787
974.950591	2563.083932
975.248595	2559.577810
975.546563	2560.974209
975.844493	2560.495300
976.142386	2560.795248
976.440243	2560.838098
976.738062	2559.950855
977.035845	2560.160063
977.333590	2558.534291
977.631299	2556.326266
977.928971	2556.714434
978.226606	2554.057746
978.524204	2558.380536
978.821765	2556.038920
979.119290	2559.300546
979.416777	2557.188303
979.714228	2557.084959
980.011642	2560.291133
980.309020	2559.857594
980.606360	2557.115206
980.903664	2558.919939
981.200931	2560.356668
981.498162	2560.787687
981.795356	2559.872717
982.092513	2562.501679
982.389633	2563.993861
982.686717	2567.436969
982.983764	2569.380333
983.280775	2576.261508
983.577749	2575.712023
983.874686	2575.187743
984.171587	2572.616754
984.468451	2569.468554
984.765279	2567.162226
985.062070	2567.628532
985.358824	2565.271793
985.655543	2563.527554
985.952224	2560.162584
986.248869	2560.192831
986.545478	2558.166287
986.842050	2560.601164
987.138586	2558.945145
987.435086	2556.963972
987.731549	2555.013045
988.027975	2558.257027
988.324366	2556.666543
988.620719	2557.611760
988.917037	2555.844835
989.213318	2558.226781
989.509563	2555.393652
989.805772	2556.936245
990.101944	2557.904147
990.398080	2555.491955
990.694180	2556.414486
990.990244	2557.238714
991.286271	2554.876934
991.582262	2556.522871
991.878217	2558.267110
992.174136	2555.774259
992.470019	2555.643189
992.765865	2552.676470
993.061676	2552.066491
993.357450	2553.677139
993.653188	2553.029351
993.948890	2556.023796
994.244556	2556.653941
994.540186	2556.890875
994.835780	2556.459856
995.131337	2558.514126
995.426859	2558.055381
995.722345	2557.243756
996.017795	2558.057902
996.313208	2559.920608
996.608586	2560.396997
996.903928	2560.001267
997.199234	2561.453119
997.494504	2561.652245
997.789738	2556.943807
998.084936	2560.954045
998.380099	2557.452963
998.675225	2558.683005
998.970316	2559.411452
999.265371	2557.649568
999.560390	2556.885834
999.855373	2557.841132
1000.150320	2556.495144
1000.445232	2556.560679
1000.740108	2554.420709
1001.034948	2554.186296
1001.329752	2554.219063
1001.624521	2555.280226
1001.919254	2554.927345
1002.213951	2557.147974
1002.508613	2552.747046
1002.803239	2557.321893
1003.097829	2555.076059
1003.392384	2554.738302
1003.686903	2553.581357
1003.981386	2556.681667
1004.275834	2552.777293
1004.570246	2553.833415
1004.864623	2555.033210
1005.158964	2554.065308
1005.453270	2552.396686
1005.747540	2553.253682
1006.041775	2554.647561
1006.335974	2553.674619
1006.630138	2553.354505
1006.924266	2554.652602
1007.218359	2552.217725
1007.512416	2550.062632
1007.806438	2550.518856
1008.100425	2550.412992
1008.394376	2547.315203
1008.688292	2551.821995
1008.982172	2553.846018
1009.276017	2552.905843
1009.569827	2554.609753
1009.863602	2555.905329
1010.157341	2554.342572
1010.451045	2555.373488
1010.744714	2554.594629
1011.038347	2556.439692
1011.331945	2552.663867
1011.625508	2555.610422
1011.919036	2553.586398
1012.212528	2553.924156
1012.505986	2553.180586
1012.799408	2555.025648
1013.092795	2551.927859
1013.386147	2554.866852
1013.679464	2553.021789
1013.972745	2553.243600
1014.265992	2554.206460
1014.559204	2554.211502
1014.852380	2554.755946
1015.145521	2554.541697
1015.438628	2555.602860
1015.731699	2554.508930
1016.024736	2552.744526
1016.317737	2553.755277
1016.610703	2551.811912
1016.903635	2554.919784
1017.196531	2553.218394
1017.489393	2552.295863
1017.782219	2552.691594
1018.075011	2552.933569
1018.367768	2553.304094
1018.660490	2555.451625
1018.953177	2555.451625
1019.245829	2555.451625
