Dividing Wavelength (nm)	Counts (n)	Blue Motor Position (mm): 9.500000	Red Motor Position (mm): 0.000000	
326.493990	2161.087201
326.888308	2161.087201
327.282561	2161.087201
327.676750	2121.128495
328.070874	2114.358226
328.464933	2114.822012
328.858929	2121.312497
329.252859	2124.173352
329.646726	2134.341359
330.040528	2144.915180
330.434265	2155.645276
330.827938	2176.684531
331.221547	2193.920236
331.615091	2210.309027
332.008571	2227.733776
332.401986	2247.928638
332.795338	2267.047214
333.188625	2283.355347
333.581847	2304.261012
333.975006	2319.129895
334.368100	2338.684531
334.761129	2357.183045
335.154095	2374.900180
335.546996	2396.088149
335.939833	2414.115316
336.332606	2430.327666
336.725315	2445.085644
337.117960	2455.760288
337.510540	2468.106073
337.903056	2475.992958
338.295508	2485.782879
338.687896	2498.284941
339.080220	2502.443893
339.472480	2509.836745
339.864676	2516.004597
340.256807	2520.256810
340.648875	2523.190761
341.040879	2529.829961
341.432818	2530.628984
341.824694	2534.987061
342.216506	2535.702905
342.608253	2535.143337
342.999937	2536.776671
343.391557	2532.952956
343.783113	2533.502442
344.174605	2534.208203
344.566033	2530.318953
344.957397	2530.563449
345.348697	2531.463295
345.739934	2528.920033
346.131106	2525.975999
346.522215	2523.157994
346.913260	2525.912984
347.304241	2520.120699
347.695159	2519.901408
348.086012	2518.628517
348.476802	2516.246572
348.867528	2510.971004
349.258191	2509.980418
349.648789	2510.119049
350.039324	2507.971518
350.429796	2506.733915
350.820203	2507.616117
351.210548	2504.563698
351.600828	2505.685355
351.991045	2501.498676
352.381198	2499.552791
352.771288	2501.609582
353.161314	2499.315857
353.551276	2502.403563
353.941175	2501.145796
354.331010	2498.282420
354.720782	2500.230826
355.110490	2502.668224
355.500135	2498.060609
355.889717	2499.784684
356.279235	2498.153871
356.668689	2501.208810
357.058080	2498.927688
357.447408	2500.777791
357.836672	2499.406597
358.225873	2502.784171
358.615010	2498.592451
359.004084	2501.637308
359.393095	2501.937257
359.782043	2502.474140
360.170927	2503.426918
360.559748	2503.908348
360.948505	2504.233502
361.337199	2508.324399
361.725830	2506.018071
362.114398	2505.944974
362.502903	2506.567557
362.891344	2506.819614
363.279722	2505.140910
363.668037	2508.135355
364.056289	2507.616117
364.444478	2510.834893
364.832603	2507.240551
365.220665	2509.468741
365.608665	2510.842455
365.996601	2508.894049
366.384474	2510.729029
366.772284	2511.906138
367.160031	2512.548886
367.547715	2511.394461
367.935336	2510.640809
368.322893	2509.083092
368.710388	2510.963443
369.097820	2511.316323
369.485189	2507.389265
369.872495	2515.941582
370.259738	2511.495284
370.646918	2514.514936
371.034035	2514.348578
371.421090	2516.685152
371.808081	2513.965450
372.195010	2516.478465
372.581875	2513.705830
372.968678	2516.420492
373.355418	2513.501664
373.742096	2515.976870
374.128710	2517.443846
374.515262	2518.046264
374.901751	2517.471572
375.288177	2519.019207
375.674540	2517.678260
376.060841	2520.153466
376.447079	2518.933507
376.833254	2518.406706
377.219367	2517.660616
377.605417	2518.938548
377.991404	2517.269926
378.377329	2518.578106
378.763191	2518.452077
379.148991	2519.223373
379.534727	2515.848321
379.920402	2521.537263
380.306013	2517.834535
380.691563	2522.600946
381.077049	2521.317973
381.462474	2519.069618
381.847835	2520.161028
382.233134	2519.818229
382.618371	2517.007786
383.003545	2520.443333
383.388657	2522.661440
383.773706	2524.304856
384.158693	2520.697911
384.543618	2519.750174
384.928480	2524.166225
385.313280	2521.975843
385.698017	2521.703621
386.082692	2522.845442
386.467305	2519.561131
386.851856	2523.173117
387.236344	2522.358971
387.620770	2522.540453
388.005133	2520.256810
388.389435	2522.300998
388.773674	2519.389731
389.157851	2524.042716
389.541965	2525.751667
389.926018	2527.095135
390.310008	2525.547501
390.693936	2525.318128
391.077802	2525.587830
391.461606	2527.695032
391.845348	2527.301822
392.229027	2526.260824
392.612645	2523.604136
392.996200	2525.645803
393.379694	2525.247552
393.763125	2527.984899
394.146494	2527.425331
394.529801	2527.997502
394.913047	2526.530526
395.296230	2528.428520
395.679351	2525.071112
396.062410	2526.268386
396.445408	2525.358458
396.828343	2527.818541
397.211217	2527.417769
397.594028	2528.017666
397.976778	2527.818541
398.359466	2529.512368
398.742092	2526.134795
399.124656	2529.262831
399.507158	2529.156967
399.889598	2533.759540
400.271977	2529.905578
400.654294	2531.720394
401.036549	2529.789632
401.418742	2531.876669
401.800874	2529.766947
402.182944	2534.349355
402.564952	2530.971782
402.946898	2531.352389
403.328783	2531.009591
403.710606	2532.363141
404.092367	2531.841381
404.474067	2530.276103
404.855705	2530.165198
405.237282	2530.094622
405.618797	2531.238963
406.000250	2533.399098
406.381642	2531.894313
406.762972	2529.668644
407.144240	2525.892820
407.525447	2531.846423
407.906593	2527.868952
408.287677	2533.308357
408.668700	2532.189221
409.049661	2531.569159
409.430560	2530.651669
409.811399	2534.792977
410.192176	2532.355579
410.572891	2533.837678
410.953545	2534.855991
411.334138	2535.914634
411.714669	2535.410518
412.095139	2536.910262
412.475547	2534.636701
412.855894	2534.528316
413.236180	2534.974458
413.616405	2538.001671
413.996568	2535.448327
414.376670	2536.554860
414.756711	2535.866743
415.136691	2535.844058
415.516609	2537.857998
415.896466	2536.388502
416.276262	2535.221475
416.655997	2536.184335
417.035670	2535.574356
417.415283	2537.278266
417.794834	2535.690302
418.174324	2534.281300
418.553753	2538.457896
418.933121	2539.304810
419.312428	2534.573687
419.691674	2533.724252
420.070859	2537.842875
420.449983	2536.181815
420.829045	2539.045190
421.208047	2540.096271
421.586988	2537.288348
421.965867	2540.103833
422.344686	2540.371014
422.723444	2540.587783
423.102141	2538.500746
423.480777	2535.471012
423.859352	2541.757331
424.237866	2539.120808
424.616319	2540.295396
424.994712	2539.617361
425.373044	2540.239944
425.751314	2535.902031
426.129524	2536.653163
426.507673	2536.287679
426.885762	2535.171063
427.263789	2536.144006
427.641756	2539.153575
428.019662	2539.461085
428.397508	2540.358411
428.775292	2539.798843
429.153016	2538.435211
429.530679	2541.931251
429.908282	2543.173895
430.285824	2540.877650
430.663305	2540.446631
431.040726	2540.194573
431.418086	2540.514687
431.795385	2542.541230
432.172624	2538.306661
432.549802	2540.912938
432.926920	2539.209028
433.303977	2540.718853
433.680974	2539.456044
434.057910	2540.754141
434.434786	2539.380427
434.811601	2541.422094
435.188355	2542.485778
435.565050	2540.585263
435.941683	2542.483257
436.318257	2539.884542
436.694770	2544.164482
437.071222	2542.561395
437.447614	2539.952598
437.823946	2543.846889
438.200218	2544.751776
438.576429	2544.504760
438.952580	2543.516694
439.328670	2541.608617
439.704700	2542.510983
440.080670	2544.257743
440.456580	2544.232538
440.832429	2544.280428
441.208218	2539.410674
441.583947	2546.007024
441.959616	2545.520552
442.335224	2544.464431
442.710773	2543.531817
443.086261	2544.174564
443.461689	2545.160110
443.837057	2543.675490
444.212365	2546.122970
444.587612	2542.168185
444.962800	2538.160468
445.337927	2543.264636
445.712995	2541.354039
446.088002	2545.379400
446.462949	2546.606921
446.837837	2545.812939
447.212664	2543.970398
447.587431	2544.076262
447.962139	2545.144986
448.336786	2547.975594
448.711374	2543.304965
449.085901	2546.896787
449.460369	2545.538196
449.834776	2545.434853
450.209124	2545.696993
450.583412	2544.605583
450.957640	2545.485264
451.331808	2546.236396
451.705917	2545.903680
452.079965	2544.650953
452.453954	2548.719164
452.827883	2545.704554
453.201752	2546.806047
453.575562	2547.209339
453.949311	2547.559699
454.323001	2544.356046
454.696632	2545.112219
455.070202	2545.205480
455.443713	2546.001983
455.817164	2548.993907
456.190556	2547.710934
456.563888	2546.395193
456.937160	2547.390820
457.310373	2549.354350
457.683526	2547.060625
458.056619	2547.993238
458.429653	2546.155738
458.802628	2548.091541
459.175542	2547.577343
459.548398	2548.318393
459.921194	2548.406613
460.293930	2548.482230
460.666607	2546.289328
461.039224	2547.216901
461.411782	2546.077600
461.784280	2550.856614
462.156719	2546.584236
462.529099	2549.941644
462.901419	2546.846376
463.273680	2546.367466
463.645882	2544.091385
464.018024	2547.133722
464.390106	2542.778165
464.762130	2549.881150
465.134094	2545.263453
465.505999	2548.429298
465.877845	2549.750080
466.249631	2548.930893
466.621358	2547.468958
466.993026	2549.233362
467.364634	2553.719989
467.736184	2547.905018
468.107674	2549.339226
468.479105	2549.591284
468.850477	2549.182951
469.221790	2549.064483
469.593043	2548.762014
469.964238	2553.677139
470.335373	2548.134391
470.706449	2550.105482
471.077467	2546.622044
471.448425	2554.030020
471.819324	2551.900132
472.190164	2550.481048
472.560945	2548.560368
472.931667	2549.092210
473.302330	2548.126829
473.672934	2549.860986
474.043479	2550.022303
474.413965	2551.753939
474.784393	2548.693959
475.154761	2550.760832
475.525070	2549.800492
475.895321	2548.013403
476.265513	2551.302756
476.635645	2550.970040
477.005719	2550.478527
477.375734	2549.324103
477.745691	2549.929041
478.115588	2552.454659
478.485427	2550.579350
478.855207	2555.302911
479.224928	2556.099414
479.594591	2557.541184
479.964194	2555.048333
480.333739	2551.128836
480.703226	2552.184958
481.072653	2549.795451
481.442022	2554.584547
481.811333	2549.487940
482.180584	2551.779145
482.549777	2554.093034
482.918912	2547.378217
483.287988	2555.766697
483.657005	2552.878116
484.025964	2552.563044
484.394864	2553.104968
484.763706	2555.965823
485.132489	2554.398024
485.501213	2552.994063
485.869879	2552.116902
486.238487	2553.243600
486.607036	2553.969526
486.975527	2554.277037
487.343959	2553.450287
487.712333	2553.551110
488.080648	2555.660833
488.448905	2553.001625
488.817104	2555.383570
489.185244	2556.903478
489.553326	2555.796944
489.921350	2555.275185
490.289315	2555.348282
490.657222	2557.430278
491.025070	2556.996739
491.392861	2557.785680
491.760593	2558.496482
492.128267	2557.082439
492.495883	2555.985988
492.863440	2555.519681
493.230939	2557.029507
493.598380	2559.061092
493.965763	2554.985319
494.333088	2554.186296
494.700354	2555.373487
495.067563	2554.808878
495.434713	2557.311811
495.801805	2555.582695
496.168839	2555.862479
496.535815	2555.265103
496.902733	2553.961964
497.269593	2557.510937
497.636395	2558.226781
498.003139	2556.457336
498.369825	2556.618652
498.736453	2557.463046
499.103023	2554.279557
499.469535	2559.194682
499.835989	2558.151163
500.202385	2556.041440
500.568723	2553.349464
500.935003	2553.442726
501.301226	2552.394166
501.667390	2556.359033
502.033497	2560.608726
502.399546	2556.011193
502.765537	2555.827191
503.131470	2558.244425
503.497345	2557.846173
503.863163	2559.209806
504.228923	2555.794424
504.594625	2558.809034
504.960269	2556.175031
505.325856	2559.242573
505.691385	2556.734599
506.056856	2557.881462
506.422270	2558.017573
506.787625	2559.124106
507.152924	2557.644527
507.518164	2558.199054
507.883347	2559.209806
508.248472	2558.746019
508.613540	2555.953220
508.978550	2554.791234
509.343503	2558.367933
509.708398	2556.812737
510.073236	2557.359702
510.438016	2559.340876
510.802738	2558.297357
511.167403	2559.484548
511.532010	2557.226112
511.896561	2561.526216
512.261053	2556.414486
512.625488	2558.279713
512.989866	2560.457491
513.354186	2556.984136
513.718449	2558.564538
514.082655	2557.596636
514.446803	2559.161915
514.810894	2561.122923
515.174927	2558.819116
515.538904	2561.753068
515.902822	2562.685681
516.266684	2559.053530
516.630488	2557.702501
516.994235	2559.159394
517.357925	2559.731565
517.721558	2560.596123
518.085133	2559.013201
518.448651	2560.684343
518.812112	2555.660833
519.175516	2556.275854
519.538863	2554.178734
519.902152	2561.211144
520.265385	2562.620146
520.628560	2561.737944
520.991678	2561.173335
521.354739	2563.502348
521.717743	2560.414641
522.080690	2562.834395
522.443580	2560.971689
522.806413	2562.597461
523.169189	2561.120403
523.531908	2559.887841
523.894569	2562.484035
524.257174	2563.348593
524.619722	2563.570404
524.982213	2565.112997
525.344647	2565.486042
525.707025	2565.765826
526.069345	2564.984447
526.431608	2568.785477
526.793815	2566.738769
527.155964	2566.940415
527.518057	2568.440158
527.880093	2566.345559
528.242072	2566.428738
528.603995	2567.593244
528.965860	2570.764130
529.327669	2568.326732
529.689421	2569.377813
530.051117	2569.821434
530.412755	2568.724983
530.774337	2571.633729
531.135862	2571.976528
531.497331	2569.531568
531.858743	2574.454255
532.220098	2575.112125
532.581396	2572.820921
532.942638	2574.378638
533.303824	2573.831672
533.664953	2579.324009
534.026025	2575.089440
534.387040	2577.292424
534.747999	2576.024574
535.108902	2578.126735
535.469748	2578.421643
535.830537	2578.232600
536.191270	2579.268557
536.551947	2574.567681
536.912567	2577.554564
537.273131	2578.013309
537.633638	2577.345357
537.994089	2581.862230
538.354483	2584.019844
538.714821	2586.230390
539.075103	2584.773497
539.435328	2584.529001
539.795497	2586.931111
540.155609	2588.677870
540.515665	2585.247365
540.875665	2586.626121
541.235609	2588.365319
541.595496	2587.876327
541.955328	2588.178796
542.315102	2590.873293
542.674821	2590.434712
543.034483	2593.560228
543.394090	2593.366143
543.753640	2592.070567
544.113134	2593.630804
544.472571	2594.397059
544.831953	2594.986874
545.191278	2596.027873
545.550548	2596.642893
545.909761	2595.848912
546.268918	2597.174735
546.628019	2597.920826
546.987064	2598.500559
547.346053	2597.454519
547.704986	2597.550301
548.063863	2599.004674
548.422684	2597.885538
548.781449	2598.193048
549.140158	2600.832092
549.498811	2600.028028
549.857408	2600.786722
550.215949	2601.847885
550.574434	2601.626074
550.932864	2602.669593
551.291237	2600.189345
551.649555	2604.323091
552.007817	2600.590117
552.366022	2602.024325
552.724173	2602.563729
553.082267	2601.318564
553.440305	2602.609099
553.798288	2602.399891
554.156215	2606.878956
554.514086	2604.691096
554.871902	2598.765219
555.229661	2599.705394
555.587365	2598.929057
555.945014	2606.992382
556.302606	2603.476177
556.660143	2602.195724
557.017625	2605.467433
557.375050	2606.195880
557.732421	2605.341404
558.089735	2604.670931
558.446994	2605.590942
558.804197	2607.060438
559.161345	2609.190325
559.518437	2604.189501
559.875474	2608.633278
560.232455	2606.699995
560.589381	2608.076230
560.946251	2606.495829
561.303065	2604.244953
561.659825	2610.720316
562.016528	2606.452979
562.373177	2606.715119
562.729770	2603.050200
563.086307	2609.533124
563.442789	2607.960284
563.799216	2608.731580
564.155587	2602.389809
564.511904	2608.827362
564.868164	2604.726384
565.224370	2605.235540
565.580520	2604.572628
565.936615	2609.870881
566.292654	2605.782505
566.648638	2606.291662
567.004567	2606.994903
567.360441	2605.898452
567.716260	2604.567587
568.072023	2606.407608
568.427732	2605.601024
568.783385	2604.698657
569.138982	2602.783019
569.494525	2605.684203
569.850013	2606.994903
570.205445	2606.009357
570.560823	2605.462392
570.916145	2603.881990
571.271412	2603.534151
571.626625	2604.476847
571.981782	2603.942484
572.336884	2601.290837
572.691931	2600.214551
573.046923	2599.816300
573.401860	2598.084663
573.756743	2604.343256
574.111570	2601.878132
574.466342	2603.715632
574.821059	2600.476691
575.175722	2601.008533
575.530330	2604.471805
575.884882	2601.938626
576.239380	2602.334356
576.593823	2603.176229
576.948211	2603.766044
577.302544	2602.352000
577.656823	2599.332349
578.011047	2600.847216
578.365216	2599.743203
578.719330	2600.890066
579.073389	2601.507607
579.427394	2600.764037
579.781344	2598.366968
580.135239	2600.312853
580.489080	2598.329159
580.842866	2598.898810
581.196597	2602.909048
581.550273	2599.355034
581.903895	2599.874273
582.257463	2600.948039
582.610975	2600.277565
582.964434	2598.606423
583.317837	2597.525095
583.671186	2600.217072
584.024481	2599.919643
584.377721	2596.587441
584.730906	2600.532144
585.084037	2600.552308
585.437113	2598.465271
585.790135	2597.197420
586.143103	2598.349324
586.496016	2598.886207
586.848874	2601.462237
587.201679	2602.185642
587.554428	2599.972576
587.907124	2599.838985
588.259765	2601.200097
588.612352	2599.670106
588.964884	2601.794953
589.317362	2598.964345
589.669786	2601.358893
590.022155	2598.508120
590.374470	2600.872422
590.726731	2600.587596
591.078937	2596.955445
591.431090	2600.282607
591.783188	2602.352000
592.135232	2601.336208
592.487222	2602.185642
592.839157	2602.961980
593.191038	2602.704881
593.542866	2600.955601
593.894639	2600.141454
594.246358	2605.785026
594.598022	2602.329315
594.949633	2603.166147
595.301190	2601.701691
595.652692	2603.171188
596.004141	2602.901486
596.355535	2603.826538
596.706876	2602.999788
597.058162	2604.469285
597.409395	2603.781167
597.760573	2603.897114
598.111698	2602.427617
598.462768	2603.105653
598.813785	2604.870057
599.164748	2606.488267
599.515657	2608.398864
599.866511	2607.007506
600.217312	2608.164451
600.568060	2603.796291
600.918753	2608.759307
601.269392	2608.666045
601.619978	2606.999944
601.970510	2606.624378
602.320988	2609.691920
602.671412	2611.080758
603.021783	2608.595469
603.372100	2608.434152
603.722363	2610.851386
604.072572	2612.731736
604.422728	2614.150821
604.772830	2616.348764
605.122878	2612.472117
605.472872	2613.631582
605.822813	2615.733743
606.172701	2616.868003
606.522534	2617.432612
606.872314	2619.829681
607.222041	2618.037550
607.571714	2617.785493
607.921333	2617.178034
608.270899	2619.680967
608.620411	2619.723816
608.969870	2624.719600
609.319276	2628.949128
609.668627	2632.977010
610.017926	2639.338946
610.367171	2640.190901
610.716362	2642.789616
611.065500	2640.140489
611.414585	2639.288534
611.763616	2639.303658
612.112594	2639.598565
612.461518	2639.918679
612.810389	2640.906745
613.159207	2641.972949
613.507971	2640.531179
613.856682	2646.328506
614.205340	2646.071407
614.553945	2650.757159
614.902496	2645.063176
615.250994	2651.455359
615.599439	2649.791778
615.947830	2651.848569
616.296169	2650.192550
616.644454	2656.355361
616.992686	2657.587923
617.340864	2658.901143
617.688990	2661.023469
618.037063	2668.373472
618.385082	2666.157884
618.733048	2667.985303
619.080961	2672.456806
619.428821	2674.596776
619.776628	2677.823114
620.124382	2678.783454
620.472083	2683.748991
620.819731	2689.838705
621.167326	2682.702951
621.514868	2685.485668
621.862357	2681.767817
622.209793	2688.162521
622.557176	2687.776873
622.904506	2683.033147
623.251783	2688.006245
623.599007	2689.390042
623.946179	2689.508509
624.293297	2690.262162
624.640363	2691.691329
624.987376	2692.129909
625.334336	2686.304856
625.681243	2690.693180
626.028097	2690.607481
626.374899	2704.473174
626.721647	2700.788091
627.068343	2700.974613
627.414987	2702.635674
627.761577	2710.038608
628.108115	2712.662529
628.454600	2710.983824
628.801032	2714.467262
629.147412	2717.708724
629.493739	2721.492110
629.840014	2724.889847
630.186236	2728.511916
630.532405	2732.633060
630.878521	2739.589852
631.224585	2741.162692
631.570597	2746.352560
631.916556	2748.661408
632.262462	2752.704414
632.608316	2761.009715
632.954117	2761.438213
633.299866	2770.890376
633.645562	2774.066303
633.991206	2771.429780
634.336797	2772.107815
634.682336	2777.627878
635.027823	2775.621499
635.373257	2778.184926
635.718639	2777.335491
636.063968	2780.967643
636.409245	2781.438991
636.754470	2784.214146
637.099642	2786.787655
637.444762	2787.468211
637.789829	2793.273099
638.134845	2794.044396
638.479808	2797.129582
638.824719	2802.032104
639.169577	2802.929429
639.514383	2810.687765
639.859137	2811.373362
640.203839	2818.778817
640.548489	2819.287974
640.893086	2826.496824
641.237632	2822.501709
641.582125	2840.478464
641.926566	2840.415449
642.270955	2840.874194
642.615292	2847.160513
642.959576	2855.367512
643.303809	2863.566948
643.647990	2867.748586
643.992118	2881.223590
644.336195	2874.362579
644.680219	2886.698283
645.024192	2900.503483
645.368112	2908.816345
645.711981	2925.978954
646.055797	2934.276693
646.399562	2948.966615
646.743274	2966.524954
647.086935	2994.059736
647.430544	3006.619771
647.774101	3017.402799
648.117606	3036.750748
648.461059	3038.701674
648.804460	3057.069118
649.147810	3054.130126
649.491108	3043.485729
649.834354	3057.744633
650.177548	3053.076524
650.520690	3051.213818
650.863781	3056.887637
651.206820	3061.432237
651.549807	3065.238308
651.892742	3070.786098
652.235626	3067.607650
652.578458	3080.646595
652.921238	3077.112746
653.263967	3092.909202
653.606644	3095.583534
653.949269	3098.890531
654.291843	3106.001078
654.634365	3120.494395
654.976836	3124.313069
655.319255	3134.470994
655.661622	3145.274187
656.003938	3151.648726
656.346203	3156.289108
656.688416	3172.415759
657.030577	3176.950277
657.372687	3185.999148
657.714746	3192.356043
658.056753	3204.933722
658.398708	3215.711709
658.740612	3223.210426
659.082465	3239.692478
659.424266	3239.148033
659.766016	3259.574789
660.107715	3267.980913
660.449362	3279.351235
660.790958	3298.694143
661.132503	3302.016263
661.473996	3322.100220
661.815438	3337.868949
662.156829	3347.459744
662.498168	3357.398379
662.839456	3372.589896
663.180693	3381.043911
663.521879	3403.804721
663.863013	3418.476999
664.204097	3432.496448
664.545129	3452.882874
664.886110	3457.185499
665.227040	3487.659274
665.567918	3502.891120
665.908746	3525.641848
666.249522	3527.832229
666.590248	3551.230745
666.930922	3580.882812
667.271545	3590.181220
667.612118	3617.307669
667.952639	3619.119963
668.293109	3633.013383
668.633528	3643.425887
668.973896	3645.026453
669.314213	3691.652085
669.654480	3654.082886
669.994695	3673.357738
670.334859	3695.521171
670.674973	3704.819579
671.015035	3727.209864
671.355047	3733.370154
671.695008	3737.922316
672.034918	3757.532404
672.374777	3778.503604
672.714585	3787.421405
673.054342	3809.468892
673.394049	3818.898370
673.733705	3839.090712
674.073310	3851.013040
674.412864	3880.740725
674.752368	3866.761605
675.091820	3868.820916
675.431223	3909.137544
675.770574	3881.605282
676.109875	3891.306983
676.449125	3894.523239
676.788324	3894.871079
677.127473	3887.460583
677.466571	3899.468611
677.805619	3902.132861
678.144616	3909.795415
678.483562	3930.963220
678.822458	3907.292482
679.161303	3917.256322
679.500098	3943.261115
679.838842	3944.677679
680.177535	3950.414512
680.516179	3975.269921
680.854771	3987.794668
681.193314	4044.011095
681.531805	4064.405083
681.870247	4179.532434
682.208638	4246.118514
682.546978	4339.694933
682.885268	4377.022156
683.223508	4318.204494
683.561697	4314.645439
683.899836	4318.711130
684.237925	4290.584012
684.575963	4297.346720
684.913951	4332.055064
685.251889	4301.493069
685.589776	4367.280126
685.927614	4376.792784
686.265401	4362.496071
686.603137	4415.158485
686.940824	4463.540959
687.278460	4500.903471
687.616046	4547.788722
687.953582	4607.753247
688.291068	4585.488991
688.628504	4653.521883
688.965889	4679.705636
689.303224	4710.648238
689.640510	4703.550294
689.977745	4633.790807
690.314930	4614.548722
690.652065	4612.481849
690.989150	4547.725708
691.326185	4513.203886
691.663170	4482.825893
692.000105	4430.218932
692.336990	4445.909523
692.673825	4378.584914
693.010610	4368.656361
693.347345	4328.921987
693.684030	4291.917397
694.020665	4293.517963
694.357251	4262.386318
694.693786	4288.577633
695.030272	4222.488106
695.366707	4224.648240
695.703093	4221.452148
696.039429	4233.787852
696.375716	4249.848968
696.711952	4203.543449
697.048139	4239.368409
697.384276	4247.797218
697.720363	4250.978187
698.056400	4245.432917
698.392388	4261.693159
698.728326	4256.026902
699.064214	4240.459819
699.400053	4292.807161
699.735842	4239.171804
700.071581	4242.630036
700.407270	4230.677460
700.742910	4224.801995
701.078501	4224.653281
701.414042	4189.163558
701.749533	4182.481509
702.084974	4151.458248
702.420366	4186.133825
702.755709	4178.919933
703.091002	4150.838186
703.426246	4166.697656
703.761440	4166.468283
704.096584	4163.027696
704.431679	4152.161489
704.766725	4166.327131
705.101721	4160.764218
705.436668	4179.807177
705.771565	4162.589116
706.106413	4191.449721
706.441212	4233.835743
706.775961	4213.340932
707.110661	4235.524529
707.445311	4304.028769
707.779913	4273.257566
708.114465	4329.632789
708.448967	4363.511864
708.783421	4395.800454
709.117825	4476.100994
709.452180	4501.929346
709.786485	4522.892984
710.120742	4637.843894
710.454949	4647.495183
710.789107	4674.341848
711.123216	4745.283486
711.457275	4830.075693
711.791286	4901.430706
712.125247	4882.402870
712.459159	4929.346095
712.793023	5013.583776
713.126837	4870.004152
713.460602	4936.338175
713.794318	4861.277915
714.127985	4925.386269
714.461602	4841.438454
714.795171	4816.157068
715.128691	4767.023462
715.462162	4680.671017
715.795584	4692.127039
716.128957	4647.981655
716.462281	4566.335127
716.795556	4643.595851
717.128782	4562.687852
717.461960	4450.912869
717.795088	4500.321217
718.128167	4481.215244
718.461198	4428.837656
718.794180	4412.305192
719.127113	4438.892237
719.459997	4386.746542
719.792833	4290.591573
720.125619	4335.863656
720.458357	4276.529275
720.791046	4281.552785
721.123686	4322.832273
721.456278	4254.189402
721.788821	4256.609155
722.121315	4223.551789
722.453761	4265.602574
722.786158	4269.277575
723.118506	4267.354375
723.450805	4269.348151
723.783056	4304.482473
724.115259	4254.179319
724.447412	4264.783386
724.779518	4284.320378
725.111574	4294.105258
725.443582	4345.925799
725.775542	4328.218746
726.107453	4418.261315
726.439315	4394.865320
726.771129	4403.767998
727.102895	4477.961180
727.434612	4539.117938
727.766281	4543.115572
728.097901	4594.003500
728.429473	4581.370368
728.760996	4589.141307
729.092471	4591.387141
729.423897	4601.726548
729.755276	4631.615549
730.086606	4605.416672
730.417887	4637.574193
730.749120	4716.009505
731.080305	4843.487683
731.411442	4891.398809
731.742530	4878.317015
732.073570	4977.501717
732.404562	5026.549623
732.735506	4918.225310
733.066401	5016.547974
733.397249	4999.642465
733.728048	4907.361623
734.058798	4770.103607
734.389501	4701.720355
734.720156	4632.588492
735.050762	4514.963249
735.381320	4474.462619
735.711831	4470.704439
736.042293	4428.265485
736.372707	4461.612718
736.703073	4388.016913
737.033391	4404.569541
737.363661	4413.746962
737.693883	4430.685239
738.024056	4480.476715
738.354182	4512.369575
738.684260	4516.296634
739.014290	4571.189758
739.344272	4630.440960
739.674207	4629.752843
740.004093	4668.852032
740.333931	4683.814176
740.663722	4690.246689
740.993464	4754.922172
741.323159	4785.867295
741.652806	4622.067603
741.982405	4625.278818
742.311956	4725.398654
742.641460	4648.495853
742.970915	4531.314231
743.300323	4565.440322
743.629683	4540.103483
743.958996	4479.244153
744.288260	4442.862146
744.617477	4433.558697
744.946647	4456.006955
745.275768	4362.193602
745.604842	4354.586501
745.933869	4349.152137
746.262847	4321.577026
746.591778	4331.251000
746.920662	4317.138290
747.249498	4309.505983
747.578286	4340.587217
747.907027	4395.165269
748.235720	4427.970578
748.564365	4394.414137
748.892963	4402.870673
749.221514	4528.382800
749.550017	4443.646045
749.878473	4351.818908
750.206881	4409.262856
750.535242	4382.005337
750.863555	4343.430428
751.191821	4375.721538
751.520039	4385.100605
751.848210	4330.804858
752.176334	4341.620653
752.504411	4395.503026
752.832440	4351.082899
753.160421	4280.683186
753.488356	4332.281916
753.816243	4388.158065
754.144082	4276.171353
754.471875	4249.942229
754.799620	4297.321514
755.127318	4311.189728
755.454969	4278.490284
755.782572	4254.443980
756.110129	4297.863438
756.437638	4315.250377
756.765100	4263.717182
757.092515	4256.009258
757.419882	4290.992345
757.747203	4285.391623
758.074477	4337.449098
758.401703	4337.582689
758.728882	4285.121922
759.056014	4314.196776
759.383099	4426.044857
759.710138	4423.453704
760.037129	4399.276330
760.364073	4406.855705
760.690970	4479.619719
761.017820	4485.359073
761.344623	4429.016617
761.671379	4500.719469
761.998088	4582.308023
762.324751	4710.950707
762.651366	5056.539448
762.977935	5758.053814
763.304456	6649.728065
763.630931	7166.342991
763.957359	7011.294742
764.283740	6577.432878
764.610074	6183.469225
764.936362	5595.627837
765.262602	5228.281477
765.588796	4893.634561
765.914943	4676.393598
766.241044	4612.940594
766.567097	4505.576620
766.893104	4335.122606
767.219064	4215.669945
767.544978	4200.019683
767.870845	4163.526770
768.196665	4083.193463
768.522438	4035.388201
768.848165	4030.752860
769.173846	3999.225484
769.499479	3975.174139
769.825066	3937.814148
770.150607	3902.863828
770.476101	3891.559041
770.801548	3897.961306
771.126949	3866.408724
771.452303	3829.361285
771.777611	3801.161070
772.102872	3813.511897
772.428087	3791.212353
772.753256	3782.407978
773.078378	3757.852517
773.403453	3710.266546
773.728482	3708.751679
774.053465	3676.800846
774.378401	3671.933612
774.703291	3689.859955
775.028135	3639.531595
775.352932	3599.172118
775.677683	3592.253134
776.002388	3622.618524
776.327046	3632.471459
776.651658	3569.199938
776.976224	3521.296373
777.300743	3534.801624
777.625216	3560.377918
777.949643	3563.780697
778.274024	3524.338709
778.598359	3489.874861
778.922647	3502.003877
779.246889	3506.041842
779.571086	3511.519055
779.895236	3502.039165
780.219339	3482.872698
780.543397	3474.766523
780.867409	3510.725073
781.191374	3531.303063
781.515294	3491.951817
781.839167	3484.715240
782.162995	3504.025380
782.486776	3493.794358
782.810511	3506.717356
783.134201	3517.777648
783.457844	3485.133656
783.781441	3444.640588
784.104993	3449.500260
784.428498	3465.826037
784.751958	3474.186790
785.075372	3459.075932
785.398739	3423.112340
785.722061	3432.156170
786.045337	3475.741986
786.368568	3508.610309
786.691752	3441.542799
787.014891	3466.741006
787.337983	3547.611196
787.661030	3646.390085
787.984031	3751.420005
788.306987	3872.266545
788.629897	3929.155966
788.952760	3905.228129
789.275579	3871.893500
789.598351	3856.520501
789.921078	3769.197634
790.243759	3619.881178
790.566395	3606.209568
790.888984	3616.266670
791.211529	3531.408928
791.534027	3493.801920
791.856480	3499.175790
792.178888	3449.119653
792.501249	3402.063002
792.823566	3415.989190
793.145836	3446.097481
793.468062	3409.226482
793.790241	3368.478835
794.112375	3393.752660
794.434464	3439.712860
794.756507	3464.704380
795.078505	3450.468162
795.400457	3453.623924
795.722364	3550.114129
796.044226	3620.493678
796.366042	3670.181811
796.687812	3672.583921
797.009538	3680.596835
797.331218	3646.090137
797.652852	3631.942138
797.974442	3627.631952
798.295986	3640.716267
798.617484	3583.408430
798.938938	3510.291534
799.260346	3548.526166
799.581709	3554.815005
799.903026	3496.965244
800.224299	3471.991368
800.545526	3472.795432
800.866708	3440.171605
801.187845	3390.738050
801.508936	3418.928183
801.829983	3430.842950
802.150984	3363.561190
802.471940	3346.930423
802.792851	3366.575800
803.113717	3362.583206
803.434538	3371.735421
803.755314	3327.479131
804.076045	3295.147691
804.396731	3313.973880
804.717372	3338.302488
805.037967	3327.209429
805.358518	3317.880774
805.679024	3337.417766
805.999485	3341.969928
806.319901	3344.525793
806.640272	3357.937783
806.960598	3371.359855
807.280879	3348.006710
807.601115	3352.357225
807.921306	3369.749206
808.241453	3407.124321
808.561554	3392.996487
808.881611	3340.719722
809.201623	3364.208978
809.521590	3385.780075
809.841513	3358.136908
810.161390	3386.526166
810.481223	3380.630537
810.801011	3328.933504
811.120755	3318.158038
811.440453	3353.783872
811.760107	3367.828527
812.079716	3336.104545
812.399281	3306.109680
812.718801	3322.203564
813.038276	3308.902479
813.357707	3305.930719
813.677093	3326.559121
813.996434	3286.227369
814.315731	3287.661577
814.634983	3288.561423
814.954191	3300.551808
815.273354	3332.459791
815.592473	3335.129082
815.911547	3331.761591
816.230577	3357.267309
816.549562	3402.010070
816.868502	3444.131431
817.187399	3467.986171
817.506250	3462.438381
817.825058	3436.907458
818.143821	3515.236906
818.462539	3610.371041
818.781213	3645.487719
819.099843	3686.711754
819.418429	3864.296481
819.736970	4051.547620
820.055466	4237.286413
820.373919	4547.294689
820.692327	4901.206374
821.010691	5220.104725
821.329011	6214.820161
821.647286	8106.868543
821.965517	10995.646302
822.283704	13528.821069
822.601847	15186.372618
822.919945	14423.119240
823.237999	13046.496072
823.556010	11390.749255
823.873976	9969.514396
824.191897	8353.539763
824.509775	7255.339521
824.827609	6362.919179
825.145398	5912.184572
825.463144	5827.231048
825.780845	5911.798924
826.098502	6002.980794
826.416116	6582.665596
826.733685	7556.230870
827.051210	8476.246488
827.368692	8671.170264
827.686129	7772.745908
828.003522	6577.511016
828.320872	5766.971615
828.638177	5211.814548
828.955439	4759.723871
829.272656	4340.985468
829.589830	4089.308383
829.906960	3944.841516
830.224046	3792.119761
830.541088	3684.163451
830.858086	3651.521980
831.175041	3596.964092
831.491952	3573.321081
831.808819	3588.179882
832.125642	3640.746513
832.442421	3762.303856
832.759157	3980.477433
833.075849	4405.020725
833.392497	5076.928394
833.709101	5669.021996
834.025662	5990.977807
834.342179	5785.092043
834.658653	5271.128764
834.975083	4746.231223
835.291469	4266.298253
835.607811	3906.697626
835.924110	3793.652271
836.240366	3624.640027
836.556578	3442.288889
836.872746	3349.241792
837.188871	3324.872855
837.504952	3269.215996
837.820990	3197.603885
838.136984	3150.275012
838.452935	3170.621109
838.768842	3170.311078
839.084706	3189.805220
839.400526	3314.382213
839.716303	3564.695667
840.032037	3969.439827
840.347727	4231.017738
840.663373	4052.144997
840.978977	3745.491608
841.294537	3481.887153
841.610054	3278.665638
841.925527	3181.245340
842.240957	3123.287195
842.556344	3075.287848
842.871687	3029.574665
843.186987	2984.620176
843.502244	2951.638427
843.817458	2922.001483
844.132629	2887.935886
844.447756	2899.671692
844.762840	2889.841442
845.077881	2862.107534
845.392879	2845.272601
845.707833	2844.198835
846.022745	2838.151971
846.337613	2841.716067
846.652438	2834.882783
846.967221	2832.931857
847.281960	2816.636327
847.596656	2816.689259
847.911309	2813.276398
848.225919	2803.874646
848.540485	2802.412711
848.855009	2805.059317
849.169490	2798.205868
849.483928	2788.234466
849.798323	2784.045267
850.112675	2780.952519
850.426984	2793.323511
850.741251	2790.692028
851.055474	2786.064249
851.369654	2776.145779
851.683792	2782.916049
851.997887	2786.601132
852.311938	2786.921245
852.625947	2783.745318
852.939914	2784.017541
853.253837	2790.019034
853.567718	2778.063938
853.881555	2773.206786
854.195350	2787.158180
854.509103	2784.410751
854.822812	2777.085954
855.136479	2777.683331
855.450103	2774.862805
855.763685	2769.151178
856.077224	2766.970879
856.390720	2776.942281
856.704173	2789.056174
857.017584	2782.215328
857.330953	2777.320368
857.644278	2786.701955
857.957561	2795.274437
858.270802	2797.237967
858.584000	2798.876342
858.897155	2788.052984
859.210268	2786.696914
859.523339	2783.314300
859.836367	2784.322531
860.149352	2779.145266
860.462295	2774.444390
860.775195	2782.265740
861.088054	2783.047119
861.400869	2767.013729
861.713642	2761.218922
862.026373	2775.268618
862.339062	2780.231634
862.651708	2786.341513
862.964312	2791.019703
863.276873	2780.491254
863.589392	2787.296811
863.901869	2796.832154
864.214303	2815.751604
864.526696	2832.150478
864.839045	2830.297854
865.151353	2828.062102
865.463619	2827.260558
865.775842	2827.484890
866.088023	2842.862930
866.400162	2849.164372
866.712258	2830.471773
867.024313	2815.766728
867.336325	2824.581185
867.648296	2841.658094
867.960224	2835.563339
868.272110	2825.052533
868.583954	2830.996053
868.895755	2844.758403
869.207515	2832.715087
869.519233	2833.100735
869.830909	2841.776561
870.142542	2850.815350
870.454134	2851.939527
870.765684	2857.250383
871.077191	2855.624611
871.388657	2858.729961
871.700081	2872.073896
872.011463	2884.008827
872.322803	2882.662839
872.634101	2883.237531
872.945357	2893.894530
873.256571	2919.806061
873.567744	2911.722571
873.878874	2902.162022
874.189963	2923.886875
874.501010	2929.263265
874.812015	2918.908735
875.122979	2921.094076
875.433900	2917.572830
875.744780	2922.775300
876.055618	2927.579520
876.366415	2926.306629
876.677169	2941.339349
876.987882	2941.147786
877.298554	2928.476845
877.609183	2945.200873
877.919771	2965.211733
878.230317	2991.733244
878.540822	3042.182591
878.851285	3077.581573
879.161707	3107.263887
879.472087	3191.269675
879.782425	3379.851678
880.092722	3755.185747
880.402977	4210.893452
880.713191	4704.863514
881.023363	5580.731227
881.333494	6570.818884
881.643583	7034.557147
881.953631	6869.479523
882.263637	6472.589481
882.573602	6050.312188
882.883526	5569.660854
883.193408	5068.000511
883.503248	4648.405112
883.813048	4393.720978
884.122806	4151.675018
884.432522	3878.063872
884.742197	3665.904392
885.051831	3493.746467
885.361424	3365.933053
885.670975	3301.857467
885.980485	3230.666292
886.289954	3167.886283
886.599382	3127.337762
886.908768	3092.826023
887.218113	3051.677604
887.527417	3003.584997
887.836680	2958.494396
888.145901	2953.264199
888.455082	2949.579115
888.764221	2902.557753
889.073319	2875.078423
889.382376	2873.306458
889.691392	2879.086141
890.000366	2878.728219
890.309300	2863.982844
890.618193	2876.048845
890.927044	2896.389901
891.235855	2898.232443
891.544625	2880.772407
891.853353	2889.601988
892.162041	2906.643608
892.470687	2937.293823
892.779293	2987.355002
893.087858	3027.187679
893.396381	3086.990887
893.704864	3185.016123
894.013306	3386.248903
894.321707	3646.047287
894.630068	3845.830734
894.938387	3853.931868
895.246665	3812.922082
895.554903	3713.989438
895.863100	3536.064433
896.171256	3384.086248
896.479371	3267.207096
896.787446	3158.660971
897.095480	3065.195458
897.403473	3004.505007
897.711425	2966.681230
898.019336	2961.476238
898.327207	2936.951025
898.635038	2910.684093
898.942827	2895.122051
899.250576	2884.134856
899.558284	2853.711493
899.865952	2836.425376
900.173579	2821.992553
900.481165	2817.049701
900.788711	2802.795839
901.096216	2780.546706
901.403681	2765.602206
901.711105	2778.043773
902.018489	2776.029832
902.325832	2775.745007
902.633135	2782.568209
902.940397	2809.238433
903.247619	2875.141438
903.554800	3035.014070
903.861941	3323.675581
904.169041	3697.401521
904.476101	3980.351404
904.783121	3972.784632
905.090100	3763.037344
905.397039	3520.812422
905.703938	3292.314563
906.010796	3125.172586
906.317614	3024.709952
906.624391	2941.919082
906.931129	2877.016747
907.237826	2823.769559
907.544483	2780.826490
907.851099	2753.440422
908.157675	2732.973337
908.464211	2714.661346
908.770707	2703.192721
909.077163	2693.498582
909.383578	2681.467869
909.689954	2668.854902
909.996289	2667.874397
910.302584	2664.184273
910.608839	2672.489574
910.915054	2667.166115
911.221229	2656.909888
911.527363	2660.801658
911.833458	2667.118224
912.139513	2668.547391
912.445527	2671.544357
912.751502	2680.772189
913.057436	2690.173941
913.363331	2702.270190
913.669186	2715.714947
913.975000	2744.943557
914.280775	2793.865435
914.586510	2860.585106
914.892205	2930.211002
915.197859	3036.216385
915.503475	3193.870910
915.809050	3379.702964
916.114585	3509.316071
916.420081	3542.270094
916.725536	3500.930112
917.030952	3401.823548
917.336328	3285.546813
917.641665	3166.079029
917.946961	3077.140472
918.252218	3018.705938
918.557435	2952.203036
918.862612	2896.180693
919.167750	2852.209229
919.472848	2818.662871
919.777906	2795.662606
920.082925	2774.736777
920.387904	2743.373238
920.692843	2728.411093
920.997743	2719.800802
921.302603	2705.957794
921.607423	2697.360106
921.912204	2692.220650
922.216946	2680.300842
922.521647	2670.599141
922.826310	2662.729900
923.130932	2655.004332
923.435516	2646.915800
923.740059	2643.021509
924.044564	2635.991620
924.349028	2630.653038
924.653454	2623.232459
924.957840	2619.038219
925.262186	2615.814402
925.566493	2609.621344
925.870761	2609.666714
926.174989	2606.725201
926.479178	2598.848398
926.783328	2594.570979
927.087438	2594.339086
927.391509	2594.613829
927.695541	2590.898499
927.999533	2587.044537
928.303486	2584.229052
928.607400	2583.152766
928.911275	2582.343661
929.215110	2585.217118
929.518906	2581.146387
929.822663	2584.135791
930.126381	2579.170254
930.430060	2582.439442
930.733699	2580.130594
931.037299	2583.223342
931.340861	2584.314752
931.644383	2583.858527
931.947866	2582.923393
932.251309	2581.161510
932.554714	2579.790316
932.858080	2581.237127
933.161407	2577.945254
933.464694	2578.265367
933.767943	2572.016857
934.071153	2575.691858
934.374323	2575.119687
934.677455	2577.400809
934.980548	2575.888463
935.283602	2577.862075
935.586617	2574.968452
935.889593	2577.148752
936.192530	2573.241857
936.495428	2574.630695
936.798287	2576.465675
937.101108	2580.155800
937.403890	2581.814339
937.706632	2584.997828
938.009336	2593.945876
938.312002	2597.547781
938.614628	2607.695623
938.917216	2616.976387
939.219765	2616.802468
939.522275	2614.349946
939.824747	2614.110492
940.127179	2608.739142
940.429573	2609.013885
940.731929	2606.180757
941.034246	2601.568101
941.336524	2599.385281
941.638763	2596.274889
941.940964	2594.228181
942.243126	2593.091401
942.545250	2594.893613
942.847335	2589.098807
943.149381	2588.733323
943.451389	2583.235945
943.753359	2581.290059
944.055290	2580.309555
944.357182	2578.270408
944.659036	2579.056828
944.960851	2578.414081
945.262628	2576.868967
945.564367	2576.621951
945.866067	2576.052301
946.167729	2579.220666
946.469352	2577.307548
946.770937	2578.895511
947.072484	2575.522979
947.373992	2573.947619
947.675462	2573.410736
947.976893	2569.269428
948.278286	2569.803790
948.579641	2569.365210
948.880958	2566.842113
949.182236	2571.729511
949.483476	2568.596434
949.784678	2567.205076
950.085841	2568.863615
950.386967	2567.000909
950.688054	2570.368400
950.989103	2572.193297
951.290114	2571.966445
951.591087	2574.255129
951.892021	2575.646488
952.192917	2577.047928
952.493776	2579.823084
952.794596	2580.206211
953.095378	2580.249061
953.396122	2581.418609
953.696828	2579.601273
953.997496	2578.789647
954.298126	2575.318813
954.598718	2573.516600
954.899272	2571.890828
955.199788	2569.009809
955.500266	2566.741289
955.800706	2567.378995
956.101108	2561.755588
956.401472	2562.211813
956.701798	2559.683674
957.002087	2558.564538
957.302337	2554.309804
957.602550	2556.079249
957.902724	2553.571275
958.202861	2553.223435
958.502960	2550.506253
958.803022	2552.799978
959.103045	2549.934083
959.403031	2553.291491
959.702979	2547.315203
960.002889	2549.712272
960.302762	2547.395862
960.602596	2551.385935
960.902393	2550.138249
961.202153	2549.820657
961.501875	2548.325954
961.801559	2546.823691
962.101205	2548.227652
962.400814	2548.520039
962.700385	2547.668084
962.999918	2543.884698
963.299414	2544.550130
963.598873	2542.611807
963.898293	2542.226158
964.197677	2547.506767
964.497022	2545.618855
964.796331	2545.921324
965.095601	2545.533155
965.394835	2544.477033
965.694030	2546.047353
965.993189	2546.843855
966.292309	2543.307486
966.591393	2549.150183
966.890439	2544.172044
967.189447	2548.310831
967.488419	2544.882846
967.787353	2544.618186
968.086249	2545.409647
968.385108	2546.596839
968.683930	2545.283618
968.982714	2544.474513
969.281462	2545.402085
969.580172	2544.630789
969.878844	2546.067518
970.177480	2544.456869
970.476078	2544.325799
970.774639	2545.815460
971.073162	2546.198588
971.371649	2547.128680
971.670098	2545.018957
971.968510	2547.131201
972.266885	2549.366953
972.565223	2547.965512
972.863524	2545.031560
973.161788	2547.781510
973.460014	2545.944009
973.758204	2546.732950
974.056356	2545.749925
974.354471	2546.400234
974.652550	2547.806716
974.950591	2548.242775
975.248595	2546.674977
975.546563	2546.798485
975.844493	2546.165820
976.142386	2547.529452
976.440243	2542.652136
976.738062	2545.820501
977.035845	2546.727909
977.333590	2545.949050
977.631299	2544.968546
977.928971	2541.517876
978.226606	2540.539892
978.524204	2543.050387
978.821765	2537.641229
979.119290	2544.887888
979.416777	2545.457538
979.714228	2546.798485
980.011642	2546.478372
980.309020	2545.850748
980.606360	2545.601211
980.903664	2547.010213
981.200931	2545.848227
981.498162	2547.322765
981.795356	2546.218752
982.092513	2547.194215
982.389633	2551.418702
982.686717	2553.674619
982.983764	2555.484393
983.280775	2562.925136
983.577749	2560.951524
983.874686	2559.837429
984.171587	2556.353992
984.468451	2557.591595
984.765279	2554.755946
985.062070	2555.711245
985.358824	2550.672612
985.655543	2549.404761
985.952224	2548.870399
986.248869	2546.198587
986.545478	2544.005686
986.842050	2546.276725
987.138586	2542.876467
987.435086	2546.213711
987.731549	2543.874616
988.027975	2545.886036
988.324366	2544.285470
988.620719	2542.808412
988.917037	2544.121632
989.213318	2542.188350
989.509563	2544.398896
989.805772	2543.738504
990.101944	2545.482744
990.398080	2542.059800
990.694180	2545.175233
990.990244	2542.866385
991.286271	2543.413350
991.582262	2540.865047
991.878217	2543.183978
992.174136	2545.805378
992.470019	2541.815304
992.765865	2538.641898
993.061676	2538.851106
993.357450	2539.750952
993.653188	2542.289173
993.948890	2543.362938
994.244556	2544.197249
994.540186	2545.636499
994.835780	2544.318237
995.131337	2544.852599
995.426859	2545.439894
995.722345	2546.579195
996.017795	2544.419060
996.313208	2548.368804
996.608586	2547.514329
996.903928	2547.784030
997.199234	2546.871582
997.494504	2548.061294
997.789738	2548.673794
998.084936	2547.955430
998.380099	2544.230017
998.675225	2544.812270
998.970316	2545.462579
999.265371	2544.376210
999.560390	2544.837476
999.855373	2544.983669
1000.150320	2542.594162
1000.445232	2543.897301
1000.740108	2542.631971
1001.034948	2542.702547
1001.329752	2544.887888
1001.624521	2541.759852
1001.919254	2540.897814
1002.213951	2541.187681
1002.508613	2543.080634
1002.803239	2541.467465
1003.097829	2540.426466
1003.392384	2542.604245
1003.686903	2540.625592
1003.981386	2539.967721
1004.275834	2543.350336
1004.570246	2541.517876
1004.864623	2542.808412
1005.158964	2541.724563
1005.453270	2542.488298
1005.747540	2540.993596
1006.041775	2544.093906
1006.335974	2540.595345
1006.630138	2540.935623
1006.924266	2542.362269
1007.218359	2540.920499
1007.512416	2539.947557
1007.806438	2535.334901
1008.100425	2540.338246
1008.394376	2539.541744
1008.688292	2542.969728
1008.982172	2538.825900
1009.276017	2542.934440
1009.569827	2542.828576
1009.863602	2538.959491
1010.157341	2539.672814
1010.451045	2542.521066
1010.744714	2541.210366
1011.038347	2542.768082
1011.331945	2541.132228
1011.625508	2543.945192
1011.919036	2537.648791
1012.212528	2543.226827
1012.505986	2540.519728
1012.799408	2539.776157
1013.092795	2541.832948
1013.386147	2542.997455
1013.679464	2543.350336
1013.972745	2543.120963
1014.265992	2541.240613
1014.559204	2540.890252
1014.852380	2540.204656
1015.145521	2542.195911
1015.438628	2541.074255
1015.731699	2540.474357
1016.024736	2540.297917
1016.317737	2539.226672
1016.610703	2543.937630
1016.903635	2541.139790
1017.196531	2540.189532
1017.489393	2540.202135
1017.782219	2542.185829
1018.075011	2541.278421
1018.367768	2542.337064
1018.660490	2541.797660
1018.953177	2541.797660
1019.245829	2541.797660
