Dividing Wavelength (nm)	Counts (n)	Blue Motor Position (mm): 34.500000	Red Motor Position (mm): 0.000000	
326.493990	2228.091698
326.888308	2228.091698
327.282561	2228.091698
327.676750	2187.328928
328.070874	2183.560665
328.464933	2184.498320
328.858929	2186.635769
329.252859	2194.890658
329.646726	2203.861392
330.040528	2214.803216
330.434265	2227.128837
330.827938	2244.669532
331.221547	2261.900196
331.615091	2279.047681
332.008571	2296.006122
332.401986	2316.400110
332.795338	2337.898111
333.188625	2356.041223
333.581847	2376.490664
333.975006	2393.123951
334.368100	2414.669842
334.761129	2431.615681
335.154095	2444.722681
335.546996	2474.742752
335.939833	2514.497292
336.332606	2527.301822
336.725315	2542.584080
337.117960	2553.916594
337.510540	2565.349931
337.903056	2578.038515
338.295508	2586.792479
338.687896	2596.403439
339.080220	2602.893924
339.472480	2608.101436
339.864676	2616.215173
340.256807	2617.472941
340.648875	2620.691718
341.040879	2621.571399
341.432818	2627.741772
341.824694	2630.332925
342.216506	2632.687143
342.608253	2633.770992
342.999937	2633.276958
343.391557	2636.276445
343.783113	2632.850981
344.174605	2631.610857
344.566033	2629.395270
344.957397	2630.418624
345.348697	2628.873511
345.739934	2625.168262
346.131106	2625.521143
346.522215	2622.282202
346.913260	2621.876389
347.304241	2621.631893
347.695159	2616.552931
348.086012	2618.592077
348.476802	2615.123763
348.867528	2610.637137
349.258191	2606.647063
349.648789	2607.347784
350.039324	2604.527258
350.429796	2605.840479
350.820203	2605.752258
351.210548	2603.428287
351.600828	2603.645056
351.991045	2604.008019
352.381198	2601.484922
352.771288	2602.200766
353.161314	2596.416042
353.551276	2600.275045
353.941175	2600.106166
354.331010	2598.122472
354.720782	2601.686568
355.110490	2596.907554
355.500135	2599.072730
355.889717	2598.132554
356.279235	2597.966196
356.668689	2599.917123
357.058080	2598.573655
357.447408	2599.539036
357.836672	2599.629777
358.225873	2599.539036
358.615010	2599.556680
359.004084	2601.411825
359.393095	2601.449634
359.782043	2603.458533
360.170927	2602.140272
360.559748	2601.890735
360.948505	2604.302927
361.337199	2605.356528
361.725830	2605.716970
362.114398	2602.556167
362.502903	2605.890890
362.891344	2604.181939
363.279722	2605.812752
363.668037	2605.714450
364.056289	2608.179574
364.444478	2611.352980
364.832603	2610.102774
365.220665	2611.058073
365.608665	2608.789554
365.996601	2611.962960
366.384474	2610.092692
366.772284	2611.516818
367.160031	2611.733588
367.547715	2611.612600
367.935336	2611.292487
368.322893	2608.797115
368.710388	2609.137393
369.097820	2609.389451
369.485189	2609.586056
369.872495	2611.584873
370.259738	2613.414812
370.646918	2611.410954
371.034035	2616.868003
371.421090	2616.129474
371.808081	2611.337857
372.195010	2619.030658
372.581875	2618.052674
372.968678	2614.080245
373.355418	2618.781121
373.742096	2617.856069
374.128710	2619.592746
374.515262	2621.047119
374.901751	2618.675256
375.288177	2620.043930
375.674540	2619.769187
376.060841	2620.701800
376.447079	2621.170627
376.833254	2618.045112
377.219367	2617.941768
377.605417	2620.182561
377.991404	2619.446553
378.377329	2621.891512
378.763191	2620.732047
379.148991	2622.715741
379.534727	2623.366050
379.920402	2622.446039
380.306013	2621.659619
380.691563	2624.495268
381.077049	2620.656430
381.462474	2623.497120
381.847835	2623.797069
382.233134	2623.275309
382.618371	2625.455608
383.003545	2625.193468
383.388657	2623.600464
383.773706	2624.558283
384.158693	2627.325876
384.543618	2629.859056
384.928480	2626.700773
385.313280	2625.458129
385.698017	2626.852008
386.082692	2629.733027
386.467305	2632.883748
386.851856	2632.135137
387.236344	2629.854015
387.620770	2630.320322
388.005133	2628.903757
388.389435	2629.410393
388.773674	2628.298819
389.157851	2634.557412
389.541965	2634.920375
389.926018	2633.713018
390.310008	2637.433390
390.693936	2636.379789
391.077802	2637.221661
391.461606	2636.417597
391.845348	2639.152423
392.229027	2638.887763
392.612645	2639.578401
392.996200	2640.836169
393.379694	2639.926240
393.763125	2640.679893
394.146494	2642.807260
394.529801	2641.718371
394.913047	2642.819863
395.296230	2646.157107
395.679351	2644.276756
396.062410	2647.193064
396.445408	2647.689617
396.828343	2644.841365
397.211217	2645.279946
397.594028	2648.120636
397.976778	2649.549803
398.359466	2649.201963
398.742092	2651.452839
399.124656	2650.575678
399.507158	2651.702376
399.889598	2653.378559
400.271977	2652.322438
400.654294	2656.136071
401.036549	2652.866882
401.418742	2656.748571
401.800874	2656.476348
402.182944	2655.107675
402.564952	2658.361740
402.946898	2658.288643
403.328783	2661.968686
403.710606	2663.027328
404.092367	2666.324242
404.474067	2666.672082
404.855705	2671.645180
405.237282	2672.769358
405.618797	2680.908301
406.000250	2689.150587
406.381642	2695.202492
406.762972	2706.242619
407.144240	2716.854248
407.525447	2731.919736
407.906593	2750.196440
408.287677	2772.518669
408.668700	2792.418624
409.049661	2826.209478
409.430560	2856.194261
409.811399	2884.694424
410.192176	2941.475461
410.572891	2987.173520
410.953545	3056.098696
411.334138	3080.253385
411.714669	3156.705003
412.095139	3187.277081
412.475547	3281.110598
412.855894	3360.342413
413.236180	3467.555153
413.616405	3483.268429
413.996568	3603.270576
414.376670	3681.557174
414.756711	3736.704877
415.136691	3843.806711
415.516609	3978.314778
415.896466	4068.727872
416.276262	4214.328998
416.655997	4299.191782
417.035670	4464.239159
417.415283	4683.688147
417.794834	4807.307322
418.174324	4855.510835
418.553753	4923.115229
418.933121	5176.191234
419.312428	5317.111649
419.691674	5314.465043
420.070859	5660.401623
420.449983	5614.305312
420.829045	5910.704994
421.208047	5898.366770
421.586988	6179.305232
421.965867	6289.618281
422.344686	6463.338963
422.723444	6595.618840
423.102141	6275.250993
423.480777	6873.933383
423.859352	6637.410006
424.237866	7184.710435
424.616319	7175.580905
424.994712	7563.427118
425.373044	7348.890733
425.751314	7786.583875
426.129524	7762.648476
426.507673	7963.271276
426.885762	8169.696444
427.263789	8172.000251
427.641756	8166.202924
428.019662	8338.774223
428.397508	8608.221376
428.775292	8415.709793
429.153016	8811.314341
429.530679	8717.921924
429.908282	8819.622162
430.285824	8606.459492
430.663305	9275.496225
431.040726	8816.116040
431.418086	8852.422430
431.795385	9185.872071
432.172624	9300.923805
432.549802	9264.108258
432.926920	9379.253253
433.303977	9287.037947
433.680974	9508.795784
434.057910	9608.721535
434.434786	9686.269605
434.811601	9573.428417
435.188355	10135.809458
435.565050	9882.002485
435.941683	9830.930556
436.318257	10338.254635
436.694770	10457.621596
437.071222	10541.486232
437.447614	10407.782229
437.823946	10305.716507
438.200218	10461.639396
438.576429	10280.674576
438.952580	10520.376400
439.328670	10594.224262
439.704700	10380.249967
440.080670	10369.580365
440.456580	10941.582448
440.832429	10690.795126
441.208218	10299.226022
441.583947	10638.500717
441.959616	10771.917374
442.335224	10576.683568
442.710773	10733.113092
443.086261	10931.853021
443.461689	10229.882430
443.837057	10853.074910
444.212365	11147.306895
444.587612	10794.433688
444.962800	11035.000070
445.337927	10808.884155
445.712995	10382.699968
446.088002	11469.320679
446.462949	11115.744231
446.837837	11090.009140
447.212664	11096.620614
447.587431	11591.798032
447.962139	12296.263994
448.336786	14543.875040
448.711374	15114.228665
449.085901	12980.124240
449.460369	12578.712283
449.834776	12040.148173
450.209124	12888.138306
450.583412	13304.565340
450.957640	14255.107665
451.331808	13426.992282
451.705917	12399.947926
452.079965	11719.923999
452.453954	12608.389555
452.827883	12246.406983
453.201752	12523.541895
453.575562	12039.243286
453.949311	12468.963843
454.323001	12422.643201
454.696632	12646.248621
455.070202	12930.731015
455.443713	13178.304601
455.817164	13631.045586
456.190556	13632.497439
456.563888	13999.942101
456.937160	14172.014326
457.310373	13501.114887
457.683526	13584.442640
458.056619	13141.602480
458.429653	13279.110033
458.802628	12726.970097
459.175542	13092.110952
459.548398	14040.404923
459.921194	14367.008677
460.293930	14431.888328
460.666607	15315.988245
461.039224	16346.533682
461.411782	17042.409517
461.784280	16934.244000
462.156719	16982.694530
462.529099	16672.507292
462.901419	15590.312714
463.273680	15385.755294
463.645882	15252.245375
464.018024	14984.988604
464.390106	15199.116655
464.762130	15931.482883
465.134094	16677.233374
465.505999	18653.952976
465.877845	21912.436355
466.249631	24750.603450
466.621358	24449.669251
466.993026	23006.880937
467.364634	22453.977266
467.736184	20981.826752
468.107674	20184.023827
468.479105	20317.150618
468.850477	19780.928124
469.221790	19364.453199
469.593043	18680.529939
469.964238	18128.886556
470.335373	17789.901728
470.706449	18220.320484
471.077467	17763.221421
471.448425	19594.634804
471.819324	23614.667651
472.190164	25657.363354
472.560945	22127.812092
472.931667	19731.799559
473.302330	19110.595815
473.672934	18618.208675
474.043479	18960.240881
474.413965	18774.600391
474.784393	18396.402947
475.154761	19084.865766
475.525070	19082.534232
475.895321	18736.015399
476.265513	19325.538012
476.635645	19896.640249
477.005719	19692.712973
477.375734	19883.071983
477.745691	20363.584686
478.115588	20879.486288
478.485427	21392.844628
478.855207	22446.818827
479.224928	24210.635379
479.594591	26426.025890
479.964194	26471.592879
480.333739	26671.255339
480.703226	26240.176191
481.072653	25908.203608
481.442022	26481.612172
481.811333	27388.198157
482.180584	27314.297362
482.549777	26373.560081
482.918912	26022.375660
483.287988	26149.833673
483.657005	25812.572919
484.025964	25551.103393
484.394864	25466.056607
484.763706	25153.074050
485.132489	24588.784932
485.501213	24770.669763
485.869879	24690.671692
486.238487	24505.421892
486.607036	24648.562934
486.975527	24349.390618
487.343959	24668.533465
487.712333	24609.090700
488.080648	24270.899853
488.448905	24750.051444
488.817104	24507.748384
489.185244	25168.580639
489.553326	25149.111703
489.921350	26125.366433
490.289315	28402.208609
490.657222	30191.606496
491.025070	30691.792301
491.392861	30479.181637
491.760593	29638.307094
492.128267	28735.055833
492.495883	27690.080093
492.863440	26825.068505
493.230939	25943.902539
493.598380	25796.743696
493.965763	25385.030141
494.333088	24934.819814
494.700354	24860.445151
495.067563	24745.839560
495.434713	24504.741336
495.801805	24654.957638
496.168839	24462.456137
496.535815	24290.867863
496.902733	24500.809236
497.269593	24180.380894
497.636395	24363.515931
498.003139	24343.089176
498.369825	24090.146761
498.736453	24284.967193
499.103023	24174.437374
499.469535	24179.917108
499.835989	24388.923347
500.202385	24419.412245
500.568723	23924.567543
500.935003	24170.777496
501.301226	23787.675010
501.667390	24629.635922
502.033497	24850.708162
502.399546	24581.205557
502.765537	24153.312419
503.131470	24532.994482
503.497345	24666.620348
503.863163	23895.714498
504.228923	24470.718588
504.594625	24683.508213
504.960269	24224.065013
505.325856	24705.558220
505.691385	24119.738334
506.056856	24720.510282
506.422270	24681.824468
506.787625	24259.043059
507.152924	24679.225753
507.518164	24699.821387
507.883347	24515.148798
508.248472	24200.790006
508.613540	24975.660722
508.978550	24774.306955
509.343503	24759.007053
509.708398	25006.328582
510.073236	25170.758417
510.438016	25393.257304
510.802738	25055.220212
511.167403	25303.376052
511.532010	25015.442988
511.896561	25783.848425
512.261053	25747.615131
512.625488	25584.964823
512.989866	25484.847508
513.354186	25323.396994
513.718449	25432.729539
514.082655	25818.403014
514.446803	25547.882095
514.810894	26006.266653
515.174927	25505.135631
515.538904	25534.195363
515.902822	26027.890682
516.266684	25769.728153
516.630488	25688.900812
516.994235	25660.710680
517.357925	25953.987367
517.721558	26133.389429
518.085133	26226.955765
518.448651	26156.745095
518.812112	25883.701079
519.175516	26093.612205
519.538863	26232.773257
519.902152	26033.350252
520.265385	26301.466540
520.628560	26096.765447
520.991678	26113.227335
521.354739	26172.944843
521.717743	26245.298004
522.080690	26035.278493
522.443580	26373.887756
522.806413	26370.603444
523.169189	26446.094723
523.531908	26506.613775
523.894569	26116.819157
524.257174	26187.128129
524.619722	26369.063372
524.982213	26054.762553
525.344647	26123.314683
525.707025	26264.275427
526.069345	26238.406746
526.431608	26188.791710
526.793815	26378.886060
527.155964	25846.368815
527.518057	26023.139395
527.880093	25934.299141
528.242072	26169.378227
528.603995	25884.210236
528.965860	25668.955487
529.327669	25715.291253
529.689421	25706.033174
530.051117	25537.293152
530.412755	25721.068415
530.774337	25509.849110
531.135862	25388.881582
531.497331	25600.105929
531.858743	25161.974207
532.220098	25636.704706
532.581396	25312.059439
532.942638	25261.932726
533.303824	25334.860578
533.664953	25365.974579
534.026025	25019.181003
534.387040	25268.307265
534.747999	25309.858975
535.108902	25476.663194
535.469748	24968.582942
535.830537	25153.484904
536.191270	25271.342039
536.551947	25141.817153
536.912567	24774.606904
537.273131	25144.423430
537.633638	24847.018038
537.994089	25055.363885
538.354483	24596.394554
538.714821	25076.516567
539.075103	25135.031760
539.435328	24918.332721
539.795497	24482.323325
540.155609	24872.937130
540.515665	25179.903070
540.875665	24414.033334
541.235609	24715.859818
541.595496	24669.516490
541.955328	25012.088100
542.315102	24930.315543
542.674821	24479.815351
543.034483	24358.873029
543.394090	24536.372056
543.753640	24330.919831
544.113134	24960.330573
544.472571	24550.580548
544.831953	24852.772515
545.191278	24475.056501
545.550548	24389.432503
545.909761	24579.481483
546.268918	24814.132071
546.628019	24802.673528
546.987064	24493.250026
547.346053	24241.739298
547.704986	24355.954201
548.063863	24519.204406
548.422684	24540.195771
548.781449	24060.819849
549.140158	24466.131138
549.498811	24037.406210
549.857408	23790.649291
550.215949	24201.480644
550.574434	23893.090578
550.932864	24110.202992
551.291237	24272.588639
551.649555	24115.917140
552.007817	24176.408465
552.366022	24048.227046
552.724173	24094.232616
553.082267	24033.905128
553.440305	24511.887171
553.798288	23772.100365
554.156215	24274.927735
554.514086	24379.486307
554.871902	23744.613474
555.229661	24035.299007
555.587365	23899.936465
555.945014	23760.024281
556.302606	24007.199616
556.660143	23958.728922
557.017625	24214.633014
557.375050	23730.001689
557.732421	24123.110866
558.089735	23934.395272
558.446994	24003.708617
558.804197	24026.769375
559.161345	23961.252019
559.518437	23729.242996
559.875474	23922.160392
560.232455	24124.290496
560.589381	23924.028139
560.946251	23915.380040
561.303065	24235.866354
561.659825	24323.519417
562.016528	23918.737448
562.373177	23667.924921
562.729770	24017.662531
563.086307	23882.398291
563.442789	24054.737697
563.799216	23873.109965
564.155587	23889.171081
564.511904	23863.584704
564.868164	23805.041785
565.224370	23772.831332
565.580520	23700.067318
565.936615	23824.901410
566.292654	23515.901365
566.648638	23802.054901
567.004567	23635.240600
567.360441	23581.489297
567.716260	23315.230674
568.072023	23632.079796
568.427732	23395.758066
568.783385	23174.980733
569.138982	23416.593155
569.494525	23448.866622
569.850013	23196.808929
570.205445	23276.701135
570.560823	23107.913222
570.916145	22856.190767
571.271412	23038.168859
571.626625	22798.656078
571.981782	22905.483169
572.336884	22713.480742
572.691931	22860.304348
573.046923	22582.841761
573.401860	22464.725006
573.756743	22475.281182
574.111570	22375.582282
574.466342	22314.213796
574.821059	22396.533318
575.175722	22114.475719
575.530330	22086.157037
575.884882	22108.610337
576.239380	22008.982013
576.593823	21913.003485
576.948211	21887.356615
577.302544	21733.750137
577.656823	21598.440526
578.011047	21694.645906
578.365216	21564.211092
578.719330	21443.593924
579.073389	21338.316988
579.427394	21478.665231
579.781344	21254.780027
580.135239	21147.385806
580.489080	21100.127510
580.842866	20878.072244
581.196597	21080.088923
581.550273	21043.858150
581.903895	20933.686254
582.257463	21252.130901
582.610975	20775.406626
582.964434	21092.162487
583.317837	20792.239038
583.671186	20879.014940
584.024481	20857.227073
584.377721	20628.396497
584.730906	20691.700787
585.084037	20703.918023
585.437113	20614.714806
585.790135	20826.032413
586.143103	20283.349681
586.496016	20296.408790
586.848874	20538.774864
587.201679	20474.084258
587.554428	20151.394959
587.907124	20480.783951
588.259765	20253.861452
588.612352	20331.530509
588.964884	19896.932636
589.317362	20067.265663
589.669786	20117.198292
590.022155	20150.134670
590.374470	20356.547235
590.726731	20139.094543
591.078937	19919.819474
591.431090	19998.920219
591.783188	19760.735783
592.135232	19736.298789
592.487222	19823.238528
592.839157	19842.709985
593.191038	19727.330577
593.542866	19617.408217
593.894639	19329.109670
594.246358	19548.533453
594.598022	19441.973543
594.949633	19204.933448
595.301190	19181.413944
595.652692	19342.304890
596.004141	19571.896680
596.355535	18900.636798
596.706876	18919.233615
597.058162	18808.038364
597.409395	19043.011586
597.760573	19108.493654
598.111698	18889.949552
598.462768	18829.599379
598.813785	18790.875756
599.164748	18610.112582
599.515657	18649.022728
599.866511	18445.271892
600.217312	18806.924269
600.568060	18318.549887
600.918753	18633.143093
601.269392	18531.906642
601.619978	18316.561152
601.970510	18517.103293
602.320988	18469.655953
602.671412	18670.021654
603.021783	18587.492924
603.372100	18312.742478
603.722363	18458.998954
604.072572	18385.400628
604.422728	18538.029123
604.772830	18293.684396
605.122878	18245.032220
605.472872	18226.997492
605.822813	18230.927072
606.172701	18192.752934
606.522534	18387.659065
606.872314	18426.710364
607.222041	18250.718642
607.571714	18460.581876
607.921333	18297.528276
608.270899	18368.154841
608.620411	18544.839722
608.969870	18320.735227
609.319276	18324.848809
609.668627	18357.812914
610.017926	18477.152149
610.367171	18592.531558
610.716362	18639.384042
611.065500	18463.036918
611.414585	18595.556250
611.763616	18585.113500
612.112594	18514.799486
612.461518	18485.351586
612.810389	18677.054064
613.159207	18541.366367
613.507971	18448.667109
613.856682	18726.906034
614.205340	18648.624477
614.553945	18802.742632
614.902496	18543.282005
615.250994	18782.414179
615.599439	18712.014466
615.947830	18704.266212
616.296169	18758.602289
616.644454	18719.203151
616.992686	18689.893883
617.340864	18906.676101
617.688990	18661.539913
618.037063	18831.131890
618.385082	18685.407256
618.733048	18961.942270
619.080961	18837.672787
619.428821	18877.414723
619.776628	18760.270911
620.124382	18691.625519
620.472083	18725.320591
620.819731	18746.483355
621.167326	18441.357436
621.514868	18482.447881
621.862357	18258.340866
622.209793	18265.320344
622.557176	18091.551771
622.904506	17916.606088
623.251783	17838.553903
623.599007	17578.926918
623.946179	17537.849076
624.293297	17480.745406
624.640363	17230.310965
624.987376	17252.088750
625.334336	17039.949434
625.681243	16889.413019
626.028097	16895.686735
626.374899	16816.003737
626.721647	16680.752099
627.068343	16518.908376
627.414987	16460.012575
627.761577	16428.172648
628.108115	16473.727034
628.454600	16198.170003
628.801032	16287.721060
629.147412	16219.589866
629.493739	16239.746920
629.840014	16042.826848
630.186236	16141.462064
630.532405	15907.124027
630.878521	16104.432268
631.224585	16004.272103
631.570597	15819.765872
631.916556	15859.795154
632.262462	15831.239538
632.608316	15746.429687
632.954117	15693.724423
633.299866	15684.254616
633.645562	15607.041783
633.991206	15360.907446
634.336797	15232.786521
634.682336	15200.008939
635.027823	15091.031796
635.373257	14960.266786
635.718639	14873.634557
636.063968	14813.289425
636.409245	14569.942846
636.754470	14595.307412
637.099642	14440.659935
637.444762	14211.582343
637.789829	14250.918466
638.134845	14101.284417
638.479808	14131.813645
638.824719	14062.117172
639.169577	13933.532461
639.514383	13974.441425
639.859137	13783.290953
640.203839	13867.032080
640.548489	13713.773442
640.893086	13702.133417
641.237632	13570.271956
641.582125	13729.632912
641.926566	13551.748236
642.270955	13561.535637
642.615292	13525.161191
642.959576	13539.803222
643.303809	13567.393457
643.647990	13496.978620
643.992118	13558.362230
644.336195	13325.554184
644.680219	13540.219117
645.024192	13461.246922
645.368112	13711.729254
645.711981	13753.759874
646.055797	13943.415643
646.399562	13907.162185
646.743274	14186.671481
647.086935	14461.016114
647.430544	14421.692594
647.774101	14455.672491
648.117606	14598.435448
648.461059	14571.485439
648.804460	14554.635382
649.147810	14273.538123
649.491108	14179.326520
649.834354	14196.302605
650.177548	13884.408938
650.520690	13700.522769
650.863781	13614.099748
651.206820	13663.117407
651.549807	13495.020132
651.892742	13298.296665
652.235626	13234.710071
652.578458	13235.506573
652.921238	12933.385182
653.263967	13126.365593
653.606644	12946.935804
653.949269	12934.398454
654.291843	12734.199111
654.634365	12893.108883
654.976836	12740.084658
655.319255	12753.237029
655.661622	12710.031820
656.003938	12628.912093
656.346203	12550.970813
656.688416	12626.648615
657.030577	12581.134557
657.372687	12493.559633
657.714746	12478.597488
658.056753	12672.986901
658.398708	12480.122437
658.740612	12482.234680
659.082465	12581.011049
659.424266	12558.250239
659.766016	12578.626583
660.107715	12490.068633
660.449362	12566.747104
660.790958	12514.074608
661.132503	12468.668935
661.473996	12528.028522
661.815438	12543.293136
662.156829	12571.858834
662.498168	12553.468705
662.839456	12544.167776
663.180693	12560.501114
663.521879	12659.799242
663.863013	12628.816311
664.204097	12606.577261
664.545129	12728.487484
664.886110	12700.922455
665.227040	12792.706743
665.567918	12796.870736
665.908746	12816.485866
666.249522	12814.499651
666.590248	12863.572763
666.930922	12980.119199
667.271545	12954.621043
667.612118	13035.647508
667.952639	12936.586315
668.293109	12957.721352
668.633528	12905.177406
668.973896	12883.946586
669.314213	12959.329480
669.654480	12697.938092
669.994695	12769.567847
670.334859	12803.162096
670.674973	12749.138571
671.015035	12780.406328
671.355047	12717.079353
671.695008	12693.942977
672.034918	12696.743338
672.374777	12737.692631
672.714585	12647.251810
673.054342	12684.193386
673.394049	12643.284422
673.733705	12741.702869
674.073310	12647.808858
674.412864	12654.690033
674.752368	12519.647604
675.091820	12537.828525
675.431223	12531.227134
675.770574	12390.137841
676.109875	12317.651090
676.449125	12271.267433
676.788324	12221.783467
677.127473	12054.182746
677.466571	12045.035572
677.805619	11938.488265
678.144616	11864.968077
678.483562	11835.772235
678.822458	11707.076618
679.161303	11687.980727
679.500098	11667.281750
679.838842	11618.306940
680.177535	11652.309523
680.516179	11711.777494
680.854771	11665.822336
681.193314	11875.310004
681.531805	12035.197760
681.870247	12458.306844
682.208638	12874.615411
682.546978	13181.465404
682.885268	13224.121127
683.223508	12924.422011
683.561697	12759.034356
683.899836	12664.288390
684.237925	12465.921507
684.575963	12380.446223
684.913951	12292.188222
685.251889	12256.549784
685.589776	12348.835667
685.927614	12267.486568
686.265401	12237.307700
686.603137	12291.137141
686.940824	12445.091459
687.278460	12574.447467
687.616046	12620.170732
687.953582	12780.305504
688.291068	12704.753732
688.628504	12945.380608
688.965889	12963.165798
689.303224	12917.613932
689.640510	12799.552630
689.977745	12494.565343
690.314930	12271.945468
690.652065	12177.194461
690.989150	11882.884338
691.326185	11657.675831
691.663170	11447.111876
692.000105	11212.042872
692.336990	11095.118350
692.673825	10837.207878
693.010610	10728.258461
693.347345	10509.046407
693.684030	10316.802005
694.020665	10259.748746
694.357251	10060.479496
694.693786	9998.732923
695.030272	9842.033697
695.366707	9722.472651
695.703093	9656.685594
696.039429	9655.604266
696.375716	9566.131347
696.711952	9439.719373
697.048139	9477.709509
697.384276	9434.106048
697.720363	9454.323596
698.056400	9384.004541
698.392388	9341.905865
698.728326	9303.061254
699.064214	9239.318384
699.400053	9277.084188
699.735842	9099.696067
700.071581	9057.708297
700.407270	8980.482861
700.742910	8903.733814
701.078501	8805.567425
701.414042	8681.965895
701.749533	8618.028940
702.084974	8477.161458
702.420366	8595.525230
702.755709	8474.771951
703.091002	8342.061055
703.426246	8372.169347
703.761440	8322.456008
704.096584	8279.611242
704.431679	8212.183288
704.766725	8195.194600
705.101721	8149.060480
705.436668	8191.728807
705.771565	8084.984894
706.106413	8174.757762
706.441212	8213.446097
706.775961	8170.533275
707.110661	8206.403605
707.445311	8345.375614
707.779913	8247.589832
708.114465	8377.447435
708.448967	8415.377076
708.783421	8559.980054
709.117825	8745.739011
709.452180	8775.378475
709.786485	8865.882310
710.120742	9147.403026
710.454949	9152.106423
710.789107	9252.143080
711.123216	9467.612078
711.457275	9637.778746
711.791286	9792.890009
712.125247	9786.500346
712.459159	9773.652966
712.793023	10016.109781
713.126837	9594.581099
713.460602	9752.013813
713.794318	9572.687368
714.127985	9605.444785
714.461602	9277.036298
714.795171	9227.718689
715.128691	8971.058424
715.462162	8729.365344
715.795584	8672.337291
716.128957	8523.976133
716.462281	8356.307356
716.795556	8410.744256
717.128782	8198.015125
717.461960	7934.503932
717.795088	8006.746187
718.128167	7915.672701
718.461198	7747.048626
718.794180	7683.935900
719.127113	7678.758635
719.459997	7523.735593
719.792833	7294.327805
720.125619	7357.314501
720.458357	7214.841411
720.791046	7207.400668
721.123686	7197.736776
721.456278	7039.245420
721.788821	7056.234108
722.121315	6953.497914
722.453761	7018.246494
722.786158	6964.404450
723.118506	6976.813250
723.450805	6943.869310
723.783056	7009.762232
724.115259	6920.957266
724.447412	6915.797645
724.779518	6956.852802
725.111574	6960.956301
725.443582	7046.290432
725.775542	7026.879470
726.107453	7221.704942
726.439315	7126.563246
726.771129	7189.980961
727.102895	7363.111828
727.434612	7471.176523
727.766281	7505.403437
728.097901	7581.242555
728.429473	7572.256698
728.760996	7556.868576
729.092471	7531.405708
729.423897	7479.070970
729.755276	7488.092114
730.086606	7412.406751
730.417887	7516.612442
730.749120	7714.991928
731.080305	7911.286897
731.411442	8030.542953
731.742530	8018.406376
732.073570	8127.885114
732.404562	8208.835962
732.735506	8062.904641
733.066401	8204.987041
733.397249	8133.498438
733.728048	7887.875779
734.058798	7553.644758
734.389501	7321.613050
734.720156	7151.199365
735.050762	6918.295536
735.381320	6824.688871
735.711831	6772.931345
736.042293	6663.145096
736.372707	6677.875348
736.703073	6542.742178
737.033391	6589.488797
737.363661	6596.014571
737.693883	6626.889118
738.024056	6712.092179
738.354182	6746.916470
738.684260	6790.535054
739.014290	6901.508494
739.344272	7010.515884
739.674207	7041.904629
740.004093	7112.745443
740.333931	7129.338401
740.663722	7138.886346
740.993464	7212.036009
741.323159	7196.277362
741.652806	6947.216636
741.982405	6972.649257
742.311956	7020.983840
742.641460	6852.326997
742.970915	6659.933881
743.300323	6650.272510
743.629683	6604.455983
743.958996	6469.126208
744.288260	6375.738833
744.617477	6327.653787
744.946647	6326.965670
745.275768	6161.381410
745.604842	6120.011181
745.933869	6106.047185
746.262847	6058.468775
746.591778	6046.422938
746.920662	6004.868706
747.249498	6001.329816
747.578286	6044.537546
747.907027	6123.272807
748.235720	6181.099883
748.564365	6153.441592
748.892963	6184.548032
749.221514	6330.255022
749.550017	6163.780999
749.878473	6043.869593
750.206881	6094.303817
750.535242	6038.848604
750.863555	5968.713551
751.191821	5988.759699
751.520039	5991.524772
751.848210	5893.539865
752.176334	5918.092805
752.504411	5969.182378
752.832440	5891.508280
753.160421	5820.985058
753.488356	5875.366505
753.816243	5903.254168
754.144082	5751.354121
754.471875	5726.002158
754.799620	5771.667450
755.127318	5782.538698
755.454969	5730.887036
755.782572	5699.886460
756.110129	5746.315487
756.437638	5723.395881
756.765100	5664.583260
757.092515	5666.367828
757.419882	5720.131734
757.747203	5699.657088
758.074477	5765.877685
758.401703	5747.870683
758.728882	5696.229103
759.056014	5764.468682
759.383099	5891.687241
759.710138	5897.676132
760.037129	5885.476539
760.364073	5893.486933
760.690970	5970.934179
761.017820	5952.075223
761.344623	5905.351288
761.671379	6010.547566
761.998088	6128.613910
762.324751	6379.872579
762.651366	6990.789849
762.977935	8319.053229
763.304456	9962.784455
763.630931	10846.934784
763.957359	10436.776425
764.283740	9484.326023
764.610074	8637.061817
764.936362	7638.323540
765.262602	7043.290946
765.588796	6509.836046
765.914943	6177.581158
766.241044	6014.356158
766.567097	5801.468231
766.893104	5548.760230
767.219064	5372.352613
767.544978	5304.846522
767.870845	5228.165530
768.196665	5123.879181
768.522438	5051.843613
768.848165	5016.003530
769.173846	4955.088747
769.499479	4908.815996
769.825066	4850.194938
770.150607	4795.737874
770.476101	4772.609060
770.801548	4766.088328
771.126949	4689.523283
771.452303	4634.733502
771.777611	4594.368984
772.102872	4612.481849
772.428087	4574.859718
772.753256	4537.280437
773.078378	4488.434177
773.403453	4417.235440
773.728482	4409.482146
774.053465	4356.955843
774.378401	4348.789174
774.703291	4347.896890
775.028135	4271.735138
775.352932	4225.117067
775.677683	4217.063824
776.002388	4235.733737
776.327046	4243.081219
776.651658	4172.371475
776.976224	4108.323615
777.300743	4113.682362
777.625216	4132.803458
777.949643	4125.740802
778.274024	4080.357814
778.598359	4036.693860
778.922647	4066.277871
779.246889	4056.543403
779.571086	4049.402609
779.895236	4030.742778
780.219339	4020.758773
780.543397	4012.629912
780.867409	4063.154877
781.191374	4081.620623
781.515294	4016.481354
781.839167	4008.783512
782.162995	4030.493241
782.486776	4017.056045
782.810511	4025.265564
783.134201	4024.819422
783.457844	3977.906444
783.781441	3924.006427
784.104993	3929.216460
784.428498	3951.304276
784.751958	3945.302782
785.075372	3924.886109
785.398739	3886.984194
785.722061	3899.211512
786.045337	3941.423614
786.368568	3972.030980
786.691752	3885.403792
787.014891	3940.014612
787.337983	4066.998756
787.661030	4223.753435
787.984031	4389.602356
788.306987	4559.199374
788.629897	4641.632322
788.952760	4596.592132
789.275579	4526.436915
789.598351	4460.589363
789.921078	4317.065193
790.243759	4120.697127
790.566395	4104.174745
790.888984	4096.534877
791.211529	3985.997496
791.534027	3923.731685
791.856480	3913.636774
792.178888	3854.713247
792.501249	3804.760454
792.823566	3819.677228
793.145836	3847.758976
793.468062	3791.948361
793.790241	3748.803646
794.112375	3775.922533
794.434464	3843.166484
794.756507	3870.277810
795.078505	3848.429449
795.400457	3881.146537
795.722364	4022.939072
796.044226	4126.814567
796.366042	4196.836194
796.687812	4179.519831
797.009538	4183.174667
797.331218	4141.557422
797.652852	4116.465078
797.974442	4095.161162
798.295986	4095.806430
798.617484	4009.920292
798.938938	3927.890637
799.260346	3970.168273
799.581709	3960.748877
799.903026	3889.817322
800.224299	3851.383565
800.545526	3847.915251
800.866708	3807.507883
801.187845	3748.344901
801.508936	3782.362607
801.829983	3779.133748
802.150984	3699.929660
802.471940	3690.941282
802.792851	3698.462684
803.113717	3701.439485
803.434538	3706.127758
803.755314	3644.318171
804.076045	3622.013586
804.396731	3639.982779
804.717372	3667.454547
805.037967	3651.307731
805.358518	3638.697284
805.679024	3669.097963
805.999485	3682.199922
806.319901	3687.828370
806.640272	3699.112993
806.960598	3715.590004
807.280879	3686.167310
807.601115	3701.384032
807.921306	3718.287021
808.241453	3755.475613
808.561554	3730.103486
808.881611	3666.968075
809.201623	3705.490052
809.521590	3715.526990
809.841513	3685.932896
810.161390	3716.139490
810.481223	3692.294832
810.801011	3638.939260
811.120755	3633.862818
811.440453	3666.506810
811.760107	3666.952952
812.079716	3627.064822
812.399281	3597.518619
812.718801	3619.245992
813.038276	3591.181889
813.357707	3589.604008
813.677093	3608.105042
813.996434	3552.458266
814.315731	3564.582241
814.634983	3569.446954
814.954191	3582.576639
815.273354	3611.202831
815.592473	3604.425000
815.911547	3612.208542
816.230577	3654.249244
816.549562	3707.337635
816.868502	3747.714757
817.187399	3772.454219
817.506250	3767.644959
817.825058	3744.639653
818.143821	3835.667768
818.462539	3937.824230
818.781213	3983.817197
819.099843	4041.939181
819.418429	4296.111637
819.736970	4536.183986
820.055466	4786.121873
820.373919	5154.085775
820.692327	5564.007200
821.010691	6021.726325
821.329011	7432.851151
821.647286	10228.604498
821.965517	14855.572103
822.283704	18891.386281
822.601847	21015.176506
822.919945	19153.329676
823.237999	16536.381015
823.556010	14023.312891
823.873976	11904.533573
824.191897	9805.422317
824.509775	8459.434240
824.827609	7326.147568
825.145398	6791.772657
825.463144	6679.070101
825.780845	6786.834847
826.098502	6986.134344
826.416116	7890.718990
826.733685	9229.271365
827.051210	10337.125416
827.368692	10350.915493
827.686129	9068.750944
828.003522	7549.145529
828.320872	6535.581219
828.638177	5829.663404
828.955439	5261.568216
829.272656	4763.136732
829.589830	4484.993589
829.906960	4306.206548
830.224046	4121.289463
830.541088	3997.599712
830.858086	3951.125315
831.175041	3870.078684
831.491952	3859.459494
831.808819	3867.306050
832.125642	3945.627936
832.442421	4094.243672
832.759157	4373.533678
833.075849	4935.234163
833.392497	5811.817720
833.709101	6596.064982
834.025662	6915.757315
834.342179	6539.321755
834.658653	5864.485175
834.975083	5218.199169
835.291469	4639.527640
835.607811	4229.538159
835.924110	4090.782920
836.240366	3891.206160
836.556578	3685.761497
836.872746	3579.146134
837.188871	3537.304557
837.504952	3470.980617
837.820990	3385.923748
838.136984	3342.118642
838.452935	3366.096890
838.768842	3360.780993
839.084706	3387.577247
839.400526	3548.536248
839.716303	3896.998446
840.032037	4424.502264
840.347727	4687.897511
840.663373	4397.360691
840.978977	4010.197555
841.294537	3701.492417
841.610054	3471.542705
841.925527	3367.636963
842.240957	3300.700522
842.556344	3242.938981
842.871687	3183.193746
843.186987	3131.264821
843.502244	3096.541353
843.817458	3061.790159
844.132629	3030.572814
844.447756	3039.480532
844.762840	3020.518232
845.077881	2992.204592
845.392879	2975.841006
845.707833	2972.211376
846.022745	2970.129379
846.337613	2970.898155
846.652438	2959.353913
846.967221	2955.431895
847.281960	2939.789195
847.596656	2939.433793
847.911309	2938.541509
848.225919	2930.309305
848.540485	2925.311001
848.855009	2929.162442
849.169490	2912.209042
849.483928	2907.830800
849.798323	2907.961870
850.112675	2903.545819
850.426984	2914.701893
850.741251	2912.866913
851.055474	2902.136817
851.369654	2894.030641
851.683792	2902.474574
851.997887	2910.232910
852.311938	2911.049577
852.625947	2898.721435
852.939914	2902.136817
853.253837	2909.479257
853.567718	2893.876886
853.881555	2893.574417
854.195350	2907.268711
854.509103	2901.453740
854.822812	2895.031310
855.136479	2890.852194
855.450103	2894.335631
855.763685	2886.239538
856.077224	2885.231307
856.390720	2899.220509
856.704173	2907.069586
857.017584	2898.066085
857.330953	2896.702453
857.644278	2905.358114
857.957561	2918.341606
858.270802	2919.208684
858.584000	2917.076276
858.897155	2903.800397
859.210268	2904.632188
859.523339	2899.628843
859.836367	2898.829820
860.149352	2895.651372
860.462295	2888.510578
860.775195	2895.676578
861.088054	2896.886455
861.400869	2882.148642
861.713642	2879.542365
862.026373	2895.606002
862.339062	2898.396280
862.651708	2901.930129
862.964312	2907.193094
863.276873	2897.509037
863.589392	2907.062024
863.901869	2919.276740
864.214303	2946.234310
864.526696	2959.704273
864.839045	2950.884774
865.151353	2956.069601
865.463619	2951.285546
865.775842	2953.644806
866.088023	2972.907055
866.400162	2978.308651
866.712258	2951.550207
867.024313	2938.748196
867.336325	2948.265895
867.648296	2970.300778
867.960224	2962.055971
868.272110	2948.303703
868.583954	2954.975671
868.895755	2968.286837
869.207515	2955.396607
869.519233	2959.550518
869.830909	2970.598206
870.142542	2979.599187
870.454134	2976.352683
870.765684	2979.820997
871.077191	2981.487099
871.388657	2991.216526
871.700081	3003.821931
872.011463	3013.848786
872.322803	3014.226872
872.634101	3015.499764
872.945357	3032.037269
873.256571	3058.425189
873.567744	3052.063253
873.878874	3043.163095
874.189963	3063.113462
874.501010	3067.075809
874.812015	3057.190106
875.122979	3056.186916
875.433900	3054.157852
875.744780	3060.323183
876.055618	3068.389029
876.366415	3064.383832
876.677169	3074.844227
876.987882	3072.653845
877.298554	3065.490366
877.609183	3090.285281
877.919771	3111.624485
878.230317	3139.481901
878.540822	3191.549459
878.851285	3231.432547
879.161707	3275.346039
879.472087	3382.299159
879.782425	3613.841875
880.092722	4058.585071
880.402977	4592.234055
880.713191	5235.455039
881.023363	6418.109731
881.333494	7714.386990
881.643583	8260.618694
881.953631	7948.493133
882.263637	7303.142262
882.573602	6703.350819
882.883526	6115.038083
883.193408	5536.515267
883.503248	5080.063992
883.813048	4772.515799
884.122806	4458.656081
884.432522	4143.067247
884.742197	3905.213006
885.051831	3711.027760
885.361424	3575.148499
885.670975	3505.910772
885.980485	3414.832245
886.289954	3338.572190
886.599382	3290.156949
886.908768	3255.567072
887.218113	3208.117211
887.527417	3151.875578
887.836680	3102.953701
888.145901	3099.417331
888.455082	3084.961823
888.764221	3033.242105
889.073319	3008.169926
889.382376	3003.448885
889.691392	3009.515914
890.000366	3005.641787
890.309300	2992.842298
890.618193	3007.247395
890.927044	3025.332534
891.235855	3022.632996
891.544625	3009.773013
891.853353	3021.168541
892.162041	3038.442055
892.470687	3082.002665
892.779293	3134.385295
893.087858	3180.448838
893.396381	3253.351484
893.704864	3382.962070
894.013306	3623.364615
894.321707	3930.509516
894.630068	4135.966782
894.938387	4129.655258
895.246665	4086.074483
895.554903	3959.354998
895.863100	3757.804626
896.171256	3584.257864
896.479371	3442.188066
896.787446	3321.724654
897.095480	3216.316648
897.403473	3152.152842
897.711425	3115.407871
898.019336	3107.112653
898.327207	3076.283476
898.635038	3040.955070
898.942827	3024.646937
899.250576	3011.968435
899.558284	2983.730412
899.865952	2964.327011
900.173579	2942.849175
900.481165	2935.123607
900.788711	2921.555341
901.096216	2895.936197
901.403681	2885.679970
901.711105	2893.070301
902.018489	2892.145250
902.325832	2891.237842
902.633135	2901.889800
902.940397	2936.653597
903.247619	3018.663088
903.554800	3220.107595
903.861941	3569.910740
904.169041	4006.106659
904.476101	4305.243687
904.783121	4255.709309
905.090100	4004.475846
905.397039	3722.715675
905.703938	3472.152685
906.010796	3285.788789
906.317614	3171.523475
906.624391	3078.327664
906.931129	3002.869153
907.237826	2945.732715
907.544483	2894.360837
907.851099	2863.148533
908.157675	2841.506859
908.464211	2823.184786
908.770707	2809.354380
909.077163	2796.280147
909.383578	2779.533434
909.689954	2769.413318
909.996289	2770.083792
910.302584	2771.333998
910.608839	2771.790222
910.915054	2763.542894
911.221229	2756.238262
911.527363	2759.532657
911.833458	2766.103801
912.139513	2769.168822
912.445527	2773.557147
912.751502	2782.444701
913.057436	2792.937862
913.363331	2806.531334
913.669186	2826.348110
913.975000	2863.120806
914.280775	2924.716145
914.586510	2997.268431
914.892205	3076.666604
915.197859	3208.462530
915.503475	3408.475350
915.809050	3622.580716
916.114585	3774.790794
916.420081	3789.581540
916.725536	3728.409658
917.030952	3610.411370
917.336328	3476.205773
917.641665	3341.959846
917.946961	3239.684916
918.252218	3172.148578
918.557435	3094.149325
918.862612	3031.134902
919.167750	2980.078096
919.472848	2940.255501
919.777906	2914.351532
920.082925	2884.129815
920.387904	2855.717872
920.692843	2837.473936
920.997743	2826.060764
921.302603	2815.474341
921.607423	2805.439924
921.912204	2791.337296
922.216946	2778.623506
922.521647	2771.860798
922.826310	2761.241608
923.130932	2755.575351
923.435516	2746.213928
923.740059	2738.705129
924.044564	2731.632391
924.349028	2724.894888
924.653454	2720.867007
924.957840	2711.495502
925.262186	2707.666745
925.566493	2703.049048
925.870761	2701.647607
926.174989	2695.361289
926.479178	2693.357430
926.783328	2686.607325
927.087438	2683.363342
927.391509	2683.804443
927.695541	2680.205060
927.999533	2677.311437
928.303486	2674.339677
928.607400	2672.532423
928.911275	2671.322547
929.215110	2671.539316
929.518906	2668.711229
929.822663	2673.086950
930.126381	2669.797597
930.430060	2670.145437
930.733699	2672.882784
931.037299	2674.987465
931.340861	2676.114163
931.644383	2675.257167
931.947866	2672.550067
932.251309	2671.617454
932.554714	2670.397495
932.858080	2671.796415
933.161407	2668.360869
933.464694	2663.879283
933.767943	2661.840136
934.071153	2666.820796
934.374323	2664.789211
934.677455	2665.316012
934.980548	2663.400373
935.283602	2662.268634
935.586617	2661.381391
935.889593	2663.586896
936.192530	2662.908861
936.495428	2664.335507
936.798287	2666.752741
937.101108	2668.864984
937.403890	2672.071158
937.706632	2675.332784
938.009336	2686.214115
938.312002	2693.130578
938.614628	2700.679706
938.917216	2709.226982
939.219765	2707.124821
939.522275	2708.735470
939.824747	2702.275231
940.127179	2702.229861
940.429573	2698.353213
940.731929	2698.264993
941.034246	2692.936494
941.336524	2690.703262
941.638763	2688.500278
941.940964	2685.457942
942.243126	2682.647499
942.545250	2682.231603
942.847335	2679.700944
943.149381	2677.331602
943.451389	2672.608041
943.753359	2671.536796
944.055290	2670.962104
944.357182	2666.130158
944.659036	2667.277021
944.960851	2664.448933
945.262628	2663.291988
945.564367	2665.318532
945.866067	2668.454130
946.167729	2667.007319
946.469352	2665.878100
946.770937	2666.059582
947.072484	2664.101094
947.373992	2664.821979
947.675462	2659.458191
947.976893	2658.021462
948.278286	2657.262768
948.579641	2655.848725
948.880958	2653.532315
949.182236	2655.465597
949.483476	2658.427275
949.784678	2655.410144
950.085841	2655.901657
950.386967	2657.371153
950.688054	2657.683705
950.989103	2659.369971
951.290114	2659.193530
951.591087	2661.356185
951.892021	2661.381391
952.192917	2666.087308
952.493776	2670.936898
952.794596	2667.551763
953.095378	2668.933040
953.396122	2666.624191
953.696828	2667.851712
953.997496	2664.827020
954.298126	2661.378871
954.598718	2663.246618
954.899272	2658.959117
955.199788	2654.827891
955.500266	2653.282777
955.800706	2650.414361
956.101108	2649.118784
956.401472	2648.014772
956.701798	2643.533186
957.002087	2642.681231
957.302337	2643.192908
957.602550	2641.720891
957.902724	2636.026908
958.202861	2636.783081
958.502960	2636.407515
958.803022	2635.124541
959.103045	2634.267545
959.403031	2634.275107
959.702979	2634.247381
960.002889	2633.919706
960.302762	2633.965076
960.602596	2634.096146
960.902393	2632.609006
961.202153	2630.138840
961.501875	2631.492390
961.801559	2631.172277
962.101205	2629.549025
962.400814	2629.480970
962.700385	2631.560446
962.999918	2627.277985
963.299414	2627.842595
963.598873	2626.310084
963.898293	2625.596761
964.197677	2629.125568
964.497022	2628.825620
964.796331	2629.322173
965.095601	2628.694550
965.394835	2630.640435
965.694030	2629.843933
965.993189	2628.734879
966.292309	2626.627677
966.591393	2628.991978
966.890439	2628.268572
967.189447	2628.815537
967.488419	2628.528192
967.787353	2626.990640
968.086249	2626.211781
968.385108	2627.262862
968.683930	2628.946607
968.982714	2631.467184
969.281462	2630.116155
969.580172	2628.550877
969.878844	2627.504837
970.177480	2627.981226
970.476078	2631.147071
970.774639	2629.448202
971.073162	2628.820578
971.371649	2629.980044
971.670098	2630.027935
971.968510	2626.788993
972.266885	2628.132461
972.565223	2630.196813
972.863524	2629.077677
973.161788	2629.712863
973.460014	2626.877214
973.758204	2632.183028
974.056356	2626.683129
974.354471	2626.786473
974.652550	2630.264869
974.950591	2625.569034
975.248595	2628.447533
975.546563	2627.431741
975.844493	2626.254631
976.142386	2625.435444
976.440243	2629.359982
976.738062	2626.680609
977.035845	2626.703294
977.333590	2627.643469
977.631299	2626.524333
977.928971	2626.105917
978.226606	2624.747326
978.524204	2625.059878
978.821765	2621.387397
979.119290	2627.779580
979.416777	2623.502161
979.714228	2626.337810
980.011642	2625.122892
980.309020	2628.755043
980.606360	2624.737244
980.903664	2625.861421
981.200931	2627.915691
981.498162	2628.029117
981.795356	2625.415279
982.092513	2631.951135
982.389633	2631.366361
982.686717	2634.559932
982.983764	2639.752321
983.280775	2642.298103
983.577749	2645.690800
983.874686	2641.758700
984.171587	2640.783237
984.468451	2640.498411
984.765279	2633.607154
985.062070	2634.015487
985.358824	2631.381485
985.655543	2630.073305
985.952224	2630.181690
986.248869	2625.720269
986.545478	2625.432923
986.842050	2625.342182
987.138586	2626.766308
987.435086	2626.660444
987.731549	2624.749847
988.027975	2625.170783
988.324366	2621.755401
988.620719	2621.412603
988.917037	2623.794548
989.213318	2623.895371
989.509563	2622.451081
989.805772	2622.219187
990.101944	2622.377984
990.398080	2621.475617
990.694180	2625.521143
990.990244	2623.804630
991.286271	2621.233642
991.582262	2620.767335
991.878217	2623.464352
992.174136	2622.196502
992.470019	2621.614249
992.765865	2620.094341
993.061676	2618.584516
993.357450	2620.129629
993.653188	2619.169289
993.948890	2621.619290
994.244556	2622.309928
994.540186	2622.632562
994.835780	2622.453601
995.131337	2624.555762
995.426859	2626.728500
995.722345	2625.818571
996.017795	2625.962244
996.313208	2628.394601
996.608586	2626.688170
996.903928	2628.737399
997.199234	2627.494755
997.494504	2627.005763
997.789738	2628.780249
998.084936	2626.385701
998.380099	2625.011987
998.675225	2626.153808
998.970316	2625.589199
999.265371	2623.973509
999.560390	2622.728344
999.855373	2626.710856
1000.150320	2622.390587
1000.445232	2621.843622
1000.740108	2622.738426
1001.034948	2620.472428
1001.329752	2620.333796
1001.624521	2620.706841
1001.919254	2620.903446
1002.213951	2620.888323
1002.508613	2623.718931
1002.803239	2620.192644
1003.097829	2620.328755
1003.392384	2619.446553
1003.686903	2620.696759
1003.981386	2620.729527
1004.275834	2619.940586
1004.570246	2619.242386
1004.864623	2618.841614
1005.158964	2620.840432
1005.453270	2621.662140
1005.747540	2619.806995
1006.041775	2619.381018
1006.335974	2619.421347
1006.630138	2620.215329
1006.924266	2622.788838
1007.218359	2618.587036
1007.512416	2617.460338
1007.806438	2615.564864
1008.100425	2615.184257
1008.394376	2614.380193
1008.688292	2619.812037
1008.982172	2619.234824
1009.276017	2619.146604
1009.569827	2618.501337
1009.863602	2620.968981
1010.157341	2621.647017
1010.451045	2621.165586
1010.744714	2619.968312
1011.038347	2619.738940
1011.331945	2619.446553
1011.625508	2619.809516
1011.919036	2619.766666
1012.212528	2620.706841
1012.505986	2620.369084
1012.799408	2620.918570
1013.092795	2617.881275
1013.386147	2618.743312
1013.679464	2617.934207
1013.972745	2618.312293
1014.265992	2617.422530
1014.559204	2621.122737
1014.852380	2619.106275
1015.145521	2620.328755
1015.438628	2619.834722
1015.731699	2621.044599
1016.024736	2619.817078
1016.317737	2617.891357
1016.610703	2620.084259
1016.903635	2621.941924
1017.196531	2619.179372
1017.489393	2619.870010
1017.782219	2618.677777
1018.075011	2619.370936
1018.367768	2618.216511
1018.660490	2617.835904
1018.953177	2617.835904
1019.245829	2617.835904
