Dividing Wavelength (nm)	Counts (n)	Blue Motor Position (mm): 36.300000	Red Motor Position (mm): 0.000000	
326.493990	2231.817110
326.888308	2231.817110
327.282561	2231.817110
327.676750	2193.219516
328.070874	2188.203568
328.464933	2194.608354
328.858929	2194.933508
329.252859	2199.621781
329.646726	2210.430015
330.040528	2219.796479
330.434265	2235.635784
330.827938	2254.068763
331.221547	2270.455034
331.615091	2286.130502
332.008571	2304.434931
332.401986	2322.757005
332.795338	2342.604028
333.188625	2363.116483
333.581847	2380.942003
333.975006	2400.582338
334.368100	2421.157808
334.761129	2439.406784
335.154095	2455.374639
335.546996	2482.944710
335.939833	2521.302849
336.332606	2532.627801
336.725315	2551.511964
337.117960	2560.434806
337.510540	2574.744121
337.903056	2584.655030
338.295508	2592.592326
338.687896	2601.830241
339.080220	2607.481374
339.472480	2614.299535
339.864676	2621.919239
340.256807	2625.712707
340.648875	2630.872328
341.040879	2634.068420
341.432818	2635.588327
341.824694	2635.789974
342.216506	2639.931282
342.608253	2640.435397
342.999937	2642.358597
343.391557	2641.582259
343.783113	2637.254429
344.174605	2637.473719
344.566033	2637.095632
344.957397	2636.218472
345.348697	2634.998512
345.739934	2632.553553
346.131106	2632.538429
346.522215	2631.978861
346.913260	2626.778911
347.304241	2625.639610
347.695159	2626.370578
348.086012	2624.580968
348.476802	2620.084259
348.867528	2617.878754
349.258191	2616.804988
349.648789	2614.110492
350.039324	2609.815428
350.429796	2614.788527
350.820203	2613.737446
351.210548	2613.417333
351.600828	2608.267794
351.991045	2609.550768
352.381198	2609.255860
352.771288	2610.798453
353.161314	2608.308123
353.551276	2607.231837
353.941175	2603.801332
354.331010	2607.239399
354.720782	2604.149172
355.110490	2607.138576
355.500135	2606.480705
355.889717	2607.221755
356.279235	2605.719491
356.668689	2605.323760
357.058080	2608.166971
357.447408	2607.463730
357.836672	2607.297372
358.225873	2603.307299
358.615010	2606.611775
359.004084	2610.551437
359.393095	2608.308123
359.782043	2607.811570
360.170927	2610.236365
360.559748	2609.959101
360.948505	2609.903649
361.337199	2613.167796
361.725830	2610.231324
362.114398	2612.323402
362.502903	2611.615120
362.891344	2612.683845
363.279722	2613.124946
363.668037	2613.072014
364.056289	2616.366408
364.444478	2614.178547
364.832603	2617.510750
365.220665	2616.931017
365.608665	2619.219701
365.996601	2620.084259
366.384474	2619.108796
366.772284	2617.992180
367.160031	2618.662653
367.547715	2619.900257
367.935336	2619.111316
368.322893	2618.183744
368.710388	2617.909001
369.097820	2615.327930
369.485189	2617.830863
369.872495	2623.091307
370.259738	2623.108951
370.646918	2621.778087
371.034035	2625.962244
371.421090	2622.556945
371.808081	2622.564507
372.195010	2625.014507
372.581875	2624.119702
372.968678	2624.288581
373.355418	2624.013838
373.742096	2624.782614
374.128710	2627.983747
374.515262	2624.699435
374.901751	2627.101545
375.288177	2626.302522
375.674540	2626.320166
376.060841	2628.946607
376.447079	2630.509365
376.833254	2629.188583
377.219367	2628.210599
377.605417	2629.070116
377.991404	2628.911319
378.377329	2630.373254
378.763191	2630.990795
379.148991	2630.272431
379.534727	2632.503141
379.920402	2631.278141
380.306013	2631.467184
380.691563	2635.651342
381.077049	2634.184366
381.462474	2633.302164
381.847835	2636.092443
382.233134	2636.273924
382.618371	2634.391053
383.003545	2638.292907
383.388657	2637.390540
383.773706	2637.352731
384.158693	2640.180819
384.543618	2641.670480
384.928480	2638.940695
385.313280	2639.038997
385.698017	2641.020171
386.082692	2640.316930
386.467305	2641.514204
386.851856	2643.102167
387.236344	2644.725419
387.620770	2643.087044
388.005133	2641.970428
388.389435	2641.146200
388.773674	2640.354738
389.157851	2648.670122
389.541965	2646.320944
389.926018	2648.249185
390.310008	2648.327323
390.693936	2647.540903
391.077802	2651.072232
391.461606	2651.583909
391.845348	2651.089876
392.229027	2651.256234
392.612645	2651.341933
392.996200	2654.611122
393.379694	2652.559372
393.763125	2654.739671
394.146494	2655.125319
394.529801	2654.026348
394.913047	2657.287974
395.296230	2657.298057
395.679351	2657.507264
396.062410	2661.426762
396.445408	2658.938952
396.828343	2659.405259
397.211217	2664.506907
397.594028	2663.523882
397.976778	2664.413645
398.359466	2667.486228
398.742092	2672.103925
399.124656	2672.819769
399.507158	2679.726150
399.889598	2688.432223
400.271977	2697.067719
400.654294	2710.358721
401.036549	2719.631924
401.418742	2733.946280
401.800874	2758.037954
402.182944	2782.787499
402.564952	2812.696665
402.946898	2845.524659
403.328783	2870.813607
403.710606	2905.403484
404.092367	2981.613128
404.474067	3036.458361
404.855705	3078.030236
405.237282	3125.245683
405.618797	3220.218501
406.000250	3287.238121
406.381642	3394.332393
406.762972	3470.295020
407.144240	3554.754511
407.525447	3626.679174
407.906593	3712.527503
408.287677	3840.033407
408.668700	3897.124475
409.049661	4021.628372
409.430560	4113.546250
409.811399	4141.446516
410.192176	4335.951876
410.572891	4425.134928
410.953545	4613.883290
411.334138	4578.680913
411.714669	4750.725411
412.095139	4735.775870
412.475547	4948.721770
412.855894	5072.376233
413.236180	5263.803967
413.616405	5170.933311
413.996568	5381.512389
414.376670	5481.181042
414.756711	5496.324668
415.136691	5640.405886
415.516609	5853.528227
415.896466	5945.788904
416.276262	6153.711294
416.655997	6216.574483
417.035670	6437.263595
417.415283	6767.292814
417.794834	6875.412961
418.174324	6845.350040
418.553753	6853.637697
418.933121	7180.795979
419.312428	7322.220509
419.691674	7205.167437
420.070859	7677.185795
420.449983	7450.258255
420.829045	7824.909247
421.208047	7681.387597
421.586988	7995.242274
421.965867	8052.933238
422.344686	8211.911066
422.723444	8264.762523
423.102141	7718.707259
423.480777	8450.430740
423.859352	8031.200824
424.237866	8652.782655
424.616319	8552.282212
424.994712	8957.885889
425.373044	8577.046880
425.751314	9034.667703
426.129524	8910.511645
426.507673	9061.161487
426.885762	9230.861849
427.263789	9155.703286
427.641756	9081.474816
428.019662	9197.449081
428.397508	9432.243342
428.775292	9149.248089
429.153016	9523.775572
429.530679	9366.627684
429.908282	9422.944934
430.285824	9138.071851
430.663305	9815.255088
431.040726	9273.867932
431.418086	9273.567984
431.795385	9590.792672
432.172624	9670.631946
432.549802	9599.486142
432.926920	9681.803143
433.303977	9563.245287
433.680974	9773.610116
434.057910	9852.927631
434.434786	9919.904401
434.811601	9776.004664
435.188355	10335.219860
435.565050	10051.526407
435.941683	9988.101130
436.318257	10490.263067
436.694770	10607.845460
437.071222	10679.538230
437.447614	10531.759325
437.823946	10422.273025
438.200218	10571.881869
438.576429	10376.670748
438.952580	10608.805800
439.328670	10675.706953
439.704700	10457.102357
440.080670	10444.514596
440.456580	11011.175577
440.832429	10754.059086
441.208218	10365.295384
441.583947	10700.418689
441.959616	10842.732983
442.335224	10635.380243
442.710773	10792.175251
443.086261	10988.505508
443.461689	10278.151478
443.837057	10922.428584
444.212365	11202.084073
444.587612	10843.000164
444.962800	11084.320198
445.337927	10855.577843
445.712995	10427.266288
446.088002	11518.333297
446.462949	11170.775987
446.837837	11141.345731
447.212664	11141.247428
447.587431	11647.195272
447.962139	12367.644212
448.336786	14627.457370
448.711374	15181.102092
449.085901	13032.257332
449.460369	12637.782003
449.834776	12092.951739
450.209124	12965.212507
450.583412	13378.471176
450.957640	14309.025326
451.331808	13468.125576
451.705917	12455.292234
452.079965	11772.878799
452.453954	12665.299141
452.827883	12286.968107
453.201752	12585.033890
453.575562	12100.021957
453.949311	12519.166173
454.323001	12480.127478
454.696632	12710.346892
455.070202	12998.358093
455.443713	13233.066655
455.817164	13688.315615
456.190556	13688.247559
456.563888	14050.315831
456.937160	14226.753695
457.310373	13564.799784
457.683526	13647.893123
458.056619	13198.532230
458.429653	13339.712264
458.802628	12775.980194
459.175542	13140.899239
459.548398	14095.673613
459.921194	14426.499334
460.293930	14488.409744
460.666607	15378.117946
461.039224	16406.188176
461.411782	17110.780167
461.784280	16987.445817
462.156719	17045.706432
462.529099	16732.592805
462.901419	15658.406099
463.273680	15452.825325
463.645882	15320.028730
464.018024	15054.422937
464.390106	15265.523774
464.762130	15992.054867
465.134094	16760.639264
465.505999	18757.165560
465.877845	22029.617976
466.249631	24839.058056
466.621358	24528.293607
466.993026	23085.026384
467.364634	22525.808667
467.736184	21069.724311
468.107674	20263.053996
468.479105	20401.645397
468.850477	19853.561069
469.221790	19439.543706
469.593043	18757.788143
469.964238	18198.015899
470.335373	17856.949074
470.706449	18308.371798
471.077467	17857.370010
471.448425	19702.949036
471.819324	23737.142484
472.190164	25747.141263
472.560945	22175.705574
472.931667	19804.596342
473.302330	19184.254634
473.672934	18716.899344
474.043479	19035.311223
474.413965	18845.511781
474.784393	18463.886353
475.154761	19160.011726
475.525070	19152.790273
475.895321	18812.270413
476.265513	19403.587677
476.635645	19988.933694
477.005719	19765.492111
477.375734	19957.255083
477.745691	20438.408012
478.115588	20974.915330
478.485427	21491.336172
478.855207	22550.913613
479.224928	24321.676875
479.594591	26551.248151
479.964194	26573.794712
480.333739	26780.582842
480.703226	26351.981422
481.072653	26024.283737
481.442022	26609.165968
481.811333	27529.489096
482.180584	27435.658100
482.549777	26484.057132
482.918912	26131.362886
483.287988	26249.875371
483.657005	25921.824805
484.025964	25666.298799
484.394864	25575.222793
484.763706	25276.751197
485.132489	24701.391706
485.501213	24878.772266
485.869879	24784.238028
486.238487	24608.836122
486.607036	24754.170066
486.975527	24462.960253
487.343959	24778.133191
487.712333	24722.599840
488.080648	24395.202104
488.448905	24875.067018
488.817104	24620.340035
489.185244	25298.118128
489.553326	25278.949141
489.921350	26277.014423
490.289315	28563.170131
490.657222	30334.208135
491.025070	30822.564873
491.392861	30601.812746
491.760593	29749.499824
492.128267	28848.635549
492.495883	27807.523854
492.863440	26936.102439
493.230939	26064.333183
493.598380	25904.412660
493.965763	25500.160013
494.333088	25043.363418
494.700354	24994.701160
495.067563	24868.531162
495.434713	24619.372133
495.801805	24778.140753
496.168839	24583.448871
496.535815	24423.742596
496.902733	24642.753005
497.269593	24312.668333
497.636395	24498.172712
498.003139	24446.521050
498.369825	24188.043448
498.736453	24396.538010
499.103023	24272.044195
499.469535	24288.455671
499.835989	24492.919830
500.202385	24528.298648
500.568723	24030.628378
500.935003	24265.236117
501.301226	23895.081834
501.667390	24726.935233
502.033497	24967.292407
502.399546	24688.446023
502.765537	24262.660087
503.131470	24641.918694
503.497345	24772.729074
503.863163	23994.503470
504.228923	24587.224695
504.594625	24803.795185
504.960269	24338.970553
505.325856	24830.404915
505.691385	24225.393357
506.056856	24838.591749
506.422270	24808.730474
506.787625	24367.193453
507.152924	24780.187461
507.518164	24812.697863
507.883347	24630.195490
508.248472	24298.444718
508.613540	25085.731796
508.978550	24878.638675
509.343503	24879.311669
509.708398	25134.076461
510.073236	25278.886126
510.438016	25492.673899
510.802738	25172.442163
511.167403	25415.171200
511.532010	25129.194104
511.896561	25906.396354
512.261053	25869.142227
512.625488	25699.139396
512.989866	25599.090136
513.354186	25431.683499
513.718449	25538.132504
514.082655	25929.187411
514.446803	25659.042058
514.810894	26119.319569
515.174927	25609.946261
515.538904	25646.502188
515.902822	26122.054395
516.266684	25904.301755
516.630488	25793.446782
516.994235	25763.759427
517.357925	26084.583498
517.721558	26260.499603
518.085133	26362.159512
518.448651	26265.480263
518.812112	25991.193603
519.175516	26210.534207
519.538863	26370.258125
519.902152	26149.753015
520.265385	26432.176097
520.628560	26215.792130
520.991678	26215.424126
521.354739	26288.480528
521.717743	26352.029313
522.080690	26141.193136
522.443580	26477.236451
522.806413	26464.714225
523.169189	26563.039410
523.531908	26614.955733
523.894569	26219.174744
524.257174	26315.037326
524.619722	26479.078993
524.982213	26166.840006
525.344647	26214.756173
525.707025	26359.265889
526.069345	26340.028846
526.431608	26301.438813
526.793815	26494.240263
527.155964	25955.703880
527.518057	26128.529757
527.880093	26048.645113
528.242072	26277.591635
528.603995	25989.537584
528.965860	25782.356243
529.327669	25831.237791
529.689421	25826.431051
530.051117	25657.290257
530.412755	25830.650497
530.774337	25615.741067
531.135862	25501.521124
531.497331	25699.978748
531.858743	25262.401553
532.220098	25740.668421
532.581396	25424.769557
532.942638	25345.598236
533.303824	25448.331910
533.664953	25450.895337
534.026025	25134.734332
534.387040	25348.106210
534.747999	25421.926346
535.108902	25578.761683
535.469748	25074.001031
535.830537	25253.617343
536.191270	25390.300667
536.551947	25240.086886
536.912567	24880.917277
537.273131	25254.890234
537.633638	24949.981085
537.994089	25168.792367
538.354483	24688.806466
538.714821	25190.827251
539.075103	25233.588838
539.435328	25014.835529
539.795497	24581.321504
540.155609	24971.562264
540.515665	25267.848520
540.875665	24492.917309
541.235609	24818.956455
541.595496	24769.323775
541.955328	25133.879856
542.315102	25052.717279
542.674821	24580.492234
543.034483	24443.120792
543.394090	24616.511278
543.753640	24428.645118
544.113134	25053.115531
544.472571	24646.871627
544.831953	24941.060763
545.191278	24564.801643
545.550548	24493.023174
545.909761	24678.272975
546.268918	24919.161991
546.628019	24893.923454
546.987064	24576.403858
547.346053	24330.098123
547.704986	24436.514360
548.063863	24610.673622
548.422684	24617.373316
548.781449	24143.464525
549.140158	24546.144332
549.498811	24125.278562
549.857408	23880.011304
550.215949	24290.782164
550.574434	23972.269461
550.932864	24187.874570
551.291237	24348.072357
551.649555	24217.040165
552.007817	24262.781075
552.366022	24111.886737
552.724173	24140.933866
553.082267	24107.274081
553.440305	24584.091618
553.798288	23842.401776
554.156215	24352.697615
554.514086	24460.689213
554.871902	23846.298588
555.229661	24117.590803
555.587365	23972.007321
555.945014	23848.120965
556.302606	24084.208282
556.660143	24044.854514
557.017625	24311.713034
557.375050	23830.635723
557.732421	24211.489855
558.089735	24022.975907
558.446994	24081.591923
558.804197	24112.408497
559.161345	24036.839080
559.518437	23802.339726
559.875474	23995.912472
560.232455	24175.148177
560.589381	23984.625329
560.946251	23975.059739
561.303065	24285.219250
561.659825	24394.214038
562.016528	23976.735923
562.373177	23728.665783
562.729770	24082.806841
563.086307	23935.461476
563.442789	24107.475727
563.799216	23941.828453
564.155587	23958.814621
564.511904	23936.938534
564.868164	23877.886458
565.224370	23856.249826
565.580520	23771.797896
565.936615	23899.938985
566.292654	23573.078132
566.648638	23858.145299
567.004567	23682.438403
567.360441	23631.253047
567.716260	23353.084698
568.072023	23680.603423
568.427732	23462.182829
568.783385	23220.308268
569.138982	23465.061328
569.494525	23502.665815
569.850013	23255.379575
570.205445	23351.143854
570.560823	23179.139685
570.916145	22938.487603
571.271412	23115.855560
571.626625	22860.430377
571.981782	22973.599240
572.336884	22784.558491
572.691931	22910.819230
573.046923	22661.859327
573.401860	22535.528012
573.756743	22554.815466
574.111570	22455.915590
574.466342	22382.352552
574.821059	22474.124237
575.175722	22173.031242
575.530330	22146.063589
575.884882	22160.756032
576.239380	22074.138927
576.593823	21960.730609
576.948211	21937.818565
577.302544	21793.777676
577.656823	21655.319865
578.011047	21762.784662
578.365216	21629.292388
578.719330	21503.742451
579.073389	21413.175602
579.427394	21548.586035
579.781344	21317.875109
580.135239	21203.660207
580.489080	21162.161428
580.842866	20938.462747
581.196597	21129.943414
581.550273	21104.914085
581.903895	20986.446970
582.257463	21300.846091
582.610975	20830.539205
582.964434	21149.803040
583.317837	20836.283600
583.671186	20937.525092
584.024481	20899.434134
584.377721	20673.661018
584.730906	20744.330433
585.084037	20759.554718
585.437113	20674.243271
585.790135	20868.299968
586.143103	20336.919503
586.496016	20347.120277
586.848874	20589.524160
587.201679	20515.663694
587.554428	20191.661175
587.907124	20525.380518
588.259765	20297.706887
588.612352	20367.274810
588.964884	19938.670869
589.317362	20114.400451
589.669786	20169.270890
590.022155	20200.702484
590.374470	20404.322250
590.726731	20177.326654
591.078937	19963.382605
591.431090	20040.660973
591.783188	19805.418050
592.135232	19778.281518
592.487222	19879.510408
592.839157	19893.187059
593.191038	19769.023439
593.542866	19654.821140
593.894639	19369.937975
594.246358	19595.456512
594.598022	19482.839656
594.949633	19242.578264
595.301190	19209.946875
595.652692	19387.768536
596.004141	19612.974522
596.355535	18938.435370
596.706876	18964.296489
597.058162	18852.826495
597.409395	19081.888964
597.760573	19149.561414
598.111698	18915.740095
598.462768	18873.414568
598.813785	18828.505449
599.164748	18635.963619
599.515657	18692.384212
599.866511	18480.965782
600.217312	18831.018464
600.568060	18356.250156
600.918753	18664.204163
601.269392	18571.439370
601.619978	18351.209002
601.970510	18551.143685
602.320988	18493.798039
602.671412	18712.556390
603.021783	18629.551271
603.372100	18336.577053
603.722363	18489.266042
604.072572	18429.969470
604.422728	18566.272187
604.772830	18327.555909
605.122878	18279.307025
605.472872	18268.060211
605.822813	18257.430938
606.172701	18238.040140
606.522534	18423.804138
606.872314	18450.802038
607.222041	18288.396226
607.571714	18496.384151
607.921333	18321.057861
608.270899	18397.857320
608.620411	18572.082117
608.969870	18347.163477
609.319276	18344.274895
609.668627	18372.588536
610.017926	18509.229011
610.367171	18621.651783
610.716362	18672.784206
611.065500	18481.124578
611.414585	18630.423391
611.763616	18626.345097
612.112594	18558.690292
612.461518	18524.949849
612.810389	18711.984219
613.159207	18572.555986
613.507971	18482.490731
613.856682	18744.739116
614.205340	18663.654677
614.553945	18821.236105
614.902496	18568.823011
615.250994	18791.064799
615.599439	18724.992916
615.947830	18716.294405
616.296169	18788.093039
616.644454	18738.636799
616.992686	18724.619871
617.340864	18937.437222
617.688990	18690.609726
618.037063	18865.159678
618.385082	18718.141988
618.733048	18987.773143
619.080961	18882.372698
619.428821	18896.820645
619.776628	18779.792779
620.124382	18705.738229
620.472083	18762.357948
620.819731	18770.451521
621.167326	18463.853585
621.514868	18512.198251
621.862357	18280.685781
622.209793	18280.700904
622.557176	18114.620091
622.904506	17954.699567
623.251783	17870.156897
623.599007	17621.053321
623.946179	17573.217812
624.293297	17512.633225
624.640363	17247.937360
624.987376	17255.088237
625.334336	17067.204433
625.681243	16914.848161
626.028097	16930.775686
626.374899	16847.720156
626.721647	16717.481946
627.068343	16545.318981
627.414987	16476.171994
627.761577	16455.064683
628.108115	16481.563508
628.454600	16207.874225
628.801032	16308.414997
629.147412	16249.441059
629.493739	16260.355157
629.840014	16069.920529
630.186236	16180.054617
630.532405	15928.745536
630.878521	16137.098945
631.224585	16036.321239
631.570597	15851.396592
631.916556	15883.415481
632.262462	15862.172058
632.608316	15779.676096
632.954117	15712.447269
633.299866	15716.003803
633.645562	15630.273940
633.991206	15383.965684
634.336797	15259.340799
634.682336	15222.989039
635.027823	15111.393016
635.373257	14986.448018
635.718639	14892.032248
636.063968	14840.468806
636.409245	14588.537142
636.754470	14621.400424
637.099642	14469.102125
637.444762	14245.799174
637.789829	14279.239668
638.134845	14112.657260
638.479808	14141.031395
638.824719	14068.610178
639.169577	13933.071196
639.514383	13973.082834
639.859137	13803.800888
640.203839	13893.914033
640.548489	13742.631527
640.893086	13724.984968
641.237632	13603.536010
641.582125	13754.127878
641.926566	13577.082555
642.270955	13585.541611
642.615292	13546.404613
642.959576	13557.149833
643.303809	13583.701590
643.647990	13524.667158
643.992118	13584.389707
644.336195	13360.310419
644.680219	13565.306420
645.024192	13486.987053
645.368112	13720.768042
645.711981	13766.892080
646.055797	13951.345378
646.399562	13930.084312
646.743274	14194.291185
647.086935	14465.764881
647.430544	14434.514769
647.774101	14469.570952
648.117606	14609.243682
648.461059	14593.598461
648.804460	14575.757817
649.147810	14303.580880
649.491108	14204.262587
649.834354	14224.454929
650.177548	13916.158124
650.520690	13723.165111
650.863781	13639.587822
651.206820	13686.596581
651.549807	13524.289071
651.892742	13318.509171
652.235626	13253.493410
652.578458	13252.354109
652.921238	12945.627624
653.263967	13146.648675
653.606644	12971.410606
653.949269	12954.426958
654.291843	12762.225406
654.634365	12914.765680
654.976836	12763.089964
655.319255	12774.508177
655.661622	12725.729973
656.003938	12645.623518
656.346203	12571.533680
656.688416	12641.245276
657.030577	12607.030964
657.372687	12525.719673
657.714746	12498.598266
658.056753	12690.288141
658.398708	12503.964574
658.740612	12497.915189
659.082465	12609.496089
659.424266	12579.597005
659.766016	12605.246396
660.107715	12509.880368
660.449362	12596.298348
660.790958	12549.375288
661.132503	12485.597130
661.473996	12563.903893
661.815438	12575.783372
662.156829	12597.145262
662.498168	12572.380593
662.839456	12572.494019
663.180693	12589.694436
663.521879	12685.274713
663.863013	12657.109787
664.204097	12623.946556
664.545129	12750.895413
664.886110	12718.851318
665.227040	12817.176504
665.567918	12814.726503
665.908746	12845.144825
666.249522	12826.638749
666.590248	12889.849778
666.930922	13000.702230
667.271545	12971.897077
667.612118	13063.083988
667.952639	12961.708905
668.293109	12979.957882
668.633528	12933.054987
668.973896	12905.807550
669.314213	12976.315648
669.654480	12721.208058
669.994695	12801.720326
670.334859	12823.911485
670.674973	12769.761931
671.015035	12800.681848
671.355047	12745.125812
671.695008	12713.545504
672.034918	12726.382802
672.374777	12762.001075
672.714585	12681.614836
673.054342	12717.031462
673.394049	12669.919359
673.733705	12764.186415
674.073310	12670.546982
674.412864	12682.875124
674.752368	12542.978064
675.091820	12569.537383
675.431223	12551.071636
675.770574	12420.904003
676.109875	12337.919049
676.449125	12300.480920
676.788324	12247.475707
677.127473	12077.064543
677.466571	12068.025754
677.805619	11960.676903
678.144616	11895.078889
678.483562	11864.864733
678.822458	11729.270298
679.161303	11706.141484
679.500098	11697.440452
679.838842	11651.288689
680.177535	11687.395953
680.516179	11743.695560
680.854771	11684.381343
681.193314	11903.154818
681.531805	12068.381155
681.870247	12492.291782
682.208638	12911.909867
682.546978	13215.576372
682.885268	13244.842790
683.223508	12947.792800
683.561697	12790.317236
683.899836	12693.872401
684.237925	12499.059531
684.575963	12409.183320
684.913951	12330.821104
685.251889	12283.555246
685.589776	12383.307077
685.927614	12294.620578
686.265401	12268.386414
686.603137	12317.535143
686.940824	12475.078763
687.278460	12598.045108
687.616046	12631.737659
687.953582	12800.747383
688.291068	12739.552817
688.628504	12961.237557
688.965889	12974.941934
689.303224	12933.569184
689.640510	12823.576248
689.977745	12512.158970
690.314930	12298.381279
690.652065	12201.573481
690.989150	11905.917370
691.326185	11680.053513
691.663170	11479.811320
692.000105	11237.903991
692.336990	11117.813624
692.673825	10862.572443
693.010610	10754.893397
693.347345	10535.421723
693.684030	10341.796045
694.020665	10284.760431
694.357251	10086.844731
694.693786	10025.808961
695.030272	9869.785249
695.366707	9742.735569
695.703093	9679.975724
696.039429	9669.729579
696.375716	9595.763249
696.711952	9457.696128
697.048139	9510.179581
697.384276	9462.704514
697.720363	9478.974838
698.056400	9417.475282
698.392388	9369.087767
698.728326	9328.574534
699.064214	9262.026262
699.400053	9310.275145
699.735842	9115.106874
700.071581	9087.496475
700.407270	9004.909772
700.742910	8932.276827
701.078501	8834.354934
701.414042	8707.549750
701.749533	8646.708065
702.084974	8510.498608
702.420366	8629.031259
702.755709	8508.262857
703.091002	8370.256229
703.426246	8396.250939
703.761440	8354.021193
704.096584	8311.022671
704.431679	8241.653874
704.766725	8229.812203
705.101721	8182.044750
705.436668	8229.177018
705.771565	8121.351778
706.106413	8204.369500
706.441212	8233.459478
706.775961	8195.018159
707.110661	8235.314623
707.445311	8375.221765
707.779913	8273.897094
708.114465	8398.952997
708.448967	8437.575797
708.783421	8590.416020
709.117825	8767.415973
709.452180	8803.707239
709.786485	8888.595229
710.120742	9177.556688
710.454949	9184.248820
710.789107	9285.155076
711.123216	9506.176904
711.457275	9666.901492
711.791286	9824.200615
712.125247	9818.826745
712.459159	9809.929109
712.793023	10047.271673
713.126837	9624.233166
713.460602	9782.648905
713.794318	9605.810269
714.127985	9631.633580
714.461602	9305.836409
714.795171	9260.337475
715.128691	9002.749637
715.462162	8759.793748
715.795584	8701.570942
716.128957	8546.076552
716.462281	8382.496150
716.795556	8434.170498
717.128782	8214.111530
717.461960	7961.143909
717.795088	8027.024228
718.128167	7940.888553
718.461198	7780.030375
718.794180	7709.726443
719.127113	7704.511370
719.459997	7543.554889
719.792833	7316.156001
720.125619	7382.946248
720.458357	7234.222127
720.791046	7231.976293
721.123686	7229.238947
721.456278	7060.841723
721.788821	7084.862821
722.121315	6982.918087
722.453761	7049.393263
722.786158	6982.441698
723.118506	7000.005078
723.450805	6964.076775
723.783056	7025.344438
724.115259	6946.460463
724.447412	6941.396624
724.779518	6991.251115
725.111574	6987.792883
725.443582	7063.390026
725.775542	7051.737399
726.107453	7246.126812
726.439315	7153.011659
726.771129	7220.646300
727.102895	7392.829430
727.434612	7498.066037
727.766281	7540.706637
728.097901	7616.192875
728.429473	7618.204295
728.760996	7602.826255
729.092471	7570.363745
729.423897	7512.367791
729.755276	7506.832604
730.086606	7439.165196
730.417887	7537.571039
730.749120	7747.557782
731.080305	7935.998634
731.411442	8048.441570
731.742530	8033.426493
732.073570	8146.499574
732.404562	8233.973676
732.735506	8082.771828
733.066401	8227.785659
733.397249	8150.472003
733.728048	7914.430057
734.058798	7580.559479
734.389501	7351.978440
734.720156	7174.638209
735.050762	6948.895340
735.381320	6856.564087
735.711831	6799.551158
736.042293	6689.553181
736.372707	6708.127312
736.703073	6573.979688
737.033391	6607.974708
737.363661	6615.922087
737.693883	6655.555639
738.024056	6738.434729
738.354182	6779.522653
738.684260	6811.793600
739.014290	6932.715757
739.344272	7039.943620
739.674207	7070.679535
740.004093	7145.560834
740.333931	7159.398801
740.663722	7169.140831
740.993464	7246.257882
741.323159	7227.615695
741.652806	6979.371636
741.982405	7004.761407
742.311956	7051.175311
742.641460	6875.670060
742.970915	6685.336255
743.300323	6674.023906
743.629683	6630.801053
743.958996	6492.159240
744.288260	6407.253606
744.617477	6356.146389
744.946647	6351.465677
745.275768	6186.806469
745.604842	6143.870962
745.933869	6127.479650
746.262847	6085.625470
746.591778	6073.501495
746.920662	6028.017685
747.249498	6018.137023
747.578286	6073.365384
747.907027	6151.399925
748.235720	6206.472010
748.564365	6179.738772
748.892963	6215.425100
749.221514	6359.324836
749.550017	6179.839595
749.878473	6068.838428
750.206881	6124.681810
750.535242	6072.430250
750.863555	5999.598180
751.191821	6015.855901
751.520039	6012.748030
751.848210	5916.507362
752.176334	5942.965858
752.504411	5991.055945
752.832440	5914.843781
753.160421	5845.180076
753.488356	5899.153190
753.816243	5925.049597
754.144082	5774.253562
754.471875	5755.145068
754.799620	5791.816942
755.127318	5803.391431
755.454969	5765.640751
755.782572	5728.132045
756.110129	5771.821205
756.437638	5748.659624
756.765100	5689.829358
757.092515	5694.563002
757.419882	5745.652576
757.747203	5721.530654
758.074477	5786.574142
758.401703	5773.242811
758.728882	5721.271035
759.056014	5789.087157
759.383099	5906.830867
759.710138	5921.057003
760.037129	5907.138377
760.364073	5910.135343
760.690970	5993.994938
761.017820	5972.484334
761.344623	5935.830104
761.671379	6033.860382
761.998088	6161.726729
762.324751	6407.291415
762.651366	7034.894904
762.977935	8372.449131
763.304456	10015.101550
763.630931	10896.179296
763.957359	10468.208019
764.283740	9521.471765
764.610074	8667.500304
764.936362	7664.340935
765.262602	7071.730615
765.588796	6538.210180
765.914943	6203.676691
766.241044	6035.377769
766.567097	5832.506615
766.893104	5569.885185
767.219064	5395.680552
767.544978	5329.238144
767.870845	5250.182770
768.196665	5144.888189
768.522438	5077.863528
768.848165	5034.045819
769.173846	4975.258404
769.499479	4924.327626
769.825066	4874.268969
770.150607	4815.133713
770.476101	4792.808964
770.801548	4785.277480
771.126949	4706.350655
771.452303	4653.221934
771.777611	4613.543012
772.102872	4634.804079
772.428087	4595.064663
772.753256	4553.308786
773.078378	4504.321373
773.403453	4434.947534
773.728482	4421.588477
774.053465	4371.923029
774.378401	4358.258982
774.703291	4359.453735
775.028135	4287.357673
775.352932	4239.459150
775.677683	4228.562696
776.002388	4246.645315
776.327046	4257.496398
776.651658	4183.414122
776.976224	4122.945482
777.300743	4124.357005
777.625216	4147.674862
777.949643	4141.988440
778.274024	4099.678036
778.598359	4059.789906
778.922647	4082.817897
779.246889	4072.831371
779.571086	4062.582706
779.895236	4043.915313
780.219339	4034.846277
780.543397	4029.243035
780.867409	4085.109102
781.191374	4096.978498
781.515294	4032.976009
781.839167	4025.565513
782.162995	4048.893452
782.486776	4037.676885
782.810511	4045.926733
783.134201	4037.379457
783.457844	3992.493023
783.781441	3939.218109
784.104993	3944.803708
784.428498	3960.726192
784.751958	3958.518167
785.075372	3934.174435
785.398739	3899.229156
785.722061	3911.544695
786.045337	3959.102941
786.368568	3989.475892
786.691752	3900.612953
787.014891	3950.364100
787.337983	4079.800767
787.661030	4243.353441
787.984031	4406.898554
788.306987	4571.721600
788.629897	4656.546575
788.952760	4610.621664
789.275579	4544.522054
789.598351	4476.894976
789.921078	4332.957430
790.243759	4125.483703
790.566395	4119.278042
790.888984	4112.041466
791.211529	4005.090867
791.534027	3943.984520
791.856480	3932.500772
792.178888	3867.767315
792.501249	3822.046570
792.823566	3831.493693
793.145836	3861.080225
793.468062	3808.243891
793.790241	3763.173455
794.112375	3792.276036
794.434464	3858.289946
794.756507	3881.746435
795.078505	3858.834391
795.400457	3896.771594
795.722364	4038.821227
796.044226	4141.277638
796.366042	4218.092219
796.687812	4196.251420
797.009538	4198.567831
797.331218	4158.243641
797.652852	4129.569558
797.974442	4113.805870
798.295986	4111.822176
798.617484	4025.676418
798.938938	3941.920168
799.260346	3985.705109
799.581709	3979.514572
799.903026	3899.748395
800.224299	3866.073487
800.545526	3859.446891
800.866708	3822.659071
801.187845	3766.621604
801.508936	3797.997746
801.829983	3789.369811
802.150984	3713.631516
802.471940	3703.844116
802.792851	3711.930126
803.113717	3713.639077
803.434538	3714.909448
803.755314	3660.018845
804.076045	3636.438847
804.396731	3653.818225
804.717372	3679.596166
805.037967	3664.873476
805.358518	3650.796054
805.679024	3684.256712
805.999485	3693.282898
806.319901	3698.727344
806.640272	3714.937175
806.960598	3727.935790
807.280879	3698.437478
807.601115	3716.184860
807.921306	3731.285637
808.241453	3772.582769
808.561554	3741.773757
808.881611	3675.059127
809.201623	3718.473544
809.521590	3727.116602
809.841513	3700.108621
810.161390	3732.150194
810.481223	3704.456616
810.801011	3654.072804
811.120755	3646.664828
811.440453	3681.758821
811.760107	3683.069521
812.079716	3637.129486
812.399281	3605.586986
812.718801	3634.765184
813.038276	3603.605812
813.357707	3603.210082
813.677093	3618.696507
813.996434	3567.851429
814.315731	3578.289138
814.634983	3578.178232
814.954191	3597.319494
815.273354	3625.809575
815.592473	3619.901342
815.911547	3630.712097
816.230577	3672.558715
816.549562	3724.054101
816.868502	3761.416613
817.187399	3788.568268
817.506250	3782.493677
817.825058	3758.210439
818.143821	3851.252495
818.462539	3956.158907
818.781213	3997.534177
819.099843	4059.976429
819.418429	4316.946726
819.736970	4561.230959
820.055466	4806.568793
820.373919	5175.377088
820.692327	5590.727836
821.010691	6060.986831
821.329011	7488.243349
821.647286	10316.996089
821.965517	14966.210306
822.283704	18993.517538
822.601847	21054.694111
822.919945	19167.742335
823.237999	16558.483954
823.556010	14067.352411
823.873976	11933.613469
824.191897	9829.965175
824.509775	8485.242428
824.827609	7355.754264
825.145398	6824.388923
825.463144	6715.091666
825.780845	6822.052348
826.098502	7025.704881
826.416116	7934.239271
826.733685	9283.471330
827.051210	10392.119364
827.368692	10376.290141
827.686129	9086.591588
828.003522	7573.327944
828.320872	6551.695267
828.638177	5847.839285
828.955439	5283.613182
829.272656	4775.908495
829.589830	4500.570755
829.906960	4322.726409
830.224046	4136.372595
830.541088	4015.929347
830.858086	3963.881954
831.175041	3886.507805
831.491952	3874.388871
831.808819	3884.347670
832.125642	3961.787355
832.442421	4112.779995
832.759157	4397.453953
833.075849	4965.034944
833.392497	5846.699984
833.709101	6628.840044
834.025662	6949.313756
834.342179	6559.735907
834.658653	5889.103649
834.975083	5229.496395
835.291469	4649.695647
835.607811	4251.278135
835.924110	4110.937453
836.240366	3905.896082
836.556578	3700.060730
836.872746	3586.556630
837.188871	3551.412226
837.504952	3483.633913
837.820990	3399.446643
838.136984	3355.845704
838.452935	3377.426883
838.768842	3374.800442
839.084706	3397.329359
839.400526	3562.543094
839.716303	3912.910848
840.032037	4450.161737
840.347727	4698.778842
840.663373	4407.470725
840.978977	4022.583670
841.294537	3710.364848
841.610054	3483.414623
841.925527	3378.246071
842.240957	3309.736790
842.556344	3253.233017
842.871687	3193.422247
843.186987	3141.160606
843.502244	3107.460492
843.817458	3071.060841
844.132629	3043.158054
844.447756	3046.399516
844.762840	3031.954090
845.077881	3000.908144
845.392879	2983.758138
845.707833	2979.795792
846.022745	2979.548775
846.337613	2979.120277
846.652438	2966.373719
846.967221	2961.861887
847.281960	2950.637758
847.596656	2946.254474
847.911309	2947.726491
848.225919	2939.975717
848.540485	2935.148813
848.855009	2934.518668
849.169490	2927.758481
849.483928	2918.311359
849.798323	2915.591656
850.112675	2912.214083
850.426984	2924.335538
850.741251	2923.352513
851.055474	2909.796850
851.369654	2906.862898
851.683792	2909.070924
851.997887	2917.381266
852.311938	2920.446287
852.625947	2905.607651
852.939914	2911.841038
853.253837	2916.856986
853.567718	2906.570511
853.881555	2901.352917
854.195350	2916.085689
854.509103	2911.261305
854.822812	2904.627147
855.136479	2901.274779
855.450103	2902.560273
855.763685	2897.942577
856.077224	2893.735734
856.390720	2907.248547
856.704173	2914.767428
857.017584	2907.608989
857.330953	2905.640418
857.644278	2916.113416
857.957561	2925.368974
858.270802	2925.502565
858.584000	2927.750919
858.897155	2913.723909
859.210268	2911.772982
859.523339	2908.050090
859.836367	2909.144020
860.149352	2901.990623
860.462295	2900.175808
860.775195	2909.832138
861.088054	2908.392888
861.400869	2890.438819
861.713642	2889.899416
862.026373	2903.926426
862.339062	2907.450193
862.651708	2910.202663
862.964312	2913.849938
863.276873	2908.246695
863.589392	2916.249527
863.901869	2932.353493
864.214303	2952.623972
864.526696	2968.725418
864.839045	2961.985395
865.151353	2960.901547
865.463619	2959.583285
865.775842	2966.729121
866.088023	2981.477016
866.400162	2988.980774
866.712258	2958.963223
867.024313	2948.175154
867.336325	2960.951958
867.648296	2979.586584
867.960224	2971.558546
868.272110	2954.713531
868.583954	2964.637042
868.895755	2976.297231
869.207515	2963.974130
869.519233	2968.682568
869.830909	2979.793271
870.142542	2987.952378
870.454134	2987.682677
870.765684	2990.011690
871.077191	2989.963799
871.388657	2998.364882
871.700081	3012.709485
872.011463	3022.383459
872.322803	3024.619211
872.634101	3024.193233
872.945357	3041.103784
873.256571	3065.971796
873.567744	3057.653892
873.878874	3053.789848
874.189963	3075.713826
874.501010	3073.445307
874.812015	3067.489183
875.122979	3066.828792
875.433900	3063.153791
875.744780	3069.195614
876.055618	3079.837490
876.366415	3076.336408
876.677169	3083.378900
876.987882	3080.581060
877.298554	3076.243147
877.609183	3098.111672
877.919771	3121.890795
878.230317	3152.541010
878.540822	3202.773588
878.851285	3242.122314
879.161707	3287.386835
879.472087	3394.400448
879.782425	3631.921974
880.092722	4083.637085
880.402977	4617.391933
880.713191	5262.261374
881.023363	6453.496111
881.333494	7747.590550
881.643583	8279.638968
881.953631	7967.662121
882.263637	7316.400497
882.573602	6710.005142
882.883526	6128.921420
883.193408	5561.143824
883.503248	5098.726344
883.813048	4791.059683
884.122806	4473.497238
884.432522	4154.014113
884.742197	3916.485026
885.051831	3722.433370
885.361424	3590.498812
885.670975	3513.825383
885.980485	3432.390584
886.289954	3348.019313
886.599382	3300.950059
886.908768	3265.084770
887.218113	3224.763101
887.527417	3161.967968
887.836680	3112.824280
888.145901	3107.432766
888.455082	3098.383895
888.764221	3044.746018
889.073319	3017.493540
889.382376	3012.341481
889.691392	3017.271729
890.000366	3017.853983
890.309300	3004.381499
890.618193	3016.883560
890.927044	3033.597506
891.235855	3031.306302
891.544625	3019.283150
891.853353	3030.335879
892.162041	3049.404044
892.470687	3091.656475
892.779293	3140.971562
893.087858	3191.907381
893.396381	3262.975047
893.704864	3391.915160
894.013306	3636.809372
894.321707	3946.893266
894.630068	4145.918020
894.938387	4135.291268
895.246665	4094.465483
895.554903	3970.213644
895.863100	3764.103548
896.171256	3594.635079
896.479371	3451.214252
896.787446	3329.286385
897.095480	3223.732185
897.403473	3160.097700
897.711425	3126.458080
898.019336	3115.332254
898.327207	3085.428129
898.635038	3048.032850
898.942827	3032.909388
899.250576	3025.733306
899.558284	2992.592761
899.865952	2970.388998
900.173579	2953.012141
900.481165	2944.265739
900.788711	2930.059768
901.096216	2905.958011
901.403681	2895.651372
901.711105	2904.488515
902.018489	2900.581621
902.325832	2895.971485
902.633135	2911.304155
902.940397	2945.304217
903.247619	3029.741023
903.554800	3230.857856
903.861941	3589.881271
904.169041	4032.343344
904.476101	4323.648940
904.783121	4261.423457
905.090100	4011.982124
905.397039	3729.682550
905.703938	3476.672079
906.010796	3294.820016
906.317614	3181.051256
906.624391	3086.108685
906.931129	3014.678056
907.237826	2949.495936
907.544483	2904.460788
907.851099	2868.920654
908.157675	2851.137984
908.464211	2828.619149
908.770707	2816.469969
909.077163	2804.603092
909.383578	2785.479475
909.689954	2776.493619
909.996289	2777.471602
910.302584	2777.428753
910.608839	2776.894390
910.915054	2769.188987
911.221229	2762.078439
911.527363	2767.190169
911.833458	2773.143772
912.139513	2778.600821
912.445527	2782.434618
912.751502	2791.329734
913.057436	2800.766774
913.363331	2813.236068
913.669186	2836.435458
913.975000	2871.562218
914.280775	2935.544543
914.586510	3004.726818
914.892205	3088.079776
915.197859	3219.227914
915.503475	3420.727874
915.809050	3636.033035
916.114585	3785.047022
916.420081	3804.089980
916.725536	3736.115062
917.030952	3615.999489
917.336328	3482.678614
917.641665	3353.773790
917.946961	3250.299066
918.252218	3178.886080
918.557435	3098.744337
918.862612	3038.260573
919.167750	2986.263592
919.472848	2951.361163
919.777906	2921.998963
920.082925	2895.401835
920.387904	2865.903523
920.692843	2845.254957
920.997743	2833.990499
921.302603	2820.250834
921.607423	2810.392858
921.912204	2798.558749
922.216946	2789.472069
922.521647	2777.842127
922.826310	2770.204779
923.130932	2765.004829
923.435516	2754.612490
923.740059	2744.946078
924.044564	2738.019532
924.349028	2733.968965
924.653454	2726.165259
924.957840	2717.184444
925.262186	2713.574977
925.566493	2712.909545
925.870761	2707.281097
926.174989	2700.813297
926.479178	2699.797504
926.783328	2693.796010
927.087438	2690.635207
927.391509	2689.609332
927.695541	2688.165042
927.999533	2684.021213
928.303486	2684.467355
928.607400	2679.940399
928.911275	2676.860254
929.215110	2678.334792
929.518906	2676.119204
929.822663	2679.224555
930.126381	2677.785306
930.430060	2677.964267
930.733699	2680.537776
931.037299	2684.263188
931.340861	2684.437108
931.644383	2681.329237
931.947866	2681.437622
932.251309	2677.117353
932.554714	2678.342353
932.858080	2677.913855
933.161407	2673.379337
933.464694	2673.807835
933.767943	2670.097546
934.071153	2672.270283
934.374323	2670.621826
934.677455	2673.580983
934.980548	2671.544357
935.283602	2671.163750
935.586617	2670.125272
935.889593	2671.940088
936.192530	2669.633760
936.495428	2672.527382
936.798287	2671.887156
937.101108	2677.371931
937.403890	2678.811181
937.706632	2685.100020
938.009336	2690.156297
938.312002	2701.201465
938.614628	2706.114070
938.917216	2714.520194
939.219765	2714.245451
939.522275	2715.911552
939.824747	2711.533310
940.127179	2710.202446
940.429573	2706.991231
940.731929	2704.861343
941.034246	2700.762885
941.336524	2697.415559
941.638763	2694.325332
941.940964	2694.595033
942.243126	2690.037830
942.545250	2690.511699
942.847335	2685.016841
943.149381	2683.307890
943.451389	2679.038032
943.753359	2676.827487
944.055290	2675.932682
944.357182	2674.962260
944.659036	2674.856395
944.960851	2673.452434
945.262628	2671.486384
945.564367	2673.938905
945.866067	2671.163750
946.167729	2672.403874
946.469352	2673.906138
946.770937	2670.954542
947.072484	2671.788853
947.373992	2670.528565
947.675462	2669.227947
947.976893	2666.072185
948.278286	2662.994560
948.579641	2665.169818
948.880958	2660.804179
949.182236	2664.438851
949.483476	2663.917092
949.784678	2662.409787
950.085841	2665.484890
950.386967	2663.102945
950.688054	2665.631084
950.989103	2665.512617
951.290114	2665.792401
951.591087	2666.966990
951.892021	2672.076199
952.192917	2672.436642
952.493776	2672.355983
952.794596	2674.816066
953.095378	2675.136179
953.396122	2673.971673
953.696828	2673.676765
953.997496	2670.490756
954.298126	2670.236178
954.598718	2666.961948
954.899272	2665.583193
955.199788	2661.567914
955.500266	2655.553817
955.800706	2654.739671
956.101108	2657.688746
956.401472	2653.015596
956.701798	2650.686583
957.002087	2647.732467
957.302337	2649.716161
957.602550	2648.407982
957.902724	2646.623413
958.202861	2644.049904
958.502960	2643.535707
958.803022	2643.429842
959.103045	2638.998668
959.403031	2640.090078
959.702979	2640.185860
960.002889	2639.903555
960.302762	2639.316261
960.602596	2641.461272
960.902393	2640.702578
961.202153	2640.258957
961.501875	2637.826600
961.801559	2638.310551
962.101205	2636.588997
962.400814	2638.963380
962.700385	2637.836682
962.999918	2633.849129
963.299414	2630.857205
963.598873	2632.934160
963.898293	2631.101701
964.197677	2636.251239
964.497022	2635.621095
964.796331	2636.387350
965.095601	2632.856022
965.394835	2635.134624
965.694030	2633.488687
965.993189	2635.865591
966.292309	2634.801907
966.591393	2635.139665
966.890439	2636.399953
967.189447	2635.046403
967.488419	2634.711167
967.787353	2634.703605
968.086249	2635.061527
968.385108	2633.309726
968.683930	2636.175622
968.982714	2634.252422
969.281462	2634.411218
969.580172	2633.919706
969.878844	2635.167391
970.177480	2636.001702
970.476078	2639.447331
970.774639	2633.004736
971.073162	2634.839716
971.371649	2633.395426
971.670098	2637.297279
971.968510	2632.326701
972.266885	2635.081692
972.565223	2633.372740
972.863524	2635.585807
973.161788	2634.817031
973.460014	2635.091774
973.758204	2637.322484
974.056356	2632.354427
974.354471	2636.818369
974.652550	2634.350724
974.950591	2636.770478
975.248595	2634.728811
975.546563	2633.939870
975.844493	2635.079171
976.142386	2633.556742
976.440243	2633.990282
976.738062	2634.176804
977.035845	2634.328039
977.333590	2634.496918
977.631299	2632.835857
977.928971	2632.447689
978.226606	2627.905609
978.524204	2628.918881
978.821765	2629.181021
979.119290	2633.617236
979.416777	2634.655714
979.714228	2633.425673
980.011642	2630.403501
980.309020	2635.356434
980.606360	2632.235960
980.903664	2632.810652
981.200931	2633.173615
981.498162	2632.157822
981.795356	2633.854171
982.092513	2634.817031
982.389633	2638.930613
982.686717	2642.167033
982.983764	2643.933958
983.280775	2646.036119
983.577749	2649.922848
983.874686	2650.253044
984.171587	2645.209370
984.468451	2643.868423
984.765279	2642.721560
985.062070	2641.821714
985.358824	2640.430356
985.655543	2636.720067
985.952224	2632.480456
986.248869	2634.592700
986.545478	2634.126393
986.842050	2631.411732
987.138586	2632.208234
987.435086	2630.053141
987.731549	2633.639922
988.027975	2631.494911
988.324366	2627.217492
988.620719	2631.502472
988.917037	2629.443161
989.213318	2628.568521
989.509563	2630.879890
989.805772	2628.455095
990.101944	2629.120527
990.398080	2628.772687
990.694180	2629.783439
990.990244	2629.027266
991.286271	2628.180352
991.582262	2628.074488
991.878217	2629.884262
992.174136	2632.664458
992.470019	2629.218830
992.765865	2625.684981
993.061676	2625.062398
993.357450	2626.506689
993.653188	2625.372429
993.948890	2630.060702
994.244556	2630.413583
994.540186	2629.780918
994.835780	2629.307050
995.131337	2630.080867
995.426859	2629.385188
995.722345	2632.414921
996.017795	2630.935342
996.313208	2634.754017
996.608586	2632.936681
996.903928	2633.387864
997.199234	2636.631846
997.494504	2634.126393
997.789738	2631.827627
998.084936	2633.937350
998.380099	2632.692185
998.675225	2633.370220
998.970316	2631.194962
999.265371	2633.337452
999.560390	2634.028090
999.855373	2629.269241
1000.150320	2630.882410
1000.445232	2628.908799
1000.740108	2629.516258
1001.034948	2629.725466
1001.329752	2630.325363
1001.624521	2627.106586
1001.919254	2625.737913
1002.213951	2626.665485
1002.508613	2625.949641
1002.803239	2629.077677
1003.097829	2622.935031
1003.392384	2626.191617
1003.686903	2626.978037
1003.981386	2627.459467
1004.275834	2628.389560
1004.570246	2625.455608
1004.864623	2627.320835
1005.158964	2628.099693
1005.453270	2627.600619
1005.747540	2628.669344
1006.041775	2627.678757
1006.335974	2626.572224
1006.630138	2625.170783
1006.924266	2626.902419
1007.218359	2627.530043
1007.512416	2625.178345
1007.806438	2623.310597
1008.100425	2625.639610
1008.394376	2623.739095
1008.688292	2627.192286
1008.982172	2628.939046
1009.276017	2627.431741
1009.569827	2627.832512
1009.863602	2627.877883
1010.157341	2625.228756
1010.451045	2626.700773
1010.744714	2625.921915
1011.038347	2627.232615
1011.331945	2625.082563
1011.625508	2624.654065
1011.919036	2625.213633
1012.212528	2627.058695
1012.505986	2623.570217
1012.799408	2623.734054
1013.092795	2626.965434
1013.386147	2627.938377
1013.679464	2626.436113
1013.972745	2626.852008
1014.265992	2624.512912
1014.559204	2626.531895
1014.852380	2626.660444
1015.145521	2626.254631
1015.438628	2627.139354
1015.731699	2625.465691
1016.024736	2626.224384
1016.317737	2623.116513
1016.610703	2625.518623
1016.903635	2626.640279
1017.196531	2626.083232
1017.489393	2624.578447
1017.782219	2624.868314
1018.075011	2624.870834
1018.367768	2628.944087
1018.660490	2624.500310
1018.953177	2624.500310
1019.245829	2624.500310
