Dividing Wavelength (nm)	Counts (n)	Blue Motor Position (mm): 39.200000	Red Motor Position (mm): 0.000000	
326.493990	2244.026785
326.888308	2244.026785
327.282561	2244.026785
327.676750	2205.671166
328.070874	2201.045907
328.464933	2204.385672
328.858929	2206.515559
329.252859	2210.588811
329.646726	2218.763042
330.040528	2233.175701
330.434265	2245.221538
330.827938	2262.154774
331.221547	2280.650768
331.615091	2296.641308
332.008571	2313.778710
332.401986	2335.616988
332.795338	2355.942921
333.188625	2376.331867
333.581847	2393.910371
333.975006	2411.168761
334.368100	2430.738520
334.761129	2449.209308
335.154095	2466.097173
335.546996	2490.945021
335.939833	2531.448171
336.332606	2548.366284
336.725315	2560.855742
337.117960	2576.004410
337.510540	2584.244176
337.903056	2596.093408
338.295508	2605.217896
338.687896	2614.360029
339.080220	2621.964609
339.472480	2628.001391
339.864676	2633.506331
340.256807	2637.788791
340.648875	2641.980511
341.040879	2645.620224
341.432818	2647.435039
341.824694	2651.457880
342.216506	2647.576191
342.608253	2652.816471
342.999937	2651.593991
343.391557	2650.232879
343.783113	2651.798158
344.174605	2649.252375
344.566033	2649.133908
344.957397	2648.660039
345.348697	2647.805564
345.739934	2646.114257
346.131106	2646.222642
346.522215	2643.646612
346.913260	2641.428504
347.304241	2640.818525
347.695159	2636.316774
348.086012	2636.833492
348.476802	2635.066568
348.867528	2628.034158
349.258191	2624.843108
349.648789	2625.453088
350.039324	2623.892851
350.429796	2626.773870
350.820203	2624.530557
351.210548	2623.494599
351.600828	2621.747840
351.991045	2623.920577
352.381198	2621.299177
352.771288	2620.616101
353.161314	2620.875720
353.551276	2618.362705
353.941175	2619.328086
354.331010	2619.277674
354.720782	2617.667026
355.110490	2618.229114
355.500135	2619.290277
355.889717	2617.442694
356.279235	2617.563682
356.668689	2617.586367
357.058080	2617.452777
357.447408	2619.761625
357.836672	2616.346243
358.225873	2616.827673
358.615010	2618.529063
359.004084	2619.514608
359.393095	2622.055350
359.782043	2621.163066
360.170927	2622.529218
360.559748	2623.124075
360.948505	2624.013838
361.337199	2626.705814
361.725830	2623.844960
362.114398	2620.691718
362.502903	2622.667850
362.891344	2626.536936
363.279722	2626.284878
363.668037	2625.785804
364.056289	2628.339148
364.444478	2631.389046
364.832603	2629.097842
365.220665	2627.046092
365.608665	2629.758233
365.996601	2630.700929
366.384474	2631.870477
366.772284	2633.987761
367.160031	2631.555404
367.547715	2632.951804
367.935336	2632.737555
368.322893	2628.717235
368.710388	2629.652369
369.097820	2632.228398
369.485189	2629.327214
369.872495	2635.497587
370.259738	2635.258132
370.646918	2634.673358
371.034035	2635.676548
371.421090	2637.728297
371.808081	2637.912299
372.195010	2639.349028
372.581875	2638.411374
372.968678	2638.270221
373.355418	2640.097640
373.742096	2640.029584
374.128710	2639.621251
374.515262	2639.104532
374.901751	2640.284162
375.288177	2642.209883
375.674540	2642.010757
376.060841	2643.397075
376.447079	2642.996303
376.833254	2644.438073
377.219367	2645.973104
377.605417	2647.906387
377.991404	2646.948568
378.377329	2644.097795
378.763191	2646.938485
379.148991	2646.794812
379.534727	2644.732981
379.920402	2649.877478
380.306013	2648.992756
380.691563	2652.430822
381.077049	2650.202632
381.462474	2650.200112
381.847835	2653.141625
382.233134	2651.707417
382.618371	2652.448467
383.003545	2654.031389
383.388657	2655.153046
383.773706	2655.047181
384.158693	2652.597181
384.543618	2655.521050
384.928480	2656.597336
385.313280	2654.391831
385.698017	2657.524908
386.082692	2657.303098
386.467305	2658.880979
386.851856	2659.077584
387.236344	2660.710918
387.620770	2659.498520
388.005133	2657.161945
388.389435	2660.605053
388.773674	2660.826864
389.157851	2666.059582
389.541965	2669.132165
389.926018	2672.696261
390.310008	2673.666683
390.693936	2679.239679
391.077802	2686.788807
391.461606	2695.048737
391.845348	2708.170861
392.229027	2723.652244
392.612645	2736.421487
392.996200	2759.920825
393.379694	2788.068108
393.763125	2822.627738
394.146494	2860.363295
394.529801	2903.719739
394.913047	2955.923408
395.296230	2996.597957
395.679351	3061.543142
396.062410	3124.373563
396.445408	3180.761390
396.828343	3247.602048
397.211217	3323.075683
397.594028	3353.451156
397.976778	3450.652164
398.359466	3534.229453
398.742092	3610.358438
399.124656	3639.208962
399.507158	3755.339502
399.889598	3856.117209
400.271977	3981.679748
400.654294	4042.997823
401.036549	4137.315291
401.418742	4169.238398
401.800874	4351.433259
402.182944	4454.189619
402.564952	4598.734623
402.946898	4708.031879
403.328783	4672.557280
403.710606	4744.232405
404.092367	5037.372981
404.474067	5117.920537
404.855705	5113.403663
405.237282	5121.030929
405.618797	5373.179362
406.000250	5415.948511
406.381642	5628.259226
406.762972	5701.938210
407.144240	5794.745852
407.525447	5839.755794
407.906593	5908.549900
408.287677	6091.788281
408.668700	6045.366816
409.049661	6192.311409
409.430560	6250.166211
409.811399	6150.739534
410.192176	6438.352484
410.572891	6458.149096
410.953545	6687.524116
411.334138	6444.618639
411.714669	6637.001672
412.095139	6454.083405
412.475547	6707.731581
412.855894	6783.651358
413.236180	6965.586601
413.616405	6672.486354
413.996568	6895.426342
414.376670	6931.168123
414.756711	6844.029258
415.136691	6937.918228
415.516609	7141.681666
415.896466	7150.039899
416.276262	7342.410330
416.655997	7327.939698
417.035670	7520.300046
417.415283	7857.626335
417.794834	7907.886639
418.174324	7769.101153
418.553753	7690.025614
418.933121	8006.456320
419.312428	8105.880477
419.691674	7899.004126
420.070859	8368.156588
420.449983	8050.379894
420.829045	8412.032271
421.208047	8194.236781
421.586988	8490.505392
421.965867	8503.501487
422.344686	8615.319320
422.723444	8653.934559
423.102141	8034.664097
423.480777	8774.072817
423.859352	8298.283675
424.237866	8913.458200
424.616319	8784.250906
424.994712	9193.680819
425.373044	8755.281916
425.751314	9216.897853
426.129524	9090.816074
426.507673	9217.522956
426.885762	9370.126244
427.263789	9273.106718
427.641756	9199.475625
428.019662	9297.468094
428.397508	9544.136793
428.775292	9233.873938
429.153016	9605.238098
429.530679	9443.165002
429.908282	9478.884098
430.285824	9198.883289
430.663305	9875.398574
431.040726	9333.388836
431.418086	9321.562289
431.795385	9643.442482
432.172624	9734.228622
432.549802	9647.120004
432.926920	9725.429288
433.303977	9605.038973
433.680974	9808.961207
434.057910	9894.807016
434.434786	9953.107960
434.811601	9801.558273
435.188355	10362.235404
435.565050	10096.662378
435.941683	10027.651502
436.318257	10512.837354
436.694770	10646.223764
437.071222	10716.920906
437.447614	10562.712010
437.823946	10458.254261
438.200218	10584.280587
438.576429	10410.111242
438.952580	10652.487398
439.328670	10698.908863
439.704700	10473.256735
440.080670	10473.055089
440.456580	11022.061948
440.832429	10787.413881
441.208218	10387.950329
441.583947	10714.796060
441.959616	10861.745694
442.335224	10668.382156
442.710773	10812.475977
443.086261	11014.157419
443.461689	10291.674373
443.837057	10954.520569
444.212365	11225.280942
444.587612	10860.845848
444.962800	11086.016547
445.337927	10852.210352
445.712995	10463.638213
446.088002	11537.739219
446.462949	11193.930006
446.837837	11170.299598
447.212664	11152.829479
447.587431	11675.546721
447.962139	12399.993297
448.336786	14672.240461
448.711374	15209.856833
449.085901	13045.757542
449.460369	12674.837004
449.834776	12118.215482
450.209124	13002.562416
450.583412	13416.635231
450.957640	14357.596843
451.331808	13481.716527
451.705917	12491.649035
452.079965	11783.818103
452.453954	12694.487422
452.827883	12330.374962
453.201752	12612.233435
453.575562	12133.406999
453.949311	12551.666492
454.323001	12524.419056
454.696632	12754.028490
455.070202	13041.981718
455.443713	13264.296603
455.817164	13736.690527
456.190556	13720.528588
456.563888	14083.234566
456.937160	14246.162138
457.310373	13598.630967
457.683526	13670.638809
458.056619	13225.262949
458.429653	13389.871745
458.802628	12801.432980
459.175542	13187.003112
459.548398	14138.896466
459.921194	14474.690244
460.293930	14545.904104
460.666607	15408.354786
461.039224	16468.191847
461.411782	17164.586922
461.784280	17000.116757
462.156719	17088.886435
462.529099	16766.930624
462.901419	15699.176431
463.273680	15491.846376
463.645882	15357.338309
464.018024	15090.860397
464.390106	15314.574201
464.762130	16039.396343
465.134094	16818.204200
465.505999	18820.414397
465.877845	22078.643197
466.249631	24916.820375
466.621358	24566.636623
466.993026	23125.093475
467.364634	22569.853228
467.736184	21099.038620
468.107674	20299.443565
468.479105	20427.362844
468.850477	19902.556043
469.221790	19487.369133
469.593043	18795.705181
469.964238	18230.775837
470.335373	17885.708856
470.706449	18358.445579
471.077467	17921.674968
471.448425	19773.797412
471.819324	23821.881759
472.190164	25773.498936
472.560945	22190.292152
472.931667	19851.221973
473.302330	19225.929853
473.672934	18789.948183
474.043479	19088.248380
474.413965	18889.982320
474.784393	18498.466147
475.154761	19216.452484
475.525070	19181.482000
475.895321	18860.065592
476.265513	19456.088773
476.635645	20046.198681
477.005719	19818.827519
477.375734	20009.836838
477.745691	20496.401446
478.115588	21017.404696
478.485427	21568.062533
478.855207	22637.291264
479.224928	24416.175824
479.594591	26631.921736
479.964194	26622.126774
480.333739	26834.959248
480.703226	26408.268425
481.072653	26107.097292
481.442022	26698.654010
481.811333	27612.642929
482.180584	27519.552982
482.549777	26575.854023
482.918912	26230.678658
483.287988	26355.643820
483.657005	25997.628636
484.025964	25773.113287
484.394864	25663.304354
484.763706	25332.304713
485.132489	24783.950683
485.501213	24959.113135
485.869879	24871.276070
486.238487	24697.447003
486.607036	24845.336813
486.975527	24556.284613
487.343959	24869.095771
487.712333	24800.939371
488.080648	24466.731036
488.448905	24963.645132
488.817104	24703.708116
489.185244	25400.463633
489.553326	25342.452556
489.921350	26370.172426
490.289315	28677.037193
490.657222	30430.877301
491.025070	30934.967480
491.392861	30705.368128
491.760593	29845.586737
492.128267	28932.175030
492.495883	27891.764056
492.863440	27014.452052
493.230939	26146.657746
493.598380	25983.828477
493.965763	25593.958242
494.333088	25118.045592
494.700354	25079.107720
495.067563	24943.815753
495.434713	24689.113976
495.801805	24857.133113
496.168839	24648.966227
496.535815	24495.115252
496.902733	24714.304622
497.269593	24400.656632
497.636395	24574.394958
498.003139	24517.883624
498.369825	24260.305868
498.736453	24482.005732
499.103023	24348.531102
499.469535	24351.896072
499.835989	24581.903757
500.202385	24594.647794
500.568723	24118.825885
500.935003	24332.467465
501.301226	23978.422189
501.667390	24813.431350
502.033497	25031.650298
502.399546	24770.536172
502.765537	24318.369878
503.131470	24727.283072
503.497345	24859.628484
503.863163	24081.740637
504.228923	24658.604913
504.594625	24874.343612
504.960269	24424.226547
505.325856	24893.472271
505.691385	24307.695235
506.056856	24911.257461
506.422270	24892.118721
506.787625	24439.670122
507.152924	24856.921385
507.518164	24888.804162
507.883347	24705.815319
508.248472	24388.827565
508.613540	25156.761654
508.978550	24953.046106
509.343503	24954.810510
509.708398	25195.253384
510.073236	25358.727921
510.438016	25569.667442
510.802738	25222.934360
511.167403	25492.230278
511.532010	25214.192999
511.896561	25976.609545
512.261053	25922.220536
512.625488	25761.470743
512.989866	25659.135320
513.354186	25507.663770
513.718449	25629.652131
514.082655	26005.139955
514.446803	25728.947739
514.810894	26205.467847
515.174927	25681.707086
515.538904	25726.648972
515.902822	26211.945730
516.266684	25978.444525
516.630488	25870.707505
516.994235	25837.917320
517.357925	26157.728120
517.721558	26332.837640
518.085133	26435.281448
518.448651	26320.164179
518.812112	26081.392448
519.175516	26302.389071
519.538863	26446.334178
519.902152	26233.738638
520.265385	26503.755441
520.628560	26296.372454
520.991678	26295.134851
521.354739	26359.389398
521.717743	26431.734996
522.080690	26209.276439
522.443580	26548.745218
522.806413	26517.129622
523.169189	26637.393909
523.531908	26672.780288
523.894569	26299.765150
524.257174	26384.416206
524.619722	26539.782047
524.982213	26243.430256
525.344647	26280.079445
525.707025	26441.903004
526.069345	26399.486735
526.431608	26374.838013
526.793815	26541.758179
527.155964	26021.722831
527.518057	26209.614196
527.880093	26132.189635
528.242072	26353.092996
528.603995	26071.640336
528.965860	25869.119542
529.327669	25902.151703
529.689421	25882.592026
530.051117	25729.527471
530.412755	25901.629943
530.774337	25693.967172
531.135862	25573.090385
531.497331	25770.310406
531.858743	25340.131104
532.220098	25807.892208
532.581396	25507.822566
532.942638	25413.212712
533.303824	25532.819128
533.664953	25526.063982
534.026025	25196.319588
534.387040	25427.141420
534.747999	25493.513251
535.108902	25642.353318
535.469748	25148.693287
535.830537	25316.210829
536.191270	25461.128879
536.551947	25292.882890
536.912567	24918.380612
537.273131	25338.593552
537.633638	25024.368351
537.994089	25225.407046
538.354483	24744.632203
538.714821	25253.060295
539.075103	25289.230574
539.435328	25065.662963
539.795497	24650.700384
540.155609	25011.498285
540.515665	25333.224723
540.875665	24552.934767
541.235609	24876.513829
541.595496	24818.767412
541.955328	25175.665981
542.315102	25099.975576
542.674821	24623.657114
543.034483	24503.740667
543.394090	24674.930690
543.753640	24477.871986
544.113134	25091.541726
544.472571	24694.936509
544.831953	24990.091025
545.191278	24630.644153
545.550548	24532.535737
545.909761	24732.132662
546.268918	24972.522604
546.628019	24935.926348
546.987064	24638.425174
547.346053	24367.868968
547.704986	24488.723069
548.063863	24645.898685
548.422684	24666.353166
548.781449	24178.177910
549.140158	24590.635036
549.498811	24169.562578
549.857408	23919.667541
550.215949	24329.447814
550.574434	24018.353169
550.932864	24223.853285
551.291237	24402.370625
551.649555	24255.637760
552.007817	24312.675895
552.366022	24164.440766
552.724173	24195.322874
553.082267	24151.643797
553.440305	24644.325845
553.798288	23881.284196
554.156215	24383.746082
554.514086	24500.897456
554.871902	23879.933166
555.229661	24165.887577
555.587365	24012.555842
555.945014	23905.360746
556.302606	24126.939622
556.660143	24106.046560
557.017625	24335.315717
557.375050	23860.073541
557.732421	24257.941567
558.089735	24062.072575
558.446994	24126.070023
558.804197	24154.847450
559.161345	24066.128184
559.518437	23852.983158
559.875474	24030.658625
560.232455	24217.967737
560.589381	24016.190514
560.946251	24013.574155
561.303065	24320.842564
561.659825	24424.415590
562.016528	24029.584859
562.373177	23765.443521
562.729770	24133.117557
563.086307	23977.971006
563.442789	24153.347707
563.799216	23988.864939
564.155587	23989.127079
564.511904	23973.078566
564.868164	23923.103087
565.224370	23887.510021
565.580520	23807.711076
565.936615	23934.886784
566.292654	23637.189006
566.648638	23891.043869
567.004567	23730.508325
567.360441	23679.527136
567.716260	23398.752511
568.072023	23712.513927
568.427732	23488.606037
568.783385	23260.942488
569.138982	23513.085880
569.494525	23528.569784
569.850013	23303.041164
570.205445	23386.678948
570.560823	23223.345563
570.916145	22976.734837
571.271412	23154.576663
571.626625	22911.787132
571.981782	23017.656404
572.336884	22823.584584
572.691931	22960.025933
573.046923	22709.392367
573.401860	22573.225760
573.756743	22601.345316
574.111570	22492.128718
574.466342	22416.748345
574.821059	22495.513853
575.175722	22200.916384
575.530330	22178.725225
575.884882	22190.783665
576.239380	22108.426334
576.593823	21999.650837
576.948211	21973.583031
577.302544	21833.572544
577.656823	21691.177592
578.011047	21805.349645
578.365216	21664.280516
578.719330	21545.122763
579.073389	21437.615116
579.427394	21589.149680
579.781344	21355.973629
580.135239	21232.477963
580.489080	21186.472393
580.842866	20966.267231
581.196597	21171.671565
581.550273	21134.263683
581.903895	21022.513905
582.257463	21330.619146
582.610975	20864.123372
582.964434	21180.055004
583.317837	20868.380626
583.671186	20966.186572
584.024481	20937.540216
584.377721	20714.431349
584.730906	20781.579519
585.084037	20772.931419
585.437113	20703.912982
585.790135	20916.488357
586.143103	20355.690239
586.496016	20374.607169
586.848874	20619.405599
587.201679	20535.057013
587.554428	20227.675178
587.907124	20560.046013
588.259765	20318.446194
588.612352	20404.004657
588.964884	19963.715322
589.317362	20140.027157
589.669786	20201.161229
590.022155	20215.122705
590.374470	20437.397260
590.726731	20209.164061
591.078937	19988.084259
591.431090	20076.480892
591.783188	19844.038329
592.135232	19806.953081
592.487222	19897.509848
592.839157	19921.006666
593.191038	19800.444951
593.542866	19683.631334
593.894639	19404.026257
594.246358	19623.777715
594.598022	19512.726137
594.949633	19266.309496
595.301190	19249.930787
595.652692	19412.656712
596.004141	19637.096443
596.355535	18962.592579
596.706876	18983.843563
597.058162	18882.113079
597.409395	19122.666858
597.760573	19168.750566
598.111698	18946.231514
598.462768	18892.790243
598.813785	18866.800574
599.164748	18666.097116
599.515657	18715.606288
599.866511	18511.628600
600.217312	18862.480305
600.568060	18389.151247
600.918753	18692.028811
601.269392	18589.993337
601.619978	18381.332417
601.970510	18582.897913
602.320988	18525.499335
602.671412	18727.021981
603.021783	18656.695364
603.372100	18369.669708
603.722363	18515.880813
604.072572	18462.971383
604.422728	18606.331716
604.772830	18358.662348
605.122878	18315.648703
605.472872	18307.764339
605.822813	18286.210885
606.172701	18266.999048
606.522534	18449.156101
606.872314	18484.048447
607.222041	18306.872054
607.571714	18538.921407
607.921333	18357.200414
608.270899	18433.059697
608.620411	18601.804760
608.969870	18380.765288
609.319276	18380.082211
609.668627	18410.858455
610.017926	18540.579947
610.367171	18657.902720
610.716362	18704.687148
611.065500	18520.334673
611.414585	18661.431528
611.763616	18648.143046
612.112594	18587.636597
612.461518	18553.447492
612.810389	18743.337675
613.159207	18609.913456
613.507971	18521.562194
613.856682	18781.486607
614.205340	18709.272078
614.553945	18853.191979
614.902496	18594.419470
615.250994	18816.784766
615.599439	18760.641436
615.947830	18740.098734
616.296169	18812.250248
616.644454	18783.220764
616.992686	18749.603829
617.340864	18968.861254
617.688990	18719.029231
618.037063	18890.642711
618.385082	18748.651051
618.733048	19017.944448
619.080961	18899.497498
619.428821	18932.146531
619.776628	18807.559454
620.124382	18743.935052
620.472083	18805.527869
620.819731	18814.211257
621.167326	18497.944388
621.514868	18535.679945
621.862357	18317.347572
622.209793	18326.003233
622.557176	18154.369589
622.904506	17980.086818
623.251783	17905.709634
623.599007	17658.622520
623.946179	17591.522241
624.293297	17530.607459
624.640363	17266.186337
624.987376	17291.694575
625.334336	17105.030731
625.681243	16945.568952
626.028097	16954.053214
626.374899	16879.265176
626.721647	16748.137203
627.068343	16581.335504
627.414987	16508.586613
627.761577	16480.739279
628.108115	16513.166502
628.454600	16243.926036
628.801032	16339.304667
629.147412	16282.130421
629.493739	16293.263809
629.840014	16094.077738
630.186236	16191.029209
630.532405	15965.951772
630.878521	16158.186092
631.224585	16060.435598
631.570597	15876.456168
631.916556	15911.620737
632.262462	15887.869340
632.608316	15803.351875
632.954117	15743.047073
633.299866	15742.948770
633.645562	15656.104813
633.991206	15420.095634
634.336797	15288.518998
634.682336	15257.914153
635.027823	15125.556138
635.373257	15004.858312
635.718639	14919.625003
636.063968	14865.465367
636.409245	14622.708603
636.754470	14644.567047
637.099642	14494.708666
637.444762	14270.750365
637.789829	14303.964007
638.134845	14136.070899
638.479808	14172.639429
638.824719	14100.800466
639.169577	13964.046565
639.514383	13999.533768
639.859137	13824.872911
640.203839	13921.390842
640.548489	13763.769085
640.893086	13750.213422
641.237632	13624.005615
641.582125	13782.857414
641.926566	13599.172891
642.270955	13611.977422
642.615292	13560.718970
642.959576	13568.900762
643.303809	13605.986011
643.647990	13544.867061
643.992118	13599.142644
644.336195	13370.569167
644.680219	13590.713835
645.024192	13503.637985
645.368112	13745.827618
645.711981	13796.942398
646.055797	13981.398217
646.399562	13961.379795
646.743274	14219.365884
647.086935	14497.740920
647.430544	14466.251353
647.774101	14499.167567
648.117606	14636.168484
648.461059	14610.700575
648.804460	14597.475108
649.147810	14323.962265
649.491108	14228.860898
649.834354	14241.380603
650.177548	13932.735959
650.520690	13745.552875
650.863781	13660.354855
651.206820	13708.492833
651.549807	13541.013099
651.892742	13327.903362
652.235626	13271.530659
652.578458	13277.043160
652.921238	12963.649749
653.263967	13178.443232
653.606644	13006.822191
653.949269	12979.093324
654.291843	12779.037654
654.634365	12934.726129
654.976836	12790.042493
655.319255	12779.811471
655.661622	12744.714958
656.003938	12667.723936
656.346203	12591.758789
656.688416	12672.450018
657.030577	12627.906383
657.372687	12544.702138
657.714746	12517.051409
658.056753	12710.949310
658.398708	12516.592664
658.740612	12526.483408
659.082465	12635.294193
659.424266	12601.178185
659.766016	12629.859830
660.107715	12535.928010
660.449362	12612.442643
660.790958	12563.833317
661.132503	12508.075635
661.473996	12588.484559
661.815438	12590.130496
662.156829	12613.992798
662.498168	12589.104621
662.839456	12589.840630
663.180693	12606.766304
663.521879	12708.033002
663.863013	12667.655881
664.204097	12646.011687
664.545129	12777.033796
664.886110	12751.883479
665.227040	12834.888598
665.567918	12844.678518
665.908746	12867.036036
666.249522	12857.961959
666.590248	12911.521698
666.930922	13026.109645
667.271545	12995.653514
667.612118	13085.857401
667.952639	12982.763284
668.293109	13006.653312
668.633528	12956.990385
668.973896	12934.106067
669.314213	13003.245492
669.654480	12738.650450
669.994695	12818.978716
670.334859	12847.221781
670.674973	12786.017132
671.015035	12819.152636
671.355047	12772.428702
671.695008	12734.322620
672.034918	12748.344589
672.374777	12791.207000
672.714585	12701.177033
673.054342	12742.043147
673.394049	12686.020804
673.733705	12789.518213
674.073310	12690.270497
674.412864	12703.178371
674.752368	12563.666959
675.091820	12603.562651
675.431223	12582.747726
675.770574	12445.746809
676.109875	12369.408616
676.449125	12318.765185
676.788324	12270.622165
677.127473	12110.225253
677.466571	12098.010537
677.805619	11989.325781
678.144616	11913.143864
678.483562	11888.409443
678.822458	11757.641912
679.161303	11730.268446
679.500098	11713.483925
679.838842	11671.556648
680.177535	11705.705424
680.516179	11772.077256
680.854771	11715.336549
681.193314	11922.560739
681.531805	12088.132396
681.870247	12524.875280
682.208638	12932.613886
682.546978	13242.561668
682.885268	13270.698868
683.223508	12975.312459
683.561697	12814.308087
683.899836	12721.777708
684.237925	12511.044875
684.575963	12432.228955
684.913951	12350.900020
685.251889	12308.995428
685.589776	12402.304666
685.927614	12328.781957
686.265401	12297.574694
686.603137	12345.022034
686.940824	12495.011485
687.278460	12620.591668
687.616046	12659.242195
687.953582	12819.074498
688.291068	12755.734921
688.628504	12988.522802
688.965889	13000.913958
689.303224	12960.942650
689.640510	12852.958614
689.977745	12525.744879
690.314930	12304.413020
690.652065	12218.859598
690.989150	11927.765731
691.326185	11695.305524
691.663170	11487.894811
692.000105	11254.249933
692.336990	11140.108127
692.673825	10875.336645
693.010610	10766.629203
693.347345	10555.765300
693.684030	10359.719868
694.020665	10301.255086
694.357251	10103.009191
694.693786	10032.622080
695.030272	9878.080468
695.366707	9761.632334
695.703093	9703.923726
696.039429	9693.980050
696.375716	9605.449827
696.711952	9476.524837
697.048139	9523.589050
697.384276	9476.058531
697.720363	9505.246812
698.056400	9434.940359
698.392388	9383.792812
698.728326	9344.993572
699.064214	9278.271380
699.400053	9322.336106
699.735842	9141.330957
700.071581	9102.541798
700.407270	9024.240076
700.742910	8950.530845
701.078501	8852.404786
701.414042	8722.506854
701.749533	8665.420828
702.084974	8528.797997
702.420366	8644.207652
702.755709	8520.780042
703.091002	8385.515802
703.426246	8415.240965
703.761440	8368.131382
704.096584	8320.815113
704.431679	8263.847553
704.766725	8249.082014
705.101721	8193.747789
705.436668	8245.578412
705.771565	8136.076989
706.106413	8217.786531
706.441212	8257.097448
706.775961	8216.057415
707.110661	8254.077797
707.445311	8397.251608
707.779913	8286.474773
708.114465	8414.651150
708.448967	8463.164694
708.783421	8610.910831
709.117825	8785.720402
709.452180	8822.523346
709.786485	8915.809898
710.120742	9196.067805
710.454949	9196.035038
710.789107	9298.919946
711.123216	9528.957879
711.457275	9691.540131
711.791286	9846.147279
712.125247	9840.420528
712.459159	9833.531791
712.793023	10062.193488
713.126837	9642.015836
713.460602	9803.998191
713.794318	9629.057550
714.127985	9656.478906
714.461602	9323.876178
714.795171	9271.019680
715.128691	9014.195577
715.462162	8775.587683
715.795584	8714.259526
716.128957	8556.156339
716.462281	8396.470229
716.795556	8440.650901
717.128782	8234.351762
717.461960	7975.259140
717.795088	8043.082824
718.128167	7949.977753
718.461198	7790.495810
718.794180	7733.402222
719.127113	7723.294709
719.459997	7559.920995
719.792833	7330.838361
720.125619	7404.529948
720.458357	7252.193841
720.791046	7251.157884
721.123686	7239.384269
721.456278	7076.585247
721.788821	7095.134172
722.121315	6994.691702
722.453761	7065.524955
722.786158	7004.635378
723.118506	7015.970413
723.450805	6976.997252
723.783056	7038.325409
724.115259	6960.245498
724.447412	6957.757689
724.779518	7010.775504
725.111574	7012.434043
725.443582	7082.490958
725.775542	7061.754172
726.107453	7257.171980
726.439315	7165.614544
726.771129	7235.384113
727.102895	7412.500012
727.434612	7515.309304
727.766281	7558.227167
728.097901	7638.038715
728.429473	7637.451421
728.760996	7620.107331
729.092471	7594.336952
729.423897	7529.709360
729.755276	7531.483846
730.086606	7452.846887
730.417887	7553.826240
730.749120	7769.159127
731.080305	7961.479146
731.411442	8067.434117
731.742530	8048.093731
732.073570	8168.831886
732.404562	8253.656861
732.735506	8110.188143
733.066401	8244.481961
733.397249	8164.541864
733.728048	7922.198475
734.058798	7587.715397
734.389501	7361.833896
734.720156	7190.263266
735.050762	6962.481250
735.381320	6872.552106
735.711831	6814.843498
736.042293	6709.185954
736.372707	6725.151288
736.703073	6588.886379
737.033391	6633.286342
737.363661	6643.383773
737.693883	6674.840573
738.024056	6760.802328
738.354182	6796.594521
738.684260	6834.670356
739.014290	6951.738551
739.344272	7059.425159
739.674207	7087.960610
740.004093	7165.307034
740.333931	7180.390166
740.663722	7185.622884
740.993464	7259.735407
741.323159	7239.626244
741.652806	6992.655076
741.982405	7018.995105
742.311956	7065.005716
742.641460	6890.775877
742.970915	6703.721343
743.300323	6689.406987
743.629683	6646.481562
743.958996	6511.005594
744.288260	6415.952117
744.617477	6365.394385
744.946647	6364.061000
745.275768	6203.255754
745.604842	6157.219937
745.933869	6140.175796
746.262847	6097.212562
746.591778	6083.079688
746.920662	6042.788266
747.249498	6038.798192
747.578286	6090.225523
747.907027	6164.186812
748.235720	6220.625050
748.564365	6198.685948
748.892963	6235.088120
749.221514	6374.614656
749.550017	6197.493715
749.878473	6084.781077
750.206881	6142.973637
750.535242	6088.435914
750.863555	6015.644173
751.191821	6026.091964
751.520039	6028.269743
751.848210	5933.622079
752.176334	5961.597962
752.504411	6005.834087
752.832440	5931.088899
753.160421	5863.550041
753.488356	5910.740282
753.816243	5936.356905
754.144082	5789.308968
754.471875	5767.006903
754.799620	5808.258665
755.127318	5817.952804
755.454969	5778.924191
755.782572	5747.923615
756.110129	5783.309995
756.437638	5764.476244
756.765100	5708.116144
757.092515	5710.296443
757.419882	5768.995638
757.747203	5740.596298
758.074477	5801.599301
758.401703	5789.682013
758.728882	5743.406742
759.056014	5807.774714
759.383099	5926.564464
759.710138	5934.262306
760.037129	5922.939874
760.364073	5928.364156
760.690970	6010.615622
761.017820	5990.917313
761.344623	5949.287465
761.671379	6053.094905
761.998088	6182.080387
762.324751	6434.125477
762.651366	7061.613020
762.977935	8410.421622
763.304456	10063.151308
763.630931	10927.870509
763.957359	10495.825981
764.283740	9535.042551
764.610074	8679.392386
764.936362	7684.281219
765.262602	7085.702173
765.588796	6549.192334
765.914943	6219.591613
766.241044	6052.469802
766.567097	5844.693605
766.893104	5586.226085
767.219064	5407.267644
767.544978	5346.521740
767.870845	5263.962764
768.196665	5163.248072
768.522438	5089.158234
768.848165	5054.671700
769.173846	4984.781143
769.499479	4944.141882
769.825066	4891.436618
770.150607	4829.632072
770.476101	4807.445954
770.801548	4800.242145
771.126949	4719.286255
771.452303	4666.603677
771.777611	4625.024240
772.102872	4645.491325
772.428087	4609.434472
772.753256	4566.060384
773.078378	4515.459802
773.403453	4449.708033
773.728482	4437.805869
774.053465	4392.256523
774.378401	4378.811766
774.703291	4376.427300
775.028135	4302.793686
775.352932	4254.081017
775.677683	4243.676075
776.002388	4263.462604
776.327046	4268.959982
776.651658	4197.988098
776.976224	4135.518119
777.300743	4141.920385
777.625216	4164.260258
777.949643	4153.517559
778.274024	4113.304275
778.598359	4073.073347
778.922647	4098.213581
779.246889	4087.052466
779.571086	4080.715736
779.895236	4064.442891
780.219339	4052.144997
780.543397	4048.517886
780.867409	4099.100824
781.191374	4112.157412
781.515294	4043.431362
781.839167	4041.354407
782.162995	4067.402049
782.486776	4050.993093
782.810511	4059.522725
783.134201	4051.938309
783.457844	4005.098428
783.781441	3951.332002
784.104993	3957.436839
784.428498	3975.209427
784.751958	3972.048624
785.075372	3946.757155
785.398739	3911.262391
785.722061	3926.642951
786.045337	3973.586176
786.368568	4001.685567
786.691752	3909.001433
787.014891	3966.475628
787.337983	4098.253910
787.661030	4264.337244
787.984031	4419.836676
788.306987	4587.911266
788.629897	4673.063916
788.952760	4626.876864
789.275579	4562.738264
789.598351	4493.220752
789.921078	4343.221220
790.243759	4144.173781
790.566395	4133.705825
790.888984	4123.479844
791.211529	4016.307434
791.534027	3957.643527
791.856480	3942.699026
792.178888	3881.776682
792.501249	3837.563242
792.823566	3849.213348
793.145836	3872.145557
793.468062	3818.674038
793.790241	3779.768934
794.112375	3805.594765
794.434464	3875.497925
794.756507	3896.317890
795.078505	3873.748644
795.400457	3912.580652
795.722364	4056.001479
796.044226	4161.391842
796.366042	4235.191813
796.687812	4207.004202
797.009538	4209.403791
797.331218	4173.861136
797.652852	4149.172085
797.974442	4125.516470
798.295986	4126.514619
798.617484	4042.748286
798.938938	3958.445070
799.260346	3997.450998
799.581709	3992.130060
799.903026	3914.816404
800.224299	3878.142010
800.545526	3872.478273
800.866708	3832.373374
801.187845	3781.931589
801.508936	3811.455106
801.829983	3802.565031
802.150984	3726.388156
802.471940	3721.485633
802.792851	3729.440574
803.113717	3730.398393
803.434538	3727.819843
803.755314	3673.065351
804.076045	3650.017195
804.396731	3667.136954
804.717372	3692.176365
805.037967	3677.020136
805.358518	3666.779032
805.679024	3695.266592
805.999485	3708.159343
806.319901	3715.647977
806.640272	3724.545614
806.960598	3736.727562
807.280879	3714.100343
807.601115	3727.928228
807.921306	3749.852206
808.241453	3785.760345
808.561554	3755.024430
808.881611	3692.625028
809.201623	3732.818147
809.521590	3739.724528
809.841513	3712.731670
810.161390	3744.485898
810.481223	3717.298955
810.801011	3667.126872
811.120755	3662.811644
811.440453	3696.746171
811.760107	3697.323383
812.079716	3651.194305
812.399281	3625.688587
812.718801	3650.143224
813.038276	3619.251033
813.357707	3615.944037
813.677093	3634.419865
813.996434	3578.760486
814.315731	3592.487548
814.634983	3595.567693
814.954191	3613.728449
815.273354	3636.688385
815.592473	3632.378198
815.911547	3641.553098
816.230577	3685.028009
816.549562	3734.658168
816.868502	3779.138789
817.187399	3800.316677
817.506250	3799.868014
817.825058	3773.185187
818.143821	3873.262173
818.462539	3972.605671
818.781213	4015.117722
819.099843	4077.686002
819.418429	4339.084953
819.736970	4577.816355
820.055466	4824.785002
820.373919	5201.976736
820.692327	5613.536536
821.010691	6092.289876
821.329011	7542.725619
821.647286	10393.135156
821.965517	15075.865484
822.283704	19099.792622
822.601847	21142.901700
822.919945	19235.760103
823.237999	16606.947087
823.556010	14095.066154
823.873976	11959.792181
824.191897	9853.527528
824.509775	8511.758897
824.827609	7379.745115
825.145398	6851.331369
825.463144	6732.488688
825.780845	6845.990267
826.098502	7057.322998
826.416116	7985.069225
826.733685	9339.095422
827.051210	10440.401015
827.368692	10412.314226
827.686129	9105.826110
828.003522	7591.183711
828.320872	6576.457415
828.638177	5860.951326
828.955439	5295.003669
829.272656	4792.297287
829.589830	4520.316954
829.906960	4341.971013
830.224046	4151.112929
830.541088	4028.557438
830.858086	3979.905262
831.175041	3901.764857
831.491952	3885.557547
831.808819	3898.649424
832.125642	3981.677227
832.442421	4133.196668
832.759157	4422.027057
833.075849	4990.086958
833.392497	5878.050920
833.709101	6661.539489
834.025662	6983.414641
834.342179	6577.284164
834.658653	5907.274488
834.975083	5249.053551
835.291469	4665.776928
835.607811	4264.246503
835.924110	4124.505719
836.240366	3919.139193
836.556578	3714.513718
836.872746	3605.687809
837.188871	3563.087538
837.504952	3496.045233
837.820990	3412.815783
838.136984	3371.364896
838.452935	3392.951117
838.768842	3388.998852
839.084706	3409.896955
839.400526	3579.317533
839.716303	3938.285496
840.032037	4476.562259
840.347727	4721.902614
840.663373	4420.688631
840.978977	4027.045092
841.294537	3720.966395
841.610054	3497.716376
841.925527	3390.027248
842.240957	3318.437822
842.556344	3266.244235
842.871687	3206.398177
843.186987	3150.834580
843.502244	3119.768469
843.817458	3081.952254
844.132629	3053.018551
844.447756	3060.565158
844.762840	3042.510266
845.077881	3010.902231
845.392879	2994.493276
845.707833	2994.755416
846.022745	2992.113851
846.337613	2993.306084
846.652438	2981.910556
846.967221	2975.977118
847.281960	2965.425983
847.596656	2960.820888
847.911309	2960.117648
848.225919	2952.886112
848.540485	2945.689865
848.855009	2948.442335
849.169490	2936.298196
849.483928	2925.610949
849.798323	2927.942483
850.112675	2924.101124
850.426984	2936.623350
850.741251	2933.870880
851.055474	2922.591298
851.369654	2917.124167
851.683792	2920.955444
851.997887	2933.979265
852.311938	2933.061775
852.625947	2921.489806
852.939914	2924.978285
853.253837	2928.897782
853.567718	2911.956984
853.881555	2914.149886
854.195350	2931.993050
854.509103	2925.288316
854.822812	2916.110895
855.136479	2911.692324
855.450103	2914.964033
855.763685	2908.977662
856.077224	2903.122362
856.390720	2917.461924
856.704173	2927.874428
857.017584	2920.232038
857.330953	2916.678025
857.644278	2925.719334
857.957561	2935.703339
858.270802	2939.118721
858.584000	2935.968000
858.897155	2922.553490
859.210268	2924.345620
859.523339	2921.595670
859.836367	2921.487286
860.149352	2915.349681
860.462295	2910.419432
860.775195	2916.791451
861.088054	2918.671801
861.400869	2901.287382
861.713642	2899.903585
862.026373	2914.931265
862.339062	2919.367480
862.651708	2920.199271
862.964312	2927.902154
863.276873	2918.578540
863.589392	2929.795107
863.901869	2943.454113
864.214303	2965.269707
864.526696	2979.611789
864.839045	2976.493836
865.151353	2974.999134
865.463619	2972.460913
865.775842	2974.600883
866.088023	2993.767349
866.400162	3000.898062
866.712258	2969.806745
867.024313	2957.324848
867.336325	2974.190028
867.648296	2991.685353
867.960224	2985.411637
868.272110	2969.337918
868.583954	2973.438897
868.895755	2988.874910
869.207515	2977.050883
869.519233	2982.941472
869.830909	2992.277688
870.142542	2999.277331
870.454134	3000.451919
870.765684	3003.882425
871.077191	3003.378309
871.388657	3011.943230
871.700081	3025.125847
872.011463	3035.762682
872.322803	3036.622198
872.634101	3034.560366
872.945357	3052.862275
873.256571	3077.231213
873.567744	3071.116293
873.878874	3064.214954
874.189963	3087.948706
874.501010	3088.004159
874.812015	3079.431677
875.122979	3080.041656
875.433900	3081.836307
875.744780	3084.435022
876.055618	3092.773090
876.366415	3091.442226
876.677169	3098.903133
876.987882	3090.151690
877.298554	3088.571289
877.609183	3116.743777
877.919771	3135.948052
878.230317	3163.795386
878.540822	3219.558110
878.851285	3257.376846
879.161707	3302.250677
879.472087	3411.618509
879.782425	3655.219666
880.092722	4106.758337
880.402977	4649.070544
880.713191	5295.898473
881.023363	6500.426732
881.333494	7802.723129
881.643583	8336.881270
881.953631	8014.504522
882.263637	7346.556679
882.573602	6735.604121
882.883526	6147.966899
883.193408	5578.351803
883.503248	5120.768789
883.813048	4810.168177
884.122806	4491.620186
884.432522	4168.046165
884.742197	3930.297787
885.051831	3737.854260
885.361424	3606.602778
885.670975	3531.870193
885.980485	3442.402315
886.289954	3363.001622
886.599382	3317.089313
886.908768	3279.255453
887.218113	3235.402456
887.527417	3176.032787
887.836680	3124.403810
888.145901	3123.435909
888.455082	3105.549895
888.764221	3057.805127
889.073319	3029.005015
889.382376	3027.243132
889.691392	3031.628935
890.000366	3029.839326
890.309300	3016.200484
890.618193	3026.398738
890.927044	3043.208466
891.235855	3045.139228
891.544625	3033.426107
891.853353	3043.780637
892.162041	3059.531722
892.470687	3103.828341
892.779293	3155.827843
893.087858	3207.159392
893.396381	3280.795526
893.704864	3405.979979
894.013306	3656.033812
894.321707	3967.251966
894.630068	4167.877286
894.938387	4155.465965
895.246665	4112.399388
895.554903	3983.489522
895.863100	3780.250364
896.171256	3611.464971
896.479371	3469.914412
896.787446	3347.283304
897.095480	3241.313209
897.403473	3177.043539
897.711425	3138.849237
898.019336	3129.172742
898.327207	3100.717949
898.635038	3061.006259
898.942827	3046.167623
899.250576	3037.453989
899.558284	3005.044411
899.865952	2982.334013
900.173579	2963.399439
900.481165	2958.658233
900.788711	2940.792384
901.096216	2918.265988
901.403681	2907.316602
901.711105	2915.102664
902.018489	2911.954464
902.325832	2912.937489
902.633135	2923.196237
902.940397	2960.160497
903.247619	3045.388765
903.554800	3248.758993
903.861941	3611.568315
904.169041	4054.005182
904.476101	4348.900079
904.783121	4281.482208
905.090100	4025.192467
905.397039	3747.399685
905.703938	3493.128926
906.010796	3308.804177
906.317614	3194.064995
906.624391	3097.978082
906.931129	3022.816998
907.237826	2962.426496
907.544483	2912.745925
907.851099	2880.636295
908.157675	2862.944366
908.464211	2842.953670
908.770707	2829.256855
909.077163	2812.661377
909.383578	2803.458751
909.689954	2790.074487
909.996289	2789.613222
910.302584	2789.260341
910.608839	2789.351082
910.915054	2785.023251
911.221229	2777.075872
911.527363	2781.401182
911.833458	2788.768828
912.139513	2792.032975
912.445527	2791.904426
912.751502	2804.419090
913.057436	2812.331181
913.363331	2826.106134
913.669186	2850.165041
913.975000	2886.501678
914.280775	2948.918724
914.586510	3019.247862
914.892205	3099.739965
915.197859	3234.668968
915.503475	3440.279990
915.809050	3662.073115
916.114585	3804.894044
916.420081	3821.706293
916.725536	3756.461159
917.030952	3630.898619
917.336328	3500.297447
917.641665	3370.709546
917.946961	3265.220881
918.252218	3193.636497
918.557435	3111.995010
918.862612	3051.667522
919.167750	3002.302023
919.472848	2959.991619
919.777906	2932.739141
920.082925	2907.447672
920.387904	2878.254350
920.692843	2860.890096
920.997743	2847.929289
921.302603	2832.001764
921.607423	2824.878613
921.912204	2810.455872
922.216946	2797.784932
922.521647	2790.785290
922.826310	2780.544186
923.130932	2775.445059
923.435516	2765.024994
923.740059	2759.890578
924.044564	2748.568147
924.349028	2744.159658
924.653454	2738.271590
924.957840	2730.362020
925.262186	2725.693911
925.566493	2724.693242
925.870761	2719.468086
926.174989	2713.771582
926.479178	2711.351829
926.783328	2702.123997
927.087438	2704.947043
927.391509	2702.333204
927.695541	2697.523944
927.999533	2695.015970
928.303486	2693.848942
928.607400	2691.081349
928.911275	2692.336596
929.215110	2687.605473
929.518906	2688.797706
929.822663	2691.141843
930.126381	2690.231915
930.430060	2689.228725
930.733699	2688.807789
931.037299	2693.357430
931.340861	2695.179807
931.644383	2692.724765
931.947866	2692.031607
932.251309	2690.673016
932.554714	2689.158149
932.858080	2687.176975
933.161407	2685.092458
933.464694	2684.169927
933.767943	2680.333609
934.071153	2684.021213
934.374323	2682.062725
934.677455	2680.623475
934.980548	2680.462158
935.283602	2681.440142
935.586617	2680.711696
935.889593	2681.437622
936.192530	2681.964422
936.495428	2678.712878
936.798287	2683.512057
937.101108	2685.354598
937.403890	2690.831812
937.706632	2695.872966
938.009336	2702.716332
938.312002	2713.421222
938.614628	2720.811554
938.917216	2725.020917
939.219765	2725.295660
939.522275	2725.968654
939.824747	2722.515464
940.127179	2720.350288
940.429573	2717.381049
940.731929	2713.307796
941.034246	2710.981304
941.336524	2709.184132
941.638763	2706.066179
941.940964	2704.294213
942.243126	2700.528471
942.545250	2703.497711
942.847335	2700.924202
943.149381	2693.995136
943.451389	2691.731658
943.753359	2689.347192
944.055290	2687.918025
944.357182	2686.390555
944.659036	2686.793848
944.960851	2684.671522
945.262628	2681.858558
945.564367	2685.500792
945.866067	2684.537931
946.167729	2685.321831
946.469352	2683.517098
946.770937	2683.169258
947.072484	2683.595236
947.373992	2680.036181
947.675462	2679.234637
947.976893	2675.733556
948.278286	2673.089471
948.579641	2674.586694
948.880958	2671.761127
949.182236	2675.892352
949.483476	2676.351097
949.784678	2673.011333
950.085841	2673.495284
950.386967	2674.843792
950.688054	2674.425377
950.989103	2676.023422
951.290114	2676.477126
951.591087	2680.744463
951.892021	2681.969463
952.192917	2686.221677
952.493776	2685.309228
952.794596	2686.758560
953.095378	2687.507171
953.396122	2685.707479
953.696828	2684.169927
953.997496	2682.113136
954.298126	2679.864782
954.598718	2678.559123
954.899272	2674.322033
955.199788	2671.383040
955.500266	2670.440345
955.800706	2670.914213
956.101108	2666.644356
956.401472	2665.182421
956.701798	2662.850888
957.002087	2659.329642
957.302337	2659.311997
957.602550	2657.199754
957.902724	2658.548263
958.202861	2654.457366
958.502960	2652.264464
958.803022	2654.384270
959.103045	2653.333189
959.403031	2649.993425
959.702979	2651.420071
960.002889	2651.188178
960.302762	2648.775986
960.602596	2649.827067
960.902393	2651.500730
961.202153	2650.351347
961.501875	2647.067035
961.801559	2649.879999
962.101205	2648.977632
962.400814	2646.842703
962.700385	2648.622231
962.999918	2643.031591
963.299414	2643.281128
963.598873	2642.744245
963.898293	2642.822383
964.197677	2646.096613
964.497022	2648.460914
964.796331	2647.624082
965.095601	2644.422950
965.394835	2646.938485
965.694030	2646.162148
965.993189	2646.956129
966.292309	2646.086530
966.591393	2645.514359
966.890439	2646.441932
967.189447	2644.911942
967.488419	2643.475213
967.787353	2643.059317
968.086249	2644.985038
968.385108	2646.724236
968.683930	2644.092754
968.982714	2645.983187
969.281462	2645.852117
969.580172	2645.191726
969.878844	2643.956643
970.177480	2646.217600
970.476078	2646.759524
970.774639	2646.472179
971.073162	2645.723567
971.371649	2646.537714
971.670098	2646.081489
971.968510	2648.324803
972.266885	2646.913280
972.565223	2647.031747
972.863524	2642.426653
973.161788	2645.801705
973.460014	2645.532003
973.758204	2642.855151
974.056356	2646.956129
974.354471	2643.318937
974.652550	2647.566109
974.950591	2650.489978
975.248595	2646.696510
975.546563	2644.211221
975.844493	2643.863382
976.142386	2644.548978
976.440243	2643.565953
976.738062	2641.325161
977.035845	2642.648463
977.333590	2644.972435
977.631299	2641.625109
977.928971	2640.364821
978.226606	2640.826086
978.524204	2640.702578
978.821765	2639.333905
979.119290	2641.859523
979.416777	2641.972949
979.714228	2643.225676
980.011642	2641.400778
980.309020	2643.898670
980.606360	2645.113588
980.903664	2643.273567
981.200931	2643.603762
981.498162	2644.170892
981.795356	2645.184164
982.092513	2649.501912
982.389633	2648.816315
982.686717	2654.958961
982.983764	2654.288488
983.280775	2661.157060
983.577749	2661.371309
983.874686	2659.410300
984.171587	2658.414672
984.468451	2654.943838
984.765279	2652.113230
985.062070	2651.339413
985.358824	2649.285142
985.655543	2647.326654
985.952224	2646.943527
986.248869	2645.360604
986.545478	2645.491674
986.842050	2643.036632
987.138586	2641.063021
987.435086	2641.879687
987.731549	2639.989255
988.027975	2641.509163
988.324366	2638.797022
988.620719	2639.180150
988.917037	2640.332053
989.213318	2641.967908
989.509563	2640.533699
989.805772	2641.161323
990.101944	2642.058648
990.398080	2639.991775
990.694180	2640.606796
990.990244	2642.335912
991.286271	2638.174439
991.582262	2639.641415
991.878217	2639.827938
992.174136	2640.997486
992.470019	2638.076137
992.765865	2638.003040
993.061676	2636.951960
993.357450	2638.156795
993.653188	2634.867442
993.948890	2640.664769
994.244556	2640.327012
994.540186	2640.896662
994.835780	2639.717032
995.131337	2642.066210
995.426859	2641.355407
995.722345	2641.136117
996.017795	2643.336581
996.313208	2644.238947
996.608586	2644.569143
996.903928	2645.978146
997.199234	2645.219452
997.494504	2644.836324
997.789738	2643.553351
998.084936	2642.550161
998.380099	2642.731642
998.675225	2645.128711
998.970316	2642.257774
999.265371	2639.895993
999.560390	2638.749131
999.855373	2637.390540
1000.150320	2640.495891
1000.445232	2642.882877
1000.740108	2640.029584
1001.034948	2639.023874
1001.329752	2639.013792
1001.624521	2639.805253
1001.919254	2637.269552
1002.213951	2640.740387
1002.508613	2638.797022
1002.803239	2636.599079
1003.097829	2638.156795
1003.392384	2639.769965
1003.686903	2638.239974
1003.981386	2638.106384
1004.275834	2638.822228
1004.570246	2637.629995
1004.864623	2638.275262
1005.158964	2639.510345
1005.453270	2639.366672
1005.747540	2638.325674
1006.041775	2637.801394
1006.335974	2640.463123
1006.630138	2636.473050
1006.924266	2636.473050
1007.218359	2637.811476
1007.512416	2637.269552
1007.806438	2632.331742
1008.100425	2635.059006
1008.394376	2631.018522
1008.688292	2637.070427
1008.982172	2638.413894
1009.276017	2637.813997
1009.569827	2636.994809
1009.863602	2635.132103
1010.157341	2636.173101
1010.451045	2637.572022
1010.744714	2633.947432
1011.038347	2639.517907
1011.331945	2635.326187
1011.625508	2635.835344
1011.919036	2635.391722
1012.212528	2634.239819
1012.505986	2636.578914
1012.799408	2637.685447
1013.092795	2638.315592
1013.386147	2636.742752
1013.679464	2638.267701
1013.972745	2636.473050
1014.265992	2634.892648
1014.559204	2635.984058
1014.852380	2635.943729
1015.145521	2636.689820
1015.438628	2636.026908
1015.731699	2636.825931
1016.024736	2636.957001
1016.317737	2634.481794
1016.610703	2636.263842
1016.903635	2636.762916
1017.196531	2635.968935
1017.489393	2635.996661
1017.782219	2637.393061
1018.075011	2637.861888
1018.367768	2635.532875
1018.660490	2635.573204
1018.953177	2635.573204
1019.245829	2635.573204
