Dividing Wavelength (nm)	Counts (n)	Blue Motor Position (mm): 7.400000	Red Motor Position (mm): 0.000000	
326.493990	2087.037692
326.888308	2087.037692
327.282561	2087.037692
327.676750	2137.449231
328.070874	2001.338077
328.464933	2092.078846
328.858929	2107.202308
329.252859	2041.667308
329.646726	2061.831923
330.040528	2024.023269
330.434265	2139.969808
330.827938	2197.943077
331.221547	2185.340192
331.615091	2180.299038
332.008571	2165.175577
332.401986	2182.819615
332.795338	2162.655000
333.188625	2260.957500
333.581847	2152.572692
333.975006	2301.286731
334.368100	2276.080962
334.761129	2326.492500
335.154095	2339.095385
335.546996	2306.327885
335.939833	2394.548077
336.332606	2407.150962
336.725315	2381.945192
337.117960	2339.095385
337.510540	2487.809423
337.903056	2407.150962
338.295508	2507.974038
338.687896	2439.918462
339.080220	2439.918462
339.472480	2381.945192
339.864676	2427.315577
340.256807	2467.644808
340.648875	2500.412308
341.040879	2485.288846
341.432818	2409.671538
341.824694	2442.439038
342.216506	2457.562500
342.608253	2429.836154
342.999937	2543.262115
343.391557	2505.453462
343.783113	2505.453462
344.174605	2457.562500
344.566033	2404.630385
344.957397	2490.330000
345.348697	2422.274423
345.739934	2351.698269
346.131106	2467.644808
346.522215	2432.356731
346.913260	2429.836154
347.304241	2379.424615
347.695159	2389.506923
348.086012	2492.850577
348.476802	2470.165385
348.867528	2500.412308
349.258191	2434.877308
349.648789	2455.041923
350.039324	2490.330000
350.429796	2434.877308
350.820203	2344.136538
351.210548	2447.480192
351.600828	2487.809423
351.991045	2434.877308
352.381198	2412.192115
352.771288	2492.850577
353.161314	2407.150962
353.551276	2472.685962
353.941175	2462.603654
354.331010	2470.165385
354.720782	2439.918462
355.110490	2376.904038
355.500135	2374.383462
355.889717	2450.000769
356.279235	2424.795000
356.668689	2404.630385
357.058080	2397.068654
357.447408	2386.986346
357.836672	2460.083077
358.225873	2452.521346
358.615010	2538.220962
359.004084	2457.562500
359.393095	2467.644808
359.782043	2470.165385
360.170927	2394.548077
360.559748	2407.150962
360.948505	2492.850577
361.337199	2452.521346
361.725830	2475.206538
362.114398	2467.644808
362.502903	2457.562500
362.891344	2429.836154
363.279722	2485.288846
363.668037	2462.603654
364.056289	2472.685962
364.444478	2407.150962
364.832603	2434.877308
365.220665	2497.891731
365.608665	2480.247692
365.996601	2545.782692
366.384474	2392.027500
366.772284	2412.192115
367.160031	2437.397885
367.547715	2480.247692
367.935336	2402.109808
368.322893	2480.247692
368.710388	2465.124231
369.097820	2417.233269
369.485189	2495.371154
369.872495	2470.165385
370.259738	2434.877308
370.646918	2482.768269
371.034035	2442.439038
371.421090	2482.768269
371.808081	2424.795000
372.195010	2402.109808
372.581875	2344.136538
372.968678	2535.700385
373.355418	2399.589231
373.742096	2492.850577
374.128710	2550.823846
374.515262	2467.644808
374.901751	2523.097500
375.288177	2505.453462
375.674540	2495.371154
376.060841	2555.865000
376.447079	2407.150962
376.833254	2399.589231
377.219367	2452.521346
377.605417	2462.603654
377.991404	2462.603654
378.377329	2482.768269
378.763191	2434.877308
379.148991	2500.412308
379.534727	2475.206538
379.920402	2490.330000
380.306013	2399.589231
380.691563	2497.891731
381.077049	2450.000769
381.462474	2397.068654
381.847835	2434.877308
382.233134	2439.918462
382.618371	2462.603654
383.003545	2339.095385
383.388657	2376.904038
383.773706	2502.932885
384.158693	2455.041923
384.543618	2470.165385
384.928480	2404.630385
385.313280	2513.015192
385.698017	2399.589231
386.082692	2523.097500
386.467305	2465.124231
386.851856	2417.233269
387.236344	2460.083077
387.620770	2384.465769
388.005133	2460.083077
388.389435	2482.768269
388.773674	2447.480192
389.157851	2424.795000
389.541965	2457.562500
389.926018	2379.424615
390.310008	2515.535769
390.693936	2538.220962
391.077802	2402.109808
391.461606	2392.027500
391.845348	2429.836154
392.229027	2518.056346
392.612645	2462.603654
392.996200	2419.753846
393.379694	2399.589231
393.763125	2399.589231
394.146494	2457.562500
394.529801	2510.494615
394.913047	2399.589231
395.296230	2460.083077
395.679351	2434.877308
396.062410	2598.714808
396.445408	2500.412308
396.828343	2455.041923
397.211217	2424.795000
397.594028	2452.521346
397.976778	2402.109808
398.359466	2490.330000
398.742092	2518.056346
399.124656	2447.480192
399.507158	2475.206538
399.889598	2530.659231
400.271977	2480.247692
400.654294	2492.850577
401.036549	2528.138654
401.418742	2457.562500
401.800874	2399.589231
402.182944	2394.548077
402.564952	2470.165385
402.946898	2518.056346
403.328783	2467.644808
403.710606	2419.753846
404.092367	2402.109808
404.474067	2450.000769
404.855705	2407.150962
405.237282	2457.562500
405.618797	2535.700385
406.000250	2444.959615
406.381642	2570.988462
406.762972	2462.603654
407.144240	2563.426731
407.525447	2563.426731
407.906593	2513.015192
408.287677	2540.741538
408.668700	2439.918462
409.049661	2480.247692
409.430560	2470.165385
409.811399	2490.330000
410.192176	2465.124231
410.572891	2535.700385
410.953545	2530.659231
411.334138	2470.165385
411.714669	2465.124231
412.095139	2417.233269
412.475547	2502.932885
412.855894	2379.424615
413.236180	2470.165385
413.616405	2482.768269
413.996568	2472.685962
414.376670	2414.712692
414.756711	2490.330000
415.136691	2490.330000
415.516609	2560.906154
415.896466	2485.288846
416.276262	2548.303269
416.655997	2465.124231
417.035670	2485.288846
417.415283	2485.288846
417.794834	2437.397885
418.174324	2417.233269
418.553753	2482.768269
418.933121	2472.685962
419.312428	2467.644808
419.691674	2523.097500
420.070859	2528.138654
420.449983	2369.342308
420.829045	2485.288846
421.208047	2412.192115
421.586988	2540.741538
421.965867	2497.891731
422.344686	2444.959615
422.723444	2412.192115
423.102141	2455.041923
423.480777	2555.865000
423.859352	2422.274423
424.237866	2462.603654
424.616319	2460.083077
424.994712	2492.850577
425.373044	2467.644808
425.751314	2475.206538
426.129524	2485.288846
426.507673	2444.959615
426.885762	2520.576923
427.263789	2452.521346
427.641756	2518.056346
428.019662	2507.974038
428.397508	2523.097500
428.775292	2450.000769
429.153016	2490.330000
429.530679	2412.192115
429.908282	2558.385577
430.285824	2434.877308
430.663305	2460.083077
431.040726	2485.288846
431.418086	2465.124231
431.795385	2568.467885
432.172624	2467.644808
432.549802	2399.589231
432.926920	2523.097500
433.303977	2437.397885
433.680974	2432.356731
434.057910	2523.097500
434.434786	2399.589231
434.811601	2525.618077
435.188355	2462.603654
435.565050	2490.330000
435.941683	2444.959615
436.318257	2450.000769
436.694770	2417.233269
437.071222	2439.918462
437.447614	2450.000769
437.823946	2457.562500
438.200218	2429.836154
438.576429	2371.862885
438.952580	2515.535769
439.328670	2444.959615
439.704700	2457.562500
440.080670	2419.753846
440.456580	2565.947308
440.832429	2492.850577
441.208218	2513.015192
441.583947	2518.056346
441.959616	2475.206538
442.335224	2518.056346
442.710773	2409.671538
443.086261	2359.260000
443.461689	2467.644808
443.837057	2457.562500
444.212365	2397.068654
444.587612	2515.535769
444.962800	2500.412308
445.337927	2472.685962
445.712995	2507.974038
446.088002	2558.385577
446.462949	2507.974038
446.837837	2444.959615
447.212664	2485.288846
447.587431	2452.521346
447.962139	2482.768269
448.336786	2452.521346
448.711374	2528.138654
449.085901	2482.768269
449.460369	2525.618077
449.834776	2535.700385
450.209124	2530.659231
450.583412	2533.179808
450.957640	2530.659231
451.331808	2452.521346
451.705917	2518.056346
452.079965	2439.918462
452.453954	2560.906154
452.827883	2495.371154
453.201752	2470.165385
453.575562	2422.274423
453.949311	2495.371154
454.323001	2450.000769
454.696632	2502.932885
455.070202	2455.041923
455.443713	2515.535769
455.817164	2513.015192
456.190556	2460.083077
456.563888	2329.013077
456.937160	2502.932885
457.310373	2417.233269
457.683526	2460.083077
458.056619	2455.041923
458.429653	2404.630385
458.802628	2379.424615
459.175542	2513.015192
459.548398	2455.041923
459.921194	2502.932885
460.293930	2548.303269
460.666607	2455.041923
461.039224	2455.041923
461.411782	2427.315577
461.784280	2505.453462
462.156719	2477.727115
462.529099	2507.974038
462.901419	2518.056346
463.273680	2497.891731
463.645882	2452.521346
464.018024	2548.303269
464.390106	2462.603654
464.762130	2482.768269
465.134094	2518.056346
465.505999	2611.317692
465.877845	2447.480192
466.249631	2450.000769
466.621358	2394.548077
466.993026	2427.315577
467.364634	2510.494615
467.736184	2477.727115
468.107674	2465.124231
468.479105	2442.439038
468.850477	2507.974038
469.221790	2429.836154
469.593043	2477.727115
469.964238	2487.809423
470.335373	2414.712692
470.706449	2528.138654
471.077467	2465.124231
471.448425	2467.644808
471.819324	2462.603654
472.190164	2477.727115
472.560945	2432.356731
472.931667	2518.056346
473.302330	2477.727115
473.672934	2394.548077
474.043479	2482.768269
474.413965	2500.412308
474.784393	2603.755962
475.154761	2538.220962
475.525070	2497.891731
475.895321	2485.288846
476.265513	2495.371154
476.635645	2565.947308
477.005719	2518.056346
477.375734	2523.097500
477.745691	2442.439038
478.115588	2518.056346
478.485427	2563.426731
478.855207	2427.315577
479.224928	2505.453462
479.594591	2495.371154
479.964194	2492.850577
480.333739	2525.618077
480.703226	2543.262115
481.072653	2442.439038
481.442022	2497.891731
481.811333	2500.412308
482.180584	2513.015192
482.549777	2530.659231
482.918912	2581.070769
483.287988	2432.356731
483.657005	2500.412308
484.025964	2520.576923
484.394864	2465.124231
484.763706	2565.947308
485.132489	2495.371154
485.501213	2500.412308
485.869879	2460.083077
486.238487	2437.397885
486.607036	2437.397885
486.975527	2523.097500
487.343959	2495.371154
487.712333	2500.412308
488.080648	2482.768269
488.448905	2507.974038
488.817104	2450.000769
489.185244	2568.467885
489.553326	2495.371154
489.921350	2515.535769
490.289315	2447.480192
490.657222	2530.659231
491.025070	2538.220962
491.392861	2497.891731
491.760593	2437.397885
492.128267	2467.644808
492.495883	2530.659231
492.863440	2422.274423
493.230939	2502.932885
493.598380	2452.521346
493.965763	2492.850577
494.333088	2475.206538
494.700354	2520.576923
495.067563	2525.618077
495.434713	2414.712692
495.801805	2540.741538
496.168839	2497.891731
496.535815	2515.535769
496.902733	2477.727115
497.269593	2553.344423
497.636395	2475.206538
498.003139	2533.179808
498.369825	2417.233269
498.736453	2492.850577
499.103023	2465.124231
499.469535	2457.562500
499.835989	2500.412308
500.202385	2558.385577
500.568723	2510.494615
500.935003	2523.097500
501.301226	2543.262115
501.667390	2545.782692
502.033497	2518.056346
502.399546	2510.494615
502.765537	2505.453462
503.131470	2470.165385
503.497345	2518.056346
503.863163	2487.809423
504.228923	2485.288846
504.594625	2376.904038
504.960269	2490.330000
505.325856	2392.027500
505.691385	2528.138654
506.056856	2513.015192
506.422270	2381.945192
506.787625	2379.424615
507.152924	2591.153077
507.518164	2467.644808
507.883347	2434.877308
508.248472	2485.288846
508.613540	2429.836154
508.978550	2485.288846
509.343503	2523.097500
509.708398	2513.015192
510.073236	2513.015192
510.438016	2545.782692
510.802738	2497.891731
511.167403	2520.576923
511.532010	2480.247692
511.896561	2596.194231
512.261053	2613.838269
512.625488	2437.397885
512.989866	2470.165385
513.354186	2490.330000
513.718449	2507.974038
514.082655	2485.288846
514.446803	2447.480192
514.810894	2480.247692
515.174927	2515.535769
515.538904	2502.932885
515.902822	2502.932885
516.266684	2513.015192
516.630488	2450.000769
516.994235	2467.644808
517.357925	2369.342308
517.721558	2465.124231
518.085133	2560.906154
518.448651	2399.589231
518.812112	2523.097500
519.175516	2455.041923
519.538863	2462.603654
519.902152	2515.535769
520.265385	2475.206538
520.628560	2389.506923
520.991678	2533.179808
521.354739	2455.041923
521.717743	2588.632500
522.080690	2452.521346
522.443580	2530.659231
522.806413	2490.330000
523.169189	2427.315577
523.531908	2593.673654
523.894569	2505.453462
524.257174	2570.988462
524.619722	2424.795000
524.982213	2533.179808
525.344647	2444.959615
525.707025	2422.274423
526.069345	2530.659231
526.431608	2457.562500
526.793815	2570.988462
527.155964	2482.768269
527.518057	2434.877308
527.880093	2550.823846
528.242072	2497.891731
528.603995	2505.453462
528.965860	2409.671538
529.327669	2507.974038
529.689421	2439.918462
530.051117	2528.138654
530.412755	2452.521346
530.774337	2500.412308
531.135862	2502.932885
531.497331	2475.206538
531.858743	2543.262115
532.220098	2510.494615
532.581396	2460.083077
532.942638	2460.083077
533.303824	2513.015192
533.664953	2450.000769
534.026025	2475.206538
534.387040	2444.959615
534.747999	2565.947308
535.108902	2495.371154
535.469748	2525.618077
535.830537	2558.385577
536.191270	2442.439038
536.551947	2538.220962
536.912567	2487.809423
537.273131	2518.056346
537.633638	2502.932885
537.994089	2510.494615
538.354483	2513.015192
538.714821	2548.303269
539.075103	2523.097500
539.435328	2490.330000
539.795497	2465.124231
540.155609	2505.453462
540.515665	2482.768269
540.875665	2535.700385
541.235609	2455.041923
541.595496	2457.562500
541.955328	2402.109808
542.315102	2570.988462
542.674821	2533.179808
543.034483	2407.150962
543.394090	2528.138654
543.753640	2455.041923
544.113134	2530.659231
544.472571	2444.959615
544.831953	2558.385577
545.191278	2452.521346
545.550548	2492.850577
545.909761	2470.165385
546.268918	2563.426731
546.628019	2533.179808
546.987064	2505.453462
547.346053	2535.700385
547.704986	2515.535769
548.063863	2470.165385
548.422684	2444.959615
548.781449	2477.727115
549.140158	2407.150962
549.498811	2412.192115
549.857408	2389.506923
550.215949	2472.685962
550.574434	2462.603654
550.932864	2502.932885
551.291237	2500.412308
551.649555	2399.589231
552.007817	2470.165385
552.366022	2555.865000
552.724173	2525.618077
553.082267	2545.782692
553.440305	2490.330000
553.798288	2490.330000
554.156215	2427.315577
554.514086	2538.220962
554.871902	2432.356731
555.229661	2399.589231
555.587365	2460.083077
555.945014	2513.015192
556.302606	2558.385577
556.660143	2505.453462
557.017625	2439.918462
557.375050	2439.918462
557.732421	2581.070769
558.089735	2533.179808
558.446994	2467.644808
558.804197	2505.453462
559.161345	2485.288846
559.518437	2364.301154
559.875474	2505.453462
560.232455	2462.603654
560.589381	2502.932885
560.946251	2452.521346
561.303065	2533.179808
561.659825	2412.192115
562.016528	2505.453462
562.373177	2460.083077
562.729770	2535.700385
563.086307	2439.918462
563.442789	2540.741538
563.799216	2447.480192
564.155587	2490.330000
564.511904	2492.850577
564.868164	2586.111923
565.224370	2591.153077
565.580520	2482.768269
565.936615	2485.288846
566.292654	2419.753846
566.648638	2583.591346
567.004567	2520.576923
567.360441	2475.206538
567.716260	2467.644808
568.072023	2490.330000
568.427732	2389.506923
568.783385	2520.576923
569.138982	2427.315577
569.494525	2497.891731
569.850013	2480.247692
570.205445	2545.782692
570.560823	2450.000769
570.916145	2502.932885
571.271412	2447.480192
571.626625	2495.371154
571.981782	2477.727115
572.336884	2545.782692
572.691931	2525.618077
573.046923	2518.056346
573.401860	2397.068654
573.756743	2518.056346
574.111570	2507.974038
574.466342	2538.220962
574.821059	2533.179808
575.175722	2482.768269
575.530330	2422.274423
575.884882	2518.056346
576.239380	2513.015192
576.593823	2560.906154
576.948211	2439.918462
577.302544	2550.823846
577.656823	2487.809423
578.011047	2505.453462
578.365216	2470.165385
578.719330	2444.959615
579.073389	2414.712692
579.427394	2462.603654
579.781344	2523.097500
580.135239	2485.288846
580.489080	2518.056346
580.842866	2467.644808
581.196597	2525.618077
581.550273	2485.288846
581.903895	2507.974038
582.257463	2518.056346
582.610975	2563.426731
582.964434	2472.685962
583.317837	2412.192115
583.671186	2513.015192
584.024481	2477.727115
584.377721	2455.041923
584.730906	2570.988462
585.084037	2505.453462
585.437113	2480.247692
585.790135	2492.850577
586.143103	2518.056346
586.496016	2485.288846
586.848874	2558.385577
587.201679	2535.700385
587.554428	2591.153077
587.907124	2427.315577
588.259765	2563.426731
588.612352	2502.932885
588.964884	2528.138654
589.317362	2475.206538
589.669786	2548.303269
590.022155	2576.029615
590.374470	2480.247692
590.726731	2502.932885
591.078937	2553.344423
591.431090	2558.385577
591.783188	2462.603654
592.135232	2611.317692
592.487222	2465.124231
592.839157	2475.206538
593.191038	2492.850577
593.542866	2515.535769
593.894639	2485.288846
594.246358	2533.179808
594.598022	2492.850577
594.949633	2505.453462
595.301190	2563.426731
595.652692	2457.562500
596.004141	2520.576923
596.355535	2515.535769
596.706876	2447.480192
597.058162	2540.741538
597.409395	2553.344423
597.760573	2515.535769
598.111698	2472.685962
598.462768	2492.850577
598.813785	2450.000769
599.164748	2460.083077
599.515657	2437.397885
599.866511	2525.618077
600.217312	2475.206538
600.568060	2429.836154
600.918753	2475.206538
601.269392	2417.233269
601.619978	2578.550192
601.970510	2447.480192
602.320988	2570.988462
602.671412	2518.056346
603.021783	2507.974038
603.372100	2452.521346
603.722363	2543.262115
604.072572	2399.589231
604.422728	2497.891731
604.772830	2497.891731
605.122878	2480.247692
605.472872	2444.959615
605.822813	2535.700385
606.172701	2528.138654
606.522534	2482.768269
606.872314	2505.453462
607.222041	2513.015192
607.571714	2563.426731
607.921333	2442.439038
608.270899	2460.083077
608.620411	2467.644808
608.969870	2525.618077
609.319276	2429.836154
609.668627	2495.371154
610.017926	2419.753846
610.367171	2507.974038
610.716362	2447.480192
611.065500	2495.371154
611.414585	2492.850577
611.763616	2510.494615
612.112594	2432.356731
612.461518	2523.097500
612.810389	2427.315577
613.159207	2545.782692
613.507971	2455.041923
613.856682	2490.330000
614.205340	2460.083077
614.553945	2568.467885
614.902496	2482.768269
615.250994	2507.974038
615.599439	2470.165385
615.947830	2475.206538
616.296169	2502.932885
616.644454	2500.412308
616.992686	2487.809423
617.340864	2525.618077
617.688990	2482.768269
618.037063	2621.400000
618.385082	2485.288846
618.733048	2482.768269
619.080961	2472.685962
619.428821	2560.906154
619.776628	2570.988462
620.124382	2477.727115
620.472083	2510.494615
620.819731	2530.659231
621.167326	2510.494615
621.514868	2510.494615
621.862357	2472.685962
622.209793	2545.782692
622.557176	2505.453462
622.904506	2470.165385
623.251783	2510.494615
623.599007	2419.753846
623.946179	2513.015192
624.293297	2568.467885
624.640363	2515.535769
624.987376	2480.247692
625.334336	2475.206538
625.681243	2480.247692
626.028097	2467.644808
626.374899	2487.809423
626.721647	2535.700385
627.068343	2482.768269
627.414987	2555.865000
627.761577	2563.426731
628.108115	2467.644808
628.454600	2538.220962
628.801032	2480.247692
629.147412	2457.562500
629.493739	2596.194231
629.840014	2432.356731
630.186236	2502.932885
630.532405	2465.124231
630.878521	2482.768269
631.224585	2482.768269
631.570597	2515.535769
631.916556	2560.906154
632.262462	2492.850577
632.608316	2555.865000
632.954117	2485.288846
633.299866	2492.850577
633.645562	2520.576923
633.991206	2434.877308
634.336797	2513.015192
634.682336	2442.439038
635.027823	2505.453462
635.373257	2520.576923
635.718639	2442.439038
636.063968	2535.700385
636.409245	2525.618077
636.754470	2487.809423
637.099642	2495.371154
637.444762	2586.111923
637.789829	2462.603654
638.134845	2528.138654
638.479808	2528.138654
638.824719	2497.891731
639.169577	2417.233269
639.514383	2505.453462
639.859137	2588.632500
640.203839	2477.727115
640.548489	2472.685962
640.893086	2538.220962
641.237632	2543.262115
641.582125	2507.974038
641.926566	2487.809423
642.270955	2495.371154
642.615292	2417.233269
642.959576	2555.865000
643.303809	2578.550192
643.647990	2457.562500
643.992118	2482.768269
644.336195	2533.179808
644.680219	2507.974038
645.024192	2427.315577
645.368112	2553.344423
645.711981	2515.535769
646.055797	2515.535769
646.399562	2492.850577
646.743274	2518.056346
647.086935	2485.288846
647.430544	2477.727115
647.774101	2477.727115
648.117606	2530.659231
648.461059	2518.056346
648.804460	2533.179808
649.147810	2432.356731
649.491108	2467.644808
649.834354	2439.918462
650.177548	2497.891731
650.520690	2424.795000
650.863781	2586.111923
651.206820	2407.150962
651.549807	2570.988462
651.892742	2502.932885
652.235626	2477.727115
652.578458	2442.439038
652.921238	2437.397885
653.263967	2505.453462
653.606644	2545.782692
653.949269	2457.562500
654.291843	2515.535769
654.634365	2538.220962
654.976836	2523.097500
655.319255	2447.480192
655.661622	2553.344423
656.003938	2518.056346
656.346203	2462.603654
656.688416	2535.700385
657.030577	2507.974038
657.372687	2495.371154
657.714746	2422.274423
658.056753	2434.877308
658.398708	2412.192115
658.740612	2518.056346
659.082465	2553.344423
659.424266	2460.083077
659.766016	2457.562500
660.107715	2525.618077
660.449362	2452.521346
660.790958	2535.700385
661.132503	2460.083077
661.473996	2528.138654
661.815438	2457.562500
662.156829	2515.535769
662.498168	2502.932885
662.839456	2495.371154
663.180693	2523.097500
663.521879	2442.439038
663.863013	2452.521346
664.204097	2550.823846
664.545129	2467.644808
664.886110	2631.482308
665.227040	2480.247692
665.567918	2475.206538
665.908746	2389.506923
666.249522	2472.685962
666.590248	2419.753846
666.930922	2475.206538
667.271545	2437.397885
667.612118	2510.494615
667.952639	2505.453462
668.293109	2525.618077
668.633528	2442.439038
668.973896	2563.426731
669.314213	2465.124231
669.654480	2492.850577
669.994695	2462.603654
670.334859	2495.371154
670.674973	2550.823846
671.015035	2487.809423
671.355047	2500.412308
671.695008	2444.959615
672.034918	2472.685962
672.374777	2434.877308
672.714585	2518.056346
673.054342	2455.041923
673.394049	2487.809423
673.733705	2505.453462
674.073310	2442.439038
674.412864	2462.603654
674.752368	2482.768269
675.091820	2447.480192
675.431223	2507.974038
675.770574	2576.029615
676.109875	2475.206538
676.449125	2520.576923
676.788324	2467.644808
677.127473	2487.809423
677.466571	2548.303269
677.805619	2507.974038
678.144616	2434.877308
678.483562	2492.850577
678.822458	2543.262115
679.161303	2553.344423
679.500098	2513.015192
679.838842	2583.591346
680.177535	2465.124231
680.516179	2439.918462
680.854771	2545.782692
681.193314	2455.041923
681.531805	2510.494615
681.870247	2553.344423
682.208638	2520.576923
682.546978	2422.274423
682.885268	2513.015192
683.223508	2510.494615
683.561697	2475.206538
683.899836	2510.494615
684.237925	2465.124231
684.575963	2505.453462
684.913951	2480.247692
685.251889	2437.397885
685.589776	2414.712692
685.927614	2472.685962
686.265401	2543.262115
686.603137	2450.000769
686.940824	2467.644808
687.278460	2467.644808
687.616046	2500.412308
687.953582	2596.194231
688.291068	2439.918462
688.628504	2457.562500
688.965889	2528.138654
689.303224	2510.494615
689.640510	2492.850577
689.977745	2515.535769
690.314930	2467.644808
690.652065	2548.303269
690.989150	2500.412308
691.326185	2444.959615
691.663170	2472.685962
692.000105	2528.138654
692.336990	2507.974038
692.673825	2535.700385
693.010610	2507.974038
693.347345	2576.029615
693.684030	2523.097500
694.020665	2402.109808
694.357251	2543.262115
694.693786	2452.521346
695.030272	2507.974038
695.366707	2475.206538
695.703093	2450.000769
696.039429	2510.494615
696.375716	2545.782692
696.711952	2518.056346
697.048139	2513.015192
697.384276	2485.288846
697.720363	2510.494615
698.056400	2442.439038
698.392388	2533.179808
698.728326	2455.041923
699.064214	2492.850577
699.400053	2540.741538
699.735842	2384.465769
700.071581	2500.412308
700.407270	2528.138654
700.742910	2535.700385
701.078501	2450.000769
701.414042	2543.262115
701.749533	2470.165385
702.084974	2487.809423
702.420366	2573.509038
702.755709	2490.330000
703.091002	2535.700385
703.426246	2480.247692
703.761440	2447.480192
704.096584	2500.412308
704.431679	2485.288846
704.766725	2558.385577
705.101721	2490.330000
705.436668	2548.303269
705.771565	2560.906154
706.106413	2513.015192
706.441212	2518.056346
706.775961	2485.288846
707.110661	2467.644808
707.445311	2424.795000
707.779913	2480.247692
708.114465	2447.480192
708.448967	2497.891731
708.783421	2472.685962
709.117825	2543.262115
709.452180	2490.330000
709.786485	2548.303269
710.120742	2467.644808
710.454949	2505.453462
710.789107	2505.453462
711.123216	2470.165385
711.457275	2502.932885
711.791286	2402.109808
712.125247	2487.809423
712.459159	2477.727115
712.793023	2525.618077
713.126837	2450.000769
713.460602	2475.206538
713.794318	2518.056346
714.127985	2502.932885
714.461602	2543.262115
714.795171	2525.618077
715.128691	2442.439038
715.462162	2628.961731
715.795584	2495.371154
716.128957	2495.371154
716.462281	2482.768269
716.795556	2510.494615
717.128782	2513.015192
717.461960	2472.685962
717.795088	2533.179808
718.128167	2535.700385
718.461198	2490.330000
718.794180	2460.083077
719.127113	2500.412308
719.459997	2510.494615
719.792833	2543.262115
720.125619	2480.247692
720.458357	2520.576923
720.791046	2545.782692
721.123686	2515.535769
721.456278	2555.865000
721.788821	2500.412308
722.121315	2535.700385
722.453761	2467.644808
722.786158	2392.027500
723.118506	2568.467885
723.450805	2429.836154
723.783056	2472.685962
724.115259	2351.698269
724.447412	2540.741538
724.779518	2528.138654
725.111574	2565.947308
725.443582	2470.165385
725.775542	2535.700385
726.107453	2565.947308
726.439315	2422.274423
726.771129	2518.056346
727.102895	2465.124231
727.434612	2528.138654
727.766281	2447.480192
728.097901	2470.165385
728.429473	2482.768269
728.760996	2392.027500
729.092471	2593.673654
729.423897	2497.891731
729.755276	2515.535769
730.086606	2525.618077
730.417887	2485.288846
730.749120	2500.412308
731.080305	2417.233269
731.411442	2472.685962
731.742530	2548.303269
732.073570	2452.521346
732.404562	2450.000769
732.735506	2548.303269
733.066401	2545.782692
733.397249	2548.303269
733.728048	2525.618077
734.058798	2505.453462
734.389501	2417.233269
734.720156	2482.768269
735.050762	2457.562500
735.381320	2523.097500
735.711831	2563.426731
736.042293	2492.850577
736.372707	2455.041923
736.703073	2502.932885
737.033391	2550.823846
737.363661	2470.165385
737.693883	2444.959615
738.024056	2472.685962
738.354182	2515.535769
738.684260	2460.083077
739.014290	2540.741538
739.344272	2543.262115
739.674207	2455.041923
740.004093	2457.562500
740.333931	2540.741538
740.663722	2540.741538
740.993464	2495.371154
741.323159	2487.809423
741.652806	2558.385577
741.982405	2560.906154
742.311956	2555.865000
742.641460	2533.179808
742.970915	2538.220962
743.300323	2452.521346
743.629683	2530.659231
743.958996	2507.974038
744.288260	2505.453462
744.617477	2472.685962
744.946647	2500.412308
745.275768	2515.535769
745.604842	2492.850577
745.933869	2523.097500
746.262847	2444.959615
746.591778	2439.918462
746.920662	2563.426731
747.249498	2510.494615
747.578286	2495.371154
747.907027	2553.344423
748.235720	2545.782692
748.564365	2550.823846
748.892963	2490.330000
749.221514	2492.850577
749.550017	2455.041923
749.878473	2381.945192
750.206881	2480.247692
750.535242	2429.836154
750.863555	2525.618077
751.191821	2507.974038
751.520039	2510.494615
751.848210	2515.535769
752.176334	2520.576923
752.504411	2598.714808
752.832440	2477.727115
753.160421	2505.453462
753.488356	2477.727115
753.816243	2465.124231
754.144082	2457.562500
754.471875	2563.426731
754.799620	2472.685962
755.127318	2558.385577
755.454969	2462.603654
755.782572	2462.603654
756.110129	2485.288846
756.437638	2470.165385
756.765100	2452.521346
757.092515	2505.453462
757.419882	2505.453462
757.747203	2543.262115
758.074477	2490.330000
758.401703	2490.330000
758.728882	2447.480192
759.056014	2558.385577
759.383099	2480.247692
759.710138	2450.000769
760.037129	2505.453462
760.364073	2452.521346
760.690970	2467.644808
761.017820	2475.206538
761.344623	2455.041923
761.671379	2422.274423
761.998088	2439.918462
762.324751	2497.891731
762.651366	2397.068654
762.977935	2518.056346
763.304456	2505.453462
763.630931	2555.865000
763.957359	2386.986346
764.283740	2528.138654
764.610074	2402.109808
764.936362	2467.644808
765.262602	2462.603654
765.588796	2502.932885
765.914943	2513.015192
766.241044	2520.576923
766.567097	2538.220962
766.893104	2490.330000
767.219064	2505.453462
767.544978	2485.288846
767.870845	2500.412308
768.196665	2437.397885
768.522438	2601.235385
768.848165	2452.521346
769.173846	2553.344423
769.499479	2475.206538
769.825066	2482.768269
770.150607	2480.247692
770.476101	2586.111923
770.801548	2515.535769
771.126949	2427.315577
771.452303	2535.700385
771.777611	2470.165385
772.102872	2487.809423
772.428087	2432.356731
772.753256	2457.562500
773.078378	2482.768269
773.403453	2404.630385
773.728482	2533.179808
774.053465	2465.124231
774.378401	2513.015192
774.703291	2394.548077
775.028135	2538.220962
775.352932	2505.453462
775.677683	2543.262115
776.002388	2515.535769
776.327046	2553.344423
776.651658	2513.015192
776.976224	2548.303269
777.300743	2384.465769
777.625216	2528.138654
777.949643	2419.753846
778.274024	2500.412308
778.598359	2477.727115
778.922647	2573.509038
779.246889	2477.727115
779.571086	2510.494615
779.895236	2520.576923
780.219339	2533.179808
780.543397	2550.823846
780.867409	2523.097500
781.191374	2429.836154
781.515294	2601.235385
781.839167	2419.753846
782.162995	2565.947308
782.486776	2591.153077
782.810511	2480.247692
783.134201	2424.795000
783.457844	2470.165385
783.781441	2558.385577
784.104993	2535.700385
784.428498	2480.247692
784.751958	2462.603654
785.075372	2480.247692
785.398739	2513.015192
785.722061	2518.056346
786.045337	2495.371154
786.368568	2560.906154
786.691752	2429.836154
787.014891	2505.453462
787.337983	2442.439038
787.661030	2477.727115
787.984031	2434.877308
788.306987	2475.206538
788.629897	2518.056346
788.952760	2515.535769
789.275579	2482.768269
789.598351	2467.644808
789.921078	2548.303269
790.243759	2487.809423
790.566395	2467.644808
790.888984	2510.494615
791.211529	2518.056346
791.534027	2467.644808
791.856480	2523.097500
792.178888	2543.262115
792.501249	2455.041923
792.823566	2492.850577
793.145836	2513.015192
793.468062	2565.947308
793.790241	2520.576923
794.112375	2538.220962
794.434464	2515.535769
794.756507	2510.494615
795.078505	2588.632500
795.400457	2500.412308
795.722364	2427.315577
796.044226	2477.727115
796.366042	2369.342308
796.687812	2507.974038
797.009538	2485.288846
797.331218	2432.356731
797.652852	2548.303269
797.974442	2470.165385
798.295986	2548.303269
798.617484	2427.315577
798.938938	2535.700385
799.260346	2432.356731
799.581709	2495.371154
799.903026	2558.385577
800.224299	2487.809423
800.545526	2487.809423
800.866708	2545.782692
801.187845	2452.521346
801.508936	2487.809423
801.829983	2477.727115
802.150984	2528.138654
802.471940	2523.097500
802.792851	2540.741538
803.113717	2497.891731
803.434538	2507.974038
803.755314	2588.632500
804.076045	2495.371154
804.396731	2444.959615
804.717372	2497.891731
805.037967	2523.097500
805.358518	2442.439038
805.679024	2497.891731
805.999485	2472.685962
806.319901	2442.439038
806.640272	2515.535769
806.960598	2434.877308
807.280879	2482.768269
807.601115	2465.124231
807.921306	2485.288846
808.241453	2553.344423
808.561554	2538.220962
808.881611	2444.959615
809.201623	2492.850577
809.521590	2492.850577
809.841513	2409.671538
810.161390	2427.315577
810.481223	2462.603654
810.801011	2520.576923
811.120755	2495.371154
811.440453	2455.041923
811.760107	2518.056346
812.079716	2470.165385
812.399281	2530.659231
812.718801	2447.480192
813.038276	2518.056346
813.357707	2457.562500
813.677093	2525.618077
813.996434	2470.165385
814.315731	2528.138654
814.634983	2477.727115
814.954191	2457.562500
815.273354	2467.644808
815.592473	2495.371154
815.911547	2457.562500
816.230577	2528.138654
816.549562	2482.768269
816.868502	2533.179808
817.187399	2442.439038
817.506250	2528.138654
817.825058	2487.809423
818.143821	2576.029615
818.462539	2490.330000
818.781213	2500.412308
819.099843	2482.768269
819.418429	2452.521346
819.736970	2457.562500
820.055466	2520.576923
820.373919	2530.659231
820.692327	2444.959615
821.010691	2550.823846
821.329011	2497.891731
821.647286	2535.700385
821.965517	2480.247692
822.283704	2507.974038
822.601847	2485.288846
822.919945	2467.644808
823.237999	2497.891731
823.556010	2550.823846
823.873976	2482.768269
824.191897	2523.097500
824.509775	2472.685962
824.827609	2502.932885
825.145398	2500.412308
825.463144	2570.988462
825.780845	2550.823846
826.098502	2500.412308
826.416116	2475.206538
826.733685	2460.083077
827.051210	2515.535769
827.368692	2455.041923
827.686129	2495.371154
828.003522	2507.974038
828.320872	2439.918462
828.638177	2507.974038
828.955439	2447.480192
829.272656	2457.562500
829.589830	2477.727115
829.906960	2540.741538
830.224046	2528.138654
830.541088	2482.768269
830.858086	2533.179808
831.175041	2523.097500
831.491952	2465.124231
831.808819	2548.303269
832.125642	2475.206538
832.442421	2485.288846
832.759157	2555.865000
833.075849	2538.220962
833.392497	2513.015192
833.709101	2518.056346
834.025662	2462.603654
834.342179	2518.056346
834.658653	2543.262115
834.975083	2384.465769
835.291469	2603.755962
835.607811	2495.371154
835.924110	2467.644808
836.240366	2429.836154
836.556578	2477.727115
836.872746	2500.412308
837.188871	2487.809423
837.504952	2492.850577
837.820990	2475.206538
838.136984	2502.932885
838.452935	2480.247692
838.768842	2462.603654
839.084706	2480.247692
839.400526	2477.727115
839.716303	2434.877308
840.032037	2465.124231
840.347727	2540.741538
840.663373	2455.041923
840.978977	2432.356731
841.294537	2392.027500
841.610054	2472.685962
841.925527	2490.330000
842.240957	2472.685962
842.556344	2429.836154
842.871687	2485.288846
843.186987	2465.124231
843.502244	2455.041923
843.817458	2480.247692
844.132629	2450.000769
844.447756	2482.768269
844.762840	2492.850577
845.077881	2412.192115
845.392879	2475.206538
845.707833	2419.753846
846.022745	2545.782692
846.337613	2460.083077
846.652438	2470.165385
846.967221	2402.109808
847.281960	2490.330000
847.596656	2497.891731
847.911309	2510.494615
848.225919	2465.124231
848.540485	2460.083077
848.855009	2424.795000
849.169490	2467.644808
849.483928	2525.618077
849.798323	2482.768269
850.112675	2480.247692
850.426984	2452.521346
850.741251	2553.344423
851.055474	2472.685962
851.369654	2439.918462
851.683792	2505.453462
851.997887	2535.700385
852.311938	2520.576923
852.625947	2515.535769
852.939914	2460.083077
853.253837	2533.179808
853.567718	2507.974038
853.881555	2550.823846
854.195350	2467.644808
854.509103	2460.083077
854.822812	2424.795000
855.136479	2482.768269
855.450103	2470.165385
855.763685	2402.109808
856.077224	2414.712692
856.390720	2523.097500
856.704173	2460.083077
857.017584	2450.000769
857.330953	2510.494615
857.644278	2437.397885
857.957561	2434.877308
858.270802	2505.453462
858.584000	2399.589231
858.897155	2510.494615
859.210268	2457.562500
859.523339	2417.233269
859.836367	2513.015192
860.149352	2455.041923
860.462295	2475.206538
860.775195	2467.644808
861.088054	2533.179808
861.400869	2500.412308
861.713642	2523.097500
862.026373	2422.274423
862.339062	2427.315577
862.651708	2389.506923
862.964312	2439.918462
863.276873	2455.041923
863.589392	2495.371154
863.901869	2492.850577
864.214303	2495.371154
864.526696	2560.906154
864.839045	2482.768269
865.151353	2533.179808
865.463619	2480.247692
865.775842	2482.768269
866.088023	2555.865000
866.400162	2480.247692
866.712258	2606.276538
867.024313	2535.700385
867.336325	2465.124231
867.648296	2523.097500
867.960224	2560.906154
868.272110	2472.685962
868.583954	2432.356731
868.895755	2497.891731
869.207515	2560.906154
869.519233	2424.795000
869.830909	2444.959615
870.142542	2465.124231
870.454134	2482.768269
870.765684	2505.453462
871.077191	2427.315577
871.388657	2472.685962
871.700081	2487.809423
872.011463	2490.330000
872.322803	2457.562500
872.634101	2397.068654
872.945357	2500.412308
873.256571	2518.056346
873.567744	2419.753846
873.878874	2427.315577
874.189963	2502.932885
874.501010	2560.906154
874.812015	2402.109808
875.122979	2500.412308
875.433900	2427.315577
875.744780	2510.494615
876.055618	2495.371154
876.366415	2480.247692
876.677169	2495.371154
876.987882	2472.685962
877.298554	2460.083077
877.609183	2477.727115
877.919771	2394.548077
878.230317	2487.809423
878.540822	2455.041923
878.851285	2510.494615
879.161707	2513.015192
879.472087	2528.138654
879.782425	2497.891731
880.092722	2477.727115
880.402977	2490.330000
880.713191	2510.494615
881.023363	2422.274423
881.333494	2487.809423
881.643583	2502.932885
881.953631	2465.124231
882.263637	2530.659231
882.573602	2505.453462
882.883526	2573.509038
883.193408	2480.247692
883.503248	2553.344423
883.813048	2419.753846
884.122806	2528.138654
884.432522	2475.206538
884.742197	2530.659231
885.051831	2520.576923
885.361424	2475.206538
885.670975	2533.179808
885.980485	2533.179808
886.289954	2515.535769
886.599382	2540.741538
886.908768	2482.768269
887.218113	2490.330000
887.527417	2500.412308
887.836680	2452.521346
888.145901	2490.330000
888.455082	2444.959615
888.764221	2540.741538
889.073319	2460.083077
889.382376	2470.165385
889.691392	2480.247692
890.000366	2437.397885
890.309300	2460.083077
890.618193	2485.288846
890.927044	2439.918462
891.235855	2480.247692
891.544625	2457.562500
891.853353	2419.753846
892.162041	2457.562500
892.470687	2545.782692
892.779293	2515.535769
893.087858	2477.727115
893.396381	2515.535769
893.704864	2417.233269
894.013306	2452.521346
894.321707	2507.974038
894.630068	2447.480192
894.938387	2477.727115
895.246665	2422.274423
895.554903	2525.618077
895.863100	2437.397885
896.171256	2482.768269
896.479371	2477.727115
896.787446	2550.823846
897.095480	2457.562500
897.403473	2502.932885
897.711425	2419.753846
898.019336	2497.891731
898.327207	2525.618077
898.635038	2497.891731
898.942827	2540.741538
899.250576	2495.371154
899.558284	2442.439038
899.865952	2518.056346
900.173579	2437.397885
900.481165	2525.618077
900.788711	2412.192115
901.096216	2555.865000
901.403681	2487.809423
901.711105	2462.603654
902.018489	2513.015192
902.325832	2475.206538
902.633135	2477.727115
902.940397	2457.562500
903.247619	2475.206538
903.554800	2500.412308
903.861941	2502.932885
904.169041	2553.344423
904.476101	2528.138654
904.783121	2538.220962
905.090100	2601.235385
905.397039	2530.659231
905.703938	2530.659231
906.010796	2437.397885
906.317614	2482.768269
906.624391	2500.412308
906.931129	2475.206538
907.237826	2500.412308
907.544483	2513.015192
907.851099	2515.535769
908.157675	2444.959615
908.464211	2507.974038
908.770707	2510.494615
909.077163	2434.877308
909.383578	2513.015192
909.689954	2513.015192
909.996289	2497.891731
910.302584	2530.659231
910.608839	2462.603654
910.915054	2570.988462
911.221229	2550.823846
911.527363	2472.685962
911.833458	2565.947308
912.139513	2510.494615
912.445527	2520.576923
912.751502	2439.918462
913.057436	2444.959615
913.363331	2497.891731
913.669186	2576.029615
913.975000	2455.041923
914.280775	2465.124231
914.586510	2528.138654
914.892205	2563.426731
915.197859	2462.603654
915.503475	2513.015192
915.809050	2487.809423
916.114585	2523.097500
916.420081	2424.795000
916.725536	2455.041923
917.030952	2455.041923
917.336328	2487.809423
917.641665	2510.494615
917.946961	2518.056346
918.252218	2497.891731
918.557435	2513.015192
918.862612	2608.797115
919.167750	2495.371154
919.472848	2472.685962
919.777906	2543.262115
920.082925	2439.918462
920.387904	2422.274423
920.692843	2417.233269
920.997743	2525.618077
921.302603	2495.371154
921.607423	2520.576923
921.912204	2460.083077
922.216946	2472.685962
922.521647	2402.109808
922.826310	2538.220962
923.130932	2470.165385
923.435516	2545.782692
923.740059	2500.412308
924.044564	2495.371154
924.349028	2533.179808
924.653454	2485.288846
924.957840	2457.562500
925.262186	2555.865000
925.566493	2457.562500
925.870761	2495.371154
926.174989	2457.562500
926.479178	2543.262115
926.783328	2513.015192
927.087438	2457.562500
927.391509	2513.015192
927.695541	2523.097500
927.999533	2550.823846
928.303486	2439.918462
928.607400	2462.603654
928.911275	2460.083077
929.215110	2515.535769
929.518906	2450.000769
929.822663	2495.371154
930.126381	2460.083077
930.430060	2591.153077
930.733699	2492.850577
931.037299	2550.823846
931.340861	2482.768269
931.644383	2535.700385
931.947866	2470.165385
932.251309	2485.288846
932.554714	2505.453462
932.858080	2535.700385
933.161407	2513.015192
933.464694	2540.741538
933.767943	2477.727115
934.071153	2487.809423
934.374323	2518.056346
934.677455	2439.918462
934.980548	2465.124231
935.283602	2507.974038
935.586617	2507.974038
935.889593	2452.521346
936.192530	2444.959615
936.495428	2523.097500
936.798287	2432.356731
937.101108	2538.220962
937.403890	2500.412308
937.706632	2538.220962
938.009336	2576.029615
938.312002	2560.906154
938.614628	2427.315577
938.917216	2470.165385
939.219765	2457.562500
939.522275	2472.685962
939.824747	2399.589231
940.127179	2442.439038
940.429573	2525.618077
940.731929	2462.603654
941.034246	2419.753846
941.336524	2490.330000
941.638763	2465.124231
941.940964	2507.974038
942.243126	2540.741538
942.545250	2570.988462
942.847335	2485.288846
943.149381	2392.027500
943.451389	2467.644808
943.753359	2384.465769
944.055290	2475.206538
944.357182	2543.262115
944.659036	2364.301154
944.960851	2538.220962
945.262628	2407.150962
945.564367	2502.932885
945.866067	2460.083077
946.167729	2452.521346
946.469352	2568.467885
946.770937	2523.097500
947.072484	2500.412308
947.373992	2576.029615
947.675462	2475.206538
947.976893	2513.015192
948.278286	2470.165385
948.579641	2530.659231
948.880958	2397.068654
949.182236	2492.850577
949.483476	2465.124231
949.784678	2525.618077
950.085841	2450.000769
950.386967	2477.727115
950.688054	2560.906154
950.989103	2523.097500
951.290114	2518.056346
951.591087	2384.465769
951.892021	2412.192115
952.192917	2520.576923
952.493776	2429.836154
952.794596	2543.262115
953.095378	2533.179808
953.396122	2485.288846
953.696828	2404.630385
953.997496	2545.782692
954.298126	2429.836154
954.598718	2535.700385
954.899272	2533.179808
955.199788	2331.533654
955.500266	2533.179808
955.800706	2465.124231
956.101108	2553.344423
956.401472	2475.206538
956.701798	2535.700385
957.002087	2555.865000
957.302337	2472.685962
957.602550	2465.124231
957.902724	2487.809423
958.202861	2593.673654
958.502960	2538.220962
958.803022	2470.165385
959.103045	2412.192115
959.403031	2497.891731
959.702979	2434.877308
960.002889	2502.932885
960.302762	2560.906154
960.602596	2470.165385
960.902393	2482.768269
961.202153	2528.138654
961.501875	2490.330000
961.801559	2434.877308
962.101205	2510.494615
962.400814	2480.247692
962.700385	2568.467885
962.999918	2450.000769
963.299414	2457.562500
963.598873	2450.000769
963.898293	2550.823846
964.197677	2507.974038
964.497022	2525.618077
964.796331	2437.397885
965.095601	2495.371154
965.394835	2460.083077
965.694030	2457.562500
965.993189	2397.068654
966.292309	2432.356731
966.591393	2477.727115
966.890439	2450.000769
967.189447	2371.862885
967.488419	2427.315577
967.787353	2520.576923
968.086249	2528.138654
968.385108	2480.247692
968.683930	2490.330000
968.982714	2548.303269
969.281462	2455.041923
969.580172	2507.974038
969.878844	2601.235385
970.177480	2450.000769
970.476078	2437.397885
970.774639	2487.809423
971.073162	2543.262115
971.371649	2450.000769
971.670098	2475.206538
971.968510	2553.344423
972.266885	2427.315577
972.565223	2424.795000
972.863524	2455.041923
973.161788	2558.385577
973.460014	2540.741538
973.758204	2467.644808
974.056356	2487.809423
974.354471	2538.220962
974.652550	2523.097500
974.950591	2510.494615
975.248595	2528.138654
975.546563	2477.727115
975.844493	2432.356731
976.142386	2419.753846
976.440243	2429.836154
976.738062	2523.097500
977.035845	2487.809423
977.333590	2470.165385
977.631299	2565.947308
977.928971	2429.836154
978.226606	2414.712692
978.524204	2497.891731
978.821765	2510.494615
979.119290	2518.056346
979.416777	2439.918462
979.714228	2507.974038
980.011642	2533.179808
980.309020	2545.782692
980.606360	2467.644808
980.903664	2409.671538
981.200931	2563.426731
981.498162	2490.330000
981.795356	2407.150962
982.092513	2523.097500
982.389633	2515.535769
982.686717	2480.247692
982.983764	2520.576923
983.280775	2457.562500
983.577749	2510.494615
983.874686	2477.727115
984.171587	2530.659231
984.468451	2450.000769
984.765279	2442.439038
985.062070	2475.206538
985.358824	2427.315577
985.655543	2495.371154
985.952224	2550.823846
986.248869	2490.330000
986.545478	2492.850577
986.842050	2442.439038
987.138586	2518.056346
987.435086	2525.618077
987.731549	2450.000769
988.027975	2480.247692
988.324366	2520.576923
988.620719	2548.303269
988.917037	2442.439038
989.213318	2500.412308
989.509563	2414.712692
989.805772	2505.453462
990.101944	2457.562500
990.398080	2510.494615
990.694180	2500.412308
990.990244	2437.397885
991.286271	2513.015192
991.582262	2482.768269
991.878217	2490.330000
992.174136	2550.823846
992.470019	2543.262115
992.765865	2470.165385
993.061676	2470.165385
993.357450	2555.865000
993.653188	2480.247692
993.948890	2510.494615
994.244556	2455.041923
994.540186	2500.412308
994.835780	2452.521346
995.131337	2460.083077
995.426859	2485.288846
995.722345	2507.974038
996.017795	2545.782692
996.313208	2439.918462
996.608586	2490.330000
996.903928	2482.768269
997.199234	2412.192115
997.494504	2487.809423
997.789738	2576.029615
998.084936	2414.712692
998.380099	2490.330000
998.675225	2505.453462
998.970316	2568.467885
999.265371	2447.480192
999.560390	2507.974038
999.855373	2419.753846
1000.150320	2437.397885
1000.445232	2528.138654
1000.740108	2467.644808
1001.034948	2538.220962
1001.329752	2515.535769
1001.624521	2523.097500
1001.919254	2462.603654
1002.213951	2482.768269
1002.508613	2523.097500
1002.803239	2432.356731
1003.097829	2570.988462
1003.392384	2520.576923
1003.686903	2525.618077
1003.981386	2621.400000
1004.275834	2560.906154
1004.570246	2409.671538
1004.864623	2550.823846
1005.158964	2467.644808
1005.453270	2495.371154
1005.747540	2560.906154
1006.041775	2485.288846
1006.335974	2419.753846
1006.630138	2548.303269
1006.924266	2457.562500
1007.218359	2520.576923
1007.512416	2477.727115
1007.806438	2485.288846
1008.100425	2553.344423
1008.394376	2472.685962
1008.688292	2490.330000
1008.982172	2497.891731
1009.276017	2528.138654
1009.569827	2495.371154
1009.863602	2485.288846
1010.157341	2460.083077
1010.451045	2427.315577
1010.744714	2528.138654
1011.038347	2603.755962
1011.331945	2467.644808
1011.625508	2470.165385
1011.919036	2482.768269
1012.212528	2518.056346
1012.505986	2444.959615
1012.799408	2553.344423
1013.092795	2611.317692
1013.386147	2495.371154
1013.679464	2437.397885
1013.972745	2477.727115
1014.265992	2475.206538
1014.559204	2545.782692
1014.852380	2472.685962
1015.145521	2462.603654
1015.438628	2533.179808
1015.731699	2492.850577
1016.024736	2482.768269
1016.317737	2475.206538
1016.610703	2510.494615
1016.903635	2525.618077
1017.196531	2495.371154
1017.489393	2424.795000
1017.782219	2477.727115
1018.075011	2450.000769
1018.367768	2497.891731
1018.660490	2376.904038
1018.953177	2376.904038
1019.245829	2376.904038
