Dividing Wavelength (nm)	Counts (n)	Blue Motor Position (mm): 3.700000	Red Motor Position (mm): 0.000000	
326.493990	2099.640577
326.888308	2099.640577
327.282561	2099.640577
327.676750	2084.517115
328.070874	2001.338077
328.464933	2011.420385
328.858929	2074.434808
329.252859	2129.887500
329.646726	2089.558269
330.040528	2024.023269
330.434265	2124.846346
330.827938	2185.340192
331.221547	2127.366923
331.615091	2288.683846
332.008571	2165.175577
332.401986	2215.587115
332.795338	2265.998654
333.188625	2323.971923
333.581847	2157.613846
333.975006	2271.039808
334.368100	2306.327885
334.761129	2281.122115
335.154095	2381.945192
335.546996	2303.807308
335.939833	2308.848462
336.332606	2412.192115
336.725315	2434.877308
337.117960	2364.301154
337.510540	2507.974038
337.903056	2450.000769
338.295508	2389.506923
338.687896	2386.986346
339.080220	2593.673654
339.472480	2412.192115
339.864676	2429.836154
340.256807	2490.330000
340.648875	2407.150962
341.040879	2500.412308
341.432818	2520.576923
341.824694	2414.712692
342.216506	2460.083077
342.608253	2462.603654
342.999937	2475.206538
343.391557	2394.548077
343.783113	2467.644808
344.174605	2455.041923
344.566033	2424.795000
344.957397	2427.315577
345.348697	2518.056346
345.739934	2563.426731
346.131106	2533.179808
346.522215	2452.521346
346.913260	2472.685962
347.304241	2457.562500
347.695159	2394.548077
348.086012	2495.371154
348.476802	2480.247692
348.867528	2455.041923
349.258191	2553.344423
349.648789	2528.138654
350.039324	2467.644808
350.429796	2444.959615
350.820203	2467.644808
351.210548	2414.712692
351.600828	2427.315577
351.991045	2392.027500
352.381198	2392.027500
352.771288	2386.986346
353.161314	2497.891731
353.551276	2447.480192
353.941175	2455.041923
354.331010	2439.918462
354.720782	2341.615962
355.110490	2452.521346
355.500135	2437.397885
355.889717	2361.780577
356.279235	2429.836154
356.668689	2439.918462
357.058080	2450.000769
357.447408	2457.562500
357.836672	2520.576923
358.225873	2460.083077
358.615010	2424.795000
359.004084	2439.918462
359.393095	2497.891731
359.782043	2384.465769
360.170927	2475.206538
360.559748	2381.945192
360.948505	2439.918462
361.337199	2386.986346
361.725830	2392.027500
362.114398	2392.027500
362.502903	2495.371154
362.891344	2419.753846
363.279722	2482.768269
363.668037	2419.753846
364.056289	2510.494615
364.444478	2447.480192
364.832603	2424.795000
365.220665	2480.247692
365.608665	2434.877308
365.996601	2480.247692
366.384474	2457.562500
366.772284	2386.986346
367.160031	2475.206538
367.547715	2417.233269
367.935336	2369.342308
368.322893	2437.397885
368.710388	2502.932885
369.097820	2452.521346
369.485189	2442.439038
369.872495	2384.465769
370.259738	2487.809423
370.646918	2495.371154
371.034035	2485.288846
371.421090	2404.630385
371.808081	2447.480192
372.195010	2482.768269
372.581875	2467.644808
372.968678	2422.274423
373.355418	2513.015192
373.742096	2538.220962
374.128710	2434.877308
374.515262	2482.768269
374.901751	2490.330000
375.288177	2424.795000
375.674540	2462.603654
376.060841	2518.056346
376.447079	2520.576923
376.833254	2495.371154
377.219367	2452.521346
377.605417	2455.041923
377.991404	2462.603654
378.377329	2439.918462
378.763191	2422.274423
379.148991	2520.576923
379.534727	2417.233269
379.920402	2475.206538
380.306013	2555.865000
380.691563	2439.918462
381.077049	2485.288846
381.462474	2472.685962
381.847835	2507.974038
382.233134	2467.644808
382.618371	2530.659231
383.003545	2417.233269
383.388657	2490.330000
383.773706	2447.480192
384.158693	2507.974038
384.543618	2409.671538
384.928480	2492.850577
385.313280	2470.165385
385.698017	2442.439038
386.082692	2452.521346
386.467305	2470.165385
386.851856	2414.712692
387.236344	2439.918462
387.620770	2424.795000
388.005133	2470.165385
388.389435	2439.918462
388.773674	2432.356731
389.157851	2560.906154
389.541965	2467.644808
389.926018	2460.083077
390.310008	2530.659231
390.693936	2414.712692
391.077802	2465.124231
391.461606	2497.891731
391.845348	2409.671538
392.229027	2490.330000
392.612645	2487.809423
392.996200	2397.068654
393.379694	2502.932885
393.763125	2439.918462
394.146494	2434.877308
394.529801	2447.480192
394.913047	2447.480192
395.296230	2460.083077
395.679351	2475.206538
396.062410	2553.344423
396.445408	2462.603654
396.828343	2497.891731
397.211217	2490.330000
397.594028	2568.467885
397.976778	2490.330000
398.359466	2525.618077
398.742092	2487.809423
399.124656	2465.124231
399.507158	2553.344423
399.889598	2540.741538
400.271977	2432.356731
400.654294	2472.685962
401.036549	2427.315577
401.418742	2460.083077
401.800874	2465.124231
402.182944	2419.753846
402.564952	2515.535769
402.946898	2472.685962
403.328783	2439.918462
403.710606	2452.521346
404.092367	2535.700385
404.474067	2422.274423
404.855705	2505.453462
405.237282	2475.206538
405.618797	2545.782692
406.000250	2442.439038
406.381642	2450.000769
406.762972	2502.932885
407.144240	2467.644808
407.525447	2462.603654
407.906593	2500.412308
408.287677	2409.671538
408.668700	2500.412308
409.049661	2497.891731
409.430560	2540.741538
409.811399	2525.618077
410.192176	2439.918462
410.572891	2510.494615
410.953545	2462.603654
411.334138	2450.000769
411.714669	2437.397885
412.095139	2439.918462
412.475547	2500.412308
412.855894	2525.618077
413.236180	2450.000769
413.616405	2518.056346
413.996568	2470.165385
414.376670	2490.330000
414.756711	2482.768269
415.136691	2480.247692
415.516609	2412.192115
415.896466	2505.453462
416.276262	2434.877308
416.655997	2429.836154
417.035670	2475.206538
417.415283	2520.576923
417.794834	2548.303269
418.174324	2533.179808
418.553753	2429.836154
418.933121	2608.797115
419.312428	2510.494615
419.691674	2507.974038
420.070859	2480.247692
420.449983	2545.782692
420.829045	2477.727115
421.208047	2485.288846
421.586988	2397.068654
421.965867	2439.918462
422.344686	2472.685962
422.723444	2507.974038
423.102141	2452.521346
423.480777	2477.727115
423.859352	2465.124231
424.237866	2460.083077
424.616319	2492.850577
424.994712	2485.288846
425.373044	2457.562500
425.751314	2502.932885
426.129524	2530.659231
426.507673	2480.247692
426.885762	2437.397885
427.263789	2407.150962
427.641756	2545.782692
428.019662	2490.330000
428.397508	2450.000769
428.775292	2422.274423
429.153016	2507.974038
429.530679	2472.685962
429.908282	2515.535769
430.285824	2540.741538
430.663305	2450.000769
431.040726	2518.056346
431.418086	2404.630385
431.795385	2462.603654
432.172624	2515.535769
432.549802	2455.041923
432.926920	2422.274423
433.303977	2487.809423
433.680974	2500.412308
434.057910	2497.891731
434.434786	2492.850577
434.811601	2530.659231
435.188355	2412.192115
435.565050	2490.330000
435.941683	2492.850577
436.318257	2439.918462
436.694770	2450.000769
437.071222	2480.247692
437.447614	2480.247692
437.823946	2434.877308
438.200218	2581.070769
438.576429	2480.247692
438.952580	2475.206538
439.328670	2495.371154
439.704700	2402.109808
440.080670	2495.371154
440.456580	2596.194231
440.832429	2548.303269
441.208218	2447.480192
441.583947	2475.206538
441.959616	2452.521346
442.335224	2442.439038
442.710773	2533.179808
443.086261	2497.891731
443.461689	2482.768269
443.837057	2505.453462
444.212365	2535.700385
444.587612	2565.947308
444.962800	2528.138654
445.337927	2535.700385
445.712995	2487.809423
446.088002	2543.262115
446.462949	2518.056346
446.837837	2518.056346
447.212664	2518.056346
447.587431	2553.344423
447.962139	2495.371154
448.336786	2548.303269
448.711374	2477.727115
449.085901	2502.932885
449.460369	2525.618077
449.834776	2507.974038
450.209124	2482.768269
450.583412	2553.344423
450.957640	2550.823846
451.331808	2472.685962
451.705917	2497.891731
452.079965	2450.000769
452.453954	2535.700385
452.827883	2460.083077
453.201752	2475.206538
453.575562	2548.303269
453.949311	2424.795000
454.323001	2523.097500
454.696632	2545.782692
455.070202	2467.644808
455.443713	2462.603654
455.817164	2513.015192
456.190556	2485.288846
456.563888	2467.644808
456.937160	2462.603654
457.310373	2510.494615
457.683526	2545.782692
458.056619	2538.220962
458.429653	2548.303269
458.802628	2490.330000
459.175542	2500.412308
459.548398	2457.562500
459.921194	2573.509038
460.293930	2427.315577
460.666607	2480.247692
461.039224	2550.823846
461.411782	2442.439038
461.784280	2485.288846
462.156719	2543.262115
462.529099	2460.083077
462.901419	2414.712692
463.273680	2555.865000
463.645882	2548.303269
464.018024	2460.083077
464.390106	2455.041923
464.762130	2482.768269
465.134094	2538.220962
465.505999	2392.027500
465.877845	2475.206538
466.249631	2472.685962
466.621358	2379.424615
466.993026	2563.426731
467.364634	2510.494615
467.736184	2558.385577
468.107674	2485.288846
468.479105	2460.083077
468.850477	2510.494615
469.221790	2525.618077
469.593043	2513.015192
469.964238	2402.109808
470.335373	2505.453462
470.706449	2545.782692
471.077467	2447.480192
471.448425	2480.247692
471.819324	2399.589231
472.190164	2523.097500
472.560945	2417.233269
472.931667	2543.262115
473.302330	2409.671538
473.672934	2510.494615
474.043479	2460.083077
474.413965	2543.262115
474.784393	2475.206538
475.154761	2591.153077
475.525070	2475.206538
475.895321	2460.083077
476.265513	2450.000769
476.635645	2467.644808
477.005719	2500.412308
477.375734	2427.315577
477.745691	2495.371154
478.115588	2455.041923
478.485427	2538.220962
478.855207	2480.247692
479.224928	2442.439038
479.594591	2482.768269
479.964194	2533.179808
480.333739	2472.685962
480.703226	2500.412308
481.072653	2414.712692
481.442022	2535.700385
481.811333	2450.000769
482.180584	2495.371154
482.549777	2434.877308
482.918912	2502.932885
483.287988	2447.480192
483.657005	2510.494615
484.025964	2492.850577
484.394864	2447.480192
484.763706	2525.618077
485.132489	2578.550192
485.501213	2450.000769
485.869879	2515.535769
486.238487	2492.850577
486.607036	2528.138654
486.975527	2523.097500
487.343959	2399.589231
487.712333	2613.838269
488.080648	2505.453462
488.448905	2487.809423
488.817104	2525.618077
489.185244	2460.083077
489.553326	2490.330000
489.921350	2457.562500
490.289315	2457.562500
490.657222	2376.904038
491.025070	2455.041923
491.392861	2535.700385
491.760593	2452.521346
492.128267	2568.467885
492.495883	2497.891731
492.863440	2492.850577
493.230939	2452.521346
493.598380	2450.000769
493.965763	2477.727115
494.333088	2502.932885
494.700354	2510.494615
495.067563	2500.412308
495.434713	2505.453462
495.801805	2482.768269
496.168839	2581.070769
496.535815	2480.247692
496.902733	2530.659231
497.269593	2492.850577
497.636395	2470.165385
498.003139	2444.959615
498.369825	2520.576923
498.736453	2530.659231
499.103023	2444.959615
499.469535	2515.535769
499.835989	2543.262115
500.202385	2475.206538
500.568723	2485.288846
500.935003	2507.974038
501.301226	2492.850577
501.667390	2490.330000
502.033497	2553.344423
502.399546	2528.138654
502.765537	2447.480192
503.131470	2439.918462
503.497345	2601.235385
503.863163	2444.959615
504.228923	2457.562500
504.594625	2543.262115
504.960269	2434.877308
505.325856	2495.371154
505.691385	2507.974038
506.056856	2573.509038
506.422270	2444.959615
506.787625	2518.056346
507.152924	2487.809423
507.518164	2492.850577
507.883347	2535.700385
508.248472	2588.632500
508.613540	2558.385577
508.978550	2442.439038
509.343503	2500.412308
509.708398	2502.932885
510.073236	2432.356731
510.438016	2563.426731
510.802738	2550.823846
511.167403	2525.618077
511.532010	2419.753846
511.896561	2444.959615
512.261053	2530.659231
512.625488	2465.124231
512.989866	2528.138654
513.354186	2535.700385
513.718449	2432.356731
514.082655	2490.330000
514.446803	2528.138654
514.810894	2497.891731
515.174927	2603.755962
515.538904	2480.247692
515.902822	2434.877308
516.266684	2467.644808
516.630488	2543.262115
516.994235	2480.247692
517.357925	2540.741538
517.721558	2502.932885
518.085133	2417.233269
518.448651	2505.453462
518.812112	2485.288846
519.175516	2510.494615
519.538863	2616.358846
519.902152	2452.521346
520.265385	2513.015192
520.628560	2492.850577
520.991678	2525.618077
521.354739	2462.603654
521.717743	2419.753846
522.080690	2450.000769
522.443580	2515.535769
522.806413	2472.685962
523.169189	2404.630385
523.531908	2530.659231
523.894569	2455.041923
524.257174	2422.274423
524.619722	2444.959615
524.982213	2492.850577
525.344647	2500.412308
525.707025	2538.220962
526.069345	2540.741538
526.431608	2442.439038
526.793815	2450.000769
527.155964	2500.412308
527.518057	2487.809423
527.880093	2560.906154
528.242072	2515.535769
528.603995	2520.576923
528.965860	2500.412308
529.327669	2437.397885
529.689421	2515.535769
530.051117	2583.591346
530.412755	2520.576923
530.774337	2565.947308
531.135862	2492.850577
531.497331	2533.179808
531.858743	2470.165385
532.220098	2470.165385
532.581396	2472.685962
532.942638	2500.412308
533.303824	2535.700385
533.664953	2465.124231
534.026025	2434.877308
534.387040	2485.288846
534.747999	2530.659231
535.108902	2477.727115
535.469748	2543.262115
535.830537	2487.809423
536.191270	2432.356731
536.551947	2480.247692
536.912567	2477.727115
537.273131	2485.288846
537.633638	2472.685962
537.994089	2495.371154
538.354483	2530.659231
538.714821	2457.562500
539.075103	2447.480192
539.435328	2505.453462
539.795497	2472.685962
540.155609	2525.618077
540.515665	2548.303269
540.875665	2548.303269
541.235609	2452.521346
541.595496	2470.165385
541.955328	2442.439038
542.315102	2457.562500
542.674821	2523.097500
543.034483	2465.124231
543.394090	2500.412308
543.753640	2540.741538
544.113134	2462.603654
544.472571	2576.029615
544.831953	2477.727115
545.191278	2480.247692
545.550548	2495.371154
545.909761	2424.795000
546.268918	2492.850577
546.628019	2533.179808
546.987064	2434.877308
547.346053	2533.179808
547.704986	2533.179808
548.063863	2565.947308
548.422684	2444.959615
548.781449	2492.850577
549.140158	2480.247692
549.498811	2450.000769
549.857408	2523.097500
550.215949	2623.920577
550.574434	2475.206538
550.932864	2510.494615
551.291237	2470.165385
551.649555	2545.782692
552.007817	2520.576923
552.366022	2563.426731
552.724173	2520.576923
553.082267	2505.453462
553.440305	2497.891731
553.798288	2545.782692
554.156215	2475.206538
554.514086	2429.836154
554.871902	2447.480192
555.229661	2437.397885
555.587365	2548.303269
555.945014	2477.727115
556.302606	2500.412308
556.660143	2457.562500
557.017625	2422.274423
557.375050	2593.673654
557.732421	2487.809423
558.089735	2414.712692
558.446994	2492.850577
558.804197	2535.700385
559.161345	2495.371154
559.518437	2548.303269
559.875474	2447.480192
560.232455	2586.111923
560.589381	2462.603654
560.946251	2432.356731
561.303065	2492.850577
561.659825	2573.509038
562.016528	2558.385577
562.373177	2490.330000
562.729770	2515.535769
563.086307	2455.041923
563.442789	2510.494615
563.799216	2518.056346
564.155587	2530.659231
564.511904	2518.056346
564.868164	2472.685962
565.224370	2455.041923
565.580520	2457.562500
565.936615	2470.165385
566.292654	2497.891731
566.648638	2505.453462
567.004567	2568.467885
567.360441	2533.179808
567.716260	2444.959615
568.072023	2447.480192
568.427732	2452.521346
568.783385	2553.344423
569.138982	2439.918462
569.494525	2497.891731
569.850013	2523.097500
570.205445	2485.288846
570.560823	2429.836154
570.916145	2505.453462
571.271412	2497.891731
571.626625	2525.618077
571.981782	2523.097500
572.336884	2540.741538
572.691931	2563.426731
573.046923	2482.768269
573.401860	2548.303269
573.756743	2636.523462
574.111570	2475.206538
574.466342	2505.453462
574.821059	2540.741538
575.175722	2452.521346
575.530330	2487.809423
575.884882	2588.632500
576.239380	2437.397885
576.593823	2460.083077
576.948211	2450.000769
577.302544	2482.768269
577.656823	2417.233269
578.011047	2442.439038
578.365216	2460.083077
578.719330	2550.823846
579.073389	2444.959615
579.427394	2513.015192
579.781344	2500.412308
580.135239	2490.330000
580.489080	2550.823846
580.842866	2477.727115
581.196597	2550.823846
581.550273	2520.576923
581.903895	2550.823846
582.257463	2465.124231
582.610975	2513.015192
582.964434	2560.906154
583.317837	2515.535769
583.671186	2460.083077
584.024481	2502.932885
584.377721	2470.165385
584.730906	2520.576923
585.084037	2492.850577
585.437113	2480.247692
585.790135	2515.535769
586.143103	2505.453462
586.496016	2460.083077
586.848874	2500.412308
587.201679	2535.700385
587.554428	2507.974038
587.907124	2442.439038
588.259765	2525.618077
588.612352	2581.070769
588.964884	2538.220962
589.317362	2548.303269
589.669786	2480.247692
590.022155	2583.591346
590.374470	2455.041923
590.726731	2507.974038
591.078937	2507.974038
591.431090	2404.630385
591.783188	2455.041923
592.135232	2472.685962
592.487222	2487.809423
592.839157	2538.220962
593.191038	2487.809423
593.542866	2452.521346
593.894639	2460.083077
594.246358	2477.727115
594.598022	2472.685962
594.949633	2538.220962
595.301190	2520.576923
595.652692	2505.453462
596.004141	2548.303269
596.355535	2510.494615
596.706876	2482.768269
597.058162	2616.358846
597.409395	2457.562500
597.760573	2482.768269
598.111698	2485.288846
598.462768	2490.330000
598.813785	2573.509038
599.164748	2548.303269
599.515657	2475.206538
599.866511	2513.015192
600.217312	2495.371154
600.568060	2505.453462
600.918753	2472.685962
601.269392	2563.426731
601.619978	2591.153077
601.970510	2487.809423
602.320988	2518.056346
602.671412	2490.330000
603.021783	2520.576923
603.372100	2450.000769
603.722363	2477.727115
604.072572	2518.056346
604.422728	2570.988462
604.772830	2586.111923
605.122878	2450.000769
605.472872	2507.974038
605.822813	2397.068654
606.172701	2470.165385
606.522534	2417.233269
606.872314	2555.865000
607.222041	2462.603654
607.571714	2548.303269
607.921333	2424.795000
608.270899	2467.644808
608.620411	2497.891731
608.969870	2581.070769
609.319276	2371.862885
609.668627	2543.262115
610.017926	2513.015192
610.367171	2497.891731
610.716362	2460.083077
611.065500	2550.823846
611.414585	2460.083077
611.763616	2399.589231
612.112594	2487.809423
612.461518	2495.371154
612.810389	2560.906154
613.159207	2450.000769
613.507971	2515.535769
613.856682	2608.797115
614.205340	2467.644808
614.553945	2414.712692
614.902496	2545.782692
615.250994	2507.974038
615.599439	2487.809423
615.947830	2523.097500
616.296169	2477.727115
616.644454	2583.591346
616.992686	2543.262115
617.340864	2502.932885
617.688990	2455.041923
618.037063	2462.603654
618.385082	2525.618077
618.733048	2505.453462
619.080961	2530.659231
619.428821	2497.891731
619.776628	2550.823846
620.124382	2593.673654
620.472083	2538.220962
620.819731	2490.330000
621.167326	2487.809423
621.514868	2439.918462
621.862357	2540.741538
622.209793	2568.467885
622.557176	2465.124231
622.904506	2477.727115
623.251783	2495.371154
623.599007	2601.235385
623.946179	2538.220962
624.293297	2482.768269
624.640363	2538.220962
624.987376	2502.932885
625.334336	2490.330000
625.681243	2507.974038
626.028097	2470.165385
626.374899	2528.138654
626.721647	2434.877308
627.068343	2606.276538
627.414987	2563.426731
627.761577	2475.206538
628.108115	2447.480192
628.454600	2487.809423
628.801032	2452.521346
629.147412	2480.247692
629.493739	2528.138654
629.840014	2457.562500
630.186236	2523.097500
630.532405	2510.494615
630.878521	2535.700385
631.224585	2613.838269
631.570597	2528.138654
631.916556	2530.659231
632.262462	2500.412308
632.608316	2553.344423
632.954117	2515.535769
633.299866	2457.562500
633.645562	2535.700385
633.991206	2520.576923
634.336797	2455.041923
634.682336	2462.603654
635.027823	2523.097500
635.373257	2447.480192
635.718639	2485.288846
636.063968	2533.179808
636.409245	2450.000769
636.754470	2510.494615
637.099642	2467.644808
637.444762	2523.097500
637.789829	2495.371154
638.134845	2520.576923
638.479808	2485.288846
638.824719	2437.397885
639.169577	2450.000769
639.514383	2502.932885
639.859137	2444.959615
640.203839	2502.932885
640.548489	2543.262115
640.893086	2470.165385
641.237632	2470.165385
641.582125	2513.015192
641.926566	2535.700385
642.270955	2490.330000
642.615292	2505.453462
642.959576	2555.865000
643.303809	2510.494615
643.647990	2518.056346
643.992118	2540.741538
644.336195	2432.356731
644.680219	2533.179808
645.024192	2434.877308
645.368112	2482.768269
645.711981	2480.247692
646.055797	2480.247692
646.399562	2404.630385
646.743274	2507.974038
647.086935	2500.412308
647.430544	2525.618077
647.774101	2424.795000
648.117606	2417.233269
648.461059	2452.521346
648.804460	2485.288846
649.147810	2507.974038
649.491108	2432.356731
649.834354	2538.220962
650.177548	2550.823846
650.520690	2568.467885
650.863781	2487.809423
651.206820	2545.782692
651.549807	2462.603654
651.892742	2414.712692
652.235626	2502.932885
652.578458	2502.932885
652.921238	2417.233269
653.263967	2465.124231
653.606644	2392.027500
653.949269	2480.247692
654.291843	2500.412308
654.634365	2507.974038
654.976836	2477.727115
655.319255	2545.782692
655.661622	2490.330000
656.003938	2550.823846
656.346203	2528.138654
656.688416	2497.891731
657.030577	2427.315577
657.372687	2525.618077
657.714746	2530.659231
658.056753	2482.768269
658.398708	2538.220962
658.740612	2432.356731
659.082465	2502.932885
659.424266	2465.124231
659.766016	2470.165385
660.107715	2477.727115
660.449362	2525.618077
660.790958	2490.330000
661.132503	2507.974038
661.473996	2550.823846
661.815438	2452.521346
662.156829	2583.591346
662.498168	2460.083077
662.839456	2482.768269
663.180693	2450.000769
663.521879	2530.659231
663.863013	2535.700385
664.204097	2530.659231
664.545129	2530.659231
664.886110	2505.453462
665.227040	2439.918462
665.567918	2553.344423
665.908746	2555.865000
666.249522	2525.618077
666.590248	2467.644808
666.930922	2414.712692
667.271545	2555.865000
667.612118	2472.685962
667.952639	2477.727115
668.293109	2467.644808
668.633528	2548.303269
668.973896	2492.850577
669.314213	2545.782692
669.654480	2482.768269
669.994695	2457.562500
670.334859	2467.644808
670.674973	2505.453462
671.015035	2538.220962
671.355047	2439.918462
671.695008	2487.809423
672.034918	2477.727115
672.374777	2487.809423
672.714585	2518.056346
673.054342	2515.535769
673.394049	2467.644808
673.733705	2583.591346
674.073310	2513.015192
674.412864	2528.138654
674.752368	2507.974038
675.091820	2513.015192
675.431223	2495.371154
675.770574	2576.029615
676.109875	2432.356731
676.449125	2432.356731
676.788324	2465.124231
677.127473	2462.603654
677.466571	2492.850577
677.805619	2455.041923
678.144616	2379.424615
678.483562	2548.303269
678.822458	2540.741538
679.161303	2465.124231
679.500098	2487.809423
679.838842	2409.671538
680.177535	2487.809423
680.516179	2515.535769
680.854771	2528.138654
681.193314	2452.521346
681.531805	2480.247692
681.870247	2528.138654
682.208638	2492.850577
682.546978	2397.068654
682.885268	2485.288846
683.223508	2465.124231
683.561697	2477.727115
683.899836	2520.576923
684.237925	2467.644808
684.575963	2568.467885
684.913951	2477.727115
685.251889	2528.138654
685.589776	2444.959615
685.927614	2502.932885
686.265401	2492.850577
686.603137	2573.509038
686.940824	2497.891731
687.278460	2578.550192
687.616046	2475.206538
687.953582	2525.618077
688.291068	2470.165385
688.628504	2513.015192
688.965889	2482.768269
689.303224	2477.727115
689.640510	2467.644808
689.977745	2550.823846
690.314930	2606.276538
690.652065	2470.165385
690.989150	2487.809423
691.326185	2472.685962
691.663170	2535.700385
692.000105	2558.385577
692.336990	2480.247692
692.673825	2447.480192
693.010610	2455.041923
693.347345	2543.262115
693.684030	2523.097500
694.020665	2450.000769
694.357251	2523.097500
694.693786	2553.344423
695.030272	2480.247692
695.366707	2485.288846
695.703093	2460.083077
696.039429	2550.823846
696.375716	2540.741538
696.711952	2530.659231
697.048139	2452.521346
697.384276	2505.453462
697.720363	2485.288846
698.056400	2510.494615
698.392388	2490.330000
698.728326	2470.165385
699.064214	2482.768269
699.400053	2528.138654
699.735842	2444.959615
700.071581	2515.535769
700.407270	2414.712692
700.742910	2505.453462
701.078501	2432.356731
701.414042	2462.603654
701.749533	2507.974038
702.084974	2447.480192
702.420366	2548.303269
702.755709	2520.576923
703.091002	2505.453462
703.426246	2528.138654
703.761440	2472.685962
704.096584	2457.562500
704.431679	2455.041923
704.766725	2442.439038
705.101721	2452.521346
705.436668	2455.041923
705.771565	2563.426731
706.106413	2462.603654
706.441212	2465.124231
706.775961	2500.412308
707.110661	2553.344423
707.445311	2550.823846
707.779913	2485.288846
708.114465	2497.891731
708.448967	2530.659231
708.783421	2570.988462
709.117825	2485.288846
709.452180	2502.932885
709.786485	2452.521346
710.120742	2530.659231
710.454949	2475.206538
710.789107	2507.974038
711.123216	2515.535769
711.457275	2455.041923
711.791286	2545.782692
712.125247	2578.550192
712.459159	2513.015192
712.793023	2568.467885
713.126837	2558.385577
713.460602	2457.562500
713.794318	2507.974038
714.127985	2515.535769
714.461602	2568.467885
714.795171	2513.015192
715.128691	2472.685962
715.462162	2502.932885
715.795584	2548.303269
716.128957	2452.521346
716.462281	2535.700385
716.795556	2475.206538
717.128782	2586.111923
717.461960	2482.768269
717.795088	2480.247692
718.128167	2593.673654
718.461198	2482.768269
718.794180	2548.303269
719.127113	2475.206538
719.459997	2525.618077
719.792833	2439.918462
720.125619	2475.206538
720.458357	2477.727115
720.791046	2492.850577
721.123686	2467.644808
721.456278	2505.453462
721.788821	2538.220962
722.121315	2553.344423
722.453761	2510.494615
722.786158	2502.932885
723.118506	2482.768269
723.450805	2507.974038
723.783056	2429.836154
724.115259	2434.877308
724.447412	2560.906154
724.779518	2500.412308
725.111574	2472.685962
725.443582	2450.000769
725.775542	2477.727115
726.107453	2510.494615
726.439315	2480.247692
726.771129	2490.330000
727.102895	2510.494615
727.434612	2518.056346
727.766281	2465.124231
728.097901	2475.206538
728.429473	2495.371154
728.760996	2515.535769
729.092471	2432.356731
729.423897	2583.591346
729.755276	2472.685962
730.086606	2523.097500
730.417887	2467.644808
730.749120	2581.070769
731.080305	2434.877308
731.411442	2460.083077
731.742530	2470.165385
732.073570	2578.550192
732.404562	2480.247692
732.735506	2507.974038
733.066401	2500.412308
733.397249	2565.947308
733.728048	2487.809423
734.058798	2419.753846
734.389501	2487.809423
734.720156	2550.823846
735.050762	2452.521346
735.381320	2583.591346
735.711831	2565.947308
736.042293	2507.974038
736.372707	2500.412308
736.703073	2480.247692
737.033391	2530.659231
737.363661	2538.220962
737.693883	2543.262115
738.024056	2525.618077
738.354182	2439.918462
738.684260	2510.494615
739.014290	2497.891731
739.344272	2465.124231
739.674207	2528.138654
740.004093	2560.906154
740.333931	2490.330000
740.663722	2492.850577
740.993464	2538.220962
741.323159	2568.467885
741.652806	2505.453462
741.982405	2500.412308
742.311956	2525.618077
742.641460	2432.356731
742.970915	2502.932885
743.300323	2482.768269
743.629683	2505.453462
743.958996	2583.591346
744.288260	2530.659231
744.617477	2460.083077
744.946647	2515.535769
745.275768	2432.356731
745.604842	2500.412308
745.933869	2455.041923
746.262847	2495.371154
746.591778	2523.097500
746.920662	2601.235385
747.249498	2450.000769
747.578286	2442.439038
747.907027	2472.685962
748.235720	2429.836154
748.564365	2470.165385
748.892963	2510.494615
749.221514	2591.153077
749.550017	2505.453462
749.878473	2510.494615
750.206881	2394.548077
750.535242	2480.247692
750.863555	2490.330000
751.191821	2578.550192
751.520039	2505.453462
751.848210	2462.603654
752.176334	2510.494615
752.504411	2465.124231
752.832440	2548.303269
753.160421	2447.480192
753.488356	2560.906154
753.816243	2444.959615
754.144082	2563.426731
754.471875	2492.850577
754.799620	2568.467885
755.127318	2555.865000
755.454969	2548.303269
755.782572	2485.288846
756.110129	2495.371154
756.437638	2497.891731
756.765100	2492.850577
757.092515	2548.303269
757.419882	2452.521346
757.747203	2533.179808
758.074477	2477.727115
758.401703	2465.124231
758.728882	2533.179808
759.056014	2475.206538
759.383099	2611.317692
759.710138	2437.397885
760.037129	2432.356731
760.364073	2520.576923
760.690970	2502.932885
761.017820	2384.465769
761.344623	2502.932885
761.671379	2515.535769
761.998088	2515.535769
762.324751	2399.589231
762.651366	2502.932885
762.977935	2465.124231
763.304456	2518.056346
763.630931	2548.303269
763.957359	2530.659231
764.283740	2465.124231
764.610074	2553.344423
764.936362	2487.809423
765.262602	2518.056346
765.588796	2500.412308
765.914943	2487.809423
766.241044	2495.371154
766.567097	2563.426731
766.893104	2523.097500
767.219064	2490.330000
767.544978	2487.809423
767.870845	2502.932885
768.196665	2560.906154
768.522438	2535.700385
768.848165	2480.247692
769.173846	2487.809423
769.499479	2576.029615
769.825066	2560.906154
770.150607	2528.138654
770.476101	2550.823846
770.801548	2482.768269
771.126949	2402.109808
771.452303	2515.535769
771.777611	2603.755962
772.102872	2530.659231
772.428087	2525.618077
772.753256	2475.206538
773.078378	2487.809423
773.403453	2424.795000
773.728482	2404.630385
774.053465	2482.768269
774.378401	2462.603654
774.703291	2543.262115
775.028135	2477.727115
775.352932	2467.644808
775.677683	2586.111923
776.002388	2455.041923
776.327046	2560.906154
776.651658	2487.809423
776.976224	2477.727115
777.300743	2487.809423
777.625216	2533.179808
777.949643	2555.865000
778.274024	2482.768269
778.598359	2543.262115
778.922647	2528.138654
779.246889	2465.124231
779.571086	2528.138654
779.895236	2439.918462
780.219339	2560.906154
780.543397	2457.562500
780.867409	2437.397885
781.191374	2513.015192
781.515294	2419.753846
781.839167	2439.918462
782.162995	2553.344423
782.486776	2523.097500
782.810511	2500.412308
783.134201	2525.618077
783.457844	2439.918462
783.781441	2485.288846
784.104993	2424.795000
784.428498	2601.235385
784.751958	2482.768269
785.075372	2505.453462
785.398739	2462.603654
785.722061	2427.315577
786.045337	2505.453462
786.368568	2490.330000
786.691752	2472.685962
787.014891	2480.247692
787.337983	2492.850577
787.661030	2417.233269
787.984031	2520.576923
788.306987	2525.618077
788.629897	2500.412308
788.952760	2550.823846
789.275579	2518.056346
789.598351	2535.700385
789.921078	2467.644808
790.243759	2439.918462
790.566395	2475.206538
790.888984	2492.850577
791.211529	2477.727115
791.534027	2538.220962
791.856480	2490.330000
792.178888	2538.220962
792.501249	2495.371154
792.823566	2482.768269
793.145836	2497.891731
793.468062	2475.206538
793.790241	2583.591346
794.112375	2452.521346
794.434464	2505.453462
794.756507	2462.603654
795.078505	2528.138654
795.400457	2510.494615
795.722364	2429.836154
796.044226	2487.809423
796.366042	2485.288846
796.687812	2553.344423
797.009538	2379.424615
797.331218	2480.247692
797.652852	2518.056346
797.974442	2482.768269
798.295986	2490.330000
798.617484	2475.206538
798.938938	2525.618077
799.260346	2518.056346
799.581709	2545.782692
799.903026	2394.548077
800.224299	2507.974038
800.545526	2487.809423
800.866708	2497.891731
801.187845	2351.698269
801.508936	2588.632500
801.829983	2457.562500
802.150984	2533.179808
802.471940	2482.768269
802.792851	2525.618077
803.113717	2487.809423
803.434538	2502.932885
803.755314	2555.865000
804.076045	2490.330000
804.396731	2543.262115
804.717372	2472.685962
805.037967	2485.288846
805.358518	2548.303269
805.679024	2576.029615
805.999485	2480.247692
806.319901	2530.659231
806.640272	2407.150962
806.960598	2538.220962
807.280879	2477.727115
807.601115	2475.206538
807.921306	2495.371154
808.241453	2523.097500
808.561554	2437.397885
808.881611	2497.891731
809.201623	2497.891731
809.521590	2472.685962
809.841513	2424.795000
810.161390	2543.262115
810.481223	2548.303269
810.801011	2568.467885
811.120755	2450.000769
811.440453	2477.727115
811.760107	2540.741538
812.079716	2472.685962
812.399281	2482.768269
812.718801	2550.823846
813.038276	2502.932885
813.357707	2500.412308
813.677093	2485.288846
813.996434	2409.671538
814.315731	2480.247692
814.634983	2475.206538
814.954191	2505.453462
815.273354	2593.673654
815.592473	2485.288846
815.911547	2434.877308
816.230577	2502.932885
816.549562	2422.274423
816.868502	2434.877308
817.187399	2513.015192
817.506250	2432.356731
817.825058	2495.371154
818.143821	2495.371154
818.462539	2477.727115
818.781213	2591.153077
819.099843	2475.206538
819.418429	2513.015192
819.736970	2528.138654
820.055466	2578.550192
820.373919	2455.041923
820.692327	2482.768269
821.010691	2515.535769
821.329011	2538.220962
821.647286	2538.220962
821.965517	2523.097500
822.283704	2515.535769
822.601847	2528.138654
822.919945	2558.385577
823.237999	2427.315577
823.556010	2480.247692
823.873976	2417.233269
824.191897	2518.056346
824.509775	2447.480192
824.827609	2477.727115
825.145398	2409.671538
825.463144	2523.097500
825.780845	2462.603654
826.098502	2518.056346
826.416116	2533.179808
826.733685	2450.000769
827.051210	2576.029615
827.368692	2470.165385
827.686129	2472.685962
828.003522	2455.041923
828.320872	2485.288846
828.638177	2543.262115
828.955439	2520.576923
829.272656	2535.700385
829.589830	2447.480192
829.906960	2462.603654
830.224046	2465.124231
830.541088	2520.576923
830.858086	2417.233269
831.175041	2538.220962
831.491952	2369.342308
831.808819	2528.138654
832.125642	2500.412308
832.442421	2492.850577
832.759157	2523.097500
833.075849	2490.330000
833.392497	2427.315577
833.709101	2515.535769
834.025662	2465.124231
834.342179	2515.535769
834.658653	2475.206538
834.975083	2528.138654
835.291469	2462.603654
835.607811	2507.974038
835.924110	2583.591346
836.240366	2507.974038
836.556578	2513.015192
836.872746	2535.700385
837.188871	2477.727115
837.504952	2540.741538
837.820990	2422.274423
838.136984	2404.630385
838.452935	2548.303269
838.768842	2528.138654
839.084706	2530.659231
839.400526	2505.453462
839.716303	2462.603654
840.032037	2487.809423
840.347727	2462.603654
840.663373	2450.000769
840.978977	2462.603654
841.294537	2565.947308
841.610054	2477.727115
841.925527	2465.124231
842.240957	2500.412308
842.556344	2485.288846
842.871687	2462.603654
843.186987	2533.179808
843.502244	2482.768269
843.817458	2480.247692
844.132629	2487.809423
844.447756	2565.947308
844.762840	2460.083077
845.077881	2505.453462
845.392879	2450.000769
845.707833	2482.768269
846.022745	2432.356731
846.337613	2404.630385
846.652438	2462.603654
846.967221	2480.247692
847.281960	2419.753846
847.596656	2394.548077
847.911309	2452.521346
848.225919	2500.412308
848.540485	2550.823846
848.855009	2439.918462
849.169490	2513.015192
849.483928	2525.618077
849.798323	2530.659231
850.112675	2475.206538
850.426984	2480.247692
850.741251	2586.111923
851.055474	2482.768269
851.369654	2550.823846
851.683792	2487.809423
851.997887	2535.700385
852.311938	2462.603654
852.625947	2515.535769
852.939914	2570.988462
853.253837	2523.097500
853.567718	2457.562500
853.881555	2465.124231
854.195350	2573.509038
854.509103	2470.165385
854.822812	2565.947308
855.136479	2538.220962
855.450103	2543.262115
855.763685	2555.865000
856.077224	2505.453462
856.390720	2452.521346
856.704173	2467.644808
857.017584	2480.247692
857.330953	2492.850577
857.644278	2563.426731
857.957561	2450.000769
858.270802	2497.891731
858.584000	2515.535769
858.897155	2480.247692
859.210268	2515.535769
859.523339	2424.795000
859.836367	2462.603654
860.149352	2518.056346
860.462295	2434.877308
860.775195	2492.850577
861.088054	2507.974038
861.400869	2490.330000
861.713642	2447.480192
862.026373	2452.521346
862.339062	2515.535769
862.651708	2467.644808
862.964312	2394.548077
863.276873	2507.974038
863.589392	2505.453462
863.901869	2583.591346
864.214303	2528.138654
864.526696	2492.850577
864.839045	2437.397885
865.151353	2553.344423
865.463619	2450.000769
865.775842	2457.562500
866.088023	2475.206538
866.400162	2538.220962
866.712258	2495.371154
867.024313	2535.700385
867.336325	2497.891731
867.648296	2507.974038
867.960224	2528.138654
868.272110	2533.179808
868.583954	2442.439038
868.895755	2543.262115
869.207515	2523.097500
869.519233	2548.303269
869.830909	2530.659231
870.142542	2475.206538
870.454134	2424.795000
870.765684	2470.165385
871.077191	2467.644808
871.388657	2510.494615
871.700081	2482.768269
872.011463	2513.015192
872.322803	2485.288846
872.634101	2487.809423
872.945357	2530.659231
873.256571	2611.317692
873.567744	2485.288846
873.878874	2518.056346
874.189963	2518.056346
874.501010	2545.782692
874.812015	2455.041923
875.122979	2563.426731
875.433900	2462.603654
875.744780	2492.850577
876.055618	2477.727115
876.366415	2412.192115
876.677169	2535.700385
876.987882	2480.247692
877.298554	2576.029615
877.609183	2507.974038
877.919771	2515.535769
878.230317	2452.521346
878.540822	2535.700385
878.851285	2563.426731
879.161707	2432.356731
879.472087	2583.591346
879.782425	2485.288846
880.092722	2432.356731
880.402977	2485.288846
880.713191	2470.165385
881.023363	2500.412308
881.333494	2507.974038
881.643583	2404.630385
881.953631	2553.344423
882.263637	2480.247692
882.573602	2419.753846
882.883526	2412.192115
883.193408	2386.986346
883.503248	2490.330000
883.813048	2581.070769
884.122806	2450.000769
884.432522	2555.865000
884.742197	2482.768269
885.051831	2480.247692
885.361424	2434.877308
885.670975	2570.988462
885.980485	2477.727115
886.289954	2429.836154
886.599382	2470.165385
886.908768	2477.727115
887.218113	2550.823846
887.527417	2513.015192
887.836680	2565.947308
888.145901	2424.795000
888.455082	2492.850577
888.764221	2414.712692
889.073319	2500.412308
889.382376	2392.027500
889.691392	2538.220962
890.000366	2490.330000
890.309300	2518.056346
890.618193	2485.288846
890.927044	2560.906154
891.235855	2472.685962
891.544625	2485.288846
891.853353	2467.644808
892.162041	2538.220962
892.470687	2475.206538
892.779293	2490.330000
893.087858	2513.015192
893.396381	2487.809423
893.704864	2467.644808
894.013306	2497.891731
894.321707	2465.124231
894.630068	2424.795000
894.938387	2452.521346
895.246665	2558.385577
895.554903	2548.303269
895.863100	2492.850577
896.171256	2518.056346
896.479371	2495.371154
896.787446	2518.056346
897.095480	2422.274423
897.403473	2394.548077
897.711425	2528.138654
898.019336	2482.768269
898.327207	2507.974038
898.635038	2631.482308
898.942827	2523.097500
899.250576	2487.809423
899.558284	2470.165385
899.865952	2452.521346
900.173579	2586.111923
900.481165	2470.165385
900.788711	2452.521346
901.096216	2465.124231
901.403681	2505.453462
901.711105	2482.768269
902.018489	2495.371154
902.325832	2465.124231
902.633135	2487.809423
902.940397	2598.714808
903.247619	2444.959615
903.554800	2563.426731
903.861941	2472.685962
904.169041	2417.233269
904.476101	2447.480192
904.783121	2497.891731
905.090100	2565.947308
905.397039	2510.494615
905.703938	2497.891731
906.010796	2528.138654
906.317614	2507.974038
906.624391	2497.891731
906.931129	2505.453462
907.237826	2477.727115
907.544483	2457.562500
907.851099	2477.727115
908.157675	2533.179808
908.464211	2437.397885
908.770707	2457.562500
909.077163	2558.385577
909.383578	2502.932885
909.689954	2465.124231
909.996289	2558.385577
910.302584	2422.274423
910.608839	2502.932885
910.915054	2495.371154
911.221229	2553.344423
911.527363	2462.603654
911.833458	2444.959615
912.139513	2490.330000
912.445527	2477.727115
912.751502	2505.453462
913.057436	2460.083077
913.363331	2518.056346
913.669186	2414.712692
913.975000	2507.974038
914.280775	2507.974038
914.586510	2465.124231
914.892205	2492.850577
915.197859	2457.562500
915.503475	2548.303269
915.809050	2482.768269
916.114585	2523.097500
916.420081	2444.959615
916.725536	2588.632500
917.030952	2528.138654
917.336328	2530.659231
917.641665	2545.782692
917.946961	2608.797115
918.252218	2538.220962
918.557435	2528.138654
918.862612	2455.041923
919.167750	2442.439038
919.472848	2447.480192
919.777906	2497.891731
920.082925	2618.879423
920.387904	2538.220962
920.692843	2550.823846
920.997743	2518.056346
921.302603	2558.385577
921.607423	2432.356731
921.912204	2507.974038
922.216946	2444.959615
922.521647	2538.220962
922.826310	2482.768269
923.130932	2515.535769
923.435516	2422.274423
923.740059	2533.179808
924.044564	2462.603654
924.349028	2565.947308
924.653454	2528.138654
924.957840	2450.000769
925.262186	2424.795000
925.566493	2495.371154
925.870761	2502.932885
926.174989	2477.727115
926.479178	2525.618077
926.783328	2482.768269
927.087438	2477.727115
927.391509	2520.576923
927.695541	2366.821731
927.999533	2376.904038
928.303486	2495.371154
928.607400	2467.644808
928.911275	2515.535769
929.215110	2442.439038
929.518906	2523.097500
929.822663	2518.056346
930.126381	2563.426731
930.430060	2437.397885
930.733699	2560.906154
931.037299	2530.659231
931.340861	2492.850577
931.644383	2495.371154
931.947866	2518.056346
932.251309	2525.618077
932.554714	2404.630385
932.858080	2515.535769
933.161407	2487.809423
933.464694	2507.974038
933.767943	2487.809423
934.071153	2472.685962
934.374323	2573.509038
934.677455	2497.891731
934.980548	2442.439038
935.283602	2477.727115
935.586617	2455.041923
935.889593	2460.083077
936.192530	2513.015192
936.495428	2465.124231
936.798287	2538.220962
937.101108	2583.591346
937.403890	2540.741538
937.706632	2525.618077
938.009336	2593.673654
938.312002	2412.192115
938.614628	2409.671538
938.917216	2540.741538
939.219765	2538.220962
939.522275	2505.453462
939.824747	2525.618077
940.127179	2485.288846
940.429573	2555.865000
940.731929	2482.768269
941.034246	2513.015192
941.336524	2447.480192
941.638763	2457.562500
941.940964	2381.945192
942.243126	2565.947308
942.545250	2424.795000
942.847335	2482.768269
943.149381	2558.385577
943.451389	2490.330000
943.753359	2507.974038
944.055290	2533.179808
944.357182	2576.029615
944.659036	2467.644808
944.960851	2555.865000
945.262628	2543.262115
945.564367	2535.700385
945.866067	2543.262115
946.167729	2432.356731
946.469352	2502.932885
946.770937	2475.206538
947.072484	2538.220962
947.373992	2581.070769
947.675462	2450.000769
947.976893	2535.700385
948.278286	2452.521346
948.579641	2528.138654
948.880958	2434.877308
949.182236	2555.865000
949.483476	2618.879423
949.784678	2404.630385
950.085841	2563.426731
950.386967	2523.097500
950.688054	2462.603654
950.989103	2513.015192
951.290114	2437.397885
951.591087	2520.576923
951.892021	2480.247692
952.192917	2444.959615
952.493776	2510.494615
952.794596	2457.562500
953.095378	2581.070769
953.396122	2540.741538
953.696828	2452.521346
953.997496	2495.371154
954.298126	2533.179808
954.598718	2485.288846
954.899272	2515.535769
955.199788	2470.165385
955.500266	2487.809423
955.800706	2439.918462
956.101108	2417.233269
956.401472	2477.727115
956.701798	2530.659231
957.002087	2533.179808
957.302337	2510.494615
957.602550	2417.233269
957.902724	2482.768269
958.202861	2394.548077
958.502960	2485.288846
958.803022	2475.206538
959.103045	2548.303269
959.403031	2409.671538
959.702979	2442.439038
960.002889	2457.562500
960.302762	2462.603654
960.602596	2563.426731
960.902393	2465.124231
961.202153	2540.741538
961.501875	2487.809423
961.801559	2545.782692
962.101205	2495.371154
962.400814	2593.673654
962.700385	2560.906154
962.999918	2528.138654
963.299414	2447.480192
963.598873	2422.274423
963.898293	2540.741538
964.197677	2490.330000
964.497022	2497.891731
964.796331	2482.768269
965.095601	2495.371154
965.394835	2540.741538
965.694030	2485.288846
965.993189	2502.932885
966.292309	2490.330000
966.591393	2548.303269
966.890439	2525.618077
967.189447	2477.727115
967.488419	2505.453462
967.787353	2565.947308
968.086249	2422.274423
968.385108	2467.644808
968.683930	2543.262115
968.982714	2492.850577
969.281462	2563.426731
969.580172	2495.371154
969.878844	2583.591346
970.177480	2455.041923
970.476078	2530.659231
970.774639	2429.836154
971.073162	2513.015192
971.371649	2495.371154
971.670098	2513.015192
971.968510	2429.836154
972.266885	2439.918462
972.565223	2470.165385
972.863524	2538.220962
973.161788	2465.124231
973.460014	2520.576923
973.758204	2470.165385
974.056356	2485.288846
974.354471	2477.727115
974.652550	2543.262115
974.950591	2565.947308
975.248595	2550.823846
975.546563	2497.891731
975.844493	2513.015192
976.142386	2490.330000
976.440243	2518.056346
976.738062	2490.330000
977.035845	2472.685962
977.333590	2475.206538
977.631299	2520.576923
977.928971	2432.356731
978.226606	2424.795000
978.524204	2515.535769
978.821765	2482.768269
979.119290	2525.618077
979.416777	2379.424615
979.714228	2502.932885
980.011642	2447.480192
980.309020	2460.083077
980.606360	2457.562500
980.903664	2480.247692
981.200931	2485.288846
981.498162	2477.727115
981.795356	2520.576923
982.092513	2553.344423
982.389633	2490.330000
982.686717	2477.727115
982.983764	2558.385577
983.280775	2475.206538
983.577749	2475.206538
983.874686	2465.124231
984.171587	2497.891731
984.468451	2467.644808
984.765279	2407.150962
985.062070	2543.262115
985.358824	2427.315577
985.655543	2457.562500
985.952224	2482.768269
986.248869	2467.644808
986.545478	2515.535769
986.842050	2487.809423
987.138586	2412.192115
987.435086	2460.083077
987.731549	2492.850577
988.027975	2528.138654
988.324366	2437.397885
988.620719	2450.000769
988.917037	2490.330000
989.213318	2419.753846
989.509563	2472.685962
989.805772	2452.521346
990.101944	2465.124231
990.398080	2545.782692
990.694180	2444.959615
990.990244	2515.535769
991.286271	2465.124231
991.582262	2563.426731
991.878217	2497.891731
992.174136	2467.644808
992.470019	2497.891731
992.765865	2487.809423
993.061676	2475.206538
993.357450	2563.426731
993.653188	2563.426731
993.948890	2452.521346
994.244556	2492.850577
994.540186	2442.439038
994.835780	2480.247692
995.131337	2434.877308
995.426859	2520.576923
995.722345	2460.083077
996.017795	2485.288846
996.313208	2515.535769
996.608586	2452.521346
996.903928	2490.330000
997.199234	2520.576923
997.494504	2507.974038
997.789738	2497.891731
998.084936	2409.671538
998.380099	2586.111923
998.675225	2495.371154
998.970316	2553.344423
999.265371	2437.397885
999.560390	2434.877308
999.855373	2543.262115
1000.150320	2452.521346
1000.445232	2520.576923
1000.740108	2538.220962
1001.034948	2487.809423
1001.329752	2444.959615
1001.624521	2490.330000
1001.919254	2455.041923
1002.213951	2477.727115
1002.508613	2538.220962
1002.803239	2563.426731
1003.097829	2465.124231
1003.392384	2553.344423
1003.686903	2482.768269
1003.981386	2472.685962
1004.275834	2470.165385
1004.570246	2437.397885
1004.864623	2505.453462
1005.158964	2455.041923
1005.453270	2525.618077
1005.747540	2515.535769
1006.041775	2467.644808
1006.335974	2477.727115
1006.630138	2523.097500
1006.924266	2513.015192
1007.218359	2482.768269
1007.512416	2502.932885
1007.806438	2543.262115
1008.100425	2490.330000
1008.394376	2444.959615
1008.688292	2535.700385
1008.982172	2550.823846
1009.276017	2591.153077
1009.569827	2475.206538
1009.863602	2442.439038
1010.157341	2507.974038
1010.451045	2480.247692
1010.744714	2444.959615
1011.038347	2452.521346
1011.331945	2470.165385
1011.625508	2442.439038
1011.919036	2485.288846
1012.212528	2467.644808
1012.505986	2505.453462
1012.799408	2495.371154
1013.092795	2520.576923
1013.386147	2422.274423
1013.679464	2523.097500
1013.972745	2477.727115
1014.265992	2518.056346
1014.559204	2465.124231
1014.852380	2510.494615
1015.145521	2550.823846
1015.438628	2518.056346
1015.731699	2452.521346
1016.024736	2628.961731
1016.317737	2465.124231
1016.610703	2540.741538
1016.903635	2452.521346
1017.196531	2550.823846
1017.489393	2482.768269
1017.782219	2477.727115
1018.075011	2520.576923
1018.367768	2470.165385
1018.660490	2520.576923
1018.953177	2520.576923
1019.245829	2520.576923
