Dividing Wavelength (nm)	Counts (n)	Blue Motor Position (mm): 9.900000	Red Motor Position (mm): 0.000000	
326.493990	2127.366923
326.888308	2127.366923
327.282561	2127.366923
327.676750	2071.914231
328.070874	2064.352500
328.464933	2046.708462
328.858929	2034.105577
329.252859	2089.558269
329.646726	2160.134423
330.040528	2155.093269
330.434265	2087.037692
330.827938	2145.010962
331.221547	2152.572692
331.615091	2066.873077
332.008571	2145.010962
332.401986	2197.943077
332.795338	2124.846346
333.188625	2311.369038
333.581847	2233.231154
333.975006	2220.628269
334.368100	2293.725000
334.761129	2366.821731
335.154095	2349.177692
335.546996	2402.109808
335.939833	2374.383462
336.332606	2321.451346
336.725315	2386.986346
337.117960	2429.836154
337.510540	2364.301154
337.903056	2351.698269
338.295508	2475.206538
338.687896	2346.657115
339.080220	2334.054231
339.472480	2462.603654
339.864676	2535.700385
340.256807	2447.480192
340.648875	2427.315577
341.040879	2442.439038
341.432818	2439.918462
341.824694	2452.521346
342.216506	2563.426731
342.608253	2583.591346
342.999937	2500.412308
343.391557	2485.288846
343.783113	2505.453462
344.174605	2450.000769
344.566033	2434.877308
344.957397	2455.041923
345.348697	2412.192115
345.739934	2472.685962
346.131106	2470.165385
346.522215	2553.344423
346.913260	2472.685962
347.304241	2434.877308
347.695159	2460.083077
348.086012	2460.083077
348.476802	2434.877308
348.867528	2475.206538
349.258191	2381.945192
349.648789	2510.494615
350.039324	2439.918462
350.429796	2432.356731
350.820203	2487.809423
351.210548	2394.548077
351.600828	2475.206538
351.991045	2460.083077
352.381198	2419.753846
352.771288	2447.480192
353.161314	2437.397885
353.551276	2447.480192
353.941175	2434.877308
354.331010	2500.412308
354.720782	2432.356731
355.110490	2487.809423
355.500135	2497.891731
355.889717	2513.015192
356.279235	2404.630385
356.668689	2434.877308
357.058080	2397.068654
357.447408	2462.603654
357.836672	2455.041923
358.225873	2422.274423
358.615010	2472.685962
359.004084	2386.986346
359.393095	2429.836154
359.782043	2452.521346
360.170927	2520.576923
360.559748	2480.247692
360.948505	2492.850577
361.337199	2505.453462
361.725830	2560.906154
362.114398	2369.342308
362.502903	2444.959615
362.891344	2450.000769
363.279722	2442.439038
363.668037	2455.041923
364.056289	2480.247692
364.444478	2417.233269
364.832603	2495.371154
365.220665	2485.288846
365.608665	2392.027500
365.996601	2480.247692
366.384474	2427.315577
366.772284	2462.603654
367.160031	2417.233269
367.547715	2364.301154
367.935336	2495.371154
368.322893	2326.492500
368.710388	2470.165385
369.097820	2437.397885
369.485189	2518.056346
369.872495	2472.685962
370.259738	2457.562500
370.646918	2384.465769
371.034035	2477.727115
371.421090	2477.727115
371.808081	2404.630385
372.195010	2477.727115
372.581875	2346.657115
372.968678	2502.932885
373.355418	2407.150962
373.742096	2371.862885
374.128710	2502.932885
374.515262	2402.109808
374.901751	2485.288846
375.288177	2427.315577
375.674540	2450.000769
376.060841	2455.041923
376.447079	2500.412308
376.833254	2417.233269
377.219367	2462.603654
377.605417	2475.206538
377.991404	2467.644808
378.377329	2434.877308
378.763191	2477.727115
379.148991	2424.795000
379.534727	2442.439038
379.920402	2497.891731
380.306013	2437.397885
380.691563	2507.974038
381.077049	2477.727115
381.462474	2510.494615
381.847835	2457.562500
382.233134	2563.426731
382.618371	2538.220962
383.003545	2452.521346
383.388657	2409.671538
383.773706	2472.685962
384.158693	2525.618077
384.543618	2487.809423
384.928480	2490.330000
385.313280	2439.918462
385.698017	2429.836154
386.082692	2361.780577
386.467305	2417.233269
386.851856	2480.247692
387.236344	2495.371154
387.620770	2455.041923
388.005133	2389.506923
388.389435	2427.315577
388.773674	2455.041923
389.157851	2523.097500
389.541965	2497.891731
389.926018	2460.083077
390.310008	2497.891731
390.693936	2452.521346
391.077802	2490.330000
391.461606	2381.945192
391.845348	2404.630385
392.229027	2462.603654
392.612645	2379.424615
392.996200	2530.659231
393.379694	2455.041923
393.763125	2533.179808
394.146494	2470.165385
394.529801	2414.712692
394.913047	2470.165385
395.296230	2457.562500
395.679351	2419.753846
396.062410	2485.288846
396.445408	2427.315577
396.828343	2515.535769
397.211217	2437.397885
397.594028	2424.795000
397.976778	2518.056346
398.359466	2482.768269
398.742092	2432.356731
399.124656	2462.603654
399.507158	2386.986346
399.889598	2472.685962
400.271977	2470.165385
400.654294	2465.124231
401.036549	2404.630385
401.418742	2442.439038
401.800874	2450.000769
402.182944	2424.795000
402.564952	2457.562500
402.946898	2407.150962
403.328783	2525.618077
403.710606	2439.918462
404.092367	2402.109808
404.474067	2543.262115
404.855705	2487.809423
405.237282	2502.932885
405.618797	2485.288846
406.000250	2404.630385
406.381642	2515.535769
406.762972	2412.192115
407.144240	2500.412308
407.525447	2492.850577
407.906593	2412.192115
408.287677	2457.562500
408.668700	2505.453462
409.049661	2434.877308
409.430560	2450.000769
409.811399	2465.124231
410.192176	2462.603654
410.572891	2447.480192
410.953545	2553.344423
411.334138	2389.506923
411.714669	2457.562500
412.095139	2500.412308
412.475547	2462.603654
412.855894	2480.247692
413.236180	2480.247692
413.616405	2437.397885
413.996568	2450.000769
414.376670	2515.535769
414.756711	2359.260000
415.136691	2490.330000
415.516609	2513.015192
415.896466	2510.494615
416.276262	2457.562500
416.655997	2460.083077
417.035670	2439.918462
417.415283	2581.070769
417.794834	2429.836154
418.174324	2497.891731
418.553753	2490.330000
418.933121	2510.494615
419.312428	2470.165385
419.691674	2505.453462
420.070859	2447.480192
420.449983	2465.124231
420.829045	2455.041923
421.208047	2450.000769
421.586988	2427.315577
421.965867	2462.603654
422.344686	2507.974038
422.723444	2492.850577
423.102141	2500.412308
423.480777	2487.809423
423.859352	2540.741538
424.237866	2568.467885
424.616319	2439.918462
424.994712	2475.206538
425.373044	2507.974038
425.751314	2429.836154
426.129524	2518.056346
426.507673	2450.000769
426.885762	2497.891731
427.263789	2487.809423
427.641756	2510.494615
428.019662	2492.850577
428.397508	2470.165385
428.775292	2442.439038
429.153016	2487.809423
429.530679	2500.412308
429.908282	2434.877308
430.285824	2500.412308
430.663305	2480.247692
431.040726	2513.015192
431.418086	2444.959615
431.795385	2477.727115
432.172624	2495.371154
432.549802	2510.494615
432.926920	2480.247692
433.303977	2533.179808
433.680974	2467.644808
434.057910	2427.315577
434.434786	2485.288846
434.811601	2450.000769
435.188355	2490.330000
435.565050	2507.974038
435.941683	2437.397885
436.318257	2502.932885
436.694770	2470.165385
437.071222	2394.548077
437.447614	2502.932885
437.823946	2568.467885
438.200218	2460.083077
438.576429	2570.988462
438.952580	2487.809423
439.328670	2480.247692
439.704700	2442.439038
440.080670	2581.070769
440.456580	2419.753846
440.832429	2523.097500
441.208218	2460.083077
441.583947	2520.576923
441.959616	2460.083077
442.335224	2530.659231
442.710773	2540.741538
443.086261	2470.165385
443.461689	2520.576923
443.837057	2424.795000
444.212365	2439.918462
444.587612	2465.124231
444.962800	2409.671538
445.337927	2545.782692
445.712995	2427.315577
446.088002	2520.576923
446.462949	2492.850577
446.837837	2565.947308
447.212664	2507.974038
447.587431	2457.562500
447.962139	2424.795000
448.336786	2450.000769
448.711374	2467.644808
449.085901	2427.315577
449.460369	2568.467885
449.834776	2437.397885
450.209124	2535.700385
450.583412	2467.644808
450.957640	2497.891731
451.331808	2467.644808
451.705917	2457.562500
452.079965	2412.192115
452.453954	2497.891731
452.827883	2462.603654
453.201752	2452.521346
453.575562	2502.932885
453.949311	2545.782692
454.323001	2457.562500
454.696632	2470.165385
455.070202	2505.453462
455.443713	2480.247692
455.817164	2583.591346
456.190556	2487.809423
456.563888	2419.753846
456.937160	2548.303269
457.310373	2444.959615
457.683526	2460.083077
458.056619	2518.056346
458.429653	2424.795000
458.802628	2477.727115
459.175542	2477.727115
459.548398	2495.371154
459.921194	2507.974038
460.293930	2492.850577
460.666607	2437.397885
461.039224	2462.603654
461.411782	2457.562500
461.784280	2513.015192
462.156719	2480.247692
462.529099	2533.179808
462.901419	2525.618077
463.273680	2497.891731
463.645882	2570.988462
464.018024	2475.206538
464.390106	2646.605769
464.762130	2376.904038
465.134094	2492.850577
465.505999	2525.618077
465.877845	2437.397885
466.249631	2588.632500
466.621358	2538.220962
466.993026	2490.330000
467.364634	2528.138654
467.736184	2417.233269
468.107674	2397.068654
468.479105	2392.027500
468.850477	2485.288846
469.221790	2502.932885
469.593043	2543.262115
469.964238	2472.685962
470.335373	2465.124231
470.706449	2422.274423
471.077467	2399.589231
471.448425	2510.494615
471.819324	2434.877308
472.190164	2518.056346
472.560945	2535.700385
472.931667	2530.659231
473.302330	2530.659231
473.672934	2568.467885
474.043479	2578.550192
474.413965	2543.262115
474.784393	2545.782692
475.154761	2510.494615
475.525070	2427.315577
475.895321	2528.138654
476.265513	2490.330000
476.635645	2523.097500
477.005719	2475.206538
477.375734	2482.768269
477.745691	2528.138654
478.115588	2419.753846
478.485427	2530.659231
478.855207	2467.644808
479.224928	2465.124231
479.594591	2543.262115
479.964194	2490.330000
480.333739	2500.412308
480.703226	2412.192115
481.072653	2513.015192
481.442022	2530.659231
481.811333	2475.206538
482.180584	2490.330000
482.549777	2475.206538
482.918912	2444.959615
483.287988	2450.000769
483.657005	2381.945192
484.025964	2505.453462
484.394864	2497.891731
484.763706	2553.344423
485.132489	2475.206538
485.501213	2505.453462
485.869879	2482.768269
486.238487	2392.027500
486.607036	2505.453462
486.975527	2457.562500
487.343959	2573.509038
487.712333	2495.371154
488.080648	2500.412308
488.448905	2513.015192
488.817104	2528.138654
489.185244	2576.029615
489.553326	2477.727115
489.921350	2480.247692
490.289315	2465.124231
490.657222	2442.439038
491.025070	2457.562500
491.392861	2487.809423
491.760593	2470.165385
492.128267	2407.150962
492.495883	2550.823846
492.863440	2437.397885
493.230939	2467.644808
493.598380	2495.371154
493.965763	2457.562500
494.333088	2540.741538
494.700354	2467.644808
495.067563	2462.603654
495.434713	2548.303269
495.801805	2608.797115
496.168839	2490.330000
496.535815	2467.644808
496.902733	2465.124231
497.269593	2402.109808
497.636395	2513.015192
498.003139	2540.741538
498.369825	2477.727115
498.736453	2462.603654
499.103023	2460.083077
499.469535	2475.206538
499.835989	2525.618077
500.202385	2447.480192
500.568723	2510.494615
500.935003	2470.165385
501.301226	2497.891731
501.667390	2502.932885
502.033497	2518.056346
502.399546	2510.494615
502.765537	2475.206538
503.131470	2422.274423
503.497345	2530.659231
503.863163	2578.550192
504.228923	2545.782692
504.594625	2528.138654
504.960269	2515.535769
505.325856	2505.453462
505.691385	2563.426731
506.056856	2502.932885
506.422270	2492.850577
506.787625	2427.315577
507.152924	2467.644808
507.518164	2505.453462
507.883347	2439.918462
508.248472	2429.836154
508.613540	2543.262115
508.978550	2462.603654
509.343503	2538.220962
509.708398	2495.371154
510.073236	2530.659231
510.438016	2591.153077
510.802738	2570.988462
511.167403	2533.179808
511.532010	2538.220962
511.896561	2515.535769
512.261053	2419.753846
512.625488	2470.165385
512.989866	2455.041923
513.354186	2447.480192
513.718449	2513.015192
514.082655	2450.000769
514.446803	2510.494615
514.810894	2392.027500
515.174927	2513.015192
515.538904	2460.083077
515.902822	2500.412308
516.266684	2470.165385
516.630488	2550.823846
516.994235	2545.782692
517.357925	2530.659231
517.721558	2510.494615
518.085133	2505.453462
518.448651	2601.235385
518.812112	2472.685962
519.175516	2485.288846
519.538863	2460.083077
519.902152	2543.262115
520.265385	2565.947308
520.628560	2460.083077
520.991678	2507.974038
521.354739	2611.317692
521.717743	2495.371154
522.080690	2623.920577
522.443580	2581.070769
522.806413	2467.644808
523.169189	2485.288846
523.531908	2507.974038
523.894569	2455.041923
524.257174	2455.041923
524.619722	2538.220962
524.982213	2472.685962
525.344647	2507.974038
525.707025	2497.891731
526.069345	2437.397885
526.431608	2497.891731
526.793815	2434.877308
527.155964	2487.809423
527.518057	2477.727115
527.880093	2507.974038
528.242072	2528.138654
528.603995	2507.974038
528.965860	2492.850577
529.327669	2502.932885
529.689421	2523.097500
530.051117	2482.768269
530.412755	2487.809423
530.774337	2525.618077
531.135862	2500.412308
531.497331	2510.494615
531.858743	2455.041923
532.220098	2467.644808
532.581396	2558.385577
532.942638	2470.165385
533.303824	2545.782692
533.664953	2487.809423
534.026025	2482.768269
534.387040	2457.562500
534.747999	2444.959615
535.108902	2507.974038
535.469748	2528.138654
535.830537	2414.712692
536.191270	2487.809423
536.551947	2427.315577
536.912567	2553.344423
537.273131	2472.685962
537.633638	2533.179808
537.994089	2447.480192
538.354483	2482.768269
538.714821	2500.412308
539.075103	2455.041923
539.435328	2510.494615
539.795497	2528.138654
540.155609	2450.000769
540.515665	2439.918462
540.875665	2502.932885
541.235609	2505.453462
541.595496	2477.727115
541.955328	2555.865000
542.315102	2495.371154
542.674821	2576.029615
543.034483	2412.192115
543.394090	2538.220962
543.753640	2507.974038
544.113134	2497.891731
544.472571	2578.550192
544.831953	2409.671538
545.191278	2573.509038
545.550548	2462.603654
545.909761	2533.179808
546.268918	2477.727115
546.628019	2555.865000
546.987064	2485.288846
547.346053	2515.535769
547.704986	2520.576923
548.063863	2482.768269
548.422684	2548.303269
548.781449	2472.685962
549.140158	2553.344423
549.498811	2389.506923
549.857408	2450.000769
550.215949	2487.809423
550.574434	2455.041923
550.932864	2591.153077
551.291237	2535.700385
551.649555	2545.782692
552.007817	2502.932885
552.366022	2447.480192
552.724173	2570.988462
553.082267	2442.439038
553.440305	2502.932885
553.798288	2424.795000
554.156215	2412.192115
554.514086	2540.741538
554.871902	2470.165385
555.229661	2455.041923
555.587365	2553.344423
555.945014	2500.412308
556.302606	2485.288846
556.660143	2545.782692
557.017625	2447.480192
557.375050	2530.659231
557.732421	2455.041923
558.089735	2472.685962
558.446994	2482.768269
558.804197	2568.467885
559.161345	2555.865000
559.518437	2487.809423
559.875474	2475.206538
560.232455	2515.535769
560.589381	2523.097500
560.946251	2578.550192
561.303065	2432.356731
561.659825	2553.344423
562.016528	2548.303269
562.373177	2535.700385
562.729770	2533.179808
563.086307	2470.165385
563.442789	2515.535769
563.799216	2397.068654
564.155587	2518.056346
564.511904	2591.153077
564.868164	2470.165385
565.224370	2513.015192
565.580520	2457.562500
565.936615	2563.426731
566.292654	2424.795000
566.648638	2495.371154
567.004567	2490.330000
567.360441	2452.521346
567.716260	2495.371154
568.072023	2497.891731
568.427732	2442.439038
568.783385	2525.618077
569.138982	2500.412308
569.494525	2497.891731
569.850013	2538.220962
570.205445	2470.165385
570.560823	2467.644808
570.916145	2450.000769
571.271412	2568.467885
571.626625	2462.603654
571.981782	2419.753846
572.336884	2573.509038
572.691931	2540.741538
573.046923	2623.920577
573.401860	2520.576923
573.756743	2485.288846
574.111570	2460.083077
574.466342	2495.371154
574.821059	2525.618077
575.175722	2510.494615
575.530330	2477.727115
575.884882	2560.906154
576.239380	2528.138654
576.593823	2427.315577
576.948211	2520.576923
577.302544	2482.768269
577.656823	2485.288846
578.011047	2538.220962
578.365216	2487.809423
578.719330	2520.576923
579.073389	2550.823846
579.427394	2583.591346
579.781344	2538.220962
580.135239	2422.274423
580.489080	2535.700385
580.842866	2475.206538
581.196597	2475.206538
581.550273	2442.439038
581.903895	2565.947308
582.257463	2462.603654
582.610975	2477.727115
582.964434	2558.385577
583.317837	2475.206538
583.671186	2573.509038
584.024481	2470.165385
584.377721	2507.974038
584.730906	2467.644808
585.084037	2492.850577
585.437113	2424.795000
585.790135	2540.741538
586.143103	2502.932885
586.496016	2482.768269
586.848874	2530.659231
587.201679	2543.262115
587.554428	2520.576923
587.907124	2475.206538
588.259765	2550.823846
588.612352	2505.453462
588.964884	2570.988462
589.317362	2520.576923
589.669786	2417.233269
590.022155	2490.330000
590.374470	2502.932885
590.726731	2565.947308
591.078937	2389.506923
591.431090	2472.685962
591.783188	2500.412308
592.135232	2515.535769
592.487222	2432.356731
592.839157	2485.288846
593.191038	2505.453462
593.542866	2570.988462
593.894639	2477.727115
594.246358	2530.659231
594.598022	2578.550192
594.949633	2487.809423
595.301190	2465.124231
595.652692	2583.591346
596.004141	2485.288846
596.355535	2513.015192
596.706876	2523.097500
597.058162	2407.150962
597.409395	2505.453462
597.760573	2528.138654
598.111698	2434.877308
598.462768	2626.441154
598.813785	2417.233269
599.164748	2538.220962
599.515657	2563.426731
599.866511	2492.850577
600.217312	2568.467885
600.568060	2452.521346
600.918753	2528.138654
601.269392	2515.535769
601.619978	2545.782692
601.970510	2523.097500
602.320988	2490.330000
602.671412	2518.056346
603.021783	2492.850577
603.372100	2452.521346
603.722363	2444.959615
604.072572	2460.083077
604.422728	2487.809423
604.772830	2505.453462
605.122878	2480.247692
605.472872	2553.344423
605.822813	2485.288846
606.172701	2447.480192
606.522534	2578.550192
606.872314	2545.782692
607.222041	2470.165385
607.571714	2462.603654
607.921333	2497.891731
608.270899	2518.056346
608.620411	2482.768269
608.969870	2555.865000
609.319276	2470.165385
609.668627	2513.015192
610.017926	2502.932885
610.367171	2444.959615
610.716362	2497.891731
611.065500	2485.288846
611.414585	2576.029615
611.763616	2515.535769
612.112594	2533.179808
612.461518	2578.550192
612.810389	2507.974038
613.159207	2482.768269
613.507971	2588.632500
613.856682	2530.659231
614.205340	2573.509038
614.553945	2397.068654
614.902496	2480.247692
615.250994	2513.015192
615.599439	2495.371154
615.947830	2490.330000
616.296169	2467.644808
616.644454	2525.618077
616.992686	2480.247692
617.340864	2528.138654
617.688990	2530.659231
618.037063	2593.673654
618.385082	2462.603654
618.733048	2560.906154
619.080961	2497.891731
619.428821	2586.111923
619.776628	2510.494615
620.124382	2475.206538
620.472083	2444.959615
620.819731	2477.727115
621.167326	2518.056346
621.514868	2550.823846
621.862357	2467.644808
622.209793	2507.974038
622.557176	2578.550192
622.904506	2417.233269
623.251783	2525.618077
623.599007	2457.562500
623.946179	2502.932885
624.293297	2518.056346
624.640363	2447.480192
624.987376	2376.904038
625.334336	2523.097500
625.681243	2485.288846
626.028097	2502.932885
626.374899	2447.480192
626.721647	2472.685962
627.068343	2500.412308
627.414987	2497.891731
627.761577	2485.288846
628.108115	2407.150962
628.454600	2560.906154
628.801032	2495.371154
629.147412	2492.850577
629.493739	2538.220962
629.840014	2487.809423
630.186236	2500.412308
630.532405	2518.056346
630.878521	2444.959615
631.224585	2477.727115
631.570597	2492.850577
631.916556	2525.618077
632.262462	2507.974038
632.608316	2513.015192
632.954117	2533.179808
633.299866	2485.288846
633.645562	2492.850577
633.991206	2492.850577
634.336797	2429.836154
634.682336	2404.630385
635.027823	2598.714808
635.373257	2470.165385
635.718639	2500.412308
636.063968	2581.070769
636.409245	2518.056346
636.754470	2523.097500
637.099642	2490.330000
637.444762	2475.206538
637.789829	2586.111923
638.134845	2548.303269
638.479808	2555.865000
638.824719	2490.330000
639.169577	2442.439038
639.514383	2487.809423
639.859137	2528.138654
640.203839	2487.809423
640.548489	2540.741538
640.893086	2455.041923
641.237632	2477.727115
641.582125	2578.550192
641.926566	2482.768269
642.270955	2621.400000
642.615292	2422.274423
642.959576	2447.480192
643.303809	2523.097500
643.647990	2520.576923
643.992118	2490.330000
644.336195	2475.206538
644.680219	2497.891731
645.024192	2444.959615
645.368112	2550.823846
645.711981	2480.247692
646.055797	2467.644808
646.399562	2492.850577
646.743274	2513.015192
647.086935	2626.441154
647.430544	2510.494615
647.774101	2563.426731
648.117606	2490.330000
648.461059	2555.865000
648.804460	2457.562500
649.147810	2429.836154
649.491108	2460.083077
649.834354	2500.412308
650.177548	2432.356731
650.520690	2472.685962
650.863781	2576.029615
651.206820	2495.371154
651.549807	2520.576923
651.892742	2480.247692
652.235626	2530.659231
652.578458	2492.850577
652.921238	2482.768269
653.263967	2500.412308
653.606644	2525.618077
653.949269	2475.206538
654.291843	2515.535769
654.634365	2434.877308
654.976836	2475.206538
655.319255	2427.315577
655.661622	2523.097500
656.003938	2533.179808
656.346203	2422.274423
656.688416	2437.397885
657.030577	2472.685962
657.372687	2540.741538
657.714746	2485.288846
658.056753	2515.535769
658.398708	2442.439038
658.740612	2570.988462
659.082465	2505.453462
659.424266	2533.179808
659.766016	2462.603654
660.107715	2505.453462
660.449362	2475.206538
660.790958	2568.467885
661.132503	2520.576923
661.473996	2540.741538
661.815438	2553.344423
662.156829	2528.138654
662.498168	2528.138654
662.839456	2495.371154
663.180693	2540.741538
663.521879	2439.918462
663.863013	2502.932885
664.204097	2442.439038
664.545129	2507.974038
664.886110	2515.535769
665.227040	2434.877308
665.567918	2429.836154
665.908746	2515.535769
666.249522	2462.603654
666.590248	2477.727115
666.930922	2497.891731
667.271545	2515.535769
667.612118	2538.220962
667.952639	2510.494615
668.293109	2492.850577
668.633528	2563.426731
668.973896	2402.109808
669.314213	2462.603654
669.654480	2490.330000
669.994695	2439.918462
670.334859	2550.823846
670.674973	2560.906154
671.015035	2460.083077
671.355047	2540.741538
671.695008	2495.371154
672.034918	2510.494615
672.374777	2480.247692
672.714585	2550.823846
673.054342	2520.576923
673.394049	2457.562500
673.733705	2500.412308
674.073310	2510.494615
674.412864	2586.111923
674.752368	2560.906154
675.091820	2427.315577
675.431223	2560.906154
675.770574	2450.000769
676.109875	2533.179808
676.449125	2495.371154
676.788324	2507.974038
677.127473	2576.029615
677.466571	2404.630385
677.805619	2545.782692
678.144616	2568.467885
678.483562	2457.562500
678.822458	2507.974038
679.161303	2563.426731
679.500098	2528.138654
679.838842	2457.562500
680.177535	2472.685962
680.516179	2507.974038
680.854771	2550.823846
681.193314	2518.056346
681.531805	2487.809423
681.870247	2444.959615
682.208638	2457.562500
682.546978	2510.494615
682.885268	2603.755962
683.223508	2467.644808
683.561697	2422.274423
683.899836	2492.850577
684.237925	2490.330000
684.575963	2490.330000
684.913951	2528.138654
685.251889	2485.288846
685.589776	2515.535769
685.927614	2515.535769
686.265401	2555.865000
686.603137	2442.439038
686.940824	2457.562500
687.278460	2548.303269
687.616046	2487.809423
687.953582	2386.986346
688.291068	2540.741538
688.628504	2472.685962
688.965889	2507.974038
689.303224	2563.426731
689.640510	2568.467885
689.977745	2450.000769
690.314930	2500.412308
690.652065	2427.315577
690.989150	2495.371154
691.326185	2548.303269
691.663170	2429.836154
692.000105	2515.535769
692.336990	2553.344423
692.673825	2492.850577
693.010610	2472.685962
693.347345	2495.371154
693.684030	2578.550192
694.020665	2550.823846
694.357251	2354.218846
694.693786	2465.124231
695.030272	2482.768269
695.366707	2437.397885
695.703093	2530.659231
696.039429	2462.603654
696.375716	2518.056346
696.711952	2475.206538
697.048139	2543.262115
697.384276	2520.576923
697.720363	2485.288846
698.056400	2507.974038
698.392388	2452.521346
698.728326	2500.412308
699.064214	2490.330000
699.400053	2497.891731
699.735842	2523.097500
700.071581	2475.206538
700.407270	2530.659231
700.742910	2490.330000
701.078501	2472.685962
701.414042	2475.206538
701.749533	2497.891731
702.084974	2515.535769
702.420366	2434.877308
702.755709	2505.453462
703.091002	2482.768269
703.426246	2457.562500
703.761440	2507.974038
704.096584	2523.097500
704.431679	2467.644808
704.766725	2480.247692
705.101721	2568.467885
705.436668	2442.439038
705.771565	2505.453462
706.106413	2543.262115
706.441212	2581.070769
706.775961	2361.780577
707.110661	2515.535769
707.445311	2523.097500
707.779913	2439.918462
708.114465	2455.041923
708.448967	2429.836154
708.783421	2462.603654
709.117825	2550.823846
709.452180	2520.576923
709.786485	2457.562500
710.120742	2455.041923
710.454949	2379.424615
710.789107	2515.535769
711.123216	2485.288846
711.457275	2427.315577
711.791286	2467.644808
712.125247	2490.330000
712.459159	2452.521346
712.793023	2502.932885
713.126837	2472.685962
713.460602	2502.932885
713.794318	2555.865000
714.127985	2470.165385
714.461602	2530.659231
714.795171	2485.288846
715.128691	2444.959615
715.462162	2437.397885
715.795584	2525.618077
716.128957	2485.288846
716.462281	2533.179808
716.795556	2578.550192
717.128782	2523.097500
717.461960	2543.262115
717.795088	2507.974038
718.128167	2465.124231
718.461198	2518.056346
718.794180	2500.412308
719.127113	2545.782692
719.459997	2492.850577
719.792833	2472.685962
720.125619	2452.521346
720.458357	2424.795000
720.791046	2467.644808
721.123686	2429.836154
721.456278	2525.618077
721.788821	2455.041923
722.121315	2447.480192
722.453761	2432.356731
722.786158	2510.494615
723.118506	2548.303269
723.450805	2548.303269
723.783056	2492.850577
724.115259	2545.782692
724.447412	2450.000769
724.779518	2548.303269
725.111574	2528.138654
725.443582	2439.918462
725.775542	2472.685962
726.107453	2500.412308
726.439315	2457.562500
726.771129	2432.356731
727.102895	2515.535769
727.434612	2460.083077
727.766281	2470.165385
728.097901	2452.521346
728.429473	2525.618077
728.760996	2538.220962
729.092471	2444.959615
729.423897	2490.330000
729.755276	2520.576923
730.086606	2502.932885
730.417887	2427.315577
730.749120	2533.179808
731.080305	2525.618077
731.411442	2596.194231
731.742530	2530.659231
732.073570	2502.932885
732.404562	2434.877308
732.735506	2568.467885
733.066401	2482.768269
733.397249	2460.083077
733.728048	2530.659231
734.058798	2417.233269
734.389501	2533.179808
734.720156	2460.083077
735.050762	2525.618077
735.381320	2490.330000
735.711831	2553.344423
736.042293	2490.330000
736.372707	2530.659231
736.703073	2523.097500
737.033391	2500.412308
737.363661	2490.330000
737.693883	2530.659231
738.024056	2444.959615
738.354182	2500.412308
738.684260	2495.371154
739.014290	2545.782692
739.344272	2460.083077
739.674207	2477.727115
740.004093	2379.424615
740.333931	2538.220962
740.663722	2462.603654
740.993464	2429.836154
741.323159	2462.603654
741.652806	2414.712692
741.982405	2417.233269
742.311956	2515.535769
742.641460	2545.782692
742.970915	2444.959615
743.300323	2482.768269
743.629683	2497.891731
743.958996	2528.138654
744.288260	2558.385577
744.617477	2548.303269
744.946647	2455.041923
745.275768	2412.192115
745.604842	2447.480192
745.933869	2472.685962
746.262847	2518.056346
746.591778	2477.727115
746.920662	2525.618077
747.249498	2442.439038
747.578286	2591.153077
747.907027	2502.932885
748.235720	2528.138654
748.564365	2472.685962
748.892963	2439.918462
749.221514	2500.412308
749.550017	2450.000769
749.878473	2497.891731
750.206881	2444.959615
750.535242	2510.494615
750.863555	2515.535769
751.191821	2505.453462
751.520039	2472.685962
751.848210	2538.220962
752.176334	2394.548077
752.504411	2513.015192
752.832440	2437.397885
753.160421	2530.659231
753.488356	2462.603654
753.816243	2457.562500
754.144082	2450.000769
754.471875	2543.262115
754.799620	2490.330000
755.127318	2470.165385
755.454969	2492.850577
755.782572	2434.877308
756.110129	2485.288846
756.437638	2490.330000
756.765100	2394.548077
757.092515	2490.330000
757.419882	2472.685962
757.747203	2558.385577
758.074477	2485.288846
758.401703	2538.220962
758.728882	2535.700385
759.056014	2475.206538
759.383099	2598.714808
759.710138	2447.480192
760.037129	2518.056346
760.364073	2462.603654
760.690970	2487.809423
761.017820	2407.150962
761.344623	2538.220962
761.671379	2457.562500
761.998088	2470.165385
762.324751	2538.220962
762.651366	2518.056346
762.977935	2553.344423
763.304456	2442.439038
763.630931	2525.618077
763.957359	2507.974038
764.283740	2412.192115
764.610074	2465.124231
764.936362	2465.124231
765.262602	2452.521346
765.588796	2452.521346
765.914943	2495.371154
766.241044	2497.891731
766.567097	2497.891731
766.893104	2515.535769
767.219064	2545.782692
767.544978	2593.673654
767.870845	2598.714808
768.196665	2538.220962
768.522438	2543.262115
768.848165	2487.809423
769.173846	2510.494615
769.499479	2447.480192
769.825066	2497.891731
770.150607	2495.371154
770.476101	2492.850577
770.801548	2444.959615
771.126949	2482.768269
771.452303	2487.809423
771.777611	2407.150962
772.102872	2505.453462
772.428087	2437.397885
772.753256	2439.918462
773.078378	2507.974038
773.403453	2432.356731
773.728482	2492.850577
774.053465	2467.644808
774.378401	2465.124231
774.703291	2392.027500
775.028135	2455.041923
775.352932	2525.618077
775.677683	2538.220962
776.002388	2538.220962
776.327046	2379.424615
776.651658	2482.768269
776.976224	2467.644808
777.300743	2502.932885
777.625216	2603.755962
777.949643	2525.618077
778.274024	2490.330000
778.598359	2442.439038
778.922647	2455.041923
779.246889	2530.659231
779.571086	2507.974038
779.895236	2550.823846
780.219339	2475.206538
780.543397	2422.274423
780.867409	2434.877308
781.191374	2548.303269
781.515294	2439.918462
781.839167	2397.068654
782.162995	2505.453462
782.486776	2447.480192
782.810511	2553.344423
783.134201	2525.618077
783.457844	2472.685962
783.781441	2432.356731
784.104993	2417.233269
784.428498	2495.371154
784.751958	2628.961731
785.075372	2485.288846
785.398739	2414.712692
785.722061	2487.809423
786.045337	2568.467885
786.368568	2447.480192
786.691752	2502.932885
787.014891	2573.509038
787.337983	2523.097500
787.661030	2482.768269
787.984031	2452.521346
788.306987	2455.041923
788.629897	2444.959615
788.952760	2465.124231
789.275579	2525.618077
789.598351	2510.494615
789.921078	2462.603654
790.243759	2477.727115
790.566395	2472.685962
790.888984	2497.891731
791.211529	2495.371154
791.534027	2510.494615
791.856480	2533.179808
792.178888	2545.782692
792.501249	2518.056346
792.823566	2507.974038
793.145836	2444.959615
793.468062	2505.453462
793.790241	2442.439038
794.112375	2472.685962
794.434464	2553.344423
794.756507	2507.974038
795.078505	2518.056346
795.400457	2480.247692
795.722364	2510.494615
796.044226	2470.165385
796.366042	2417.233269
796.687812	2492.850577
797.009538	2369.342308
797.331218	2505.453462
797.652852	2475.206538
797.974442	2482.768269
798.295986	2444.959615
798.617484	2394.548077
798.938938	2412.192115
799.260346	2487.809423
799.581709	2520.576923
799.903026	2462.603654
800.224299	2528.138654
800.545526	2455.041923
800.866708	2502.932885
801.187845	2500.412308
801.508936	2490.330000
801.829983	2442.439038
802.150984	2462.603654
802.471940	2525.618077
802.792851	2530.659231
803.113717	2520.576923
803.434538	2530.659231
803.755314	2444.959615
804.076045	2588.632500
804.396731	2535.700385
804.717372	2550.823846
805.037967	2525.618077
805.358518	2507.974038
805.679024	2507.974038
805.999485	2518.056346
806.319901	2545.782692
806.640272	2482.768269
806.960598	2507.974038
807.280879	2507.974038
807.601115	2482.768269
807.921306	2437.397885
808.241453	2460.083077
808.561554	2472.685962
808.881611	2477.727115
809.201623	2525.618077
809.521590	2482.768269
809.841513	2545.782692
810.161390	2485.288846
810.481223	2513.015192
810.801011	2502.932885
811.120755	2480.247692
811.440453	2563.426731
811.760107	2523.097500
812.079716	2485.288846
812.399281	2495.371154
812.718801	2550.823846
813.038276	2535.700385
813.357707	2495.371154
813.677093	2432.356731
813.996434	2477.727115
814.315731	2404.630385
814.634983	2457.562500
814.954191	2427.315577
815.273354	2570.988462
815.592473	2477.727115
815.911547	2467.644808
816.230577	2583.591346
816.549562	2437.397885
816.868502	2465.124231
817.187399	2467.644808
817.506250	2487.809423
817.825058	2460.083077
818.143821	2523.097500
818.462539	2437.397885
818.781213	2457.562500
819.099843	2623.920577
819.418429	2510.494615
819.736970	2555.865000
820.055466	2397.068654
820.373919	2457.562500
820.692327	2495.371154
821.010691	2444.959615
821.329011	2487.809423
821.647286	2583.591346
821.965517	2467.644808
822.283704	2492.850577
822.601847	2457.562500
822.919945	2447.480192
823.237999	2515.535769
823.556010	2558.385577
823.873976	2515.535769
824.191897	2523.097500
824.509775	2447.480192
824.827609	2523.097500
825.145398	2513.015192
825.463144	2427.315577
825.780845	2500.412308
826.098502	2518.056346
826.416116	2460.083077
826.733685	2475.206538
827.051210	2543.262115
827.368692	2540.741538
827.686129	2548.303269
828.003522	2465.124231
828.320872	2518.056346
828.638177	2450.000769
828.955439	2535.700385
829.272656	2462.603654
829.589830	2482.768269
829.906960	2487.809423
830.224046	2500.412308
830.541088	2477.727115
830.858086	2515.535769
831.175041	2500.412308
831.491952	2407.150962
831.808819	2470.165385
832.125642	2518.056346
832.442421	2477.727115
832.759157	2515.535769
833.075849	2502.932885
833.392497	2460.083077
833.709101	2482.768269
834.025662	2412.192115
834.342179	2538.220962
834.658653	2495.371154
834.975083	2540.741538
835.291469	2460.083077
835.607811	2520.576923
835.924110	2437.397885
836.240366	2583.591346
836.556578	2444.959615
836.872746	2505.453462
837.188871	2485.288846
837.504952	2492.850577
837.820990	2465.124231
838.136984	2457.562500
838.452935	2518.056346
838.768842	2502.932885
839.084706	2500.412308
839.400526	2528.138654
839.716303	2502.932885
840.032037	2462.603654
840.347727	2550.823846
840.663373	2470.165385
840.978977	2518.056346
841.294537	2550.823846
841.610054	2429.836154
841.925527	2434.877308
842.240957	2379.424615
842.556344	2452.521346
842.871687	2550.823846
843.186987	2485.288846
843.502244	2573.509038
843.817458	2555.865000
844.132629	2510.494615
844.447756	2480.247692
844.762840	2437.397885
845.077881	2545.782692
845.392879	2462.603654
845.707833	2530.659231
846.022745	2500.412308
846.337613	2487.809423
846.652438	2437.397885
846.967221	2495.371154
847.281960	2510.494615
847.596656	2515.535769
847.911309	2482.768269
848.225919	2447.480192
848.540485	2528.138654
848.855009	2485.288846
849.169490	2417.233269
849.483928	2545.782692
849.798323	2442.439038
850.112675	2502.932885
850.426984	2507.974038
850.741251	2482.768269
851.055474	2613.838269
851.369654	2586.111923
851.683792	2434.877308
851.997887	2472.685962
852.311938	2465.124231
852.625947	2490.330000
852.939914	2472.685962
853.253837	2392.027500
853.567718	2520.576923
853.881555	2573.509038
854.195350	2520.576923
854.509103	2525.618077
854.822812	2570.988462
855.136479	2480.247692
855.450103	2565.947308
855.763685	2429.836154
856.077224	2528.138654
856.390720	2475.206538
856.704173	2490.330000
857.017584	2462.603654
857.330953	2505.453462
857.644278	2477.727115
857.957561	2558.385577
858.270802	2545.782692
858.584000	2500.412308
858.897155	2548.303269
859.210268	2397.068654
859.523339	2553.344423
859.836367	2507.974038
860.149352	2570.988462
860.462295	2558.385577
860.775195	2477.727115
861.088054	2535.700385
861.400869	2412.192115
861.713642	2596.194231
862.026373	2538.220962
862.339062	2457.562500
862.651708	2437.397885
862.964312	2490.330000
863.276873	2447.480192
863.589392	2497.891731
863.901869	2442.439038
864.214303	2487.809423
864.526696	2429.836154
864.839045	2523.097500
865.151353	2538.220962
865.463619	2530.659231
865.775842	2417.233269
866.088023	2535.700385
866.400162	2586.111923
866.712258	2467.644808
867.024313	2470.165385
867.336325	2533.179808
867.648296	2457.562500
867.960224	2513.015192
868.272110	2472.685962
868.583954	2495.371154
868.895755	2475.206538
869.207515	2492.850577
869.519233	2475.206538
869.830909	2409.671538
870.142542	2518.056346
870.454134	2618.879423
870.765684	2485.288846
871.077191	2507.974038
871.388657	2550.823846
871.700081	2507.974038
872.011463	2538.220962
872.322803	2437.397885
872.634101	2583.591346
872.945357	2485.288846
873.256571	2502.932885
873.567744	2497.891731
873.878874	2502.932885
874.189963	2540.741538
874.501010	2477.727115
874.812015	2565.947308
875.122979	2437.397885
875.433900	2434.877308
875.744780	2560.906154
876.055618	2528.138654
876.366415	2457.562500
876.677169	2482.768269
876.987882	2502.932885
877.298554	2354.218846
877.609183	2543.262115
877.919771	2467.644808
878.230317	2450.000769
878.540822	2545.782692
878.851285	2487.809423
879.161707	2510.494615
879.472087	2513.015192
879.782425	2434.877308
880.092722	2502.932885
880.402977	2462.603654
880.713191	2510.494615
881.023363	2505.453462
881.333494	2477.727115
881.643583	2470.165385
881.953631	2510.494615
882.263637	2465.124231
882.573602	2472.685962
882.883526	2487.809423
883.193408	2434.877308
883.503248	2515.535769
883.813048	2523.097500
884.122806	2485.288846
884.432522	2467.644808
884.742197	2462.603654
885.051831	2502.932885
885.361424	2450.000769
885.670975	2507.974038
885.980485	2447.480192
886.289954	2480.247692
886.599382	2495.371154
886.908768	2455.041923
887.218113	2457.562500
887.527417	2442.439038
887.836680	2500.412308
888.145901	2462.603654
888.455082	2397.068654
888.764221	2513.015192
889.073319	2475.206538
889.382376	2465.124231
889.691392	2540.741538
890.000366	2477.727115
890.309300	2550.823846
890.618193	2422.274423
890.927044	2497.891731
891.235855	2455.041923
891.544625	2487.809423
891.853353	2439.918462
892.162041	2500.412308
892.470687	2462.603654
892.779293	2472.685962
893.087858	2558.385577
893.396381	2444.959615
893.704864	2545.782692
894.013306	2460.083077
894.321707	2480.247692
894.630068	2523.097500
894.938387	2523.097500
895.246665	2442.439038
895.554903	2465.124231
895.863100	2450.000769
896.171256	2545.782692
896.479371	2495.371154
896.787446	2525.618077
897.095480	2502.932885
897.403473	2515.535769
897.711425	2507.974038
898.019336	2472.685962
898.327207	2492.850577
898.635038	2500.412308
898.942827	2472.685962
899.250576	2482.768269
899.558284	2434.877308
899.865952	2490.330000
900.173579	2450.000769
900.481165	2460.083077
900.788711	2429.836154
901.096216	2412.192115
901.403681	2480.247692
901.711105	2475.206538
902.018489	2535.700385
902.325832	2470.165385
902.633135	2384.465769
902.940397	2460.083077
903.247619	2497.891731
903.554800	2492.850577
903.861941	2500.412308
904.169041	2467.644808
904.476101	2495.371154
904.783121	2558.385577
905.090100	2450.000769
905.397039	2470.165385
905.703938	2538.220962
906.010796	2497.891731
906.317614	2533.179808
906.624391	2485.288846
906.931129	2455.041923
907.237826	2482.768269
907.544483	2487.809423
907.851099	2374.383462
908.157675	2548.303269
908.464211	2482.768269
908.770707	2480.247692
909.077163	2487.809423
909.383578	2487.809423
909.689954	2492.850577
909.996289	2560.906154
910.302584	2570.988462
910.608839	2497.891731
910.915054	2427.315577
911.221229	2460.083077
911.527363	2480.247692
911.833458	2480.247692
912.139513	2513.015192
912.445527	2407.150962
912.751502	2480.247692
913.057436	2475.206538
913.363331	2505.453462
913.669186	2455.041923
913.975000	2457.562500
914.280775	2485.288846
914.586510	2437.397885
914.892205	2472.685962
915.197859	2573.509038
915.503475	2422.274423
915.809050	2417.233269
916.114585	2492.850577
916.420081	2495.371154
916.725536	2500.412308
917.030952	2601.235385
917.336328	2523.097500
917.641665	2540.741538
917.946961	2497.891731
918.252218	2490.330000
918.557435	2480.247692
918.862612	2424.795000
919.167750	2439.918462
919.472848	2538.220962
919.777906	2429.836154
920.082925	2545.782692
920.387904	2442.439038
920.692843	2475.206538
920.997743	2427.315577
921.302603	2364.301154
921.607423	2422.274423
921.912204	2540.741538
922.216946	2472.685962
922.521647	2472.685962
922.826310	2447.480192
923.130932	2520.576923
923.435516	2470.165385
923.740059	2485.288846
924.044564	2470.165385
924.349028	2518.056346
924.653454	2550.823846
924.957840	2495.371154
925.262186	2507.974038
925.566493	2555.865000
925.870761	2437.397885
926.174989	2480.247692
926.479178	2442.439038
926.783328	2482.768269
927.087438	2523.097500
927.391509	2563.426731
927.695541	2485.288846
927.999533	2510.494615
928.303486	2550.823846
928.607400	2490.330000
928.911275	2510.494615
929.215110	2518.056346
929.518906	2399.589231
929.822663	2465.124231
930.126381	2465.124231
930.430060	2495.371154
930.733699	2487.809423
931.037299	2500.412308
931.340861	2553.344423
931.644383	2523.097500
931.947866	2487.809423
932.251309	2462.603654
932.554714	2455.041923
932.858080	2500.412308
933.161407	2500.412308
933.464694	2492.850577
933.767943	2555.865000
934.071153	2487.809423
934.374323	2480.247692
934.677455	2434.877308
934.980548	2576.029615
935.283602	2452.521346
935.586617	2437.397885
935.889593	2510.494615
936.192530	2477.727115
936.495428	2472.685962
936.798287	2444.959615
937.101108	2502.932885
937.403890	2465.124231
937.706632	2523.097500
938.009336	2560.906154
938.312002	2482.768269
938.614628	2550.823846
938.917216	2538.220962
939.219765	2399.589231
939.522275	2621.400000
939.824747	2434.877308
940.127179	2530.659231
940.429573	2553.344423
940.731929	2439.918462
941.034246	2596.194231
941.336524	2507.974038
941.638763	2555.865000
941.940964	2555.865000
942.243126	2505.453462
942.545250	2492.850577
942.847335	2442.439038
943.149381	2492.850577
943.451389	2513.015192
943.753359	2482.768269
944.055290	2540.741538
944.357182	2550.823846
944.659036	2475.206538
944.960851	2540.741538
945.262628	2495.371154
945.564367	2470.165385
945.866067	2485.288846
946.167729	2487.809423
946.469352	2424.795000
946.770937	2497.891731
947.072484	2505.453462
947.373992	2482.768269
947.675462	2492.850577
947.976893	2422.274423
948.278286	2472.685962
948.579641	2497.891731
948.880958	2545.782692
949.182236	2500.412308
949.483476	2480.247692
949.784678	2510.494615
950.085841	2477.727115
950.386967	2447.480192
950.688054	2455.041923
950.989103	2455.041923
951.290114	2450.000769
951.591087	2447.480192
951.892021	2482.768269
952.192917	2432.356731
952.493776	2492.850577
952.794596	2485.288846
953.095378	2492.850577
953.396122	2475.206538
953.696828	2505.453462
953.997496	2470.165385
954.298126	2502.932885
954.598718	2510.494615
954.899272	2538.220962
955.199788	2472.685962
955.500266	2520.576923
955.800706	2505.453462
956.101108	2429.836154
956.401472	2452.521346
956.701798	2490.330000
957.002087	2530.659231
957.302337	2462.603654
957.602550	2485.288846
957.902724	2490.330000
958.202861	2404.630385
958.502960	2510.494615
958.803022	2434.877308
959.103045	2523.097500
959.403031	2480.247692
959.702979	2538.220962
960.002889	2500.412308
960.302762	2467.644808
960.602596	2475.206538
960.902393	2460.083077
961.202153	2472.685962
961.501875	2570.988462
961.801559	2437.397885
962.101205	2507.974038
962.400814	2444.959615
962.700385	2414.712692
962.999918	2525.618077
963.299414	2462.603654
963.598873	2538.220962
963.898293	2447.480192
964.197677	2492.850577
964.497022	2497.891731
964.796331	2560.906154
965.095601	2482.768269
965.394835	2523.097500
965.694030	2450.000769
965.993189	2497.891731
966.292309	2465.124231
966.591393	2525.618077
966.890439	2439.918462
967.189447	2545.782692
967.488419	2548.303269
967.787353	2523.097500
968.086249	2492.850577
968.385108	2540.741538
968.683930	2533.179808
968.982714	2462.603654
969.281462	2444.959615
969.580172	2586.111923
969.878844	2510.494615
970.177480	2434.877308
970.476078	2444.959615
970.774639	2487.809423
971.073162	2447.480192
971.371649	2490.330000
971.670098	2457.562500
971.968510	2392.027500
972.266885	2457.562500
972.565223	2432.356731
972.863524	2500.412308
973.161788	2482.768269
973.460014	2520.576923
973.758204	2457.562500
974.056356	2535.700385
974.354471	2495.371154
974.652550	2550.823846
974.950591	2439.918462
975.248595	2487.809423
975.546563	2427.315577
975.844493	2432.356731
976.142386	2520.576923
976.440243	2414.712692
976.738062	2538.220962
977.035845	2487.809423
977.333590	2550.823846
977.631299	2515.535769
977.928971	2432.356731
978.226606	2477.727115
978.524204	2563.426731
978.821765	2480.247692
979.119290	2533.179808
979.416777	2455.041923
979.714228	2462.603654
980.011642	2525.618077
980.309020	2450.000769
980.606360	2540.741538
980.903664	2482.768269
981.200931	2520.576923
981.498162	2472.685962
981.795356	2455.041923
982.092513	2540.741538
982.389633	2414.712692
982.686717	2510.494615
982.983764	2525.618077
983.280775	2502.932885
983.577749	2490.330000
983.874686	2472.685962
984.171587	2495.371154
984.468451	2462.603654
984.765279	2460.083077
985.062070	2409.671538
985.358824	2475.206538
985.655543	2513.015192
985.952224	2530.659231
986.248869	2455.041923
986.545478	2450.000769
986.842050	2593.673654
987.138586	2455.041923
987.435086	2520.576923
987.731549	2407.150962
988.027975	2455.041923
988.324366	2409.671538
988.620719	2487.809423
988.917037	2450.000769
989.213318	2482.768269
989.509563	2502.932885
989.805772	2520.576923
990.101944	2538.220962
990.398080	2429.836154
990.694180	2510.494615
990.990244	2465.124231
991.286271	2475.206538
991.582262	2452.521346
991.878217	2520.576923
992.174136	2455.041923
992.470019	2538.220962
992.765865	2528.138654
993.061676	2636.523462
993.357450	2465.124231
993.653188	2407.150962
993.948890	2558.385577
994.244556	2553.344423
994.540186	2487.809423
994.835780	2477.727115
995.131337	2528.138654
995.426859	2543.262115
995.722345	2505.453462
996.017795	2513.015192
996.313208	2507.974038
996.608586	2462.603654
996.903928	2394.548077
997.199234	2568.467885
997.494504	2505.453462
997.789738	2452.521346
998.084936	2424.795000
998.380099	2492.850577
998.675225	2497.891731
998.970316	2462.603654
999.265371	2560.906154
999.560390	2507.974038
999.855373	2495.371154
1000.150320	2568.467885
1000.445232	2545.782692
1000.740108	2480.247692
1001.034948	2457.562500
1001.329752	2578.550192
1001.624521	2442.439038
1001.919254	2482.768269
1002.213951	2444.959615
1002.508613	2472.685962
1002.803239	2462.603654
1003.097829	2470.165385
1003.392384	2470.165385
1003.686903	2477.727115
1003.981386	2530.659231
1004.275834	2530.659231
1004.570246	2485.288846
1004.864623	2439.918462
1005.158964	2432.356731
1005.453270	2520.576923
1005.747540	2485.288846
1006.041775	2558.385577
1006.335974	2399.589231
1006.630138	2480.247692
1006.924266	2505.453462
1007.218359	2543.262115
1007.512416	2608.797115
1007.806438	2535.700385
1008.100425	2555.865000
1008.394376	2533.179808
1008.688292	2444.959615
1008.982172	2518.056346
1009.276017	2417.233269
1009.569827	2462.603654
1009.863602	2485.288846
1010.157341	2553.344423
1010.451045	2507.974038
1010.744714	2437.397885
1011.038347	2555.865000
1011.331945	2528.138654
1011.625508	2525.618077
1011.919036	2573.509038
1012.212528	2492.850577
1012.505986	2492.850577
1012.799408	2417.233269
1013.092795	2462.603654
1013.386147	2485.288846
1013.679464	2515.535769
1013.972745	2389.506923
1014.265992	2467.644808
1014.559204	2460.083077
1014.852380	2513.015192
1015.145521	2487.809423
1015.438628	2535.700385
1015.731699	2543.262115
1016.024736	2520.576923
1016.317737	2576.029615
1016.610703	2482.768269
1016.903635	2533.179808
1017.196531	2485.288846
1017.489393	2460.083077
1017.782219	2437.397885
1018.075011	2545.782692
1018.367768	2530.659231
1018.660490	2513.015192
1018.953177	2513.015192
1019.245829	2513.015192
