Dividing Wavelength (nm)	Counts (n)	Blue Motor Position (mm): 6.700000	Red Motor Position (mm): 0.000000	
326.493990	2147.531538
326.888308	2147.531538
327.282561	2147.531538
327.676750	2117.284615
328.070874	2092.078846
328.464933	2056.790769
328.858929	2114.764038
329.252859	2011.420385
329.646726	2102.161154
330.040528	2119.805192
330.434265	2097.120000
330.827938	2109.722885
331.221547	2119.805192
331.615091	2215.587115
332.008571	2197.943077
332.401986	2228.190000
332.795338	2192.901923
333.188625	2273.560385
333.581847	2220.628269
333.975006	2354.218846
334.368100	2293.725000
334.761129	2381.945192
335.154095	2286.163269
335.546996	2288.683846
335.939833	2336.574808
336.332606	2447.480192
336.725315	2374.383462
337.117960	2366.821731
337.510540	2329.013077
337.903056	2437.397885
338.295508	2472.685962
338.687896	2452.521346
339.080220	2412.192115
339.472480	2510.494615
339.864676	2457.562500
340.256807	2450.000769
340.648875	2414.712692
341.040879	2475.206538
341.432818	2565.947308
341.824694	2442.439038
342.216506	2485.288846
342.608253	2487.809423
342.999937	2457.562500
343.391557	2437.397885
343.783113	2515.535769
344.174605	2472.685962
344.566033	2472.685962
344.957397	2407.150962
345.348697	2482.768269
345.739934	2497.891731
346.131106	2570.988462
346.522215	2465.124231
346.913260	2523.097500
347.304241	2444.959615
347.695159	2432.356731
348.086012	2394.548077
348.476802	2462.603654
348.867528	2535.700385
349.258191	2442.439038
349.648789	2374.383462
350.039324	2502.932885
350.429796	2460.083077
350.820203	2407.150962
351.210548	2444.959615
351.600828	2462.603654
351.991045	2465.124231
352.381198	2394.548077
352.771288	2412.192115
353.161314	2412.192115
353.551276	2475.206538
353.941175	2467.644808
354.331010	2462.603654
354.720782	2520.576923
355.110490	2389.506923
355.500135	2482.768269
355.889717	2392.027500
356.279235	2480.247692
356.668689	2460.083077
357.058080	2490.330000
357.447408	2419.753846
357.836672	2419.753846
358.225873	2480.247692
358.615010	2490.330000
359.004084	2434.877308
359.393095	2364.301154
359.782043	2409.671538
360.170927	2384.465769
360.559748	2444.959615
360.948505	2437.397885
361.337199	2467.644808
361.725830	2560.906154
362.114398	2437.397885
362.502903	2482.768269
362.891344	2437.397885
363.279722	2392.027500
363.668037	2439.918462
364.056289	2497.891731
364.444478	2404.630385
364.832603	2407.150962
365.220665	2495.371154
365.608665	2424.795000
365.996601	2477.727115
366.384474	2467.644808
366.772284	2417.233269
367.160031	2507.974038
367.547715	2502.932885
367.935336	2392.027500
368.322893	2386.986346
368.710388	2487.809423
369.097820	2507.974038
369.485189	2490.330000
369.872495	2465.124231
370.259738	2502.932885
370.646918	2518.056346
371.034035	2492.850577
371.421090	2450.000769
371.808081	2432.356731
372.195010	2455.041923
372.581875	2487.809423
372.968678	2439.918462
373.355418	2540.741538
373.742096	2465.124231
374.128710	2407.150962
374.515262	2518.056346
374.901751	2374.383462
375.288177	2444.959615
375.674540	2437.397885
376.060841	2452.521346
376.447079	2502.932885
376.833254	2588.632500
377.219367	2462.603654
377.605417	2482.768269
377.991404	2480.247692
378.377329	2374.383462
378.763191	2432.356731
379.148991	2500.412308
379.534727	2439.918462
379.920402	2404.630385
380.306013	2472.685962
380.691563	2429.836154
381.077049	2450.000769
381.462474	2505.453462
381.847835	2321.451346
382.233134	2434.877308
382.618371	2540.741538
383.003545	2450.000769
383.388657	2487.809423
383.773706	2424.795000
384.158693	2528.138654
384.543618	2419.753846
384.928480	2460.083077
385.313280	2528.138654
385.698017	2487.809423
386.082692	2518.056346
386.467305	2409.671538
386.851856	2500.412308
387.236344	2467.644808
387.620770	2397.068654
388.005133	2492.850577
388.389435	2470.165385
388.773674	2495.371154
389.157851	2598.714808
389.541965	2412.192115
389.926018	2530.659231
390.310008	2495.371154
390.693936	2452.521346
391.077802	2513.015192
391.461606	2475.206538
391.845348	2535.700385
392.229027	2462.603654
392.612645	2490.330000
392.996200	2379.424615
393.379694	2472.685962
393.763125	2497.891731
394.146494	2429.836154
394.529801	2429.836154
394.913047	2500.412308
395.296230	2510.494615
395.679351	2407.150962
396.062410	2500.412308
396.445408	2545.782692
396.828343	2490.330000
397.211217	2394.548077
397.594028	2472.685962
397.976778	2485.288846
398.359466	2472.685962
398.742092	2485.288846
399.124656	2548.303269
399.507158	2465.124231
399.889598	2457.562500
400.271977	2429.836154
400.654294	2487.809423
401.036549	2432.356731
401.418742	2472.685962
401.800874	2447.480192
402.182944	2419.753846
402.564952	2427.315577
402.946898	2485.288846
403.328783	2470.165385
403.710606	2477.727115
404.092367	2490.330000
404.474067	2538.220962
404.855705	2381.945192
405.237282	2450.000769
405.618797	2432.356731
406.000250	2470.165385
406.381642	2472.685962
406.762972	2419.753846
407.144240	2460.083077
407.525447	2515.535769
407.906593	2490.330000
408.287677	2444.959615
408.668700	2419.753846
409.049661	2414.712692
409.430560	2543.262115
409.811399	2465.124231
410.192176	2467.644808
410.572891	2515.535769
410.953545	2392.027500
411.334138	2525.618077
411.714669	2548.303269
412.095139	2447.480192
412.475547	2502.932885
412.855894	2450.000769
413.236180	2563.426731
413.616405	2477.727115
413.996568	2442.439038
414.376670	2455.041923
414.756711	2525.618077
415.136691	2485.288846
415.516609	2417.233269
415.896466	2359.260000
416.276262	2528.138654
416.655997	2533.179808
417.035670	2412.192115
417.415283	2462.603654
417.794834	2510.494615
418.174324	2452.521346
418.553753	2444.959615
418.933121	2439.918462
419.312428	2510.494615
419.691674	2455.041923
420.070859	2404.630385
420.449983	2452.521346
420.829045	2460.083077
421.208047	2490.330000
421.586988	2573.509038
421.965867	2523.097500
422.344686	2515.535769
422.723444	2419.753846
423.102141	2515.535769
423.480777	2490.330000
423.859352	2434.877308
424.237866	2452.521346
424.616319	2444.959615
424.994712	2523.097500
425.373044	2455.041923
425.751314	2402.109808
426.129524	2495.371154
426.507673	2457.562500
426.885762	2510.494615
427.263789	2487.809423
427.641756	2515.535769
428.019662	2588.632500
428.397508	2402.109808
428.775292	2475.206538
429.153016	2422.274423
429.530679	2452.521346
429.908282	2437.397885
430.285824	2475.206538
430.663305	2482.768269
431.040726	2485.288846
431.418086	2490.330000
431.795385	2523.097500
432.172624	2583.591346
432.549802	2429.836154
432.926920	2472.685962
433.303977	2470.165385
433.680974	2480.247692
434.057910	2490.330000
434.434786	2530.659231
434.811601	2545.782692
435.188355	2444.959615
435.565050	2535.700385
435.941683	2485.288846
436.318257	2470.165385
436.694770	2502.932885
437.071222	2497.891731
437.447614	2543.262115
437.823946	2538.220962
438.200218	2485.288846
438.576429	2500.412308
438.952580	2427.315577
439.328670	2535.700385
439.704700	2553.344423
440.080670	2477.727115
440.456580	2439.918462
440.832429	2507.974038
441.208218	2477.727115
441.583947	2555.865000
441.959616	2467.644808
442.335224	2505.453462
442.710773	2427.315577
443.086261	2462.603654
443.461689	2442.439038
443.837057	2533.179808
444.212365	2518.056346
444.587612	2442.439038
444.962800	2500.412308
445.337927	2515.535769
445.712995	2495.371154
446.088002	2543.262115
446.462949	2424.795000
446.837837	2576.029615
447.212664	2427.315577
447.587431	2457.562500
447.962139	2485.288846
448.336786	2457.562500
448.711374	2482.768269
449.085901	2412.192115
449.460369	2487.809423
449.834776	2543.262115
450.209124	2608.797115
450.583412	2424.795000
450.957640	2455.041923
451.331808	2573.509038
451.705917	2500.412308
452.079965	2492.850577
452.453954	2492.850577
452.827883	2497.891731
453.201752	2515.535769
453.575562	2394.548077
453.949311	2540.741538
454.323001	2555.865000
454.696632	2467.644808
455.070202	2528.138654
455.443713	2452.521346
455.817164	2414.712692
456.190556	2437.397885
456.563888	2568.467885
456.937160	2442.439038
457.310373	2439.918462
457.683526	2467.644808
458.056619	2427.315577
458.429653	2513.015192
458.802628	2525.618077
459.175542	2480.247692
459.548398	2523.097500
459.921194	2533.179808
460.293930	2439.918462
460.666607	2477.727115
461.039224	2439.918462
461.411782	2510.494615
461.784280	2570.988462
462.156719	2480.247692
462.529099	2518.056346
462.901419	2525.618077
463.273680	2470.165385
463.645882	2581.070769
464.018024	2576.029615
464.390106	2487.809423
464.762130	2482.768269
465.134094	2470.165385
465.505999	2480.247692
465.877845	2437.397885
466.249631	2502.932885
466.621358	2565.947308
466.993026	2455.041923
467.364634	2500.412308
467.736184	2397.068654
468.107674	2480.247692
468.479105	2497.891731
468.850477	2573.509038
469.221790	2485.288846
469.593043	2487.809423
469.964238	2490.330000
470.335373	2497.891731
470.706449	2480.247692
471.077467	2442.439038
471.448425	2477.727115
471.819324	2450.000769
472.190164	2386.986346
472.560945	2530.659231
472.931667	2465.124231
473.302330	2432.356731
473.672934	2550.823846
474.043479	2442.439038
474.413965	2475.206538
474.784393	2381.945192
475.154761	2485.288846
475.525070	2525.618077
475.895321	2444.959615
476.265513	2543.262115
476.635645	2520.576923
477.005719	2442.439038
477.375734	2452.521346
477.745691	2497.891731
478.115588	2465.124231
478.485427	2525.618077
478.855207	2520.576923
479.224928	2465.124231
479.594591	2477.727115
479.964194	2437.397885
480.333739	2523.097500
480.703226	2450.000769
481.072653	2452.521346
481.442022	2543.262115
481.811333	2497.891731
482.180584	2439.918462
482.549777	2490.330000
482.918912	2455.041923
483.287988	2591.153077
483.657005	2457.562500
484.025964	2480.247692
484.394864	2621.400000
484.763706	2543.262115
485.132489	2439.918462
485.501213	2507.974038
485.869879	2490.330000
486.238487	2510.494615
486.607036	2480.247692
486.975527	2560.906154
487.343959	2457.562500
487.712333	2444.959615
488.080648	2490.330000
488.448905	2510.494615
488.817104	2460.083077
489.185244	2442.439038
489.553326	2518.056346
489.921350	2450.000769
490.289315	2465.124231
490.657222	2505.453462
491.025070	2465.124231
491.392861	2538.220962
491.760593	2500.412308
492.128267	2472.685962
492.495883	2477.727115
492.863440	2482.768269
493.230939	2518.056346
493.598380	2570.988462
493.965763	2475.206538
494.333088	2477.727115
494.700354	2550.823846
495.067563	2417.233269
495.434713	2490.330000
495.801805	2472.685962
496.168839	2588.632500
496.535815	2480.247692
496.902733	2502.932885
497.269593	2505.453462
497.636395	2520.576923
498.003139	2568.467885
498.369825	2429.836154
498.736453	2475.206538
499.103023	2472.685962
499.469535	2505.453462
499.835989	2392.027500
500.202385	2450.000769
500.568723	2407.150962
500.935003	2515.535769
501.301226	2472.685962
501.667390	2450.000769
502.033497	2470.165385
502.399546	2487.809423
502.765537	2518.056346
503.131470	2515.535769
503.497345	2490.330000
503.863163	2475.206538
504.228923	2447.480192
504.594625	2447.480192
504.960269	2447.480192
505.325856	2424.795000
505.691385	2518.056346
506.056856	2543.262115
506.422270	2452.521346
506.787625	2442.439038
507.152924	2502.932885
507.518164	2553.344423
507.883347	2389.506923
508.248472	2525.618077
508.613540	2475.206538
508.978550	2550.823846
509.343503	2485.288846
509.708398	2500.412308
510.073236	2472.685962
510.438016	2533.179808
510.802738	2520.576923
511.167403	2513.015192
511.532010	2500.412308
511.896561	2444.959615
512.261053	2495.371154
512.625488	2460.083077
512.989866	2434.877308
513.354186	2525.618077
513.718449	2477.727115
514.082655	2523.097500
514.446803	2490.330000
514.810894	2523.097500
515.174927	2477.727115
515.538904	2528.138654
515.902822	2535.700385
516.266684	2570.988462
516.630488	2480.247692
516.994235	2518.056346
517.357925	2467.644808
517.721558	2452.521346
518.085133	2505.453462
518.448651	2480.247692
518.812112	2487.809423
519.175516	2417.233269
519.538863	2525.618077
519.902152	2462.603654
520.265385	2581.070769
520.628560	2497.891731
520.991678	2467.644808
521.354739	2437.397885
521.717743	2480.247692
522.080690	2500.412308
522.443580	2442.439038
522.806413	2472.685962
523.169189	2462.603654
523.531908	2490.330000
523.894569	2490.330000
524.257174	2450.000769
524.619722	2460.083077
524.982213	2495.371154
525.344647	2490.330000
525.707025	2545.782692
526.069345	2555.865000
526.431608	2530.659231
526.793815	2502.932885
527.155964	2535.700385
527.518057	2543.262115
527.880093	2472.685962
528.242072	2540.741538
528.603995	2475.206538
528.965860	2543.262115
529.327669	2450.000769
529.689421	2510.494615
530.051117	2480.247692
530.412755	2553.344423
530.774337	2485.288846
531.135862	2545.782692
531.497331	2545.782692
531.858743	2475.206538
532.220098	2535.700385
532.581396	2467.644808
532.942638	2513.015192
533.303824	2497.891731
533.664953	2543.262115
534.026025	2507.974038
534.387040	2568.467885
534.747999	2460.083077
535.108902	2528.138654
535.469748	2545.782692
535.830537	2477.727115
536.191270	2492.850577
536.551947	2550.823846
536.912567	2447.480192
537.273131	2518.056346
537.633638	2523.097500
537.994089	2495.371154
538.354483	2475.206538
538.714821	2533.179808
539.075103	2523.097500
539.435328	2530.659231
539.795497	2447.480192
540.155609	2518.056346
540.515665	2616.358846
540.875665	2460.083077
541.235609	2505.453462
541.595496	2543.262115
541.955328	2412.192115
542.315102	2598.714808
542.674821	2586.111923
543.034483	2507.974038
543.394090	2555.865000
543.753640	2490.330000
544.113134	2371.862885
544.472571	2492.850577
544.831953	2457.562500
545.191278	2533.179808
545.550548	2555.865000
545.909761	2394.548077
546.268918	2495.371154
546.628019	2578.550192
546.987064	2520.576923
547.346053	2492.850577
547.704986	2513.015192
548.063863	2553.344423
548.422684	2513.015192
548.781449	2439.918462
549.140158	2535.700385
549.498811	2500.412308
549.857408	2576.029615
550.215949	2525.618077
550.574434	2560.906154
550.932864	2442.439038
551.291237	2555.865000
551.649555	2462.603654
552.007817	2523.097500
552.366022	2419.753846
552.724173	2470.165385
553.082267	2548.303269
553.440305	2480.247692
553.798288	2555.865000
554.156215	2581.070769
554.514086	2455.041923
554.871902	2543.262115
555.229661	2480.247692
555.587365	2442.439038
555.945014	2596.194231
556.302606	2487.809423
556.660143	2545.782692
557.017625	2490.330000
557.375050	2535.700385
557.732421	2482.768269
558.089735	2578.550192
558.446994	2497.891731
558.804197	2510.494615
559.161345	2538.220962
559.518437	2414.712692
559.875474	2528.138654
560.232455	2613.838269
560.589381	2535.700385
560.946251	2492.850577
561.303065	2558.385577
561.659825	2442.439038
562.016528	2490.330000
562.373177	2533.179808
562.729770	2480.247692
563.086307	2487.809423
563.442789	2500.412308
563.799216	2510.494615
564.155587	2540.741538
564.511904	2460.083077
564.868164	2381.945192
565.224370	2515.535769
565.580520	2460.083077
565.936615	2439.918462
566.292654	2576.029615
566.648638	2495.371154
567.004567	2467.644808
567.360441	2555.865000
567.716260	2480.247692
568.072023	2543.262115
568.427732	2507.974038
568.783385	2482.768269
569.138982	2502.932885
569.494525	2450.000769
569.850013	2525.618077
570.205445	2492.850577
570.560823	2495.371154
570.916145	2500.412308
571.271412	2525.618077
571.626625	2528.138654
571.981782	2560.906154
572.336884	2467.644808
572.691931	2505.453462
573.046923	2492.850577
573.401860	2538.220962
573.756743	2455.041923
574.111570	2407.150962
574.466342	2543.262115
574.821059	2480.247692
575.175722	2548.303269
575.530330	2492.850577
575.884882	2452.521346
576.239380	2535.700385
576.593823	2505.453462
576.948211	2447.480192
577.302544	2470.165385
577.656823	2490.330000
578.011047	2507.974038
578.365216	2462.603654
578.719330	2523.097500
579.073389	2439.918462
579.427394	2495.371154
579.781344	2437.397885
580.135239	2505.453462
580.489080	2535.700385
580.842866	2455.041923
581.196597	2497.891731
581.550273	2477.727115
581.903895	2492.850577
582.257463	2482.768269
582.610975	2523.097500
582.964434	2528.138654
583.317837	2477.727115
583.671186	2545.782692
584.024481	2475.206538
584.377721	2460.083077
584.730906	2452.521346
585.084037	2553.344423
585.437113	2482.768269
585.790135	2507.974038
586.143103	2495.371154
586.496016	2576.029615
586.848874	2490.330000
587.201679	2510.494615
587.554428	2442.439038
587.907124	2573.509038
588.259765	2497.891731
588.612352	2535.700385
588.964884	2495.371154
589.317362	2515.535769
589.669786	2500.412308
590.022155	2513.015192
590.374470	2442.439038
590.726731	2482.768269
591.078937	2523.097500
591.431090	2560.906154
591.783188	2444.959615
592.135232	2520.576923
592.487222	2530.659231
592.839157	2550.823846
593.191038	2495.371154
593.542866	2482.768269
593.894639	2460.083077
594.246358	2460.083077
594.598022	2500.412308
594.949633	2442.439038
595.301190	2510.494615
595.652692	2505.453462
596.004141	2480.247692
596.355535	2460.083077
596.706876	2480.247692
597.058162	2545.782692
597.409395	2472.685962
597.760573	2510.494615
598.111698	2480.247692
598.462768	2455.041923
598.813785	2507.974038
599.164748	2626.441154
599.515657	2460.083077
599.866511	2525.618077
600.217312	2447.480192
600.568060	2553.344423
600.918753	2492.850577
601.269392	2545.782692
601.619978	2618.879423
601.970510	2573.509038
602.320988	2565.947308
602.671412	2515.535769
603.021783	2437.397885
603.372100	2523.097500
603.722363	2485.288846
604.072572	2507.974038
604.422728	2513.015192
604.772830	2462.603654
605.122878	2505.453462
605.472872	2548.303269
605.822813	2563.426731
606.172701	2480.247692
606.522534	2510.494615
606.872314	2533.179808
607.222041	2523.097500
607.571714	2535.700385
607.921333	2444.959615
608.270899	2495.371154
608.620411	2470.165385
608.969870	2505.453462
609.319276	2553.344423
609.668627	2528.138654
610.017926	2487.809423
610.367171	2485.288846
610.716362	2523.097500
611.065500	2450.000769
611.414585	2548.303269
611.763616	2507.974038
612.112594	2457.562500
612.461518	2540.741538
612.810389	2475.206538
613.159207	2442.439038
613.507971	2507.974038
613.856682	2593.673654
614.205340	2500.412308
614.553945	2528.138654
614.902496	2576.029615
615.250994	2402.109808
615.599439	2500.412308
615.947830	2450.000769
616.296169	2583.591346
616.644454	2477.727115
616.992686	2399.589231
617.340864	2510.494615
617.688990	2576.029615
618.037063	2439.918462
618.385082	2492.850577
618.733048	2409.671538
619.080961	2535.700385
619.428821	2502.932885
619.776628	2530.659231
620.124382	2460.083077
620.472083	2465.124231
620.819731	2462.603654
621.167326	2500.412308
621.514868	2560.906154
621.862357	2495.371154
622.209793	2457.562500
622.557176	2510.494615
622.904506	2434.877308
623.251783	2470.165385
623.599007	2462.603654
623.946179	2457.562500
624.293297	2460.083077
624.640363	2407.150962
624.987376	2505.453462
625.334336	2485.288846
625.681243	2487.809423
626.028097	2535.700385
626.374899	2543.262115
626.721647	2472.685962
627.068343	2477.727115
627.414987	2447.480192
627.761577	2482.768269
628.108115	2450.000769
628.454600	2434.877308
628.801032	2518.056346
629.147412	2502.932885
629.493739	2550.823846
629.840014	2560.906154
630.186236	2477.727115
630.532405	2447.480192
630.878521	2510.494615
631.224585	2465.124231
631.570597	2505.453462
631.916556	2518.056346
632.262462	2533.179808
632.608316	2535.700385
632.954117	2513.015192
633.299866	2497.891731
633.645562	2467.644808
633.991206	2490.330000
634.336797	2523.097500
634.682336	2535.700385
635.027823	2513.015192
635.373257	2407.150962
635.718639	2581.070769
636.063968	2444.959615
636.409245	2513.015192
636.754470	2606.276538
637.099642	2502.932885
637.444762	2490.330000
637.789829	2533.179808
638.134845	2389.506923
638.479808	2407.150962
638.824719	2485.288846
639.169577	2515.535769
639.514383	2520.576923
639.859137	2500.412308
640.203839	2518.056346
640.548489	2452.521346
640.893086	2502.932885
641.237632	2505.453462
641.582125	2576.029615
641.926566	2543.262115
642.270955	2434.877308
642.615292	2505.453462
642.959576	2472.685962
643.303809	2442.439038
643.647990	2470.165385
643.992118	2523.097500
644.336195	2452.521346
644.680219	2510.494615
645.024192	2424.795000
645.368112	2460.083077
645.711981	2495.371154
646.055797	2530.659231
646.399562	2450.000769
646.743274	2573.509038
647.086935	2520.576923
647.430544	2462.603654
647.774101	2465.124231
648.117606	2505.453462
648.461059	2444.959615
648.804460	2475.206538
649.147810	2490.330000
649.491108	2497.891731
649.834354	2528.138654
650.177548	2507.974038
650.520690	2457.562500
650.863781	2570.988462
651.206820	2452.521346
651.549807	2608.797115
651.892742	2457.562500
652.235626	2417.233269
652.578458	2520.576923
652.921238	2455.041923
653.263967	2533.179808
653.606644	2472.685962
653.949269	2548.303269
654.291843	2510.494615
654.634365	2487.809423
654.976836	2515.535769
655.319255	2429.836154
655.661622	2553.344423
656.003938	2470.165385
656.346203	2578.550192
656.688416	2502.932885
657.030577	2434.877308
657.372687	2475.206538
657.714746	2470.165385
658.056753	2548.303269
658.398708	2500.412308
658.740612	2553.344423
659.082465	2427.315577
659.424266	2530.659231
659.766016	2513.015192
660.107715	2550.823846
660.449362	2515.535769
660.790958	2523.097500
661.132503	2465.124231
661.473996	2515.535769
661.815438	2515.535769
662.156829	2543.262115
662.498168	2505.453462
662.839456	2447.480192
663.180693	2533.179808
663.521879	2472.685962
663.863013	2450.000769
664.204097	2497.891731
664.545129	2523.097500
664.886110	2354.218846
665.227040	2515.535769
665.567918	2465.124231
665.908746	2412.192115
666.249522	2515.535769
666.590248	2538.220962
666.930922	2477.727115
667.271545	2397.068654
667.612118	2480.247692
667.952639	2543.262115
668.293109	2477.727115
668.633528	2482.768269
668.973896	2417.233269
669.314213	2490.330000
669.654480	2510.494615
669.994695	2528.138654
670.334859	2505.453462
670.674973	2467.644808
671.015035	2439.918462
671.355047	2490.330000
671.695008	2452.521346
672.034918	2457.562500
672.374777	2432.356731
672.714585	2535.700385
673.054342	2520.576923
673.394049	2480.247692
673.733705	2548.303269
674.073310	2555.865000
674.412864	2472.685962
674.752368	2455.041923
675.091820	2429.836154
675.431223	2513.015192
675.770574	2507.974038
676.109875	2505.453462
676.449125	2472.685962
676.788324	2450.000769
677.127473	2475.206538
677.466571	2407.150962
677.805619	2513.015192
678.144616	2429.836154
678.483562	2510.494615
678.822458	2502.932885
679.161303	2533.179808
679.500098	2480.247692
679.838842	2505.453462
680.177535	2570.988462
680.516179	2470.165385
680.854771	2515.535769
681.193314	2586.111923
681.531805	2472.685962
681.870247	2515.535769
682.208638	2525.618077
682.546978	2492.850577
682.885268	2457.562500
683.223508	2525.618077
683.561697	2492.850577
683.899836	2528.138654
684.237925	2439.918462
684.575963	2518.056346
684.913951	2412.192115
685.251889	2565.947308
685.589776	2513.015192
685.927614	2460.083077
686.265401	2477.727115
686.603137	2434.877308
686.940824	2507.974038
687.278460	2540.741538
687.616046	2535.700385
687.953582	2558.385577
688.291068	2477.727115
688.628504	2492.850577
688.965889	2495.371154
689.303224	2497.891731
689.640510	2467.644808
689.977745	2497.891731
690.314930	2525.618077
690.652065	2538.220962
690.989150	2447.480192
691.326185	2538.220962
691.663170	2553.344423
692.000105	2442.439038
692.336990	2523.097500
692.673825	2563.426731
693.010610	2573.509038
693.347345	2485.288846
693.684030	2424.795000
694.020665	2490.330000
694.357251	2439.918462
694.693786	2510.494615
695.030272	2467.644808
695.366707	2487.809423
695.703093	2500.412308
696.039429	2439.918462
696.375716	2465.124231
696.711952	2507.974038
697.048139	2563.426731
697.384276	2465.124231
697.720363	2525.618077
698.056400	2518.056346
698.392388	2487.809423
698.728326	2434.877308
699.064214	2513.015192
699.400053	2543.262115
699.735842	2513.015192
700.071581	2507.974038
700.407270	2507.974038
700.742910	2550.823846
701.078501	2560.906154
701.414042	2485.288846
701.749533	2482.768269
702.084974	2482.768269
702.420366	2500.412308
702.755709	2490.330000
703.091002	2477.727115
703.426246	2480.247692
703.761440	2525.618077
704.096584	2490.330000
704.431679	2535.700385
704.766725	2528.138654
705.101721	2455.041923
705.436668	2462.603654
705.771565	2576.029615
706.106413	2477.727115
706.441212	2462.603654
706.775961	2523.097500
707.110661	2591.153077
707.445311	2482.768269
707.779913	2392.027500
708.114465	2505.453462
708.448967	2510.494615
708.783421	2475.206538
709.117825	2414.712692
709.452180	2596.194231
709.786485	2452.521346
710.120742	2515.535769
710.454949	2462.603654
710.789107	2497.891731
711.123216	2533.179808
711.457275	2560.906154
711.791286	2513.015192
712.125247	2555.865000
712.459159	2513.015192
712.793023	2480.247692
713.126837	2505.453462
713.460602	2404.630385
713.794318	2477.727115
714.127985	2500.412308
714.461602	2470.165385
714.795171	2477.727115
715.128691	2518.056346
715.462162	2482.768269
715.795584	2545.782692
716.128957	2450.000769
716.462281	2437.397885
716.795556	2523.097500
717.128782	2480.247692
717.461960	2407.150962
717.795088	2540.741538
718.128167	2523.097500
718.461198	2500.412308
718.794180	2424.795000
719.127113	2432.356731
719.459997	2520.576923
719.792833	2495.371154
720.125619	2565.947308
720.458357	2518.056346
720.791046	2500.412308
721.123686	2480.247692
721.456278	2502.932885
721.788821	2543.262115
722.121315	2507.974038
722.453761	2601.235385
722.786158	2475.206538
723.118506	2525.618077
723.450805	2480.247692
723.783056	2492.850577
724.115259	2510.494615
724.447412	2477.727115
724.779518	2538.220962
725.111574	2444.959615
725.443582	2434.877308
725.775542	2570.988462
726.107453	2553.344423
726.439315	2417.233269
726.771129	2507.974038
727.102895	2437.397885
727.434612	2480.247692
727.766281	2490.330000
728.097901	2502.932885
728.429473	2523.097500
728.760996	2573.509038
729.092471	2475.206538
729.423897	2470.165385
729.755276	2475.206538
730.086606	2500.412308
730.417887	2394.548077
730.749120	2467.644808
731.080305	2480.247692
731.411442	2553.344423
731.742530	2470.165385
732.073570	2492.850577
732.404562	2533.179808
732.735506	2495.371154
733.066401	2591.153077
733.397249	2480.247692
733.728048	2515.535769
734.058798	2470.165385
734.389501	2523.097500
734.720156	2540.741538
735.050762	2480.247692
735.381320	2533.179808
735.711831	2444.959615
736.042293	2535.700385
736.372707	2419.753846
736.703073	2616.358846
737.033391	2450.000769
737.363661	2432.356731
737.693883	2482.768269
738.024056	2414.712692
738.354182	2447.480192
738.684260	2470.165385
739.014290	2500.412308
739.344272	2545.782692
739.674207	2608.797115
740.004093	2472.685962
740.333931	2485.288846
740.663722	2505.453462
740.993464	2487.809423
741.323159	2477.727115
741.652806	2475.206538
741.982405	2523.097500
742.311956	2487.809423
742.641460	2538.220962
742.970915	2432.356731
743.300323	2472.685962
743.629683	2515.535769
743.958996	2518.056346
744.288260	2502.932885
744.617477	2565.947308
744.946647	2530.659231
745.275768	2502.932885
745.604842	2492.850577
745.933869	2485.288846
746.262847	2553.344423
746.591778	2505.453462
746.920662	2490.330000
747.249498	2545.782692
747.578286	2487.809423
747.907027	2495.371154
748.235720	2583.591346
748.564365	2515.535769
748.892963	2548.303269
749.221514	2563.426731
749.550017	2447.480192
749.878473	2555.865000
750.206881	2467.644808
750.535242	2543.262115
750.863555	2475.206538
751.191821	2492.850577
751.520039	2497.891731
751.848210	2507.974038
752.176334	2510.494615
752.504411	2457.562500
752.832440	2470.165385
753.160421	2563.426731
753.488356	2477.727115
753.816243	2480.247692
754.144082	2502.932885
754.471875	2530.659231
754.799620	2465.124231
755.127318	2533.179808
755.454969	2500.412308
755.782572	2434.877308
756.110129	2525.618077
756.437638	2467.644808
756.765100	2434.877308
757.092515	2495.371154
757.419882	2472.685962
757.747203	2513.015192
758.074477	2487.809423
758.401703	2523.097500
758.728882	2392.027500
759.056014	2535.700385
759.383099	2495.371154
759.710138	2487.809423
760.037129	2460.083077
760.364073	2465.124231
760.690970	2447.480192
761.017820	2477.727115
761.344623	2487.809423
761.671379	2540.741538
761.998088	2472.685962
762.324751	2457.562500
762.651366	2457.562500
762.977935	2558.385577
763.304456	2460.083077
763.630931	2530.659231
763.957359	2477.727115
764.283740	2427.315577
764.610074	2543.262115
764.936362	2470.165385
765.262602	2485.288846
765.588796	2457.562500
765.914943	2548.303269
766.241044	2495.371154
766.567097	2530.659231
766.893104	2502.932885
767.219064	2482.768269
767.544978	2487.809423
767.870845	2497.891731
768.196665	2591.153077
768.522438	2444.959615
768.848165	2540.741538
769.173846	2472.685962
769.499479	2528.138654
769.825066	2409.671538
770.150607	2623.920577
770.476101	2450.000769
770.801548	2560.906154
771.126949	2457.562500
771.452303	2480.247692
771.777611	2485.288846
772.102872	2439.918462
772.428087	2505.453462
772.753256	2543.262115
773.078378	2500.412308
773.403453	2457.562500
773.728482	2500.412308
774.053465	2462.603654
774.378401	2460.083077
774.703291	2470.165385
775.028135	2351.698269
775.352932	2495.371154
775.677683	2424.795000
776.002388	2540.741538
776.327046	2475.206538
776.651658	2465.124231
776.976224	2497.891731
777.300743	2497.891731
777.625216	2510.494615
777.949643	2457.562500
778.274024	2402.109808
778.598359	2477.727115
778.922647	2482.768269
779.246889	2460.083077
779.571086	2553.344423
779.895236	2419.753846
780.219339	2437.397885
780.543397	2465.124231
780.867409	2515.535769
781.191374	2596.194231
781.515294	2450.000769
781.839167	2457.562500
782.162995	2518.056346
782.486776	2593.673654
782.810511	2442.439038
783.134201	2475.206538
783.457844	2487.809423
783.781441	2467.644808
784.104993	2500.412308
784.428498	2434.877308
784.751958	2553.344423
785.075372	2538.220962
785.398739	2492.850577
785.722061	2480.247692
786.045337	2452.521346
786.368568	2475.206538
786.691752	2442.439038
787.014891	2495.371154
787.337983	2500.412308
787.661030	2591.153077
787.984031	2432.356731
788.306987	2495.371154
788.629897	2422.274423
788.952760	2485.288846
789.275579	2515.535769
789.598351	2424.795000
789.921078	2482.768269
790.243759	2515.535769
790.566395	2523.097500
790.888984	2482.768269
791.211529	2543.262115
791.534027	2515.535769
791.856480	2533.179808
792.178888	2570.988462
792.501249	2520.576923
792.823566	2374.383462
793.145836	2523.097500
793.468062	2540.741538
793.790241	2505.453462
794.112375	2550.823846
794.434464	2533.179808
794.756507	2495.371154
795.078505	2530.659231
795.400457	2462.603654
795.722364	2444.959615
796.044226	2480.247692
796.366042	2518.056346
796.687812	2460.083077
797.009538	2490.330000
797.331218	2518.056346
797.652852	2470.165385
797.974442	2477.727115
798.295986	2450.000769
798.617484	2490.330000
798.938938	2467.644808
799.260346	2525.618077
799.581709	2452.521346
799.903026	2530.659231
800.224299	2444.959615
800.545526	2417.233269
800.866708	2467.644808
801.187845	2485.288846
801.508936	2465.124231
801.829983	2548.303269
802.150984	2528.138654
802.471940	2467.644808
802.792851	2487.809423
803.113717	2528.138654
803.434538	2513.015192
803.755314	2432.356731
804.076045	2497.891731
804.396731	2427.315577
804.717372	2487.809423
805.037967	2470.165385
805.358518	2450.000769
805.679024	2437.397885
805.999485	2457.562500
806.319901	2543.262115
806.640272	2475.206538
806.960598	2460.083077
807.280879	2518.056346
807.601115	2502.932885
807.921306	2460.083077
808.241453	2538.220962
808.561554	2515.535769
808.881611	2548.303269
809.201623	2515.535769
809.521590	2505.453462
809.841513	2437.397885
810.161390	2518.056346
810.481223	2502.932885
810.801011	2502.932885
811.120755	2477.727115
811.440453	2482.768269
811.760107	2492.850577
812.079716	2500.412308
812.399281	2419.753846
812.718801	2588.632500
813.038276	2480.247692
813.357707	2495.371154
813.677093	2465.124231
813.996434	2429.836154
814.315731	2432.356731
814.634983	2439.918462
814.954191	2487.809423
815.273354	2507.974038
815.592473	2510.494615
815.911547	2490.330000
816.230577	2495.371154
816.549562	2417.233269
816.868502	2538.220962
817.187399	2475.206538
817.506250	2460.083077
817.825058	2462.603654
818.143821	2487.809423
818.462539	2417.233269
818.781213	2447.480192
819.099843	2530.659231
819.418429	2505.453462
819.736970	2523.097500
820.055466	2477.727115
820.373919	2523.097500
820.692327	2515.535769
821.010691	2518.056346
821.329011	2550.823846
821.647286	2462.603654
821.965517	2510.494615
822.283704	2492.850577
822.601847	2447.480192
822.919945	2530.659231
823.237999	2444.959615
823.556010	2591.153077
823.873976	2520.576923
824.191897	2477.727115
824.509775	2520.576923
824.827609	2543.262115
825.145398	2475.206538
825.463144	2530.659231
825.780845	2412.192115
826.098502	2470.165385
826.416116	2465.124231
826.733685	2513.015192
827.051210	2470.165385
827.368692	2490.330000
827.686129	2450.000769
828.003522	2538.220962
828.320872	2525.618077
828.638177	2480.247692
828.955439	2490.330000
829.272656	2505.453462
829.589830	2583.591346
829.906960	2467.644808
830.224046	2450.000769
830.541088	2510.494615
830.858086	2487.809423
831.175041	2525.618077
831.491952	2518.056346
831.808819	2545.782692
832.125642	2586.111923
832.442421	2447.480192
832.759157	2507.974038
833.075849	2543.262115
833.392497	2482.768269
833.709101	2477.727115
834.025662	2457.562500
834.342179	2482.768269
834.658653	2434.877308
834.975083	2470.165385
835.291469	2482.768269
835.607811	2558.385577
835.924110	2530.659231
836.240366	2538.220962
836.556578	2444.959615
836.872746	2389.506923
837.188871	2502.932885
837.504952	2424.795000
837.820990	2518.056346
838.136984	2543.262115
838.452935	2450.000769
838.768842	2485.288846
839.084706	2497.891731
839.400526	2558.385577
839.716303	2485.288846
840.032037	2389.506923
840.347727	2583.591346
840.663373	2507.974038
840.978977	2543.262115
841.294537	2457.562500
841.610054	2565.947308
841.925527	2490.330000
842.240957	2518.056346
842.556344	2505.453462
842.871687	2507.974038
843.186987	2502.932885
843.502244	2394.548077
843.817458	2467.644808
844.132629	2563.426731
844.447756	2487.809423
844.762840	2540.741538
845.077881	2447.480192
845.392879	2422.274423
845.707833	2465.124231
846.022745	2482.768269
846.337613	2450.000769
846.652438	2518.056346
846.967221	2450.000769
847.281960	2573.509038
847.596656	2505.453462
847.911309	2515.535769
848.225919	2563.426731
848.540485	2465.124231
848.855009	2545.782692
849.169490	2477.727115
849.483928	2477.727115
849.798323	2480.247692
850.112675	2452.521346
850.426984	2507.974038
850.741251	2477.727115
851.055474	2497.891731
851.369654	2475.206538
851.683792	2409.671538
851.997887	2533.179808
852.311938	2513.015192
852.625947	2492.850577
852.939914	2513.015192
853.253837	2525.618077
853.567718	2444.959615
853.881555	2535.700385
854.195350	2525.618077
854.509103	2485.288846
854.822812	2462.603654
855.136479	2477.727115
855.450103	2447.480192
855.763685	2568.467885
856.077224	2482.768269
856.390720	2475.206538
856.704173	2472.685962
857.017584	2543.262115
857.330953	2437.397885
857.644278	2480.247692
857.957561	2502.932885
858.270802	2444.959615
858.584000	2470.165385
858.897155	2412.192115
859.210268	2450.000769
859.523339	2424.795000
859.836367	2507.974038
860.149352	2601.235385
860.462295	2470.165385
860.775195	2429.836154
861.088054	2538.220962
861.400869	2457.562500
861.713642	2429.836154
862.026373	2525.618077
862.339062	2515.535769
862.651708	2432.356731
862.964312	2593.673654
863.276873	2485.288846
863.589392	2543.262115
863.901869	2528.138654
864.214303	2434.877308
864.526696	2535.700385
864.839045	2417.233269
865.151353	2525.618077
865.463619	2518.056346
865.775842	2457.562500
866.088023	2502.932885
866.400162	2442.439038
866.712258	2563.426731
867.024313	2457.562500
867.336325	2412.192115
867.648296	2500.412308
867.960224	2460.083077
868.272110	2480.247692
868.583954	2568.467885
868.895755	2525.618077
869.207515	2515.535769
869.519233	2465.124231
869.830909	2500.412308
870.142542	2558.385577
870.454134	2568.467885
870.765684	2523.097500
871.077191	2487.809423
871.388657	2439.918462
871.700081	2467.644808
872.011463	2467.644808
872.322803	2485.288846
872.634101	2447.480192
872.945357	2480.247692
873.256571	2442.439038
873.567744	2462.603654
873.878874	2502.932885
874.189963	2538.220962
874.501010	2465.124231
874.812015	2560.906154
875.122979	2485.288846
875.433900	2470.165385
875.744780	2492.850577
876.055618	2492.850577
876.366415	2495.371154
876.677169	2422.274423
876.987882	2505.453462
877.298554	2485.288846
877.609183	2515.535769
877.919771	2497.891731
878.230317	2540.741538
878.540822	2452.521346
878.851285	2477.727115
879.161707	2492.850577
879.472087	2447.480192
879.782425	2409.671538
880.092722	2510.494615
880.402977	2543.262115
880.713191	2565.947308
881.023363	2412.192115
881.333494	2540.741538
881.643583	2465.124231
881.953631	2535.700385
882.263637	2523.097500
882.573602	2475.206538
882.883526	2520.576923
883.193408	2523.097500
883.503248	2528.138654
883.813048	2520.576923
884.122806	2548.303269
884.432522	2429.836154
884.742197	2586.111923
885.051831	2472.685962
885.361424	2470.165385
885.670975	2457.562500
885.980485	2444.959615
886.289954	2462.603654
886.599382	2500.412308
886.908768	2495.371154
887.218113	2502.932885
887.527417	2492.850577
887.836680	2505.453462
888.145901	2444.959615
888.455082	2437.397885
888.764221	2450.000769
889.073319	2475.206538
889.382376	2528.138654
889.691392	2462.603654
890.000366	2477.727115
890.309300	2424.795000
890.618193	2477.727115
890.927044	2472.685962
891.235855	2570.988462
891.544625	2452.521346
891.853353	2502.932885
892.162041	2467.644808
892.470687	2555.865000
892.779293	2530.659231
893.087858	2465.124231
893.396381	2500.412308
893.704864	2457.562500
894.013306	2457.562500
894.321707	2434.877308
894.630068	2457.562500
894.938387	2540.741538
895.246665	2472.685962
895.554903	2523.097500
895.863100	2427.315577
896.171256	2507.974038
896.479371	2475.206538
896.787446	2485.288846
897.095480	2485.288846
897.403473	2502.932885
897.711425	2523.097500
898.019336	2472.685962
898.327207	2513.015192
898.635038	2457.562500
898.942827	2570.988462
899.250576	2480.247692
899.558284	2505.453462
899.865952	2434.877308
900.173579	2482.768269
900.481165	2500.412308
900.788711	2535.700385
901.096216	2502.932885
901.403681	2548.303269
901.711105	2439.918462
902.018489	2470.165385
902.325832	2533.179808
902.633135	2560.906154
902.940397	2523.097500
903.247619	2490.330000
903.554800	2525.618077
903.861941	2596.194231
904.169041	2460.083077
904.476101	2510.494615
904.783121	2500.412308
905.090100	2467.644808
905.397039	2462.603654
905.703938	2444.959615
906.010796	2485.288846
906.317614	2545.782692
906.624391	2452.521346
906.931129	2485.288846
907.237826	2563.426731
907.544483	2518.056346
907.851099	2397.068654
908.157675	2520.576923
908.464211	2392.027500
908.770707	2515.535769
909.077163	2563.426731
909.383578	2528.138654
909.689954	2465.124231
909.996289	2404.630385
910.302584	2533.179808
910.608839	2510.494615
910.915054	2487.809423
911.221229	2442.439038
911.527363	2492.850577
911.833458	2530.659231
912.139513	2485.288846
912.445527	2462.603654
912.751502	2455.041923
913.057436	2500.412308
913.363331	2480.247692
913.669186	2457.562500
913.975000	2581.070769
914.280775	2502.932885
914.586510	2475.206538
914.892205	2485.288846
915.197859	2513.015192
915.503475	2455.041923
915.809050	2455.041923
916.114585	2452.521346
916.420081	2528.138654
916.725536	2480.247692
917.030952	2452.521346
917.336328	2492.850577
917.641665	2596.194231
917.946961	2477.727115
918.252218	2455.041923
918.557435	2439.918462
918.862612	2490.330000
919.167750	2507.974038
919.472848	2543.262115
919.777906	2432.356731
920.082925	2505.453462
920.387904	2444.959615
920.692843	2528.138654
920.997743	2586.111923
921.302603	2424.795000
921.607423	2502.932885
921.912204	2437.397885
922.216946	2528.138654
922.521647	2507.974038
922.826310	2548.303269
923.130932	2475.206538
923.435516	2381.945192
923.740059	2538.220962
924.044564	2492.850577
924.349028	2482.768269
924.653454	2553.344423
924.957840	2460.083077
925.262186	2513.015192
925.566493	2460.083077
925.870761	2616.358846
926.174989	2565.947308
926.479178	2424.795000
926.783328	2485.288846
927.087438	2480.247692
927.391509	2452.521346
927.695541	2427.315577
927.999533	2437.397885
928.303486	2533.179808
928.607400	2455.041923
928.911275	2535.700385
929.215110	2472.685962
929.518906	2467.644808
929.822663	2455.041923
930.126381	2533.179808
930.430060	2477.727115
930.733699	2530.659231
931.037299	2487.809423
931.340861	2392.027500
931.644383	2495.371154
931.947866	2437.397885
932.251309	2475.206538
932.554714	2583.591346
932.858080	2409.671538
933.161407	2482.768269
933.464694	2497.891731
933.767943	2482.768269
934.071153	2540.741538
934.374323	2495.371154
934.677455	2490.330000
934.980548	2467.644808
935.283602	2384.465769
935.586617	2525.618077
935.889593	2447.480192
936.192530	2535.700385
936.495428	2467.644808
936.798287	2628.961731
937.101108	2497.891731
937.403890	2563.426731
937.706632	2472.685962
938.009336	2593.673654
938.312002	2432.356731
938.614628	2447.480192
938.917216	2490.330000
939.219765	2550.823846
939.522275	2460.083077
939.824747	2500.412308
940.127179	2472.685962
940.429573	2525.618077
940.731929	2404.630385
941.034246	2555.865000
941.336524	2485.288846
941.638763	2520.576923
941.940964	2487.809423
942.243126	2553.344423
942.545250	2477.727115
942.847335	2518.056346
943.149381	2424.795000
943.451389	2528.138654
943.753359	2465.124231
944.055290	2543.262115
944.357182	2513.015192
944.659036	2452.521346
944.960851	2548.303269
945.262628	2492.850577
945.564367	2555.865000
945.866067	2465.124231
946.167729	2510.494615
946.469352	2518.056346
946.770937	2565.947308
947.072484	2482.768269
947.373992	2523.097500
947.675462	2490.330000
947.976893	2558.385577
948.278286	2513.015192
948.579641	2505.453462
948.880958	2520.576923
949.182236	2500.412308
949.483476	2437.397885
949.784678	2520.576923
950.085841	2417.233269
950.386967	2525.618077
950.688054	2419.753846
950.989103	2523.097500
951.290114	2500.412308
951.591087	2553.344423
951.892021	2507.974038
952.192917	2379.424615
952.493776	2354.218846
952.794596	2475.206538
953.095378	2485.288846
953.396122	2507.974038
953.696828	2475.206538
953.997496	2513.015192
954.298126	2472.685962
954.598718	2462.603654
954.899272	2437.397885
955.199788	2442.439038
955.500266	2450.000769
955.800706	2565.947308
956.101108	2576.029615
956.401472	2497.891731
956.701798	2460.083077
957.002087	2475.206538
957.302337	2528.138654
957.602550	2543.262115
957.902724	2482.768269
958.202861	2535.700385
958.502960	2452.521346
958.803022	2497.891731
959.103045	2450.000769
959.403031	2596.194231
959.702979	2502.932885
960.002889	2525.618077
960.302762	2598.714808
960.602596	2450.000769
960.902393	2533.179808
961.202153	2470.165385
961.501875	2442.439038
961.801559	2477.727115
962.101205	2505.453462
962.400814	2576.029615
962.700385	2570.988462
962.999918	2490.330000
963.299414	2513.015192
963.598873	2538.220962
963.898293	2457.562500
964.197677	2535.700385
964.497022	2500.412308
964.796331	2444.959615
965.095601	2497.891731
965.394835	2442.439038
965.694030	2492.850577
965.993189	2540.741538
966.292309	2482.768269
966.591393	2533.179808
966.890439	2465.124231
967.189447	2505.453462
967.488419	2570.988462
967.787353	2379.424615
968.086249	2444.959615
968.385108	2442.439038
968.683930	2492.850577
968.982714	2540.741538
969.281462	2460.083077
969.580172	2502.932885
969.878844	2460.083077
970.177480	2510.494615
970.476078	2560.906154
970.774639	2460.083077
971.073162	2540.741538
971.371649	2515.535769
971.670098	2565.947308
971.968510	2596.194231
972.266885	2520.576923
972.565223	2490.330000
972.863524	2417.233269
973.161788	2528.138654
973.460014	2392.027500
973.758204	2439.918462
974.056356	2434.877308
974.354471	2502.932885
974.652550	2507.974038
974.950591	2434.877308
975.248595	2434.877308
975.546563	2533.179808
975.844493	2465.124231
976.142386	2518.056346
976.440243	2437.397885
976.738062	2397.068654
977.035845	2465.124231
977.333590	2477.727115
977.631299	2417.233269
977.928971	2492.850577
978.226606	2462.603654
978.524204	2593.673654
978.821765	2402.109808
979.119290	2442.439038
979.416777	2424.795000
979.714228	2520.576923
980.011642	2455.041923
980.309020	2530.659231
980.606360	2434.877308
980.903664	2518.056346
981.200931	2419.753846
981.498162	2507.974038
981.795356	2470.165385
982.092513	2513.015192
982.389633	2518.056346
982.686717	2414.712692
982.983764	2533.179808
983.280775	2495.371154
983.577749	2475.206538
983.874686	2538.220962
984.171587	2477.727115
984.468451	2460.083077
984.765279	2523.097500
985.062070	2462.603654
985.358824	2548.303269
985.655543	2487.809423
985.952224	2490.330000
986.248869	2414.712692
986.545478	2510.494615
986.842050	2482.768269
987.138586	2513.015192
987.435086	2465.124231
987.731549	2538.220962
988.027975	2485.288846
988.324366	2560.906154
988.620719	2535.700385
988.917037	2437.397885
989.213318	2533.179808
989.509563	2427.315577
989.805772	2434.877308
990.101944	2427.315577
990.398080	2492.850577
990.694180	2475.206538
990.990244	2492.850577
991.286271	2422.274423
991.582262	2513.015192
991.878217	2490.330000
992.174136	2462.603654
992.470019	2475.206538
992.765865	2444.959615
993.061676	2379.424615
993.357450	2465.124231
993.653188	2500.412308
993.948890	2462.603654
994.244556	2482.768269
994.540186	2560.906154
994.835780	2412.192115
995.131337	2515.535769
995.426859	2424.795000
995.722345	2495.371154
996.017795	2465.124231
996.313208	2444.959615
996.608586	2381.945192
996.903928	2553.344423
997.199234	2487.809423
997.494504	2502.932885
997.789738	2518.056346
998.084936	2530.659231
998.380099	2535.700385
998.675225	2407.150962
998.970316	2510.494615
999.265371	2462.603654
999.560390	2505.453462
999.855373	2477.727115
1000.150320	2482.768269
1000.445232	2555.865000
1000.740108	2450.000769
1001.034948	2538.220962
1001.329752	2447.480192
1001.624521	2480.247692
1001.919254	2553.344423
1002.213951	2560.906154
1002.508613	2538.220962
1002.803239	2467.644808
1003.097829	2540.741538
1003.392384	2581.070769
1003.686903	2424.795000
1003.981386	2457.562500
1004.275834	2482.768269
1004.570246	2510.494615
1004.864623	2460.083077
1005.158964	2477.727115
1005.453270	2477.727115
1005.747540	2560.906154
1006.041775	2485.288846
1006.335974	2520.576923
1006.630138	2417.233269
1006.924266	2538.220962
1007.218359	2439.918462
1007.512416	2412.192115
1007.806438	2465.124231
1008.100425	2447.480192
1008.394376	2513.015192
1008.688292	2429.836154
1008.982172	2530.659231
1009.276017	2533.179808
1009.569827	2548.303269
1009.863602	2460.083077
1010.157341	2565.947308
1010.451045	2439.918462
1010.744714	2495.371154
1011.038347	2412.192115
1011.331945	2460.083077
1011.625508	2502.932885
1011.919036	2500.412308
1012.212528	2447.480192
1012.505986	2495.371154
1012.799408	2460.083077
1013.092795	2520.576923
1013.386147	2535.700385
1013.679464	2558.385577
1013.972745	2513.015192
1014.265992	2424.795000
1014.559204	2480.247692
1014.852380	2407.150962
1015.145521	2513.015192
1015.438628	2520.576923
1015.731699	2467.644808
1016.024736	2570.988462
1016.317737	2467.644808
1016.610703	2490.330000
1016.903635	2530.659231
1017.196531	2482.768269
1017.489393	2490.330000
1017.782219	2578.550192
1018.075011	2460.083077
1018.367768	2505.453462
1018.660490	2560.906154
1018.953177	2560.906154
1019.245829	2560.906154
