Dividing Wavelength (nm)	Counts (n)	Blue Motor Position (mm): 3.100000	Red Motor Position (mm): 0.000000	
326.493990	2071.914231
326.888308	2071.914231
327.282561	2071.914231
327.676750	2099.640577
328.070874	2051.749615
328.464933	2099.640577
328.858929	2127.366923
329.252859	2109.722885
329.646726	2157.613846
330.040528	2104.681731
330.434265	2061.831923
330.827938	2076.955385
331.221547	2147.531538
331.615091	2213.066538
332.008571	2165.175577
332.401986	2165.175577
332.795338	2238.272308
333.188625	2228.190000
333.581847	2255.916346
333.975006	2356.739423
334.368100	2281.122115
334.761129	2369.342308
335.154095	2374.383462
335.546996	2351.698269
335.939833	2311.369038
336.332606	2419.753846
336.725315	2369.342308
337.117960	2381.945192
337.510540	2344.136538
337.903056	2399.589231
338.295508	2434.877308
338.687896	2460.083077
339.080220	2530.659231
339.472480	2528.138654
339.864676	2429.836154
340.256807	2447.480192
340.648875	2460.083077
341.040879	2470.165385
341.432818	2502.932885
341.824694	2480.247692
342.216506	2467.644808
342.608253	2460.083077
342.999937	2475.206538
343.391557	2581.070769
343.783113	2596.194231
344.174605	2427.315577
344.566033	2465.124231
344.957397	2472.685962
345.348697	2495.371154
345.739934	2437.397885
346.131106	2452.521346
346.522215	2487.809423
346.913260	2540.741538
347.304241	2492.850577
347.695159	2507.974038
348.086012	2434.877308
348.476802	2437.397885
348.867528	2520.576923
349.258191	2510.494615
349.648789	2578.550192
350.039324	2432.356731
350.429796	2507.974038
350.820203	2470.165385
351.210548	2485.288846
351.600828	2492.850577
351.991045	2500.412308
352.381198	2432.356731
352.771288	2465.124231
353.161314	2412.192115
353.551276	2450.000769
353.941175	2535.700385
354.331010	2444.959615
354.720782	2417.233269
355.110490	2374.383462
355.500135	2379.424615
355.889717	2497.891731
356.279235	2457.562500
356.668689	2472.685962
357.058080	2432.356731
357.447408	2399.589231
357.836672	2422.274423
358.225873	2507.974038
358.615010	2455.041923
359.004084	2409.671538
359.393095	2439.918462
359.782043	2460.083077
360.170927	2392.027500
360.559748	2487.809423
360.948505	2429.836154
361.337199	2460.083077
361.725830	2424.795000
362.114398	2404.630385
362.502903	2336.574808
362.891344	2450.000769
363.279722	2510.494615
363.668037	2487.809423
364.056289	2361.780577
364.444478	2467.644808
364.832603	2455.041923
365.220665	2505.453462
365.608665	2513.015192
365.996601	2369.342308
366.384474	2477.727115
366.772284	2452.521346
367.160031	2482.768269
367.547715	2465.124231
367.935336	2470.165385
368.322893	2452.521346
368.710388	2495.371154
369.097820	2470.165385
369.485189	2467.644808
369.872495	2495.371154
370.259738	2485.288846
370.646918	2472.685962
371.034035	2460.083077
371.421090	2462.603654
371.808081	2533.179808
372.195010	2447.480192
372.581875	2434.877308
372.968678	2490.330000
373.355418	2525.618077
373.742096	2429.836154
374.128710	2371.862885
374.515262	2523.097500
374.901751	2414.712692
375.288177	2497.891731
375.674540	2545.782692
376.060841	2444.959615
376.447079	2505.453462
376.833254	2427.315577
377.219367	2407.150962
377.605417	2457.562500
377.991404	2452.521346
378.377329	2427.315577
378.763191	2472.685962
379.148991	2482.768269
379.534727	2502.932885
379.920402	2480.247692
380.306013	2417.233269
380.691563	2439.918462
381.077049	2409.671538
381.462474	2455.041923
381.847835	2475.206538
382.233134	2492.850577
382.618371	2455.041923
383.003545	2530.659231
383.388657	2513.015192
383.773706	2502.932885
384.158693	2429.836154
384.543618	2417.233269
384.928480	2455.041923
385.313280	2475.206538
385.698017	2485.288846
386.082692	2485.288846
386.467305	2543.262115
386.851856	2528.138654
387.236344	2472.685962
387.620770	2548.303269
388.005133	2492.850577
388.389435	2404.630385
388.773674	2331.533654
389.157851	2505.453462
389.541965	2457.562500
389.926018	2434.877308
390.310008	2472.685962
390.693936	2505.453462
391.077802	2548.303269
391.461606	2492.850577
391.845348	2528.138654
392.229027	2480.247692
392.612645	2518.056346
392.996200	2402.109808
393.379694	2510.494615
393.763125	2402.109808
394.146494	2505.453462
394.529801	2518.056346
394.913047	2530.659231
395.296230	2475.206538
395.679351	2460.083077
396.062410	2452.521346
396.445408	2573.509038
396.828343	2550.823846
397.211217	2402.109808
397.594028	2520.576923
397.976778	2475.206538
398.359466	2419.753846
398.742092	2450.000769
399.124656	2485.288846
399.507158	2475.206538
399.889598	2477.727115
400.271977	2485.288846
400.654294	2510.494615
401.036549	2432.356731
401.418742	2452.521346
401.800874	2477.727115
402.182944	2472.685962
402.564952	2500.412308
402.946898	2389.506923
403.328783	2465.124231
403.710606	2437.397885
404.092367	2460.083077
404.474067	2485.288846
404.855705	2550.823846
405.237282	2457.562500
405.618797	2518.056346
406.000250	2485.288846
406.381642	2533.179808
406.762972	2586.111923
407.144240	2477.727115
407.525447	2518.056346
407.906593	2381.945192
408.287677	2460.083077
408.668700	2497.891731
409.049661	2553.344423
409.430560	2462.603654
409.811399	2530.659231
410.192176	2439.918462
410.572891	2386.986346
410.953545	2444.959615
411.334138	2359.260000
411.714669	2470.165385
412.095139	2460.083077
412.475547	2528.138654
412.855894	2518.056346
413.236180	2399.589231
413.616405	2460.083077
413.996568	2545.782692
414.376670	2442.439038
414.756711	2402.109808
415.136691	2434.877308
415.516609	2414.712692
415.896466	2371.862885
416.276262	2439.918462
416.655997	2510.494615
417.035670	2477.727115
417.415283	2507.974038
417.794834	2505.453462
418.174324	2460.083077
418.553753	2515.535769
418.933121	2482.768269
419.312428	2452.521346
419.691674	2467.644808
420.070859	2510.494615
420.449983	2472.685962
420.829045	2520.576923
421.208047	2500.412308
421.586988	2467.644808
421.965867	2389.506923
422.344686	2465.124231
422.723444	2434.877308
423.102141	2505.453462
423.480777	2507.974038
423.859352	2409.671538
424.237866	2457.562500
424.616319	2422.274423
424.994712	2422.274423
425.373044	2502.932885
425.751314	2450.000769
426.129524	2442.439038
426.507673	2560.906154
426.885762	2444.959615
427.263789	2490.330000
427.641756	2485.288846
428.019662	2545.782692
428.397508	2515.535769
428.775292	2447.480192
429.153016	2470.165385
429.530679	2507.974038
429.908282	2553.344423
430.285824	2497.891731
430.663305	2553.344423
431.040726	2505.453462
431.418086	2603.755962
431.795385	2475.206538
432.172624	2462.603654
432.549802	2444.959615
432.926920	2513.015192
433.303977	2465.124231
433.680974	2482.768269
434.057910	2525.618077
434.434786	2437.397885
434.811601	2515.535769
435.188355	2412.192115
435.565050	2515.535769
435.941683	2563.426731
436.318257	2487.809423
436.694770	2472.685962
437.071222	2505.453462
437.447614	2472.685962
437.823946	2475.206538
438.200218	2502.932885
438.576429	2480.247692
438.952580	2553.344423
439.328670	2490.330000
439.704700	2452.521346
440.080670	2429.836154
440.456580	2500.412308
440.832429	2570.988462
441.208218	2329.013077
441.583947	2570.988462
441.959616	2470.165385
442.335224	2490.330000
442.710773	2455.041923
443.086261	2480.247692
443.461689	2429.836154
443.837057	2535.700385
444.212365	2480.247692
444.587612	2553.344423
444.962800	2570.988462
445.337927	2460.083077
445.712995	2533.179808
446.088002	2550.823846
446.462949	2550.823846
446.837837	2495.371154
447.212664	2560.906154
447.587431	2475.206538
447.962139	2555.865000
448.336786	2555.865000
448.711374	2447.480192
449.085901	2434.877308
449.460369	2487.809423
449.834776	2497.891731
450.209124	2417.233269
450.583412	2518.056346
450.957640	2422.274423
451.331808	2477.727115
451.705917	2477.727115
452.079965	2477.727115
452.453954	2467.644808
452.827883	2485.288846
453.201752	2523.097500
453.575562	2437.397885
453.949311	2528.138654
454.323001	2518.056346
454.696632	2417.233269
455.070202	2540.741538
455.443713	2427.315577
455.817164	2452.521346
456.190556	2407.150962
456.563888	2523.097500
456.937160	2404.630385
457.310373	2457.562500
457.683526	2535.700385
458.056619	2386.986346
458.429653	2576.029615
458.802628	2507.974038
459.175542	2402.109808
459.548398	2538.220962
459.921194	2477.727115
460.293930	2523.097500
460.666607	2407.150962
461.039224	2475.206538
461.411782	2513.015192
461.784280	2507.974038
462.156719	2485.288846
462.529099	2432.356731
462.901419	2437.397885
463.273680	2490.330000
463.645882	2407.150962
464.018024	2533.179808
464.390106	2470.165385
464.762130	2502.932885
465.134094	2510.494615
465.505999	2528.138654
465.877845	2530.659231
466.249631	2465.124231
466.621358	2455.041923
466.993026	2434.877308
467.364634	2513.015192
467.736184	2475.206538
468.107674	2548.303269
468.479105	2487.809423
468.850477	2467.644808
469.221790	2505.453462
469.593043	2497.891731
469.964238	2518.056346
470.335373	2467.644808
470.706449	2558.385577
471.077467	2477.727115
471.448425	2513.015192
471.819324	2573.509038
472.190164	2472.685962
472.560945	2477.727115
472.931667	2502.932885
473.302330	2515.535769
473.672934	2530.659231
474.043479	2485.288846
474.413965	2432.356731
474.784393	2444.959615
475.154761	2553.344423
475.525070	2500.412308
475.895321	2518.056346
476.265513	2475.206538
476.635645	2513.015192
477.005719	2434.877308
477.375734	2565.947308
477.745691	2518.056346
478.115588	2397.068654
478.485427	2505.453462
478.855207	2467.644808
479.224928	2437.397885
479.594591	2543.262115
479.964194	2492.850577
480.333739	2513.015192
480.703226	2553.344423
481.072653	2477.727115
481.442022	2470.165385
481.811333	2470.165385
482.180584	2520.576923
482.549777	2490.330000
482.918912	2573.509038
483.287988	2480.247692
483.657005	2535.700385
484.025964	2515.535769
484.394864	2520.576923
484.763706	2515.535769
485.132489	2525.618077
485.501213	2528.138654
485.869879	2452.521346
486.238487	2515.535769
486.607036	2417.233269
486.975527	2639.044038
487.343959	2528.138654
487.712333	2621.400000
488.080648	2583.591346
488.448905	2452.521346
488.817104	2477.727115
489.185244	2472.685962
489.553326	2424.795000
489.921350	2495.371154
490.289315	2480.247692
490.657222	2528.138654
491.025070	2576.029615
491.392861	2457.562500
491.760593	2502.932885
492.128267	2520.576923
492.495883	2518.056346
492.863440	2437.397885
493.230939	2558.385577
493.598380	2520.576923
493.965763	2389.506923
494.333088	2518.056346
494.700354	2467.644808
495.067563	2543.262115
495.434713	2525.618077
495.801805	2470.165385
496.168839	2533.179808
496.535815	2472.685962
496.902733	2510.494615
497.269593	2568.467885
497.636395	2500.412308
498.003139	2535.700385
498.369825	2465.124231
498.736453	2535.700385
499.103023	2568.467885
499.469535	2490.330000
499.835989	2502.932885
500.202385	2492.850577
500.568723	2568.467885
500.935003	2442.439038
501.301226	2480.247692
501.667390	2480.247692
502.033497	2510.494615
502.399546	2447.480192
502.765537	2490.330000
503.131470	2525.618077
503.497345	2485.288846
503.863163	2419.753846
504.228923	2558.385577
504.594625	2550.823846
504.960269	2467.644808
505.325856	2513.015192
505.691385	2404.630385
506.056856	2553.344423
506.422270	2545.782692
506.787625	2442.439038
507.152924	2495.371154
507.518164	2533.179808
507.883347	2550.823846
508.248472	2492.850577
508.613540	2560.906154
508.978550	2548.303269
509.343503	2455.041923
509.708398	2500.412308
510.073236	2495.371154
510.438016	2470.165385
510.802738	2528.138654
511.167403	2502.932885
511.532010	2404.630385
511.896561	2477.727115
512.261053	2444.959615
512.625488	2573.509038
512.989866	2530.659231
513.354186	2533.179808
513.718449	2523.097500
514.082655	2472.685962
514.446803	2490.330000
514.810894	2389.506923
515.174927	2570.988462
515.538904	2450.000769
515.902822	2465.124231
516.266684	2419.753846
516.630488	2515.535769
516.994235	2450.000769
517.357925	2389.506923
517.721558	2487.809423
518.085133	2455.041923
518.448651	2513.015192
518.812112	2480.247692
519.175516	2530.659231
519.538863	2442.439038
519.902152	2397.068654
520.265385	2560.906154
520.628560	2419.753846
520.991678	2530.659231
521.354739	2490.330000
521.717743	2467.644808
522.080690	2565.947308
522.443580	2525.618077
522.806413	2525.618077
523.169189	2424.795000
523.531908	2447.480192
523.894569	2502.932885
524.257174	2548.303269
524.619722	2583.591346
524.982213	2563.426731
525.344647	2437.397885
525.707025	2495.371154
526.069345	2422.274423
526.431608	2525.618077
526.793815	2419.753846
527.155964	2452.521346
527.518057	2507.974038
527.880093	2520.576923
528.242072	2457.562500
528.603995	2465.124231
528.965860	2460.083077
529.327669	2467.644808
529.689421	2540.741538
530.051117	2502.932885
530.412755	2502.932885
530.774337	2495.371154
531.135862	2457.562500
531.497331	2545.782692
531.858743	2450.000769
532.220098	2475.206538
532.581396	2553.344423
532.942638	2507.974038
533.303824	2457.562500
533.664953	2530.659231
534.026025	2507.974038
534.387040	2505.453462
534.747999	2452.521346
535.108902	2518.056346
535.469748	2495.371154
535.830537	2477.727115
536.191270	2442.439038
536.551947	2525.618077
536.912567	2467.644808
537.273131	2497.891731
537.633638	2533.179808
537.994089	2485.288846
538.354483	2422.274423
538.714821	2442.439038
539.075103	2492.850577
539.435328	2520.576923
539.795497	2442.439038
540.155609	2444.959615
540.515665	2439.918462
540.875665	2520.576923
541.235609	2455.041923
541.595496	2475.206538
541.955328	2457.562500
542.315102	2475.206538
542.674821	2465.124231
543.034483	2507.974038
543.394090	2447.480192
543.753640	2513.015192
544.113134	2462.603654
544.472571	2548.303269
544.831953	2427.315577
545.191278	2533.179808
545.550548	2500.412308
545.909761	2495.371154
546.268918	2513.015192
546.628019	2487.809423
546.987064	2520.576923
547.346053	2485.288846
547.704986	2518.056346
548.063863	2490.330000
548.422684	2386.986346
548.781449	2535.700385
549.140158	2528.138654
549.498811	2583.591346
549.857408	2581.070769
550.215949	2497.891731
550.574434	2417.233269
550.932864	2528.138654
551.291237	2455.041923
551.649555	2500.412308
552.007817	2462.603654
552.366022	2507.974038
552.724173	2482.768269
553.082267	2538.220962
553.440305	2550.823846
553.798288	2414.712692
554.156215	2417.233269
554.514086	2500.412308
554.871902	2523.097500
555.229661	2570.988462
555.587365	2447.480192
555.945014	2447.480192
556.302606	2525.618077
556.660143	2495.371154
557.017625	2439.918462
557.375050	2422.274423
557.732421	2533.179808
558.089735	2477.727115
558.446994	2462.603654
558.804197	2460.083077
559.161345	2475.206538
559.518437	2439.918462
559.875474	2502.932885
560.232455	2465.124231
560.589381	2424.795000
560.946251	2452.521346
561.303065	2470.165385
561.659825	2460.083077
562.016528	2528.138654
562.373177	2487.809423
562.729770	2520.576923
563.086307	2510.494615
563.442789	2480.247692
563.799216	2553.344423
564.155587	2513.015192
564.511904	2424.795000
564.868164	2510.494615
565.224370	2389.506923
565.580520	2500.412308
565.936615	2520.576923
566.292654	2477.727115
566.648638	2444.959615
567.004567	2404.630385
567.360441	2505.453462
567.716260	2424.795000
568.072023	2467.644808
568.427732	2442.439038
568.783385	2497.891731
569.138982	2502.932885
569.494525	2523.097500
569.850013	2492.850577
570.205445	2500.412308
570.560823	2558.385577
570.916145	2520.576923
571.271412	2480.247692
571.626625	2475.206538
571.981782	2485.288846
572.336884	2462.603654
572.691931	2424.795000
573.046923	2545.782692
573.401860	2462.603654
573.756743	2528.138654
574.111570	2470.165385
574.466342	2452.521346
574.821059	2513.015192
575.175722	2565.947308
575.530330	2487.809423
575.884882	2505.453462
576.239380	2480.247692
576.593823	2424.795000
576.948211	2462.603654
577.302544	2467.644808
577.656823	2452.521346
578.011047	2515.535769
578.365216	2553.344423
578.719330	2485.288846
579.073389	2518.056346
579.427394	2455.041923
579.781344	2412.192115
580.135239	2495.371154
580.489080	2477.727115
580.842866	2507.974038
581.196597	2487.809423
581.550273	2465.124231
581.903895	2492.850577
582.257463	2487.809423
582.610975	2533.179808
582.964434	2462.603654
583.317837	2492.850577
583.671186	2470.165385
584.024481	2492.850577
584.377721	2515.535769
584.730906	2500.412308
585.084037	2460.083077
585.437113	2429.836154
585.790135	2480.247692
586.143103	2452.521346
586.496016	2570.988462
586.848874	2535.700385
587.201679	2510.494615
587.554428	2450.000769
587.907124	2505.453462
588.259765	2475.206538
588.612352	2502.932885
588.964884	2505.453462
589.317362	2576.029615
589.669786	2452.521346
590.022155	2497.891731
590.374470	2510.494615
590.726731	2518.056346
591.078937	2482.768269
591.431090	2485.288846
591.783188	2477.727115
592.135232	2490.330000
592.487222	2477.727115
592.839157	2505.453462
593.191038	2452.521346
593.542866	2487.809423
593.894639	2555.865000
594.246358	2507.974038
594.598022	2482.768269
594.949633	2525.618077
595.301190	2497.891731
595.652692	2487.809423
596.004141	2553.344423
596.355535	2475.206538
596.706876	2447.480192
597.058162	2528.138654
597.409395	2477.727115
597.760573	2475.206538
598.111698	2533.179808
598.462768	2563.426731
598.813785	2472.685962
599.164748	2553.344423
599.515657	2477.727115
599.866511	2475.206538
600.217312	2515.535769
600.568060	2475.206538
600.918753	2515.535769
601.269392	2507.974038
601.619978	2477.727115
601.970510	2452.521346
602.320988	2523.097500
602.671412	2447.480192
603.021783	2497.891731
603.372100	2442.439038
603.722363	2500.412308
604.072572	2525.618077
604.422728	2598.714808
604.772830	2412.192115
605.122878	2525.618077
605.472872	2384.465769
605.822813	2361.780577
606.172701	2543.262115
606.522534	2480.247692
606.872314	2457.562500
607.222041	2523.097500
607.571714	2550.823846
607.921333	2470.165385
608.270899	2444.959615
608.620411	2467.644808
608.969870	2475.206538
609.319276	2444.959615
609.668627	2510.494615
610.017926	2523.097500
610.367171	2659.208654
610.716362	2412.192115
611.065500	2568.467885
611.414585	2490.330000
611.763616	2495.371154
612.112594	2462.603654
612.461518	2495.371154
612.810389	2477.727115
613.159207	2505.453462
613.507971	2548.303269
613.856682	2510.494615
614.205340	2533.179808
614.553945	2543.262115
614.902496	2507.974038
615.250994	2558.385577
615.599439	2500.412308
615.947830	2550.823846
616.296169	2450.000769
616.644454	2452.521346
616.992686	2548.303269
617.340864	2520.576923
617.688990	2530.659231
618.037063	2586.111923
618.385082	2434.877308
618.733048	2583.591346
619.080961	2570.988462
619.428821	2460.083077
619.776628	2502.932885
620.124382	2573.509038
620.472083	2525.618077
620.819731	2530.659231
621.167326	2525.618077
621.514868	2530.659231
621.862357	2480.247692
622.209793	2513.015192
622.557176	2550.823846
622.904506	2452.521346
623.251783	2414.712692
623.599007	2450.000769
623.946179	2540.741538
624.293297	2475.206538
624.640363	2540.741538
624.987376	2487.809423
625.334336	2576.029615
625.681243	2465.124231
626.028097	2492.850577
626.374899	2475.206538
626.721647	2523.097500
627.068343	2442.439038
627.414987	2437.397885
627.761577	2515.535769
628.108115	2452.521346
628.454600	2444.959615
628.801032	2480.247692
629.147412	2553.344423
629.493739	2528.138654
629.840014	2490.330000
630.186236	2568.467885
630.532405	2495.371154
630.878521	2450.000769
631.224585	2417.233269
631.570597	2515.535769
631.916556	2487.809423
632.262462	2568.467885
632.608316	2470.165385
632.954117	2568.467885
633.299866	2422.274423
633.645562	2502.932885
633.991206	2538.220962
634.336797	2520.576923
634.682336	2548.303269
635.027823	2545.782692
635.373257	2429.836154
635.718639	2477.727115
636.063968	2525.618077
636.409245	2492.850577
636.754470	2477.727115
637.099642	2455.041923
637.444762	2467.644808
637.789829	2563.426731
638.134845	2424.795000
638.479808	2518.056346
638.824719	2487.809423
639.169577	2608.797115
639.514383	2379.424615
639.859137	2477.727115
640.203839	2523.097500
640.548489	2528.138654
640.893086	2422.274423
641.237632	2424.795000
641.582125	2457.562500
641.926566	2485.288846
642.270955	2634.002885
642.615292	2455.041923
642.959576	2507.974038
643.303809	2457.562500
643.647990	2487.809423
643.992118	2455.041923
644.336195	2487.809423
644.680219	2447.480192
645.024192	2513.015192
645.368112	2472.685962
645.711981	2548.303269
646.055797	2447.480192
646.399562	2472.685962
646.743274	2465.124231
647.086935	2490.330000
647.430544	2457.562500
647.774101	2533.179808
648.117606	2450.000769
648.461059	2492.850577
648.804460	2520.576923
649.147810	2447.480192
649.491108	2439.918462
649.834354	2460.083077
650.177548	2505.453462
650.520690	2444.959615
650.863781	2523.097500
651.206820	2475.206538
651.549807	2465.124231
651.892742	2477.727115
652.235626	2447.480192
652.578458	2470.165385
652.921238	2462.603654
653.263967	2598.714808
653.606644	2452.521346
653.949269	2588.632500
654.291843	2465.124231
654.634365	2480.247692
654.976836	2513.015192
655.319255	2591.153077
655.661622	2487.809423
656.003938	2412.192115
656.346203	2525.618077
656.688416	2490.330000
657.030577	2495.371154
657.372687	2528.138654
657.714746	2505.453462
658.056753	2502.932885
658.398708	2535.700385
658.740612	2447.480192
659.082465	2528.138654
659.424266	2502.932885
659.766016	2495.371154
660.107715	2462.603654
660.449362	2573.509038
660.790958	2447.480192
661.132503	2555.865000
661.473996	2634.002885
661.815438	2434.877308
662.156829	2485.288846
662.498168	2573.509038
662.839456	2462.603654
663.180693	2520.576923
663.521879	2497.891731
663.863013	2513.015192
664.204097	2530.659231
664.545129	2530.659231
664.886110	2364.301154
665.227040	2462.603654
665.567918	2480.247692
665.908746	2515.535769
666.249522	2525.618077
666.590248	2593.673654
666.930922	2510.494615
667.271545	2535.700385
667.612118	2533.179808
667.952639	2497.891731
668.293109	2525.618077
668.633528	2510.494615
668.973896	2538.220962
669.314213	2424.795000
669.654480	2598.714808
669.994695	2538.220962
670.334859	2520.576923
670.674973	2482.768269
671.015035	2462.603654
671.355047	2487.809423
671.695008	2507.974038
672.034918	2601.235385
672.374777	2470.165385
672.714585	2394.548077
673.054342	2548.303269
673.394049	2578.550192
673.733705	2470.165385
674.073310	2505.453462
674.412864	2502.932885
674.752368	2447.480192
675.091820	2467.644808
675.431223	2450.000769
675.770574	2507.974038
676.109875	2455.041923
676.449125	2528.138654
676.788324	2417.233269
677.127473	2490.330000
677.466571	2417.233269
677.805619	2492.850577
678.144616	2492.850577
678.483562	2422.274423
678.822458	2510.494615
679.161303	2543.262115
679.500098	2434.877308
679.838842	2520.576923
680.177535	2455.041923
680.516179	2470.165385
680.854771	2530.659231
681.193314	2412.192115
681.531805	2495.371154
681.870247	2523.097500
682.208638	2409.671538
682.546978	2455.041923
682.885268	2444.959615
683.223508	2518.056346
683.561697	2465.124231
683.899836	2510.494615
684.237925	2558.385577
684.575963	2392.027500
684.913951	2477.727115
685.251889	2452.521346
685.589776	2515.535769
685.927614	2553.344423
686.265401	2394.548077
686.603137	2507.974038
686.940824	2500.412308
687.278460	2578.550192
687.616046	2439.918462
687.953582	2553.344423
688.291068	2467.644808
688.628504	2439.918462
688.965889	2422.274423
689.303224	2455.041923
689.640510	2475.206538
689.977745	2608.797115
690.314930	2510.494615
690.652065	2520.576923
690.989150	2558.385577
691.326185	2452.521346
691.663170	2518.056346
692.000105	2409.671538
692.336990	2439.918462
692.673825	2442.439038
693.010610	2530.659231
693.347345	2523.097500
693.684030	2520.576923
694.020665	2414.712692
694.357251	2515.535769
694.693786	2475.206538
695.030272	2540.741538
695.366707	2525.618077
695.703093	2538.220962
696.039429	2467.644808
696.375716	2568.467885
696.711952	2455.041923
697.048139	2492.850577
697.384276	2513.015192
697.720363	2502.932885
698.056400	2603.755962
698.392388	2518.056346
698.728326	2495.371154
699.064214	2439.918462
699.400053	2460.083077
699.735842	2565.947308
700.071581	2553.344423
700.407270	2558.385577
700.742910	2515.535769
701.078501	2525.618077
701.414042	2533.179808
701.749533	2560.906154
702.084974	2573.509038
702.420366	2482.768269
702.755709	2497.891731
703.091002	2555.865000
703.426246	2480.247692
703.761440	2515.535769
704.096584	2505.453462
704.431679	2523.097500
704.766725	2442.439038
705.101721	2540.741538
705.436668	2578.550192
705.771565	2452.521346
706.106413	2450.000769
706.441212	2444.959615
706.775961	2520.576923
707.110661	2548.303269
707.445311	2434.877308
707.779913	2399.589231
708.114465	2538.220962
708.448967	2601.235385
708.783421	2432.356731
709.117825	2523.097500
709.452180	2540.741538
709.786485	2477.727115
710.120742	2490.330000
710.454949	2399.589231
710.789107	2495.371154
711.123216	2465.124231
711.457275	2477.727115
711.791286	2515.535769
712.125247	2490.330000
712.459159	2472.685962
712.793023	2553.344423
713.126837	2437.397885
713.460602	2659.208654
713.794318	2505.453462
714.127985	2465.124231
714.461602	2510.494615
714.795171	2497.891731
715.128691	2457.562500
715.462162	2447.480192
715.795584	2513.015192
716.128957	2616.358846
716.462281	2452.521346
716.795556	2467.644808
717.128782	2432.356731
717.461960	2515.535769
717.795088	2518.056346
718.128167	2535.700385
718.461198	2573.509038
718.794180	2480.247692
719.127113	2568.467885
719.459997	2482.768269
719.792833	2492.850577
720.125619	2439.918462
720.458357	2470.165385
720.791046	2452.521346
721.123686	2530.659231
721.456278	2535.700385
721.788821	2550.823846
722.121315	2434.877308
722.453761	2505.453462
722.786158	2540.741538
723.118506	2492.850577
723.450805	2455.041923
723.783056	2482.768269
724.115259	2482.768269
724.447412	2480.247692
724.779518	2450.000769
725.111574	2548.303269
725.443582	2530.659231
725.775542	2510.494615
726.107453	2359.260000
726.439315	2505.453462
726.771129	2467.644808
727.102895	2485.288846
727.434612	2450.000769
727.766281	2525.618077
728.097901	2507.974038
728.429473	2457.562500
728.760996	2513.015192
729.092471	2434.877308
729.423897	2523.097500
729.755276	2417.233269
730.086606	2487.809423
730.417887	2460.083077
730.749120	2417.233269
731.080305	2485.288846
731.411442	2447.480192
731.742530	2563.426731
732.073570	2525.618077
732.404562	2402.109808
732.735506	2407.150962
733.066401	2477.727115
733.397249	2510.494615
733.728048	2523.097500
734.058798	2429.836154
734.389501	2462.603654
734.720156	2533.179808
735.050762	2505.453462
735.381320	2505.453462
735.711831	2399.589231
736.042293	2470.165385
736.372707	2495.371154
736.703073	2553.344423
737.033391	2482.768269
737.363661	2515.535769
737.693883	2485.288846
738.024056	2497.891731
738.354182	2424.795000
738.684260	2470.165385
739.014290	2513.015192
739.344272	2528.138654
739.674207	2442.439038
740.004093	2543.262115
740.333931	2465.124231
740.663722	2424.795000
740.993464	2462.603654
741.323159	2429.836154
741.652806	2545.782692
741.982405	2487.809423
742.311956	2472.685962
742.641460	2450.000769
742.970915	2515.535769
743.300323	2492.850577
743.629683	2598.714808
743.958996	2404.630385
744.288260	2555.865000
744.617477	2507.974038
744.946647	2439.918462
745.275768	2412.192115
745.604842	2487.809423
745.933869	2502.932885
746.262847	2543.262115
746.591778	2485.288846
746.920662	2565.947308
747.249498	2507.974038
747.578286	2485.288846
747.907027	2409.671538
748.235720	2467.644808
748.564365	2533.179808
748.892963	2487.809423
749.221514	2472.685962
749.550017	2515.535769
749.878473	2442.439038
750.206881	2404.630385
750.535242	2477.727115
750.863555	2500.412308
751.191821	2497.891731
751.520039	2500.412308
751.848210	2538.220962
752.176334	2523.097500
752.504411	2439.918462
752.832440	2507.974038
753.160421	2495.371154
753.488356	2457.562500
753.816243	2505.453462
754.144082	2480.247692
754.471875	2563.426731
754.799620	2487.809423
755.127318	2472.685962
755.454969	2568.467885
755.782572	2490.330000
756.110129	2450.000769
756.437638	2523.097500
756.765100	2510.494615
757.092515	2513.015192
757.419882	2500.412308
757.747203	2545.782692
758.074477	2495.371154
758.401703	2444.959615
758.728882	2560.906154
759.056014	2560.906154
759.383099	2583.591346
759.710138	2528.138654
760.037129	2518.056346
760.364073	2419.753846
760.690970	2399.589231
761.017820	2475.206538
761.344623	2442.439038
761.671379	2492.850577
761.998088	2555.865000
762.324751	2495.371154
762.651366	2432.356731
762.977935	2460.083077
763.304456	2545.782692
763.630931	2513.015192
763.957359	2467.644808
764.283740	2404.630385
764.610074	2505.453462
764.936362	2472.685962
765.262602	2510.494615
765.588796	2533.179808
765.914943	2392.027500
766.241044	2523.097500
766.567097	2560.906154
766.893104	2439.918462
767.219064	2510.494615
767.544978	2515.535769
767.870845	2460.083077
768.196665	2545.782692
768.522438	2505.453462
768.848165	2535.700385
769.173846	2548.303269
769.499479	2460.083077
769.825066	2447.480192
770.150607	2533.179808
770.476101	2487.809423
770.801548	2507.974038
771.126949	2480.247692
771.452303	2437.397885
771.777611	2490.330000
772.102872	2533.179808
772.428087	2442.439038
772.753256	2510.494615
773.078378	2528.138654
773.403453	2485.288846
773.728482	2424.795000
774.053465	2475.206538
774.378401	2455.041923
774.703291	2392.027500
775.028135	2507.974038
775.352932	2381.945192
775.677683	2497.891731
776.002388	2513.015192
776.327046	2545.782692
776.651658	2502.932885
776.976224	2444.959615
777.300743	2523.097500
777.625216	2450.000769
777.949643	2578.550192
778.274024	2475.206538
778.598359	2528.138654
778.922647	2470.165385
779.246889	2545.782692
779.571086	2422.274423
779.895236	2538.220962
780.219339	2513.015192
780.543397	2460.083077
780.867409	2523.097500
781.191374	2475.206538
781.515294	2568.467885
781.839167	2480.247692
782.162995	2535.700385
782.486776	2480.247692
782.810511	2412.192115
783.134201	2412.192115
783.457844	2460.083077
783.781441	2442.439038
784.104993	2530.659231
784.428498	2510.494615
784.751958	2444.959615
785.075372	2535.700385
785.398739	2429.836154
785.722061	2419.753846
786.045337	2550.823846
786.368568	2518.056346
786.691752	2502.932885
787.014891	2470.165385
787.337983	2510.494615
787.661030	2434.877308
787.984031	2553.344423
788.306987	2470.165385
788.629897	2550.823846
788.952760	2424.795000
789.275579	2507.974038
789.598351	2460.083077
789.921078	2455.041923
790.243759	2429.836154
790.566395	2548.303269
790.888984	2467.644808
791.211529	2525.618077
791.534027	2518.056346
791.856480	2460.083077
792.178888	2442.439038
792.501249	2467.644808
792.823566	2472.685962
793.145836	2502.932885
793.468062	2429.836154
793.790241	2525.618077
794.112375	2497.891731
794.434464	2510.494615
794.756507	2470.165385
795.078505	2495.371154
795.400457	2477.727115
795.722364	2553.344423
796.044226	2460.083077
796.366042	2419.753846
796.687812	2477.727115
797.009538	2548.303269
797.331218	2490.330000
797.652852	2500.412308
797.974442	2444.959615
798.295986	2502.932885
798.617484	2477.727115
798.938938	2530.659231
799.260346	2631.482308
799.581709	2477.727115
799.903026	2424.795000
800.224299	2457.562500
800.545526	2460.083077
800.866708	2520.576923
801.187845	2573.509038
801.508936	2467.644808
801.829983	2422.274423
802.150984	2495.371154
802.471940	2550.823846
802.792851	2525.618077
803.113717	2502.932885
803.434538	2540.741538
803.755314	2472.685962
804.076045	2490.330000
804.396731	2467.644808
804.717372	2470.165385
805.037967	2505.453462
805.358518	2434.877308
805.679024	2470.165385
805.999485	2462.603654
806.319901	2505.453462
806.640272	2548.303269
806.960598	2492.850577
807.280879	2500.412308
807.601115	2490.330000
807.921306	2502.932885
808.241453	2482.768269
808.561554	2389.506923
808.881611	2576.029615
809.201623	2500.412308
809.521590	2540.741538
809.841513	2429.836154
810.161390	2490.330000
810.481223	2487.809423
810.801011	2550.823846
811.120755	2434.877308
811.440453	2560.906154
811.760107	2485.288846
812.079716	2492.850577
812.399281	2535.700385
812.718801	2528.138654
813.038276	2570.988462
813.357707	2467.644808
813.677093	2409.671538
813.996434	2417.233269
814.315731	2472.685962
814.634983	2581.070769
814.954191	2457.562500
815.273354	2505.453462
815.592473	2548.303269
815.911547	2500.412308
816.230577	2515.535769
816.549562	2568.467885
816.868502	2543.262115
817.187399	2538.220962
817.506250	2500.412308
817.825058	2558.385577
818.143821	2513.015192
818.462539	2510.494615
818.781213	2452.521346
819.099843	2550.823846
819.418429	2523.097500
819.736970	2505.453462
820.055466	2495.371154
820.373919	2515.535769
820.692327	2550.823846
821.010691	2520.576923
821.329011	2502.932885
821.647286	2528.138654
821.965517	2518.056346
822.283704	2450.000769
822.601847	2480.247692
822.919945	2530.659231
823.237999	2538.220962
823.556010	2507.974038
823.873976	2495.371154
824.191897	2505.453462
824.509775	2439.918462
824.827609	2573.509038
825.145398	2573.509038
825.463144	2538.220962
825.780845	2492.850577
826.098502	2565.947308
826.416116	2374.383462
826.733685	2520.576923
827.051210	2432.356731
827.368692	2460.083077
827.686129	2543.262115
828.003522	2593.673654
828.320872	2450.000769
828.638177	2490.330000
828.955439	2450.000769
829.272656	2495.371154
829.589830	2409.671538
829.906960	2500.412308
830.224046	2460.083077
830.541088	2510.494615
830.858086	2502.932885
831.175041	2565.947308
831.491952	2439.918462
831.808819	2490.330000
832.125642	2540.741538
832.442421	2439.918462
832.759157	2497.891731
833.075849	2470.165385
833.392497	2465.124231
833.709101	2455.041923
834.025662	2490.330000
834.342179	2472.685962
834.658653	2555.865000
834.975083	2558.385577
835.291469	2487.809423
835.607811	2495.371154
835.924110	2525.618077
836.240366	2533.179808
836.556578	2507.974038
836.872746	2487.809423
837.188871	2513.015192
837.504952	2437.397885
837.820990	2586.111923
838.136984	2472.685962
838.452935	2507.974038
838.768842	2485.288846
839.084706	2513.015192
839.400526	2558.385577
839.716303	2560.906154
840.032037	2518.056346
840.347727	2563.426731
840.663373	2535.700385
840.978977	2447.480192
841.294537	2490.330000
841.610054	2467.644808
841.925527	2540.741538
842.240957	2583.591346
842.556344	2507.974038
842.871687	2485.288846
843.186987	2432.356731
843.502244	2485.288846
843.817458	2475.206538
844.132629	2386.986346
844.447756	2507.974038
844.762840	2576.029615
845.077881	2528.138654
845.392879	2467.644808
845.707833	2477.727115
846.022745	2447.480192
846.337613	2497.891731
846.652438	2442.439038
846.967221	2513.015192
847.281960	2523.097500
847.596656	2442.439038
847.911309	2477.727115
848.225919	2465.124231
848.540485	2475.206538
848.855009	2530.659231
849.169490	2505.453462
849.483928	2497.891731
849.798323	2502.932885
850.112675	2578.550192
850.426984	2434.877308
850.741251	2487.809423
851.055474	2422.274423
851.369654	2465.124231
851.683792	2538.220962
851.997887	2437.397885
852.311938	2477.727115
852.625947	2465.124231
852.939914	2437.397885
853.253837	2558.385577
853.567718	2553.344423
853.881555	2482.768269
854.195350	2523.097500
854.509103	2507.974038
854.822812	2543.262115
855.136479	2500.412308
855.450103	2540.741538
855.763685	2530.659231
856.077224	2578.550192
856.390720	2475.206538
856.704173	2515.535769
857.017584	2495.371154
857.330953	2495.371154
857.644278	2492.850577
857.957561	2502.932885
858.270802	2518.056346
858.584000	2497.891731
858.897155	2553.344423
859.210268	2475.206538
859.523339	2565.947308
859.836367	2487.809423
860.149352	2467.644808
860.462295	2470.165385
860.775195	2472.685962
861.088054	2502.932885
861.400869	2462.603654
861.713642	2447.480192
862.026373	2475.206538
862.339062	2530.659231
862.651708	2485.288846
862.964312	2540.741538
863.276873	2482.768269
863.589392	2523.097500
863.901869	2465.124231
864.214303	2497.891731
864.526696	2480.247692
864.839045	2439.918462
865.151353	2434.877308
865.463619	2492.850577
865.775842	2507.974038
866.088023	2475.206538
866.400162	2495.371154
866.712258	2452.521346
867.024313	2414.712692
867.336325	2523.097500
867.648296	2422.274423
867.960224	2563.426731
868.272110	2535.700385
868.583954	2422.274423
868.895755	2500.412308
869.207515	2586.111923
869.519233	2535.700385
869.830909	2412.192115
870.142542	2545.782692
870.454134	2490.330000
870.765684	2472.685962
871.077191	2462.603654
871.388657	2525.618077
871.700081	2513.015192
872.011463	2545.782692
872.322803	2505.453462
872.634101	2591.153077
872.945357	2457.562500
873.256571	2500.412308
873.567744	2533.179808
873.878874	2497.891731
874.189963	2460.083077
874.501010	2528.138654
874.812015	2409.671538
875.122979	2520.576923
875.433900	2497.891731
875.744780	2565.947308
876.055618	2528.138654
876.366415	2450.000769
876.677169	2465.124231
876.987882	2518.056346
877.298554	2543.262115
877.609183	2528.138654
877.919771	2581.070769
878.230317	2502.932885
878.540822	2528.138654
878.851285	2560.906154
879.161707	2437.397885
879.472087	2505.453462
879.782425	2475.206538
880.092722	2573.509038
880.402977	2465.124231
880.713191	2528.138654
881.023363	2487.809423
881.333494	2482.768269
881.643583	2460.083077
881.953631	2538.220962
882.263637	2518.056346
882.573602	2553.344423
882.883526	2480.247692
883.193408	2460.083077
883.503248	2507.974038
883.813048	2497.891731
884.122806	2465.124231
884.432522	2555.865000
884.742197	2540.741538
885.051831	2487.809423
885.361424	2437.397885
885.670975	2578.550192
885.980485	2452.521346
886.289954	2434.877308
886.599382	2442.439038
886.908768	2482.768269
887.218113	2477.727115
887.527417	2535.700385
887.836680	2533.179808
888.145901	2480.247692
888.455082	2439.918462
888.764221	2528.138654
889.073319	2533.179808
889.382376	2485.288846
889.691392	2470.165385
890.000366	2490.330000
890.309300	2472.685962
890.618193	2510.494615
890.927044	2452.521346
891.235855	2424.795000
891.544625	2470.165385
891.853353	2616.358846
892.162041	2485.288846
892.470687	2399.589231
892.779293	2513.015192
893.087858	2535.700385
893.396381	2452.521346
893.704864	2447.480192
894.013306	2565.947308
894.321707	2470.165385
894.630068	2507.974038
894.938387	2530.659231
895.246665	2492.850577
895.554903	2482.768269
895.863100	2505.453462
896.171256	2502.932885
896.479371	2510.494615
896.787446	2515.535769
897.095480	2450.000769
897.403473	2518.056346
897.711425	2455.041923
898.019336	2490.330000
898.327207	2477.727115
898.635038	2429.836154
898.942827	2528.138654
899.250576	2588.632500
899.558284	2460.083077
899.865952	2296.245577
900.173579	2444.959615
900.481165	2452.521346
900.788711	2518.056346
901.096216	2515.535769
901.403681	2507.974038
901.711105	2452.521346
902.018489	2515.535769
902.325832	2513.015192
902.633135	2513.015192
902.940397	2487.809423
903.247619	2535.700385
903.554800	2457.562500
903.861941	2434.877308
904.169041	2560.906154
904.476101	2518.056346
904.783121	2477.727115
905.090100	2518.056346
905.397039	2502.932885
905.703938	2510.494615
906.010796	2477.727115
906.317614	2528.138654
906.624391	2497.891731
906.931129	2515.535769
907.237826	2434.877308
907.544483	2518.056346
907.851099	2457.562500
908.157675	2492.850577
908.464211	2422.274423
908.770707	2518.056346
909.077163	2412.192115
909.383578	2538.220962
909.689954	2465.124231
909.996289	2480.247692
910.302584	2412.192115
910.608839	2444.959615
910.915054	2543.262115
911.221229	2467.644808
911.527363	2505.453462
911.833458	2439.918462
912.139513	2472.685962
912.445527	2470.165385
912.751502	2518.056346
913.057436	2412.192115
913.363331	2419.753846
913.669186	2394.548077
913.975000	2475.206538
914.280775	2497.891731
914.586510	2455.041923
914.892205	2601.235385
915.197859	2502.932885
915.503475	2528.138654
915.809050	2487.809423
916.114585	2513.015192
916.420081	2515.535769
916.725536	2515.535769
917.030952	2472.685962
917.336328	2487.809423
917.641665	2545.782692
917.946961	2472.685962
918.252218	2497.891731
918.557435	2465.124231
918.862612	2462.603654
919.167750	2482.768269
919.472848	2581.070769
919.777906	2437.397885
920.082925	2518.056346
920.387904	2414.712692
920.692843	2510.494615
920.997743	2429.836154
921.302603	2528.138654
921.607423	2502.932885
921.912204	2523.097500
922.216946	2394.548077
922.521647	2399.589231
922.826310	2487.809423
923.130932	2434.877308
923.435516	2545.782692
923.740059	2427.315577
924.044564	2495.371154
924.349028	2477.727115
924.653454	2507.974038
924.957840	2427.315577
925.262186	2407.150962
925.566493	2518.056346
925.870761	2462.603654
926.174989	2513.015192
926.479178	2412.192115
926.783328	2412.192115
927.087438	2513.015192
927.391509	2470.165385
927.695541	2470.165385
927.999533	2485.288846
928.303486	2455.041923
928.607400	2485.288846
928.911275	2505.453462
929.215110	2576.029615
929.518906	2502.932885
929.822663	2528.138654
930.126381	2452.521346
930.430060	2447.480192
930.733699	2487.809423
931.037299	2434.877308
931.340861	2528.138654
931.644383	2465.124231
931.947866	2518.056346
932.251309	2467.644808
932.554714	2523.097500
932.858080	2402.109808
933.161407	2513.015192
933.464694	2457.562500
933.767943	2467.644808
934.071153	2485.288846
934.374323	2505.453462
934.677455	2581.070769
934.980548	2513.015192
935.283602	2462.603654
935.586617	2487.809423
935.889593	2507.974038
936.192530	2480.247692
936.495428	2555.865000
936.798287	2439.918462
937.101108	2502.932885
937.403890	2427.315577
937.706632	2470.165385
938.009336	2467.644808
938.312002	2465.124231
938.614628	2444.959615
938.917216	2518.056346
939.219765	2500.412308
939.522275	2533.179808
939.824747	2472.685962
940.127179	2402.109808
940.429573	2482.768269
940.731929	2470.165385
941.034246	2434.877308
941.336524	2480.247692
941.638763	2470.165385
941.940964	2439.918462
942.243126	2480.247692
942.545250	2523.097500
942.847335	2545.782692
943.149381	2505.453462
943.451389	2500.412308
943.753359	2505.453462
944.055290	2424.795000
944.357182	2477.727115
944.659036	2422.274423
944.960851	2515.535769
945.262628	2593.673654
945.564367	2487.809423
945.866067	2502.932885
946.167729	2460.083077
946.469352	2381.945192
946.770937	2455.041923
947.072484	2427.315577
947.373992	2404.630385
947.675462	2530.659231
947.976893	2505.453462
948.278286	2457.562500
948.579641	2553.344423
948.880958	2397.068654
949.182236	2515.535769
949.483476	2513.015192
949.784678	2422.274423
950.085841	2444.959615
950.386967	2407.150962
950.688054	2528.138654
950.989103	2480.247692
951.290114	2490.330000
951.591087	2497.891731
951.892021	2482.768269
952.192917	2472.685962
952.493776	2439.918462
952.794596	2505.453462
953.095378	2492.850577
953.396122	2540.741538
953.696828	2520.576923
953.997496	2490.330000
954.298126	2523.097500
954.598718	2505.453462
954.899272	2545.782692
955.199788	2515.535769
955.500266	2465.124231
955.800706	2475.206538
956.101108	2407.150962
956.401472	2442.439038
956.701798	2467.644808
957.002087	2482.768269
957.302337	2523.097500
957.602550	2472.685962
957.902724	2500.412308
958.202861	2467.644808
958.502960	2394.548077
958.803022	2616.358846
959.103045	2500.412308
959.403031	2429.836154
959.702979	2447.480192
960.002889	2487.809423
960.302762	2422.274423
960.602596	2455.041923
960.902393	2414.712692
961.202153	2492.850577
961.501875	2452.521346
961.801559	2510.494615
962.101205	2427.315577
962.400814	2518.056346
962.700385	2485.288846
962.999918	2450.000769
963.299414	2495.371154
963.598873	2462.603654
963.898293	2437.397885
964.197677	2553.344423
964.497022	2505.453462
964.796331	2502.932885
965.095601	2419.753846
965.394835	2523.097500
965.694030	2570.988462
965.993189	2432.356731
966.292309	2505.453462
966.591393	2530.659231
966.890439	2586.111923
967.189447	2555.865000
967.488419	2424.795000
967.787353	2507.974038
968.086249	2439.918462
968.385108	2442.439038
968.683930	2502.932885
968.982714	2502.932885
969.281462	2392.027500
969.580172	2540.741538
969.878844	2495.371154
970.177480	2490.330000
970.476078	2450.000769
970.774639	2460.083077
971.073162	2490.330000
971.371649	2502.932885
971.670098	2475.206538
971.968510	2450.000769
972.266885	2505.453462
972.565223	2525.618077
972.863524	2480.247692
973.161788	2507.974038
973.460014	2500.412308
973.758204	2407.150962
974.056356	2543.262115
974.354471	2515.535769
974.652550	2513.015192
974.950591	2540.741538
975.248595	2523.097500
975.546563	2515.535769
975.844493	2427.315577
976.142386	2495.371154
976.440243	2429.836154
976.738062	2545.782692
977.035845	2487.809423
977.333590	2402.109808
977.631299	2518.056346
977.928971	2555.865000
978.226606	2482.768269
978.524204	2538.220962
978.821765	2429.836154
979.119290	2507.974038
979.416777	2518.056346
979.714228	2565.947308
980.011642	2482.768269
980.309020	2470.165385
980.606360	2583.591346
980.903664	2422.274423
981.200931	2523.097500
981.498162	2465.124231
981.795356	2389.506923
982.092513	2470.165385
982.389633	2500.412308
982.686717	2470.165385
982.983764	2482.768269
983.280775	2495.371154
983.577749	2505.453462
983.874686	2485.288846
984.171587	2505.453462
984.468451	2515.535769
984.765279	2437.397885
985.062070	2507.974038
985.358824	2462.603654
985.655543	2452.521346
985.952224	2588.632500
986.248869	2462.603654
986.545478	2492.850577
986.842050	2500.412308
987.138586	2520.576923
987.435086	2568.467885
987.731549	2424.795000
988.027975	2510.494615
988.324366	2495.371154
988.620719	2465.124231
988.917037	2442.439038
989.213318	2457.562500
989.509563	2545.782692
989.805772	2502.932885
990.101944	2513.015192
990.398080	2560.906154
990.694180	2558.385577
990.990244	2477.727115
991.286271	2475.206538
991.582262	2434.877308
991.878217	2470.165385
992.174136	2442.439038
992.470019	2507.974038
992.765865	2528.138654
993.061676	2437.397885
993.357450	2550.823846
993.653188	2515.535769
993.948890	2462.603654
994.244556	2513.015192
994.540186	2427.315577
994.835780	2535.700385
995.131337	2558.385577
995.426859	2515.535769
995.722345	2505.453462
996.017795	2497.891731
996.313208	2457.562500
996.608586	2533.179808
996.903928	2583.591346
997.199234	2482.768269
997.494504	2472.685962
997.789738	2442.439038
998.084936	2495.371154
998.380099	2560.906154
998.675225	2550.823846
998.970316	2515.535769
999.265371	2419.753846
999.560390	2472.685962
999.855373	2429.836154
1000.150320	2465.124231
1000.445232	2513.015192
1000.740108	2444.959615
1001.034948	2444.959615
1001.329752	2550.823846
1001.624521	2593.673654
1001.919254	2404.630385
1002.213951	2487.809423
1002.508613	2477.727115
1002.803239	2505.453462
1003.097829	2399.589231
1003.392384	2502.932885
1003.686903	2482.768269
1003.981386	2497.891731
1004.275834	2457.562500
1004.570246	2520.576923
1004.864623	2444.959615
1005.158964	2455.041923
1005.453270	2437.397885
1005.747540	2568.467885
1006.041775	2475.206538
1006.335974	2472.685962
1006.630138	2452.521346
1006.924266	2437.397885
1007.218359	2482.768269
1007.512416	2477.727115
1007.806438	2535.700385
1008.100425	2439.918462
1008.394376	2477.727115
1008.688292	2510.494615
1008.982172	2523.097500
1009.276017	2447.480192
1009.569827	2520.576923
1009.863602	2392.027500
1010.157341	2460.083077
1010.451045	2480.247692
1010.744714	2442.439038
1011.038347	2465.124231
1011.331945	2495.371154
1011.625508	2515.535769
1011.919036	2429.836154
1012.212528	2475.206538
1012.505986	2528.138654
1012.799408	2513.015192
1013.092795	2492.850577
1013.386147	2525.618077
1013.679464	2427.315577
1013.972745	2502.932885
1014.265992	2424.795000
1014.559204	2525.618077
1014.852380	2518.056346
1015.145521	2482.768269
1015.438628	2495.371154
1015.731699	2467.644808
1016.024736	2518.056346
1016.317737	2558.385577
1016.610703	2450.000769
1016.903635	2497.891731
1017.196531	2497.891731
1017.489393	2573.509038
1017.782219	2482.768269
1018.075011	2510.494615
1018.367768	2482.768269
1018.660490	2457.562500
1018.953177	2457.562500
1019.245829	2457.562500
