Dividing Wavelength (nm)	Counts (n)	Blue Motor Position (mm): 4.600000	Red Motor Position (mm): 0.000000	
326.493990	2122.325769
326.888308	2122.325769
327.282561	2122.325769
327.676750	2061.831923
328.070874	2064.352500
328.464933	2044.187885
328.858929	2031.585000
329.252859	2089.558269
329.646726	2024.023269
330.040528	2079.475962
330.434265	2099.640577
330.827938	2155.093269
331.221547	2076.955385
331.615091	2139.969808
332.008571	2243.313462
332.401986	2248.354615
332.795338	2281.122115
333.188625	2258.436923
333.581847	2228.190000
333.975006	2291.204423
334.368100	2313.889615
334.761129	2263.478077
335.154095	2318.930769
335.546996	2374.383462
335.939833	2334.054231
336.332606	2346.657115
336.725315	2392.027500
337.117960	2354.218846
337.510540	2427.315577
337.903056	2482.768269
338.295508	2356.739423
338.687896	2450.000769
339.080220	2497.891731
339.472480	2447.480192
339.864676	2424.795000
340.256807	2447.480192
340.648875	2495.371154
341.040879	2417.233269
341.432818	2487.809423
341.824694	2482.768269
342.216506	2497.891731
342.608253	2437.397885
342.999937	2462.603654
343.391557	2502.932885
343.783113	2555.865000
344.174605	2457.562500
344.566033	2518.056346
344.957397	2450.000769
345.348697	2460.083077
345.739934	2507.974038
346.131106	2437.397885
346.522215	2487.809423
346.913260	2444.959615
347.304241	2460.083077
347.695159	2412.192115
348.086012	2437.397885
348.476802	2482.768269
348.867528	2417.233269
349.258191	2515.535769
349.648789	2455.041923
350.039324	2386.986346
350.429796	2439.918462
350.820203	2417.233269
351.210548	2437.397885
351.600828	2437.397885
351.991045	2502.932885
352.381198	2444.959615
352.771288	2452.521346
353.161314	2392.027500
353.551276	2472.685962
353.941175	2419.753846
354.331010	2407.150962
354.720782	2460.083077
355.110490	2409.671538
355.500135	2374.383462
355.889717	2369.342308
356.279235	2381.945192
356.668689	2475.206538
357.058080	2394.548077
357.447408	2402.109808
357.836672	2414.712692
358.225873	2550.823846
358.615010	2437.397885
359.004084	2462.603654
359.393095	2404.630385
359.782043	2467.644808
360.170927	2439.918462
360.559748	2462.603654
360.948505	2364.301154
361.337199	2543.262115
361.725830	2437.397885
362.114398	2470.165385
362.502903	2334.054231
362.891344	2392.027500
363.279722	2424.795000
363.668037	2487.809423
364.056289	2525.618077
364.444478	2477.727115
364.832603	2434.877308
365.220665	2397.068654
365.608665	2462.603654
365.996601	2457.562500
366.384474	2477.727115
366.772284	2442.439038
367.160031	2341.615962
367.547715	2460.083077
367.935336	2422.274423
368.322893	2417.233269
368.710388	2525.618077
369.097820	2429.836154
369.485189	2485.288846
369.872495	2414.712692
370.259738	2442.439038
370.646918	2482.768269
371.034035	2439.918462
371.421090	2452.521346
371.808081	2482.768269
372.195010	2424.795000
372.581875	2439.918462
372.968678	2404.630385
373.355418	2455.041923
373.742096	2465.124231
374.128710	2402.109808
374.515262	2434.877308
374.901751	2386.986346
375.288177	2507.974038
375.674540	2402.109808
376.060841	2450.000769
376.447079	2437.397885
376.833254	2482.768269
377.219367	2472.685962
377.605417	2495.371154
377.991404	2444.959615
378.377329	2497.891731
378.763191	2444.959615
379.148991	2470.165385
379.534727	2412.192115
379.920402	2467.644808
380.306013	2397.068654
380.691563	2442.439038
381.077049	2384.465769
381.462474	2500.412308
381.847835	2366.821731
382.233134	2402.109808
382.618371	2389.506923
383.003545	2518.056346
383.388657	2414.712692
383.773706	2392.027500
384.158693	2450.000769
384.543618	2399.589231
384.928480	2447.480192
385.313280	2366.821731
385.698017	2424.795000
386.082692	2394.548077
386.467305	2439.918462
386.851856	2432.356731
387.236344	2427.315577
387.620770	2492.850577
388.005133	2462.603654
388.389435	2465.124231
388.773674	2480.247692
389.157851	2457.562500
389.541965	2505.453462
389.926018	2359.260000
390.310008	2442.439038
390.693936	2439.918462
391.077802	2447.480192
391.461606	2366.821731
391.845348	2480.247692
392.229027	2495.371154
392.612645	2450.000769
392.996200	2442.439038
393.379694	2392.027500
393.763125	2460.083077
394.146494	2563.426731
394.529801	2465.124231
394.913047	2470.165385
395.296230	2500.412308
395.679351	2505.453462
396.062410	2475.206538
396.445408	2427.315577
396.828343	2515.535769
397.211217	2485.288846
397.594028	2502.932885
397.976778	2447.480192
398.359466	2437.397885
398.742092	2412.192115
399.124656	2432.356731
399.507158	2510.494615
399.889598	2442.439038
400.271977	2487.809423
400.654294	2455.041923
401.036549	2480.247692
401.418742	2475.206538
401.800874	2500.412308
402.182944	2518.056346
402.564952	2497.891731
402.946898	2520.576923
403.328783	2528.138654
403.710606	2434.877308
404.092367	2487.809423
404.474067	2523.097500
404.855705	2490.330000
405.237282	2558.385577
405.618797	2487.809423
406.000250	2422.274423
406.381642	2525.618077
406.762972	2465.124231
407.144240	2437.397885
407.525447	2492.850577
407.906593	2601.235385
408.287677	2507.974038
408.668700	2513.015192
409.049661	2472.685962
409.430560	2455.041923
409.811399	2394.548077
410.192176	2381.945192
410.572891	2490.330000
410.953545	2525.618077
411.334138	2477.727115
411.714669	2518.056346
412.095139	2444.959615
412.475547	2429.836154
412.855894	2452.521346
413.236180	2472.685962
413.616405	2487.809423
413.996568	2462.603654
414.376670	2545.782692
414.756711	2495.371154
415.136691	2485.288846
415.516609	2452.521346
415.896466	2540.741538
416.276262	2492.850577
416.655997	2497.891731
417.035670	2417.233269
417.415283	2354.218846
417.794834	2374.383462
418.174324	2510.494615
418.553753	2427.315577
418.933121	2502.932885
419.312428	2477.727115
419.691674	2472.685962
420.070859	2450.000769
420.449983	2417.233269
420.829045	2540.741538
421.208047	2543.262115
421.586988	2490.330000
421.965867	2500.412308
422.344686	2477.727115
422.723444	2439.918462
423.102141	2475.206538
423.480777	2480.247692
423.859352	2470.165385
424.237866	2502.932885
424.616319	2520.576923
424.994712	2462.603654
425.373044	2510.494615
425.751314	2550.823846
426.129524	2455.041923
426.507673	2480.247692
426.885762	2495.371154
427.263789	2530.659231
427.641756	2470.165385
428.019662	2513.015192
428.397508	2495.371154
428.775292	2548.303269
429.153016	2495.371154
429.530679	2444.959615
429.908282	2510.494615
430.285824	2578.550192
430.663305	2492.850577
431.040726	2497.891731
431.418086	2502.932885
431.795385	2470.165385
432.172624	2598.714808
432.549802	2530.659231
432.926920	2427.315577
433.303977	2545.782692
433.680974	2535.700385
434.057910	2497.891731
434.434786	2470.165385
434.811601	2457.562500
435.188355	2502.932885
435.565050	2422.274423
435.941683	2407.150962
436.318257	2500.412308
436.694770	2462.603654
437.071222	2500.412308
437.447614	2470.165385
437.823946	2497.891731
438.200218	2429.836154
438.576429	2384.465769
438.952580	2510.494615
439.328670	2500.412308
439.704700	2442.439038
440.080670	2525.618077
440.456580	2538.220962
440.832429	2475.206538
441.208218	2460.083077
441.583947	2475.206538
441.959616	2533.179808
442.335224	2548.303269
442.710773	2553.344423
443.086261	2404.630385
443.461689	2543.262115
443.837057	2374.383462
444.212365	2457.562500
444.587612	2444.959615
444.962800	2528.138654
445.337927	2480.247692
445.712995	2507.974038
446.088002	2502.932885
446.462949	2518.056346
446.837837	2502.932885
447.212664	2540.741538
447.587431	2417.233269
447.962139	2490.330000
448.336786	2502.932885
448.711374	2520.576923
449.085901	2470.165385
449.460369	2502.932885
449.834776	2485.288846
450.209124	2439.918462
450.583412	2429.836154
450.957640	2530.659231
451.331808	2550.823846
451.705917	2462.603654
452.079965	2540.741538
452.453954	2455.041923
452.827883	2460.083077
453.201752	2495.371154
453.575562	2450.000769
453.949311	2525.618077
454.323001	2502.932885
454.696632	2581.070769
455.070202	2442.439038
455.443713	2505.453462
455.817164	2447.480192
456.190556	2515.535769
456.563888	2525.618077
456.937160	2530.659231
457.310373	2437.397885
457.683526	2528.138654
458.056619	2502.932885
458.429653	2437.397885
458.802628	2485.288846
459.175542	2462.603654
459.548398	2518.056346
459.921194	2505.453462
460.293930	2507.974038
460.666607	2432.356731
461.039224	2485.288846
461.411782	2432.356731
461.784280	2502.932885
462.156719	2523.097500
462.529099	2500.412308
462.901419	2457.562500
463.273680	2460.083077
463.645882	2591.153077
464.018024	2480.247692
464.390106	2530.659231
464.762130	2437.397885
465.134094	2450.000769
465.505999	2434.877308
465.877845	2525.618077
466.249631	2444.959615
466.621358	2447.480192
466.993026	2455.041923
467.364634	2457.562500
467.736184	2427.315577
468.107674	2477.727115
468.479105	2502.932885
468.850477	2462.603654
469.221790	2538.220962
469.593043	2513.015192
469.964238	2518.056346
470.335373	2480.247692
470.706449	2465.124231
471.077467	2442.439038
471.448425	2444.959615
471.819324	2518.056346
472.190164	2429.836154
472.560945	2467.644808
472.931667	2450.000769
473.302330	2497.891731
473.672934	2492.850577
474.043479	2515.535769
474.413965	2523.097500
474.784393	2576.029615
475.154761	2507.974038
475.525070	2475.206538
475.895321	2447.480192
476.265513	2455.041923
476.635645	2462.603654
477.005719	2492.850577
477.375734	2518.056346
477.745691	2518.056346
478.115588	2462.603654
478.485427	2540.741538
478.855207	2550.823846
479.224928	2543.262115
479.594591	2533.179808
479.964194	2576.029615
480.333739	2485.288846
480.703226	2444.959615
481.072653	2460.083077
481.442022	2409.671538
481.811333	2523.097500
482.180584	2462.603654
482.549777	2492.850577
482.918912	2540.741538
483.287988	2515.535769
483.657005	2490.330000
484.025964	2535.700385
484.394864	2444.959615
484.763706	2460.083077
485.132489	2563.426731
485.501213	2495.371154
485.869879	2492.850577
486.238487	2407.150962
486.607036	2439.918462
486.975527	2480.247692
487.343959	2467.644808
487.712333	2424.795000
488.080648	2422.274423
488.448905	2500.412308
488.817104	2429.836154
489.185244	2543.262115
489.553326	2452.521346
489.921350	2520.576923
490.289315	2444.959615
490.657222	2505.453462
491.025070	2485.288846
491.392861	2500.412308
491.760593	2535.700385
492.128267	2442.439038
492.495883	2507.974038
492.863440	2467.644808
493.230939	2480.247692
493.598380	2548.303269
493.965763	2465.124231
494.333088	2513.015192
494.700354	2381.945192
495.067563	2434.877308
495.434713	2528.138654
495.801805	2543.262115
496.168839	2475.206538
496.535815	2540.741538
496.902733	2472.685962
497.269593	2487.809423
497.636395	2444.959615
498.003139	2497.891731
498.369825	2490.330000
498.736453	2470.165385
499.103023	2543.262115
499.469535	2432.356731
499.835989	2487.809423
500.202385	2470.165385
500.568723	2490.330000
500.935003	2505.453462
501.301226	2586.111923
501.667390	2497.891731
502.033497	2455.041923
502.399546	2455.041923
502.765537	2492.850577
503.131470	2457.562500
503.497345	2513.015192
503.863163	2487.809423
504.228923	2528.138654
504.594625	2490.330000
504.960269	2518.056346
505.325856	2535.700385
505.691385	2452.521346
506.056856	2543.262115
506.422270	2560.906154
506.787625	2482.768269
507.152924	2482.768269
507.518164	2424.795000
507.883347	2510.494615
508.248472	2485.288846
508.613540	2465.124231
508.978550	2495.371154
509.343503	2502.932885
509.708398	2500.412308
510.073236	2518.056346
510.438016	2518.056346
510.802738	2422.274423
511.167403	2565.947308
511.532010	2480.247692
511.896561	2523.097500
512.261053	2497.891731
512.625488	2586.111923
512.989866	2487.809423
513.354186	2535.700385
513.718449	2444.959615
514.082655	2523.097500
514.446803	2462.603654
514.810894	2528.138654
515.174927	2467.644808
515.538904	2472.685962
515.902822	2465.124231
516.266684	2490.330000
516.630488	2467.644808
516.994235	2533.179808
517.357925	2480.247692
517.721558	2492.850577
518.085133	2455.041923
518.448651	2513.015192
518.812112	2525.618077
519.175516	2515.535769
519.538863	2550.823846
519.902152	2538.220962
520.265385	2545.782692
520.628560	2442.439038
520.991678	2583.591346
521.354739	2455.041923
521.717743	2528.138654
522.080690	2452.521346
522.443580	2500.412308
522.806413	2495.371154
523.169189	2502.932885
523.531908	2507.974038
523.894569	2444.959615
524.257174	2500.412308
524.619722	2432.356731
524.982213	2460.083077
525.344647	2447.480192
525.707025	2492.850577
526.069345	2550.823846
526.431608	2485.288846
526.793815	2500.412308
527.155964	2558.385577
527.518057	2434.877308
527.880093	2465.124231
528.242072	2528.138654
528.603995	2424.795000
528.965860	2472.685962
529.327669	2477.727115
529.689421	2412.192115
530.051117	2487.809423
530.412755	2523.097500
530.774337	2495.371154
531.135862	2467.644808
531.497331	2510.494615
531.858743	2548.303269
532.220098	2596.194231
532.581396	2502.932885
532.942638	2502.932885
533.303824	2550.823846
533.664953	2457.562500
534.026025	2467.644808
534.387040	2465.124231
534.747999	2555.865000
535.108902	2510.494615
535.469748	2386.986346
535.830537	2513.015192
536.191270	2487.809423
536.551947	2467.644808
536.912567	2490.330000
537.273131	2507.974038
537.633638	2450.000769
537.994089	2553.344423
538.354483	2492.850577
538.714821	2510.494615
539.075103	2518.056346
539.435328	2545.782692
539.795497	2596.194231
540.155609	2545.782692
540.515665	2455.041923
540.875665	2462.603654
541.235609	2523.097500
541.595496	2442.439038
541.955328	2472.685962
542.315102	2502.932885
542.674821	2455.041923
543.034483	2530.659231
543.394090	2545.782692
543.753640	2460.083077
544.113134	2510.494615
544.472571	2477.727115
544.831953	2525.618077
545.191278	2467.644808
545.550548	2510.494615
545.909761	2455.041923
546.268918	2543.262115
546.628019	2507.974038
546.987064	2492.850577
547.346053	2450.000769
547.704986	2492.850577
548.063863	2515.535769
548.422684	2507.974038
548.781449	2581.070769
549.140158	2470.165385
549.498811	2520.576923
549.857408	2467.644808
550.215949	2507.974038
550.574434	2490.330000
550.932864	2535.700385
551.291237	2510.494615
551.649555	2502.932885
552.007817	2447.480192
552.366022	2485.288846
552.724173	2432.356731
553.082267	2500.412308
553.440305	2480.247692
553.798288	2407.150962
554.156215	2502.932885
554.514086	2490.330000
554.871902	2520.576923
555.229661	2525.618077
555.587365	2543.262115
555.945014	2530.659231
556.302606	2560.906154
556.660143	2455.041923
557.017625	2553.344423
557.375050	2450.000769
557.732421	2500.412308
558.089735	2500.412308
558.446994	2598.714808
558.804197	2505.453462
559.161345	2560.906154
559.518437	2465.124231
559.875474	2475.206538
560.232455	2422.274423
560.589381	2507.974038
560.946251	2490.330000
561.303065	2543.262115
561.659825	2533.179808
562.016528	2485.288846
562.373177	2507.974038
562.729770	2490.330000
563.086307	2530.659231
563.442789	2475.206538
563.799216	2507.974038
564.155587	2593.673654
564.511904	2480.247692
564.868164	2485.288846
565.224370	2417.233269
565.580520	2492.850577
565.936615	2515.535769
566.292654	2490.330000
566.648638	2513.015192
567.004567	2487.809423
567.360441	2515.535769
567.716260	2487.809423
568.072023	2555.865000
568.427732	2525.618077
568.783385	2513.015192
569.138982	2598.714808
569.494525	2492.850577
569.850013	2492.850577
570.205445	2452.521346
570.560823	2444.959615
570.916145	2553.344423
571.271412	2545.782692
571.626625	2510.494615
571.981782	2485.288846
572.336884	2583.591346
572.691931	2555.865000
573.046923	2472.685962
573.401860	2444.959615
573.756743	2528.138654
574.111570	2470.165385
574.466342	2528.138654
574.821059	2465.124231
575.175722	2523.097500
575.530330	2523.097500
575.884882	2465.124231
576.239380	2457.562500
576.593823	2452.521346
576.948211	2515.535769
577.302544	2581.070769
577.656823	2487.809423
578.011047	2533.179808
578.365216	2560.906154
578.719330	2538.220962
579.073389	2510.494615
579.427394	2613.838269
579.781344	2470.165385
580.135239	2570.988462
580.489080	2513.015192
580.842866	2591.153077
581.196597	2591.153077
581.550273	2505.453462
581.903895	2525.618077
582.257463	2394.548077
582.610975	2535.700385
582.964434	2475.206538
583.317837	2543.262115
583.671186	2447.480192
584.024481	2553.344423
584.377721	2407.150962
584.730906	2477.727115
585.084037	2490.330000
585.437113	2472.685962
585.790135	2460.083077
586.143103	2518.056346
586.496016	2477.727115
586.848874	2515.535769
587.201679	2596.194231
587.554428	2429.836154
587.907124	2507.974038
588.259765	2497.891731
588.612352	2548.303269
588.964884	2507.974038
589.317362	2470.165385
589.669786	2462.603654
590.022155	2523.097500
590.374470	2417.233269
590.726731	2457.562500
591.078937	2480.247692
591.431090	2485.288846
591.783188	2500.412308
592.135232	2492.850577
592.487222	2518.056346
592.839157	2525.618077
593.191038	2472.685962
593.542866	2500.412308
593.894639	2419.753846
594.246358	2533.179808
594.598022	2462.603654
594.949633	2505.453462
595.301190	2450.000769
595.652692	2535.700385
596.004141	2465.124231
596.355535	2550.823846
596.706876	2437.397885
597.058162	2540.741538
597.409395	2533.179808
597.760573	2492.850577
598.111698	2550.823846
598.462768	2381.945192
598.813785	2525.618077
599.164748	2455.041923
599.515657	2540.741538
599.866511	2525.618077
600.217312	2424.795000
600.568060	2452.521346
600.918753	2548.303269
601.269392	2439.918462
601.619978	2563.426731
601.970510	2518.056346
602.320988	2485.288846
602.671412	2392.027500
603.021783	2404.630385
603.372100	2520.576923
603.722363	2487.809423
604.072572	2497.891731
604.422728	2525.618077
604.772830	2543.262115
605.122878	2475.206538
605.472872	2533.179808
605.822813	2477.727115
606.172701	2578.550192
606.522534	2450.000769
606.872314	2543.262115
607.222041	2424.795000
607.571714	2427.315577
607.921333	2447.480192
608.270899	2444.959615
608.620411	2414.712692
608.969870	2533.179808
609.319276	2386.986346
609.668627	2437.397885
610.017926	2553.344423
610.367171	2447.480192
610.716362	2485.288846
611.065500	2553.344423
611.414585	2502.932885
611.763616	2576.029615
612.112594	2502.932885
612.461518	2523.097500
612.810389	2515.535769
613.159207	2450.000769
613.507971	2452.521346
613.856682	2465.124231
614.205340	2525.618077
614.553945	2472.685962
614.902496	2495.371154
615.250994	2460.083077
615.599439	2432.356731
615.947830	2507.974038
616.296169	2535.700385
616.644454	2492.850577
616.992686	2485.288846
617.340864	2535.700385
617.688990	2427.315577
618.037063	2477.727115
618.385082	2545.782692
618.733048	2447.480192
619.080961	2482.768269
619.428821	2497.891731
619.776628	2467.644808
620.124382	2497.891731
620.472083	2507.974038
620.819731	2455.041923
621.167326	2568.467885
621.514868	2386.986346
621.862357	2613.838269
622.209793	2568.467885
622.557176	2497.891731
622.904506	2553.344423
623.251783	2558.385577
623.599007	2475.206538
623.946179	2513.015192
624.293297	2457.562500
624.640363	2505.453462
624.987376	2568.467885
625.334336	2492.850577
625.681243	2455.041923
626.028097	2608.797115
626.374899	2558.385577
626.721647	2553.344423
627.068343	2515.535769
627.414987	2578.550192
627.761577	2482.768269
628.108115	2467.644808
628.454600	2455.041923
628.801032	2568.467885
629.147412	2578.550192
629.493739	2500.412308
629.840014	2588.632500
630.186236	2558.385577
630.532405	2477.727115
630.878521	2497.891731
631.224585	2495.371154
631.570597	2447.480192
631.916556	2447.480192
632.262462	2538.220962
632.608316	2432.356731
632.954117	2472.685962
633.299866	2477.727115
633.645562	2538.220962
633.991206	2452.521346
634.336797	2470.165385
634.682336	2495.371154
635.027823	2558.385577
635.373257	2528.138654
635.718639	2505.453462
636.063968	2455.041923
636.409245	2513.015192
636.754470	2457.562500
637.099642	2412.192115
637.444762	2487.809423
637.789829	2467.644808
638.134845	2480.247692
638.479808	2518.056346
638.824719	2455.041923
639.169577	2507.974038
639.514383	2497.891731
639.859137	2515.535769
640.203839	2432.356731
640.548489	2482.768269
640.893086	2497.891731
641.237632	2583.591346
641.582125	2487.809423
641.926566	2419.753846
642.270955	2515.535769
642.615292	2492.850577
642.959576	2581.070769
643.303809	2447.480192
643.647990	2505.453462
643.992118	2533.179808
644.336195	2495.371154
644.680219	2460.083077
645.024192	2523.097500
645.368112	2507.974038
645.711981	2495.371154
646.055797	2467.644808
646.399562	2535.700385
646.743274	2500.412308
647.086935	2528.138654
647.430544	2487.809423
647.774101	2422.274423
648.117606	2482.768269
648.461059	2515.535769
648.804460	2538.220962
649.147810	2513.015192
649.491108	2520.576923
649.834354	2429.836154
650.177548	2482.768269
650.520690	2386.986346
650.863781	2485.288846
651.206820	2490.330000
651.549807	2525.618077
651.892742	2485.288846
652.235626	2523.097500
652.578458	2417.233269
652.921238	2505.453462
653.263967	2523.097500
653.606644	2553.344423
653.949269	2424.795000
654.291843	2472.685962
654.634365	2477.727115
654.976836	2495.371154
655.319255	2495.371154
655.661622	2482.768269
656.003938	2475.206538
656.346203	2563.426731
656.688416	2507.974038
657.030577	2543.262115
657.372687	2530.659231
657.714746	2568.467885
658.056753	2470.165385
658.398708	2553.344423
658.740612	2545.782692
659.082465	2495.371154
659.424266	2487.809423
659.766016	2495.371154
660.107715	2525.618077
660.449362	2447.480192
660.790958	2528.138654
661.132503	2563.426731
661.473996	2518.056346
661.815438	2588.632500
662.156829	2523.097500
662.498168	2427.315577
662.839456	2490.330000
663.180693	2472.685962
663.521879	2457.562500
663.863013	2570.988462
664.204097	2502.932885
664.545129	2379.424615
664.886110	2555.865000
665.227040	2477.727115
665.567918	2444.959615
665.908746	2485.288846
666.249522	2424.795000
666.590248	2533.179808
666.930922	2472.685962
667.271545	2507.974038
667.612118	2578.550192
667.952639	2548.303269
668.293109	2505.453462
668.633528	2550.823846
668.973896	2568.467885
669.314213	2528.138654
669.654480	2528.138654
669.994695	2467.644808
670.334859	2510.494615
670.674973	2457.562500
671.015035	2507.974038
671.355047	2538.220962
671.695008	2467.644808
672.034918	2419.753846
672.374777	2452.521346
672.714585	2442.439038
673.054342	2563.426731
673.394049	2477.727115
673.733705	2465.124231
674.073310	2530.659231
674.412864	2540.741538
674.752368	2414.712692
675.091820	2422.274423
675.431223	2472.685962
675.770574	2525.618077
676.109875	2500.412308
676.449125	2528.138654
676.788324	2465.124231
677.127473	2450.000769
677.466571	2558.385577
677.805619	2429.836154
678.144616	2397.068654
678.483562	2487.809423
678.822458	2530.659231
679.161303	2467.644808
679.500098	2550.823846
679.838842	2502.932885
680.177535	2402.109808
680.516179	2515.535769
680.854771	2583.591346
681.193314	2510.494615
681.531805	2475.206538
681.870247	2470.165385
682.208638	2447.480192
682.546978	2394.548077
682.885268	2485.288846
683.223508	2507.974038
683.561697	2465.124231
683.899836	2462.603654
684.237925	2497.891731
684.575963	2477.727115
684.913951	2477.727115
685.251889	2452.521346
685.589776	2439.918462
685.927614	2497.891731
686.265401	2467.644808
686.603137	2558.385577
686.940824	2470.165385
687.278460	2475.206538
687.616046	2482.768269
687.953582	2513.015192
688.291068	2477.727115
688.628504	2505.453462
688.965889	2528.138654
689.303224	2495.371154
689.640510	2510.494615
689.977745	2507.974038
690.314930	2533.179808
690.652065	2487.809423
690.989150	2548.303269
691.326185	2480.247692
691.663170	2477.727115
692.000105	2455.041923
692.336990	2462.603654
692.673825	2462.603654
693.010610	2409.671538
693.347345	2568.467885
693.684030	2513.015192
694.020665	2530.659231
694.357251	2510.494615
694.693786	2545.782692
695.030272	2492.850577
695.366707	2555.865000
695.703093	2465.124231
696.039429	2581.070769
696.375716	2462.603654
696.711952	2475.206538
697.048139	2533.179808
697.384276	2437.397885
697.720363	2530.659231
698.056400	2500.412308
698.392388	2507.974038
698.728326	2485.288846
699.064214	2427.315577
699.400053	2455.041923
699.735842	2545.782692
700.071581	2472.685962
700.407270	2472.685962
700.742910	2533.179808
701.078501	2528.138654
701.414042	2578.550192
701.749533	2480.247692
702.084974	2570.988462
702.420366	2485.288846
702.755709	2543.262115
703.091002	2487.809423
703.426246	2444.959615
703.761440	2540.741538
704.096584	2427.315577
704.431679	2525.618077
704.766725	2452.521346
705.101721	2492.850577
705.436668	2475.206538
705.771565	2497.891731
706.106413	2412.192115
706.441212	2510.494615
706.775961	2596.194231
707.110661	2437.397885
707.445311	2492.850577
707.779913	2540.741538
708.114465	2460.083077
708.448967	2553.344423
708.783421	2472.685962
709.117825	2505.453462
709.452180	2439.918462
709.786485	2596.194231
710.120742	2576.029615
710.454949	2429.836154
710.789107	2507.974038
711.123216	2545.782692
711.457275	2507.974038
711.791286	2518.056346
712.125247	2485.288846
712.459159	2412.192115
712.793023	2497.891731
713.126837	2533.179808
713.460602	2507.974038
713.794318	2482.768269
714.127985	2505.453462
714.461602	2371.862885
714.795171	2485.288846
715.128691	2462.603654
715.462162	2560.906154
715.795584	2538.220962
716.128957	2404.630385
716.462281	2573.509038
716.795556	2495.371154
717.128782	2520.576923
717.461960	2477.727115
717.795088	2457.562500
718.128167	2404.630385
718.461198	2538.220962
718.794180	2500.412308
719.127113	2477.727115
719.459997	2568.467885
719.792833	2523.097500
720.125619	2477.727115
720.458357	2570.988462
720.791046	2442.439038
721.123686	2502.932885
721.456278	2540.741538
721.788821	2472.685962
722.121315	2520.576923
722.453761	2439.918462
722.786158	2475.206538
723.118506	2455.041923
723.450805	2429.836154
723.783056	2495.371154
724.115259	2485.288846
724.447412	2543.262115
724.779518	2492.850577
725.111574	2444.959615
725.443582	2422.274423
725.775542	2397.068654
726.107453	2591.153077
726.439315	2565.947308
726.771129	2507.974038
727.102895	2465.124231
727.434612	2518.056346
727.766281	2540.741538
728.097901	2518.056346
728.429473	2613.838269
728.760996	2487.809423
729.092471	2477.727115
729.423897	2555.865000
729.755276	2518.056346
730.086606	2500.412308
730.417887	2573.509038
730.749120	2487.809423
731.080305	2477.727115
731.411442	2507.974038
731.742530	2404.630385
732.073570	2550.823846
732.404562	2598.714808
732.735506	2487.809423
733.066401	2533.179808
733.397249	2543.262115
733.728048	2429.836154
734.058798	2518.056346
734.389501	2513.015192
734.720156	2455.041923
735.050762	2510.494615
735.381320	2465.124231
735.711831	2513.015192
736.042293	2480.247692
736.372707	2568.467885
736.703073	2490.330000
737.033391	2497.891731
737.363661	2460.083077
737.693883	2500.412308
738.024056	2598.714808
738.354182	2510.494615
738.684260	2422.274423
739.014290	2394.548077
739.344272	2470.165385
739.674207	2417.233269
740.004093	2565.947308
740.333931	2515.535769
740.663722	2543.262115
740.993464	2520.576923
741.323159	2553.344423
741.652806	2447.480192
741.982405	2462.603654
742.311956	2490.330000
742.641460	2500.412308
742.970915	2490.330000
743.300323	2497.891731
743.629683	2555.865000
743.958996	2525.618077
744.288260	2429.836154
744.617477	2429.836154
744.946647	2497.891731
745.275768	2548.303269
745.604842	2467.644808
745.933869	2465.124231
746.262847	2555.865000
746.591778	2427.315577
746.920662	2533.179808
747.249498	2548.303269
747.578286	2513.015192
747.907027	2442.439038
748.235720	2533.179808
748.564365	2550.823846
748.892963	2492.850577
749.221514	2505.453462
749.550017	2606.276538
749.878473	2419.753846
750.206881	2444.959615
750.535242	2500.412308
750.863555	2442.439038
751.191821	2442.439038
751.520039	2450.000769
751.848210	2513.015192
752.176334	2444.959615
752.504411	2560.906154
752.832440	2601.235385
753.160421	2545.782692
753.488356	2455.041923
753.816243	2447.480192
754.144082	2450.000769
754.471875	2444.959615
754.799620	2593.673654
755.127318	2548.303269
755.454969	2553.344423
755.782572	2444.959615
756.110129	2497.891731
756.437638	2530.659231
756.765100	2492.850577
757.092515	2455.041923
757.419882	2507.974038
757.747203	2492.850577
758.074477	2455.041923
758.401703	2530.659231
758.728882	2467.644808
759.056014	2447.480192
759.383099	2490.330000
759.710138	2437.397885
760.037129	2545.782692
760.364073	2528.138654
760.690970	2432.356731
761.017820	2510.494615
761.344623	2533.179808
761.671379	2457.562500
761.998088	2513.015192
762.324751	2470.165385
762.651366	2409.671538
762.977935	2550.823846
763.304456	2457.562500
763.630931	2515.535769
763.957359	2550.823846
764.283740	2455.041923
764.610074	2429.836154
764.936362	2457.562500
765.262602	2376.904038
765.588796	2490.330000
765.914943	2462.603654
766.241044	2565.947308
766.567097	2538.220962
766.893104	2417.233269
767.219064	2555.865000
767.544978	2560.906154
767.870845	2482.768269
768.196665	2452.521346
768.522438	2452.521346
768.848165	2543.262115
769.173846	2515.535769
769.499479	2545.782692
769.825066	2560.906154
770.150607	2424.795000
770.476101	2389.506923
770.801548	2492.850577
771.126949	2467.644808
771.452303	2555.865000
771.777611	2442.439038
772.102872	2570.988462
772.428087	2434.877308
772.753256	2538.220962
773.078378	2492.850577
773.403453	2485.288846
773.728482	2439.918462
774.053465	2442.439038
774.378401	2497.891731
774.703291	2439.918462
775.028135	2513.015192
775.352932	2470.165385
775.677683	2525.618077
776.002388	2437.397885
776.327046	2460.083077
776.651658	2359.260000
776.976224	2465.124231
777.300743	2407.150962
777.625216	2492.850577
777.949643	2455.041923
778.274024	2455.041923
778.598359	2472.685962
778.922647	2528.138654
779.246889	2429.836154
779.571086	2457.562500
779.895236	2472.685962
780.219339	2444.959615
780.543397	2437.397885
780.867409	2389.506923
781.191374	2487.809423
781.515294	2455.041923
781.839167	2386.986346
782.162995	2477.727115
782.486776	2470.165385
782.810511	2482.768269
783.134201	2472.685962
783.457844	2447.480192
783.781441	2462.603654
784.104993	2515.535769
784.428498	2500.412308
784.751958	2414.712692
785.075372	2447.480192
785.398739	2424.795000
785.722061	2477.727115
786.045337	2535.700385
786.368568	2482.768269
786.691752	2462.603654
787.014891	2533.179808
787.337983	2462.603654
787.661030	2487.809423
787.984031	2565.947308
788.306987	2495.371154
788.629897	2515.535769
788.952760	2450.000769
789.275579	2518.056346
789.598351	2502.932885
789.921078	2543.262115
790.243759	2583.591346
790.566395	2470.165385
790.888984	2497.891731
791.211529	2429.836154
791.534027	2510.494615
791.856480	2450.000769
792.178888	2485.288846
792.501249	2533.179808
792.823566	2424.795000
793.145836	2495.371154
793.468062	2540.741538
793.790241	2432.356731
794.112375	2520.576923
794.434464	2447.480192
794.756507	2603.755962
795.078505	2520.576923
795.400457	2550.823846
795.722364	2455.041923
796.044226	2452.521346
796.366042	2475.206538
796.687812	2550.823846
797.009538	2525.618077
797.331218	2482.768269
797.652852	2475.206538
797.974442	2422.274423
798.295986	2545.782692
798.617484	2538.220962
798.938938	2500.412308
799.260346	2422.274423
799.581709	2414.712692
799.903026	2533.179808
800.224299	2548.303269
800.545526	2434.877308
800.866708	2550.823846
801.187845	2513.015192
801.508936	2439.918462
801.829983	2427.315577
802.150984	2477.727115
802.471940	2480.247692
802.792851	2520.576923
803.113717	2495.371154
803.434538	2472.685962
803.755314	2492.850577
804.076045	2429.836154
804.396731	2520.576923
804.717372	2492.850577
805.037967	2520.576923
805.358518	2480.247692
805.679024	2465.124231
805.999485	2414.712692
806.319901	2540.741538
806.640272	2505.453462
806.960598	2465.124231
807.280879	2492.850577
807.601115	2518.056346
807.921306	2535.700385
808.241453	2482.768269
808.561554	2452.521346
808.881611	2510.494615
809.201623	2442.439038
809.521590	2447.480192
809.841513	2550.823846
810.161390	2576.029615
810.481223	2535.700385
810.801011	2495.371154
811.120755	2452.521346
811.440453	2535.700385
811.760107	2538.220962
812.079716	2457.562500
812.399281	2518.056346
812.718801	2510.494615
813.038276	2513.015192
813.357707	2528.138654
813.677093	2467.644808
813.996434	2407.150962
814.315731	2404.630385
814.634983	2555.865000
814.954191	2548.303269
815.273354	2487.809423
815.592473	2472.685962
815.911547	2593.673654
816.230577	2507.974038
816.549562	2472.685962
816.868502	2457.562500
817.187399	2480.247692
817.506250	2455.041923
817.825058	2472.685962
818.143821	2530.659231
818.462539	2427.315577
818.781213	2465.124231
819.099843	2543.262115
819.418429	2465.124231
819.736970	2520.576923
820.055466	2442.439038
820.373919	2487.809423
820.692327	2480.247692
821.010691	2492.850577
821.329011	2505.453462
821.647286	2565.947308
821.965517	2578.550192
822.283704	2525.618077
822.601847	2490.330000
822.919945	2482.768269
823.237999	2386.986346
823.556010	2497.891731
823.873976	2523.097500
824.191897	2490.330000
824.509775	2520.576923
824.827609	2462.603654
825.145398	2397.068654
825.463144	2404.630385
825.780845	2570.988462
826.098502	2545.782692
826.416116	2505.453462
826.733685	2482.768269
827.051210	2487.809423
827.368692	2475.206538
827.686129	2507.974038
828.003522	2477.727115
828.320872	2455.041923
828.638177	2502.932885
828.955439	2472.685962
829.272656	2437.397885
829.589830	2492.850577
829.906960	2412.192115
830.224046	2565.947308
830.541088	2530.659231
830.858086	2548.303269
831.175041	2520.576923
831.491952	2570.988462
831.808819	2467.644808
832.125642	2550.823846
832.442421	2472.685962
832.759157	2465.124231
833.075849	2455.041923
833.392497	2538.220962
833.709101	2434.877308
834.025662	2525.618077
834.342179	2467.644808
834.658653	2533.179808
834.975083	2497.891731
835.291469	2507.974038
835.607811	2502.932885
835.924110	2492.850577
836.240366	2475.206538
836.556578	2417.233269
836.872746	2518.056346
837.188871	2475.206538
837.504952	2525.618077
837.820990	2492.850577
838.136984	2482.768269
838.452935	2407.150962
838.768842	2497.891731
839.084706	2497.891731
839.400526	2475.206538
839.716303	2495.371154
840.032037	2533.179808
840.347727	2482.768269
840.663373	2457.562500
840.978977	2437.397885
841.294537	2447.480192
841.610054	2520.576923
841.925527	2535.700385
842.240957	2457.562500
842.556344	2497.891731
842.871687	2452.521346
843.186987	2394.548077
843.502244	2523.097500
843.817458	2381.945192
844.132629	2507.974038
844.447756	2434.877308
844.762840	2392.027500
845.077881	2530.659231
845.392879	2505.453462
845.707833	2513.015192
846.022745	2513.015192
846.337613	2525.618077
846.652438	2455.041923
846.967221	2432.356731
847.281960	2490.330000
847.596656	2495.371154
847.911309	2502.932885
848.225919	2472.685962
848.540485	2490.330000
848.855009	2525.618077
849.169490	2558.385577
849.483928	2389.506923
849.798323	2550.823846
850.112675	2475.206538
850.426984	2462.603654
850.741251	2447.480192
851.055474	2505.453462
851.369654	2429.836154
851.683792	2497.891731
851.997887	2530.659231
852.311938	2477.727115
852.625947	2477.727115
852.939914	2515.535769
853.253837	2528.138654
853.567718	2429.836154
853.881555	2568.467885
854.195350	2502.932885
854.509103	2497.891731
854.822812	2497.891731
855.136479	2495.371154
855.450103	2523.097500
855.763685	2470.165385
856.077224	2472.685962
856.390720	2477.727115
856.704173	2593.673654
857.017584	2485.288846
857.330953	2525.618077
857.644278	2570.988462
857.957561	2497.891731
858.270802	2565.947308
858.584000	2507.974038
858.897155	2543.262115
859.210268	2490.330000
859.523339	2457.562500
859.836367	2553.344423
860.149352	2427.315577
860.462295	2480.247692
860.775195	2535.700385
861.088054	2482.768269
861.400869	2540.741538
861.713642	2487.809423
862.026373	2480.247692
862.339062	2513.015192
862.651708	2520.576923
862.964312	2520.576923
863.276873	2533.179808
863.589392	2444.959615
863.901869	2480.247692
864.214303	2535.700385
864.526696	2455.041923
864.839045	2495.371154
865.151353	2477.727115
865.463619	2470.165385
865.775842	2502.932885
866.088023	2442.439038
866.400162	2558.385577
866.712258	2417.233269
867.024313	2439.918462
867.336325	2470.165385
867.648296	2591.153077
867.960224	2472.685962
868.272110	2467.644808
868.583954	2444.959615
868.895755	2495.371154
869.207515	2545.782692
869.519233	2510.494615
869.830909	2507.974038
870.142542	2427.315577
870.454134	2492.850577
870.765684	2417.233269
871.077191	2470.165385
871.388657	2477.727115
871.700081	2462.603654
872.011463	2455.041923
872.322803	2472.685962
872.634101	2520.576923
872.945357	2543.262115
873.256571	2500.412308
873.567744	2462.603654
873.878874	2455.041923
874.189963	2419.753846
874.501010	2500.412308
874.812015	2455.041923
875.122979	2439.918462
875.433900	2533.179808
875.744780	2510.494615
876.055618	2485.288846
876.366415	2482.768269
876.677169	2485.288846
876.987882	2525.618077
877.298554	2535.700385
877.609183	2457.562500
877.919771	2429.836154
878.230317	2502.932885
878.540822	2492.850577
878.851285	2513.015192
879.161707	2492.850577
879.472087	2455.041923
879.782425	2520.576923
880.092722	2555.865000
880.402977	2475.206538
880.713191	2530.659231
881.023363	2568.467885
881.333494	2495.371154
881.643583	2538.220962
881.953631	2467.644808
882.263637	2444.959615
882.573602	2533.179808
882.883526	2452.521346
883.193408	2417.233269
883.503248	2502.932885
883.813048	2497.891731
884.122806	2540.741538
884.432522	2465.124231
884.742197	2492.850577
885.051831	2500.412308
885.361424	2492.850577
885.670975	2455.041923
885.980485	2497.891731
886.289954	2480.247692
886.599382	2485.288846
886.908768	2460.083077
887.218113	2518.056346
887.527417	2518.056346
887.836680	2586.111923
888.145901	2457.562500
888.455082	2490.330000
888.764221	2497.891731
889.073319	2447.480192
889.382376	2492.850577
889.691392	2502.932885
890.000366	2515.535769
890.309300	2437.397885
890.618193	2502.932885
890.927044	2520.576923
891.235855	2470.165385
891.544625	2502.932885
891.853353	2568.467885
892.162041	2419.753846
892.470687	2409.671538
892.779293	2510.494615
893.087858	2475.206538
893.396381	2447.480192
893.704864	2500.412308
894.013306	2490.330000
894.321707	2465.124231
894.630068	2543.262115
894.938387	2487.809423
895.246665	2470.165385
895.554903	2485.288846
895.863100	2548.303269
896.171256	2515.535769
896.479371	2482.768269
896.787446	2455.041923
897.095480	2492.850577
897.403473	2487.809423
897.711425	2492.850577
898.019336	2480.247692
898.327207	2437.397885
898.635038	2550.823846
898.942827	2477.727115
899.250576	2485.288846
899.558284	2470.165385
899.865952	2523.097500
900.173579	2480.247692
900.481165	2507.974038
900.788711	2513.015192
901.096216	2444.959615
901.403681	2475.206538
901.711105	2450.000769
902.018489	2543.262115
902.325832	2480.247692
902.633135	2568.467885
902.940397	2533.179808
903.247619	2520.576923
903.554800	2505.453462
903.861941	2510.494615
904.169041	2583.591346
904.476101	2570.988462
904.783121	2545.782692
905.090100	2407.150962
905.397039	2545.782692
905.703938	2490.330000
906.010796	2364.301154
906.317614	2538.220962
906.624391	2452.521346
906.931129	2553.344423
907.237826	2480.247692
907.544483	2497.891731
907.851099	2452.521346
908.157675	2424.795000
908.464211	2525.618077
908.770707	2480.247692
909.077163	2563.426731
909.383578	2450.000769
909.689954	2497.891731
909.996289	2447.480192
910.302584	2404.630385
910.608839	2525.618077
910.915054	2475.206538
911.221229	2523.097500
911.527363	2573.509038
911.833458	2523.097500
912.139513	2482.768269
912.445527	2482.768269
912.751502	2505.453462
913.057436	2455.041923
913.363331	2444.959615
913.669186	2581.070769
913.975000	2550.823846
914.280775	2462.603654
914.586510	2477.727115
914.892205	2462.603654
915.197859	2404.630385
915.503475	2535.700385
915.809050	2540.741538
916.114585	2452.521346
916.420081	2560.906154
916.725536	2462.603654
917.030952	2462.603654
917.336328	2424.795000
917.641665	2485.288846
917.946961	2510.494615
918.252218	2520.576923
918.557435	2560.906154
918.862612	2528.138654
919.167750	2487.809423
919.472848	2510.494615
919.777906	2439.918462
920.082925	2510.494615
920.387904	2523.097500
920.692843	2432.356731
920.997743	2550.823846
921.302603	2530.659231
921.607423	2444.959615
921.912204	2480.247692
922.216946	2404.630385
922.521647	2555.865000
922.826310	2429.836154
923.130932	2482.768269
923.435516	2475.206538
923.740059	2487.809423
924.044564	2492.850577
924.349028	2429.836154
924.653454	2475.206538
924.957840	2381.945192
925.262186	2462.603654
925.566493	2510.494615
925.870761	2369.342308
926.174989	2578.550192
926.479178	2419.753846
926.783328	2570.988462
927.087438	2465.124231
927.391509	2515.535769
927.695541	2437.397885
927.999533	2414.712692
928.303486	2480.247692
928.607400	2507.974038
928.911275	2583.591346
929.215110	2447.480192
929.518906	2487.809423
929.822663	2419.753846
930.126381	2427.315577
930.430060	2500.412308
930.733699	2477.727115
931.037299	2523.097500
931.340861	2555.865000
931.644383	2538.220962
931.947866	2455.041923
932.251309	2543.262115
932.554714	2505.453462
932.858080	2543.262115
933.161407	2528.138654
933.464694	2487.809423
933.767943	2465.124231
934.071153	2472.685962
934.374323	2520.576923
934.677455	2588.632500
934.980548	2452.521346
935.283602	2467.644808
935.586617	2460.083077
935.889593	2530.659231
936.192530	2407.150962
936.495428	2485.288846
936.798287	2437.397885
937.101108	2490.330000
937.403890	2500.412308
937.706632	2482.768269
938.009336	2502.932885
938.312002	2518.056346
938.614628	2490.330000
938.917216	2510.494615
939.219765	2465.124231
939.522275	2550.823846
939.824747	2573.509038
940.127179	2576.029615
940.429573	2490.330000
940.731929	2523.097500
941.034246	2429.836154
941.336524	2475.206538
941.638763	2457.562500
941.940964	2520.576923
942.243126	2500.412308
942.545250	2515.535769
942.847335	2417.233269
943.149381	2523.097500
943.451389	2460.083077
943.753359	2520.576923
944.055290	2452.521346
944.357182	2543.262115
944.659036	2475.206538
944.960851	2520.576923
945.262628	2545.782692
945.564367	2455.041923
945.866067	2465.124231
946.167729	2467.644808
946.469352	2485.288846
946.770937	2457.562500
947.072484	2427.315577
947.373992	2568.467885
947.675462	2492.850577
947.976893	2422.274423
948.278286	2472.685962
948.579641	2467.644808
948.880958	2502.932885
949.182236	2485.288846
949.483476	2460.083077
949.784678	2545.782692
950.085841	2533.179808
950.386967	2510.494615
950.688054	2437.397885
950.989103	2565.947308
951.290114	2523.097500
951.591087	2515.535769
951.892021	2439.918462
952.192917	2397.068654
952.493776	2482.768269
952.794596	2525.618077
953.095378	2457.562500
953.396122	2586.111923
953.696828	2417.233269
953.997496	2485.288846
954.298126	2442.439038
954.598718	2432.356731
954.899272	2472.685962
955.199788	2452.521346
955.500266	2568.467885
955.800706	2429.836154
956.101108	2540.741538
956.401472	2520.576923
956.701798	2510.494615
957.002087	2447.480192
957.302337	2535.700385
957.602550	2530.659231
957.902724	2444.959615
958.202861	2495.371154
958.502960	2513.015192
958.803022	2502.932885
959.103045	2530.659231
959.403031	2432.356731
959.702979	2518.056346
960.002889	2470.165385
960.302762	2535.700385
960.602596	2475.206538
960.902393	2460.083077
961.202153	2452.521346
961.501875	2470.165385
961.801559	2538.220962
962.101205	2563.426731
962.400814	2404.630385
962.700385	2485.288846
962.999918	2510.494615
963.299414	2487.809423
963.598873	2560.906154
963.898293	2442.439038
964.197677	2497.891731
964.497022	2576.029615
964.796331	2558.385577
965.095601	2414.712692
965.394835	2520.576923
965.694030	2543.262115
965.993189	2507.974038
966.292309	2492.850577
966.591393	2376.904038
966.890439	2530.659231
967.189447	2444.959615
967.488419	2518.056346
967.787353	2520.576923
968.086249	2523.097500
968.385108	2550.823846
968.683930	2407.150962
968.982714	2452.521346
969.281462	2545.782692
969.580172	2535.700385
969.878844	2505.453462
970.177480	2472.685962
970.476078	2555.865000
970.774639	2477.727115
971.073162	2482.768269
971.371649	2462.603654
971.670098	2485.288846
971.968510	2543.262115
972.266885	2513.015192
972.565223	2485.288846
972.863524	2485.288846
973.161788	2492.850577
973.460014	2429.836154
973.758204	2470.165385
974.056356	2538.220962
974.354471	2538.220962
974.652550	2429.836154
974.950591	2520.576923
975.248595	2429.836154
975.546563	2487.809423
975.844493	2502.932885
976.142386	2525.618077
976.440243	2490.330000
976.738062	2439.918462
977.035845	2437.397885
977.333590	2636.523462
977.631299	2528.138654
977.928971	2530.659231
978.226606	2475.206538
978.524204	2417.233269
978.821765	2417.233269
979.119290	2427.315577
979.416777	2570.988462
979.714228	2568.467885
980.011642	2523.097500
980.309020	2452.521346
980.606360	2502.932885
980.903664	2470.165385
981.200931	2507.974038
981.498162	2429.836154
981.795356	2429.836154
982.092513	2540.741538
982.389633	2465.124231
982.686717	2593.673654
982.983764	2540.741538
983.280775	2323.971923
983.577749	2495.371154
983.874686	2472.685962
984.171587	2470.165385
984.468451	2550.823846
984.765279	2507.974038
985.062070	2507.974038
985.358824	2460.083077
985.655543	2535.700385
985.952224	2450.000769
986.248869	2518.056346
986.545478	2482.768269
986.842050	2465.124231
987.138586	2432.356731
987.435086	2495.371154
987.731549	2513.015192
988.027975	2465.124231
988.324366	2558.385577
988.620719	2429.836154
988.917037	2462.603654
989.213318	2485.288846
989.509563	2528.138654
989.805772	2376.904038
990.101944	2520.576923
990.398080	2495.371154
990.694180	2543.262115
990.990244	2492.850577
991.286271	2452.521346
991.582262	2460.083077
991.878217	2487.809423
992.174136	2545.782692
992.470019	2570.988462
992.765865	2480.247692
993.061676	2329.013077
993.357450	2462.603654
993.653188	2462.603654
993.948890	2530.659231
994.244556	2450.000769
994.540186	2540.741538
994.835780	2444.959615
995.131337	2485.288846
995.426859	2409.671538
995.722345	2525.618077
996.017795	2500.412308
996.313208	2523.097500
996.608586	2462.603654
996.903928	2475.206538
997.199234	2442.439038
997.494504	2424.795000
997.789738	2480.247692
998.084936	2495.371154
998.380099	2472.685962
998.675225	2439.918462
998.970316	2497.891731
999.265371	2470.165385
999.560390	2452.521346
999.855373	2485.288846
1000.150320	2525.618077
1000.445232	2457.562500
1000.740108	2545.782692
1001.034948	2535.700385
1001.329752	2472.685962
1001.624521	2523.097500
1001.919254	2558.385577
1002.213951	2376.904038
1002.508613	2462.603654
1002.803239	2485.288846
1003.097829	2439.918462
1003.392384	2523.097500
1003.686903	2558.385577
1003.981386	2510.494615
1004.275834	2573.509038
1004.570246	2500.412308
1004.864623	2419.753846
1005.158964	2578.550192
1005.453270	2434.877308
1005.747540	2455.041923
1006.041775	2455.041923
1006.335974	2525.618077
1006.630138	2492.850577
1006.924266	2513.015192
1007.218359	2568.467885
1007.512416	2447.480192
1007.806438	2502.932885
1008.100425	2460.083077
1008.394376	2565.947308
1008.688292	2472.685962
1008.982172	2528.138654
1009.276017	2505.453462
1009.569827	2540.741538
1009.863602	2477.727115
1010.157341	2515.535769
1010.451045	2487.809423
1010.744714	2507.974038
1011.038347	2530.659231
1011.331945	2507.974038
1011.625508	2523.097500
1011.919036	2492.850577
1012.212528	2482.768269
1012.505986	2434.877308
1012.799408	2507.974038
1013.092795	2450.000769
1013.386147	2389.506923
1013.679464	2505.453462
1013.972745	2523.097500
1014.265992	2608.797115
1014.559204	2581.070769
1014.852380	2455.041923
1015.145521	2477.727115
1015.438628	2470.165385
1015.731699	2497.891731
1016.024736	2525.618077
1016.317737	2467.644808
1016.610703	2548.303269
1016.903635	2510.494615
1017.196531	2528.138654
1017.489393	2472.685962
1017.782219	2528.138654
1018.075011	2432.356731
1018.367768	2475.206538
1018.660490	2472.685962
1018.953177	2472.685962
1019.245829	2472.685962
