Dividing Wavelength (nm)	Counts (n)	Blue Motor Position (mm): 6.200000	Red Motor Position (mm): 0.000000	
326.493990	2104.681731
326.888308	2104.681731
327.282561	2104.681731
327.676750	2127.366923
328.070874	2079.475962
328.464933	2150.052115
328.858929	2092.078846
329.252859	2021.502692
329.646726	2076.955385
330.040528	2107.202308
330.434265	2102.161154
330.827938	2134.928654
331.221547	2124.846346
331.615091	2132.408077
332.008571	2122.325769
332.401986	2180.299038
332.795338	2215.587115
333.188625	2145.010962
333.581847	2235.751731
333.975006	2271.039808
334.368100	2278.601538
334.761129	2321.451346
335.154095	2361.780577
335.546996	2296.245577
335.939833	2308.848462
336.332606	2470.165385
336.725315	2394.548077
337.117960	2394.548077
337.510540	2422.274423
337.903056	2369.342308
338.295508	2414.712692
338.687896	2482.768269
339.080220	2427.315577
339.472480	2450.000769
339.864676	2480.247692
340.256807	2497.891731
340.648875	2505.453462
341.040879	2422.274423
341.432818	2434.877308
341.824694	2394.548077
342.216506	2502.932885
342.608253	2492.850577
342.999937	2460.083077
343.391557	2482.768269
343.783113	2407.150962
344.174605	2480.247692
344.566033	2475.206538
344.957397	2404.630385
345.348697	2485.288846
345.739934	2442.439038
346.131106	2404.630385
346.522215	2492.850577
346.913260	2497.891731
347.304241	2487.809423
347.695159	2389.506923
348.086012	2513.015192
348.476802	2434.877308
348.867528	2487.809423
349.258191	2462.603654
349.648789	2495.371154
350.039324	2465.124231
350.429796	2376.904038
350.820203	2437.397885
351.210548	2369.342308
351.600828	2442.439038
351.991045	2417.233269
352.381198	2381.945192
352.771288	2366.821731
353.161314	2419.753846
353.551276	2384.465769
353.941175	2381.945192
354.331010	2520.576923
354.720782	2427.315577
355.110490	2450.000769
355.500135	2492.850577
355.889717	2455.041923
356.279235	2364.301154
356.668689	2462.603654
357.058080	2414.712692
357.447408	2409.671538
357.836672	2447.480192
358.225873	2497.891731
358.615010	2404.630385
359.004084	2472.685962
359.393095	2455.041923
359.782043	2442.439038
360.170927	2422.274423
360.559748	2366.821731
360.948505	2495.371154
361.337199	2402.109808
361.725830	2470.165385
362.114398	2439.918462
362.502903	2543.262115
362.891344	2467.644808
363.279722	2465.124231
363.668037	2495.371154
364.056289	2434.877308
364.444478	2565.947308
364.832603	2432.356731
365.220665	2487.809423
365.608665	2407.150962
365.996601	2472.685962
366.384474	2472.685962
366.772284	2364.301154
367.160031	2452.521346
367.547715	2361.780577
367.935336	2465.124231
368.322893	2540.741538
368.710388	2427.315577
369.097820	2495.371154
369.485189	2470.165385
369.872495	2497.891731
370.259738	2409.671538
370.646918	2452.521346
371.034035	2437.397885
371.421090	2470.165385
371.808081	2462.603654
372.195010	2419.753846
372.581875	2535.700385
372.968678	2477.727115
373.355418	2450.000769
373.742096	2364.301154
374.128710	2434.877308
374.515262	2518.056346
374.901751	2442.439038
375.288177	2485.288846
375.674540	2407.150962
376.060841	2497.891731
376.447079	2507.974038
376.833254	2485.288846
377.219367	2513.015192
377.605417	2417.233269
377.991404	2477.727115
378.377329	2427.315577
378.763191	2472.685962
379.148991	2424.795000
379.534727	2457.562500
379.920402	2427.315577
380.306013	2467.644808
380.691563	2419.753846
381.077049	2492.850577
381.462474	2492.850577
381.847835	2497.891731
382.233134	2427.315577
382.618371	2465.124231
383.003545	2480.247692
383.388657	2379.424615
383.773706	2437.397885
384.158693	2447.480192
384.543618	2422.274423
384.928480	2515.535769
385.313280	2414.712692
385.698017	2482.768269
386.082692	2407.150962
386.467305	2455.041923
386.851856	2462.603654
387.236344	2482.768269
387.620770	2455.041923
388.005133	2457.562500
388.389435	2452.521346
388.773674	2495.371154
389.157851	2439.918462
389.541965	2472.685962
389.926018	2422.274423
390.310008	2510.494615
390.693936	2462.603654
391.077802	2439.918462
391.461606	2409.671538
391.845348	2429.836154
392.229027	2505.453462
392.612645	2500.412308
392.996200	2525.618077
393.379694	2455.041923
393.763125	2475.206538
394.146494	2437.397885
394.529801	2495.371154
394.913047	2457.562500
395.296230	2558.385577
395.679351	2513.015192
396.062410	2487.809423
396.445408	2523.097500
396.828343	2467.644808
397.211217	2528.138654
397.594028	2439.918462
397.976778	2467.644808
398.359466	2490.330000
398.742092	2437.397885
399.124656	2457.562500
399.507158	2515.535769
399.889598	2397.068654
400.271977	2535.700385
400.654294	2472.685962
401.036549	2397.068654
401.418742	2392.027500
401.800874	2507.974038
402.182944	2472.685962
402.564952	2515.535769
402.946898	2467.644808
403.328783	2444.959615
403.710606	2437.397885
404.092367	2460.083077
404.474067	2487.809423
404.855705	2502.932885
405.237282	2412.192115
405.618797	2457.562500
406.000250	2545.782692
406.381642	2487.809423
406.762972	2500.412308
407.144240	2450.000769
407.525447	2487.809423
407.906593	2523.097500
408.287677	2477.727115
408.668700	2515.535769
409.049661	2409.671538
409.430560	2427.315577
409.811399	2389.506923
410.192176	2422.274423
410.572891	2462.603654
410.953545	2510.494615
411.334138	2467.644808
411.714669	2530.659231
412.095139	2495.371154
412.475547	2500.412308
412.855894	2545.782692
413.236180	2462.603654
413.616405	2495.371154
413.996568	2417.233269
414.376670	2500.412308
414.756711	2492.850577
415.136691	2480.247692
415.516609	2442.439038
415.896466	2437.397885
416.276262	2485.288846
416.655997	2389.506923
417.035670	2404.630385
417.415283	2555.865000
417.794834	2447.480192
418.174324	2442.439038
418.553753	2495.371154
418.933121	2472.685962
419.312428	2447.480192
419.691674	2361.780577
420.070859	2535.700385
420.449983	2412.192115
420.829045	2591.153077
421.208047	2462.603654
421.586988	2560.906154
421.965867	2422.274423
422.344686	2434.877308
422.723444	2455.041923
423.102141	2480.247692
423.480777	2450.000769
423.859352	2535.700385
424.237866	2472.685962
424.616319	2523.097500
424.994712	2465.124231
425.373044	2414.712692
425.751314	2407.150962
426.129524	2450.000769
426.507673	2470.165385
426.885762	2457.562500
427.263789	2492.850577
427.641756	2492.850577
428.019662	2510.494615
428.397508	2389.506923
428.775292	2553.344423
429.153016	2495.371154
429.530679	2530.659231
429.908282	2505.453462
430.285824	2414.712692
430.663305	2490.330000
431.040726	2392.027500
431.418086	2515.535769
431.795385	2462.603654
432.172624	2487.809423
432.549802	2465.124231
432.926920	2495.371154
433.303977	2386.986346
433.680974	2500.412308
434.057910	2502.932885
434.434786	2563.426731
434.811601	2533.179808
435.188355	2447.480192
435.565050	2545.782692
435.941683	2455.041923
436.318257	2490.330000
436.694770	2384.465769
437.071222	2457.562500
437.447614	2452.521346
437.823946	2487.809423
438.200218	2460.083077
438.576429	2538.220962
438.952580	2497.891731
439.328670	2570.988462
439.704700	2507.974038
440.080670	2424.795000
440.456580	2462.603654
440.832429	2437.397885
441.208218	2520.576923
441.583947	2518.056346
441.959616	2502.932885
442.335224	2560.906154
442.710773	2452.521346
443.086261	2535.700385
443.461689	2361.780577
443.837057	2439.918462
444.212365	2439.918462
444.587612	2500.412308
444.962800	2477.727115
445.337927	2485.288846
445.712995	2505.453462
446.088002	2344.136538
446.462949	2550.823846
446.837837	2452.521346
447.212664	2538.220962
447.587431	2487.809423
447.962139	2437.397885
448.336786	2465.124231
448.711374	2505.453462
449.085901	2467.644808
449.460369	2422.274423
449.834776	2402.109808
450.209124	2563.426731
450.583412	2588.632500
450.957640	2432.356731
451.331808	2389.506923
451.705917	2475.206538
452.079965	2505.453462
452.453954	2452.521346
452.827883	2475.206538
453.201752	2470.165385
453.575562	2492.850577
453.949311	2533.179808
454.323001	2384.465769
454.696632	2371.862885
455.070202	2510.494615
455.443713	2465.124231
455.817164	2500.412308
456.190556	2533.179808
456.563888	2455.041923
456.937160	2505.453462
457.310373	2518.056346
457.683526	2500.412308
458.056619	2470.165385
458.429653	2492.850577
458.802628	2492.850577
459.175542	2507.974038
459.548398	2455.041923
459.921194	2485.288846
460.293930	2520.576923
460.666607	2515.535769
461.039224	2538.220962
461.411782	2452.521346
461.784280	2538.220962
462.156719	2409.671538
462.529099	2402.109808
462.901419	2518.056346
463.273680	2525.618077
463.645882	2487.809423
464.018024	2485.288846
464.390106	2495.371154
464.762130	2487.809423
465.134094	2412.192115
465.505999	2553.344423
465.877845	2553.344423
466.249631	2361.780577
466.621358	2513.015192
466.993026	2485.288846
467.364634	2500.412308
467.736184	2570.988462
468.107674	2470.165385
468.479105	2429.836154
468.850477	2518.056346
469.221790	2495.371154
469.593043	2505.453462
469.964238	2465.124231
470.335373	2560.906154
470.706449	2507.974038
471.077467	2497.891731
471.448425	2452.521346
471.819324	2502.932885
472.190164	2414.712692
472.560945	2457.562500
472.931667	2467.644808
473.302330	2450.000769
473.672934	2530.659231
474.043479	2482.768269
474.413965	2497.891731
474.784393	2427.315577
475.154761	2439.918462
475.525070	2535.700385
475.895321	2495.371154
476.265513	2492.850577
476.635645	2457.562500
477.005719	2530.659231
477.375734	2523.097500
477.745691	2553.344423
478.115588	2515.535769
478.485427	2533.179808
478.855207	2465.124231
479.224928	2565.947308
479.594591	2525.618077
479.964194	2513.015192
480.333739	2475.206538
480.703226	2502.932885
481.072653	2462.603654
481.442022	2482.768269
481.811333	2540.741538
482.180584	2452.521346
482.549777	2480.247692
482.918912	2530.659231
483.287988	2485.288846
483.657005	2475.206538
484.025964	2515.535769
484.394864	2424.795000
484.763706	2495.371154
485.132489	2523.097500
485.501213	2548.303269
485.869879	2472.685962
486.238487	2402.109808
486.607036	2427.315577
486.975527	2490.330000
487.343959	2447.480192
487.712333	2601.235385
488.080648	2480.247692
488.448905	2497.891731
488.817104	2460.083077
489.185244	2457.562500
489.553326	2520.576923
489.921350	2525.618077
490.289315	2457.562500
490.657222	2475.206538
491.025070	2427.315577
491.392861	2500.412308
491.760593	2472.685962
492.128267	2392.027500
492.495883	2528.138654
492.863440	2507.974038
493.230939	2520.576923
493.598380	2434.877308
493.965763	2581.070769
494.333088	2477.727115
494.700354	2447.480192
495.067563	2465.124231
495.434713	2513.015192
495.801805	2540.741538
496.168839	2528.138654
496.535815	2437.397885
496.902733	2528.138654
497.269593	2540.741538
497.636395	2470.165385
498.003139	2502.932885
498.369825	2447.480192
498.736453	2492.850577
499.103023	2495.371154
499.469535	2359.260000
499.835989	2530.659231
500.202385	2482.768269
500.568723	2510.494615
500.935003	2482.768269
501.301226	2515.535769
501.667390	2485.288846
502.033497	2570.988462
502.399546	2490.330000
502.765537	2424.795000
503.131470	2432.356731
503.497345	2472.685962
503.863163	2540.741538
504.228923	2424.795000
504.594625	2533.179808
504.960269	2581.070769
505.325856	2500.412308
505.691385	2450.000769
506.056856	2543.262115
506.422270	2480.247692
506.787625	2596.194231
507.152924	2439.918462
507.518164	2510.494615
507.883347	2535.700385
508.248472	2520.576923
508.613540	2528.138654
508.978550	2515.535769
509.343503	2389.506923
509.708398	2492.850577
510.073236	2515.535769
510.438016	2523.097500
510.802738	2437.397885
511.167403	2525.618077
511.532010	2394.548077
511.896561	2523.097500
512.261053	2490.330000
512.625488	2558.385577
512.989866	2558.385577
513.354186	2452.521346
513.718449	2485.288846
514.082655	2465.124231
514.446803	2407.150962
514.810894	2533.179808
515.174927	2495.371154
515.538904	2497.891731
515.902822	2477.727115
516.266684	2497.891731
516.630488	2389.506923
516.994235	2507.974038
517.357925	2487.809423
517.721558	2502.932885
518.085133	2437.397885
518.448651	2485.288846
518.812112	2523.097500
519.175516	2487.809423
519.538863	2480.247692
519.902152	2462.603654
520.265385	2573.509038
520.628560	2485.288846
520.991678	2452.521346
521.354739	2515.535769
521.717743	2535.700385
522.080690	2515.535769
522.443580	2462.603654
522.806413	2480.247692
523.169189	2497.891731
523.531908	2548.303269
523.894569	2462.603654
524.257174	2555.865000
524.619722	2611.317692
524.982213	2407.150962
525.344647	2538.220962
525.707025	2455.041923
526.069345	2447.480192
526.431608	2515.535769
526.793815	2568.467885
527.155964	2407.150962
527.518057	2462.603654
527.880093	2548.303269
528.242072	2422.274423
528.603995	2553.344423
528.965860	2497.891731
529.327669	2570.988462
529.689421	2497.891731
530.051117	2490.330000
530.412755	2520.576923
530.774337	2472.685962
531.135862	2465.124231
531.497331	2533.179808
531.858743	2455.041923
532.220098	2424.795000
532.581396	2480.247692
532.942638	2482.768269
533.303824	2565.947308
533.664953	2472.685962
534.026025	2558.385577
534.387040	2444.959615
534.747999	2465.124231
535.108902	2477.727115
535.469748	2520.576923
535.830537	2447.480192
536.191270	2523.097500
536.551947	2497.891731
536.912567	2497.891731
537.273131	2515.535769
537.633638	2472.685962
537.994089	2480.247692
538.354483	2518.056346
538.714821	2553.344423
539.075103	2583.591346
539.435328	2485.288846
539.795497	2409.671538
540.155609	2528.138654
540.515665	2535.700385
540.875665	2520.576923
541.235609	2497.891731
541.595496	2535.700385
541.955328	2462.603654
542.315102	2477.727115
542.674821	2460.083077
543.034483	2487.809423
543.394090	2422.274423
543.753640	2515.535769
544.113134	2452.521346
544.472571	2540.741538
544.831953	2518.056346
545.191278	2450.000769
545.550548	2583.591346
545.909761	2510.494615
546.268918	2384.465769
546.628019	2497.891731
546.987064	2525.618077
547.346053	2555.865000
547.704986	2414.712692
548.063863	2533.179808
548.422684	2467.644808
548.781449	2528.138654
549.140158	2497.891731
549.498811	2558.385577
549.857408	2434.877308
550.215949	2518.056346
550.574434	2492.850577
550.932864	2513.015192
551.291237	2412.192115
551.649555	2482.768269
552.007817	2472.685962
552.366022	2545.782692
552.724173	2495.371154
553.082267	2565.947308
553.440305	2485.288846
553.798288	2520.576923
554.156215	2462.603654
554.514086	2492.850577
554.871902	2482.768269
555.229661	2477.727115
555.587365	2576.029615
555.945014	2480.247692
556.302606	2465.124231
556.660143	2535.700385
557.017625	2432.356731
557.375050	2568.467885
557.732421	2485.288846
558.089735	2568.467885
558.446994	2502.932885
558.804197	2409.671538
559.161345	2492.850577
559.518437	2507.974038
559.875474	2487.809423
560.232455	2470.165385
560.589381	2480.247692
560.946251	2480.247692
561.303065	2497.891731
561.659825	2492.850577
562.016528	2520.576923
562.373177	2450.000769
562.729770	2444.959615
563.086307	2603.755962
563.442789	2480.247692
563.799216	2475.206538
564.155587	2455.041923
564.511904	2578.550192
564.868164	2434.877308
565.224370	2505.453462
565.580520	2528.138654
565.936615	2452.521346
566.292654	2472.685962
566.648638	2442.439038
567.004567	2543.262115
567.360441	2573.509038
567.716260	2550.823846
568.072023	2444.959615
568.427732	2530.659231
568.783385	2520.576923
569.138982	2450.000769
569.494525	2565.947308
569.850013	2457.562500
570.205445	2510.494615
570.560823	2460.083077
570.916145	2525.618077
571.271412	2578.550192
571.626625	2518.056346
571.981782	2550.823846
572.336884	2540.741538
572.691931	2568.467885
573.046923	2497.891731
573.401860	2497.891731
573.756743	2540.741538
574.111570	2500.412308
574.466342	2462.603654
574.821059	2487.809423
575.175722	2558.385577
575.530330	2434.877308
575.884882	2510.494615
576.239380	2505.453462
576.593823	2467.644808
576.948211	2462.603654
577.302544	2462.603654
577.656823	2550.823846
578.011047	2407.150962
578.365216	2492.850577
578.719330	2475.206538
579.073389	2490.330000
579.427394	2470.165385
579.781344	2563.426731
580.135239	2470.165385
580.489080	2477.727115
580.842866	2500.412308
581.196597	2470.165385
581.550273	2500.412308
581.903895	2450.000769
582.257463	2482.768269
582.610975	2480.247692
582.964434	2460.083077
583.317837	2550.823846
583.671186	2560.906154
584.024481	2434.877308
584.377721	2455.041923
584.730906	2495.371154
585.084037	2520.576923
585.437113	2510.494615
585.790135	2533.179808
586.143103	2497.891731
586.496016	2492.850577
586.848874	2439.918462
587.201679	2535.700385
587.554428	2480.247692
587.907124	2598.714808
588.259765	2439.918462
588.612352	2485.288846
588.964884	2447.480192
589.317362	2429.836154
589.669786	2487.809423
590.022155	2586.111923
590.374470	2477.727115
590.726731	2578.550192
591.078937	2505.453462
591.431090	2457.562500
591.783188	2492.850577
592.135232	2442.439038
592.487222	2603.755962
592.839157	2442.439038
593.191038	2472.685962
593.542866	2510.494615
593.894639	2510.494615
594.246358	2475.206538
594.598022	2485.288846
594.949633	2475.206538
595.301190	2434.877308
595.652692	2389.506923
596.004141	2513.015192
596.355535	2523.097500
596.706876	2477.727115
597.058162	2538.220962
597.409395	2565.947308
597.760573	2495.371154
598.111698	2510.494615
598.462768	2518.056346
598.813785	2558.385577
599.164748	2588.632500
599.515657	2482.768269
599.866511	2570.988462
600.217312	2432.356731
600.568060	2497.891731
600.918753	2487.809423
601.269392	2525.618077
601.619978	2565.947308
601.970510	2550.823846
602.320988	2442.439038
602.671412	2381.945192
603.021783	2487.809423
603.372100	2502.932885
603.722363	2550.823846
604.072572	2500.412308
604.422728	2470.165385
604.772830	2462.603654
605.122878	2460.083077
605.472872	2475.206538
605.822813	2510.494615
606.172701	2485.288846
606.522534	2465.124231
606.872314	2470.165385
607.222041	2533.179808
607.571714	2520.576923
607.921333	2513.015192
608.270899	2533.179808
608.620411	2540.741538
608.969870	2550.823846
609.319276	2424.795000
609.668627	2460.083077
610.017926	2409.671538
610.367171	2439.918462
610.716362	2581.070769
611.065500	2538.220962
611.414585	2495.371154
611.763616	2490.330000
612.112594	2525.618077
612.461518	2586.111923
612.810389	2497.891731
613.159207	2371.862885
613.507971	2444.959615
613.856682	2432.356731
614.205340	2437.397885
614.553945	2437.397885
614.902496	2500.412308
615.250994	2492.850577
615.599439	2515.535769
615.947830	2507.974038
616.296169	2427.315577
616.644454	2495.371154
616.992686	2490.330000
617.340864	2538.220962
617.688990	2518.056346
618.037063	2492.850577
618.385082	2608.797115
618.733048	2439.918462
619.080961	2513.015192
619.428821	2518.056346
619.776628	2515.535769
620.124382	2558.385577
620.472083	2419.753846
620.819731	2560.906154
621.167326	2447.480192
621.514868	2472.685962
621.862357	2452.521346
622.209793	2515.535769
622.557176	2475.206538
622.904506	2492.850577
623.251783	2434.877308
623.599007	2470.165385
623.946179	2402.109808
624.293297	2538.220962
624.640363	2490.330000
624.987376	2528.138654
625.334336	2505.453462
625.681243	2485.288846
626.028097	2477.727115
626.374899	2500.412308
626.721647	2477.727115
627.068343	2507.974038
627.414987	2502.932885
627.761577	2533.179808
628.108115	2399.589231
628.454600	2412.192115
628.801032	2528.138654
629.147412	2485.288846
629.493739	2434.877308
629.840014	2485.288846
630.186236	2570.988462
630.532405	2497.891731
630.878521	2507.974038
631.224585	2472.685962
631.570597	2487.809423
631.916556	2485.288846
632.262462	2558.385577
632.608316	2573.509038
632.954117	2455.041923
633.299866	2482.768269
633.645562	2467.644808
633.991206	2482.768269
634.336797	2525.618077
634.682336	2528.138654
635.027823	2485.288846
635.373257	2553.344423
635.718639	2480.247692
636.063968	2538.220962
636.409245	2472.685962
636.754470	2462.603654
637.099642	2500.412308
637.444762	2455.041923
637.789829	2452.521346
638.134845	2485.288846
638.479808	2485.288846
638.824719	2586.111923
639.169577	2578.550192
639.514383	2535.700385
639.859137	2533.179808
640.203839	2452.521346
640.548489	2548.303269
640.893086	2543.262115
641.237632	2553.344423
641.582125	2409.671538
641.926566	2460.083077
642.270955	2487.809423
642.615292	2520.576923
642.959576	2439.918462
643.303809	2500.412308
643.647990	2465.124231
643.992118	2487.809423
644.336195	2455.041923
644.680219	2500.412308
645.024192	2490.330000
645.368112	2528.138654
645.711981	2502.932885
646.055797	2427.315577
646.399562	2439.918462
646.743274	2525.618077
647.086935	2487.809423
647.430544	2490.330000
647.774101	2553.344423
648.117606	2485.288846
648.461059	2528.138654
648.804460	2437.397885
649.147810	2530.659231
649.491108	2424.795000
649.834354	2543.262115
650.177548	2477.727115
650.520690	2487.809423
650.863781	2581.070769
651.206820	2533.179808
651.549807	2460.083077
651.892742	2492.850577
652.235626	2472.685962
652.578458	2419.753846
652.921238	2505.453462
653.263967	2444.959615
653.606644	2480.247692
653.949269	2490.330000
654.291843	2470.165385
654.634365	2497.891731
654.976836	2538.220962
655.319255	2470.165385
655.661622	2475.206538
656.003938	2429.836154
656.346203	2533.179808
656.688416	2513.015192
657.030577	2495.371154
657.372687	2553.344423
657.714746	2500.412308
658.056753	2465.124231
658.398708	2475.206538
658.740612	2553.344423
659.082465	2470.165385
659.424266	2515.535769
659.766016	2518.056346
660.107715	2497.891731
660.449362	2470.165385
660.790958	2530.659231
661.132503	2528.138654
661.473996	2492.850577
661.815438	2502.932885
662.156829	2510.494615
662.498168	2490.330000
662.839456	2518.056346
663.180693	2505.453462
663.521879	2480.247692
663.863013	2545.782692
664.204097	2490.330000
664.545129	2533.179808
664.886110	2457.562500
665.227040	2535.700385
665.567918	2437.397885
665.908746	2439.918462
666.249522	2495.371154
666.590248	2563.426731
666.930922	2497.891731
667.271545	2513.015192
667.612118	2490.330000
667.952639	2573.509038
668.293109	2480.247692
668.633528	2518.056346
668.973896	2444.959615
669.314213	2374.383462
669.654480	2550.823846
669.994695	2475.206538
670.334859	2523.097500
670.674973	2452.521346
671.015035	2518.056346
671.355047	2535.700385
671.695008	2462.603654
672.034918	2485.288846
672.374777	2434.877308
672.714585	2543.262115
673.054342	2462.603654
673.394049	2560.906154
673.733705	2507.974038
674.073310	2482.768269
674.412864	2480.247692
674.752368	2530.659231
675.091820	2495.371154
675.431223	2402.109808
675.770574	2485.288846
676.109875	2470.165385
676.449125	2570.988462
676.788324	2553.344423
677.127473	2560.906154
677.466571	2487.809423
677.805619	2490.330000
678.144616	2455.041923
678.483562	2465.124231
678.822458	2520.576923
679.161303	2568.467885
679.500098	2525.618077
679.838842	2538.220962
680.177535	2477.727115
680.516179	2570.988462
680.854771	2482.768269
681.193314	2553.344423
681.531805	2507.974038
681.870247	2578.550192
682.208638	2490.330000
682.546978	2560.906154
682.885268	2444.959615
683.223508	2502.932885
683.561697	2523.097500
683.899836	2545.782692
684.237925	2460.083077
684.575963	2568.467885
684.913951	2490.330000
685.251889	2596.194231
685.589776	2462.603654
685.927614	2616.358846
686.265401	2447.480192
686.603137	2515.535769
686.940824	2477.727115
687.278460	2480.247692
687.616046	2528.138654
687.953582	2523.097500
688.291068	2392.027500
688.628504	2513.015192
688.965889	2450.000769
689.303224	2573.509038
689.640510	2495.371154
689.977745	2490.330000
690.314930	2565.947308
690.652065	2485.288846
690.989150	2424.795000
691.326185	2507.974038
691.663170	2515.535769
692.000105	2533.179808
692.336990	2553.344423
692.673825	2513.015192
693.010610	2553.344423
693.347345	2553.344423
693.684030	2414.712692
694.020665	2490.330000
694.357251	2525.618077
694.693786	2460.083077
695.030272	2414.712692
695.366707	2482.768269
695.703093	2444.959615
696.039429	2482.768269
696.375716	2565.947308
696.711952	2487.809423
697.048139	2490.330000
697.384276	2487.809423
697.720363	2500.412308
698.056400	2548.303269
698.392388	2482.768269
698.728326	2555.865000
699.064214	2528.138654
699.400053	2490.330000
699.735842	2482.768269
700.071581	2510.494615
700.407270	2467.644808
700.742910	2497.891731
701.078501	2550.823846
701.414042	2434.877308
701.749533	2510.494615
702.084974	2462.603654
702.420366	2462.603654
702.755709	2490.330000
703.091002	2563.426731
703.426246	2439.918462
703.761440	2510.494615
704.096584	2485.288846
704.431679	2555.865000
704.766725	2525.618077
705.101721	2611.317692
705.436668	2419.753846
705.771565	2513.015192
706.106413	2482.768269
706.441212	2507.974038
706.775961	2505.453462
707.110661	2490.330000
707.445311	2490.330000
707.779913	2530.659231
708.114465	2482.768269
708.448967	2447.480192
708.783421	2555.865000
709.117825	2490.330000
709.452180	2576.029615
709.786485	2520.576923
710.120742	2558.385577
710.454949	2487.809423
710.789107	2515.535769
711.123216	2457.562500
711.457275	2419.753846
711.791286	2472.685962
712.125247	2523.097500
712.459159	2492.850577
712.793023	2482.768269
713.126837	2450.000769
713.460602	2465.124231
713.794318	2530.659231
714.127985	2520.576923
714.461602	2535.700385
714.795171	2510.494615
715.128691	2502.932885
715.462162	2525.618077
715.795584	2460.083077
716.128957	2492.850577
716.462281	2485.288846
716.795556	2475.206538
717.128782	2523.097500
717.461960	2450.000769
717.795088	2505.453462
718.128167	2462.603654
718.461198	2497.891731
718.794180	2520.576923
719.127113	2520.576923
719.459997	2472.685962
719.792833	2555.865000
720.125619	2497.891731
720.458357	2475.206538
720.791046	2470.165385
721.123686	2475.206538
721.456278	2467.644808
721.788821	2477.727115
722.121315	2487.809423
722.453761	2505.453462
722.786158	2497.891731
723.118506	2487.809423
723.450805	2518.056346
723.783056	2477.727115
724.115259	2462.603654
724.447412	2518.056346
724.779518	2422.274423
725.111574	2518.056346
725.443582	2507.974038
725.775542	2540.741538
726.107453	2472.685962
726.439315	2465.124231
726.771129	2502.932885
727.102895	2482.768269
727.434612	2560.906154
727.766281	2570.988462
728.097901	2472.685962
728.429473	2475.206538
728.760996	2505.453462
729.092471	2429.836154
729.423897	2485.288846
729.755276	2465.124231
730.086606	2467.644808
730.417887	2507.974038
730.749120	2495.371154
731.080305	2497.891731
731.411442	2432.356731
731.742530	2427.315577
732.073570	2573.509038
732.404562	2462.603654
732.735506	2497.891731
733.066401	2555.865000
733.397249	2472.685962
733.728048	2515.535769
734.058798	2485.288846
734.389501	2518.056346
734.720156	2513.015192
735.050762	2455.041923
735.381320	2467.644808
735.711831	2523.097500
736.042293	2492.850577
736.372707	2444.959615
736.703073	2538.220962
737.033391	2578.550192
737.363661	2460.083077
737.693883	2505.453462
738.024056	2487.809423
738.354182	2427.315577
738.684260	2442.439038
739.014290	2444.959615
739.344272	2502.932885
739.674207	2487.809423
740.004093	2467.644808
740.333931	2460.083077
740.663722	2447.480192
740.993464	2525.618077
741.323159	2457.562500
741.652806	2563.426731
741.982405	2470.165385
742.311956	2437.397885
742.641460	2447.480192
742.970915	2437.397885
743.300323	2530.659231
743.629683	2434.877308
743.958996	2492.850577
744.288260	2523.097500
744.617477	2533.179808
744.946647	2555.865000
745.275768	2467.644808
745.604842	2550.823846
745.933869	2439.918462
746.262847	2586.111923
746.591778	2492.850577
746.920662	2533.179808
747.249498	2444.959615
747.578286	2434.877308
747.907027	2487.809423
748.235720	2515.535769
748.564365	2581.070769
748.892963	2472.685962
749.221514	2553.344423
749.550017	2477.727115
749.878473	2513.015192
750.206881	2399.589231
750.535242	2470.165385
750.863555	2515.535769
751.191821	2533.179808
751.520039	2505.453462
751.848210	2490.330000
752.176334	2439.918462
752.504411	2462.603654
752.832440	2515.535769
753.160421	2472.685962
753.488356	2444.959615
753.816243	2465.124231
754.144082	2475.206538
754.471875	2487.809423
754.799620	2409.671538
755.127318	2533.179808
755.454969	2497.891731
755.782572	2513.015192
756.110129	2502.932885
756.437638	2419.753846
756.765100	2470.165385
757.092515	2467.644808
757.419882	2465.124231
757.747203	2540.741538
758.074477	2419.753846
758.401703	2505.453462
758.728882	2543.262115
759.056014	2442.439038
759.383099	2475.206538
759.710138	2540.741538
760.037129	2523.097500
760.364073	2444.959615
760.690970	2520.576923
761.017820	2518.056346
761.344623	2520.576923
761.671379	2485.288846
761.998088	2513.015192
762.324751	2460.083077
762.651366	2497.891731
762.977935	2465.124231
763.304456	2397.068654
763.630931	2530.659231
763.957359	2505.453462
764.283740	2543.262115
764.610074	2613.838269
764.936362	2467.644808
765.262602	2591.153077
765.588796	2427.315577
765.914943	2535.700385
766.241044	2475.206538
766.567097	2528.138654
766.893104	2465.124231
767.219064	2528.138654
767.544978	2457.562500
767.870845	2568.467885
768.196665	2472.685962
768.522438	2523.097500
768.848165	2462.603654
769.173846	2462.603654
769.499479	2518.056346
769.825066	2495.371154
770.150607	2460.083077
770.476101	2490.330000
770.801548	2439.918462
771.126949	2548.303269
771.452303	2462.603654
771.777611	2525.618077
772.102872	2505.453462
772.428087	2455.041923
772.753256	2563.426731
773.078378	2505.453462
773.403453	2472.685962
773.728482	2457.562500
774.053465	2477.727115
774.378401	2505.453462
774.703291	2497.891731
775.028135	2586.111923
775.352932	2462.603654
775.677683	2523.097500
776.002388	2442.439038
776.327046	2528.138654
776.651658	2553.344423
776.976224	2439.918462
777.300743	2525.618077
777.625216	2520.576923
777.949643	2502.932885
778.274024	2429.836154
778.598359	2525.618077
778.922647	2513.015192
779.246889	2555.865000
779.571086	2490.330000
779.895236	2520.576923
780.219339	2477.727115
780.543397	2480.247692
780.867409	2523.097500
781.191374	2515.535769
781.515294	2439.918462
781.839167	2548.303269
782.162995	2434.877308
782.486776	2570.988462
782.810511	2392.027500
783.134201	2550.823846
783.457844	2452.521346
783.781441	2477.727115
784.104993	2394.548077
784.428498	2444.959615
784.751958	2555.865000
785.075372	2485.288846
785.398739	2502.932885
785.722061	2563.426731
786.045337	2457.562500
786.368568	2573.509038
786.691752	2533.179808
787.014891	2555.865000
787.337983	2495.371154
787.661030	2497.891731
787.984031	2525.618077
788.306987	2565.947308
788.629897	2477.727115
788.952760	2462.603654
789.275579	2497.891731
789.598351	2447.480192
789.921078	2432.356731
790.243759	2462.603654
790.566395	2606.276538
790.888984	2482.768269
791.211529	2482.768269
791.534027	2470.165385
791.856480	2475.206538
792.178888	2497.891731
792.501249	2500.412308
792.823566	2450.000769
793.145836	2444.959615
793.468062	2447.480192
793.790241	2477.727115
794.112375	2525.618077
794.434464	2520.576923
794.756507	2412.192115
795.078505	2538.220962
795.400457	2447.480192
795.722364	2427.315577
796.044226	2399.589231
796.366042	2475.206538
796.687812	2437.397885
797.009538	2568.467885
797.331218	2462.603654
797.652852	2576.029615
797.974442	2477.727115
798.295986	2487.809423
798.617484	2502.932885
798.938938	2480.247692
799.260346	2432.356731
799.581709	2477.727115
799.903026	2533.179808
800.224299	2525.618077
800.545526	2510.494615
800.866708	2520.576923
801.187845	2487.809423
801.508936	2520.576923
801.829983	2412.192115
802.150984	2525.618077
802.471940	2530.659231
802.792851	2422.274423
803.113717	2470.165385
803.434538	2404.630385
803.755314	2467.644808
804.076045	2480.247692
804.396731	2490.330000
804.717372	2485.288846
805.037967	2497.891731
805.358518	2492.850577
805.679024	2439.918462
805.999485	2460.083077
806.319901	2502.932885
806.640272	2533.179808
806.960598	2636.523462
807.280879	2490.330000
807.601115	2611.317692
807.921306	2424.795000
808.241453	2434.877308
808.561554	2548.303269
808.881611	2434.877308
809.201623	2485.288846
809.521590	2427.315577
809.841513	2528.138654
810.161390	2442.439038
810.481223	2563.426731
810.801011	2523.097500
811.120755	2518.056346
811.440453	2452.521346
811.760107	2545.782692
812.079716	2530.659231
812.399281	2485.288846
812.718801	2492.850577
813.038276	2480.247692
813.357707	2447.480192
813.677093	2485.288846
813.996434	2513.015192
814.315731	2555.865000
814.634983	2444.959615
814.954191	2487.809423
815.273354	2422.274423
815.592473	2550.823846
815.911547	2538.220962
816.230577	2507.974038
816.549562	2497.891731
816.868502	2465.124231
817.187399	2470.165385
817.506250	2523.097500
817.825058	2482.768269
818.143821	2492.850577
818.462539	2467.644808
818.781213	2399.589231
819.099843	2480.247692
819.418429	2500.412308
819.736970	2329.013077
820.055466	2518.056346
820.373919	2535.700385
820.692327	2540.741538
821.010691	2485.288846
821.329011	2525.618077
821.647286	2507.974038
821.965517	2462.603654
822.283704	2480.247692
822.601847	2502.932885
822.919945	2467.644808
823.237999	2422.274423
823.556010	2480.247692
823.873976	2495.371154
824.191897	2450.000769
824.509775	2442.439038
824.827609	2520.576923
825.145398	2434.877308
825.463144	2482.768269
825.780845	2455.041923
826.098502	2565.947308
826.416116	2540.741538
826.733685	2447.480192
827.051210	2581.070769
827.368692	2482.768269
827.686129	2477.727115
828.003522	2455.041923
828.320872	2407.150962
828.638177	2520.576923
828.955439	2550.823846
829.272656	2442.439038
829.589830	2563.426731
829.906960	2482.768269
830.224046	2495.371154
830.541088	2515.535769
830.858086	2535.700385
831.175041	2475.206538
831.491952	2555.865000
831.808819	2442.439038
832.125642	2502.932885
832.442421	2578.550192
832.759157	2472.685962
833.075849	2528.138654
833.392497	2525.618077
833.709101	2475.206538
834.025662	2452.521346
834.342179	2495.371154
834.658653	2467.644808
834.975083	2472.685962
835.291469	2523.097500
835.607811	2490.330000
835.924110	2452.521346
836.240366	2462.603654
836.556578	2495.371154
836.872746	2475.206538
837.188871	2490.330000
837.504952	2450.000769
837.820990	2480.247692
838.136984	2487.809423
838.452935	2437.397885
838.768842	2540.741538
839.084706	2470.165385
839.400526	2444.959615
839.716303	2447.480192
840.032037	2523.097500
840.347727	2495.371154
840.663373	2520.576923
840.978977	2422.274423
841.294537	2538.220962
841.610054	2495.371154
841.925527	2507.974038
842.240957	2439.918462
842.556344	2520.576923
842.871687	2507.974038
843.186987	2507.974038
843.502244	2482.768269
843.817458	2520.576923
844.132629	2485.288846
844.447756	2502.932885
844.762840	2492.850577
845.077881	2460.083077
845.392879	2500.412308
845.707833	2507.974038
846.022745	2550.823846
846.337613	2475.206538
846.652438	2450.000769
846.967221	2515.535769
847.281960	2568.467885
847.596656	2460.083077
847.911309	2427.315577
848.225919	2424.795000
848.540485	2513.015192
848.855009	2553.344423
849.169490	2540.741538
849.483928	2513.015192
849.798323	2477.727115
850.112675	2460.083077
850.426984	2525.618077
850.741251	2450.000769
851.055474	2475.206538
851.369654	2487.809423
851.683792	2475.206538
851.997887	2482.768269
852.311938	2555.865000
852.625947	2452.521346
852.939914	2528.138654
853.253837	2492.850577
853.567718	2530.659231
853.881555	2462.603654
854.195350	2444.959615
854.509103	2487.809423
854.822812	2444.959615
855.136479	2505.453462
855.450103	2495.371154
855.763685	2482.768269
856.077224	2442.439038
856.390720	2497.891731
856.704173	2442.439038
857.017584	2578.550192
857.330953	2480.247692
857.644278	2450.000769
857.957561	2482.768269
858.270802	2545.782692
858.584000	2452.521346
858.897155	2520.576923
859.210268	2455.041923
859.523339	2520.576923
859.836367	2593.673654
860.149352	2470.165385
860.462295	2455.041923
860.775195	2513.015192
861.088054	2450.000769
861.400869	2570.988462
861.713642	2500.412308
862.026373	2397.068654
862.339062	2424.795000
862.651708	2510.494615
862.964312	2470.165385
863.276873	2505.453462
863.589392	2507.974038
863.901869	2482.768269
864.214303	2540.741538
864.526696	2414.712692
864.839045	2492.850577
865.151353	2543.262115
865.463619	2444.959615
865.775842	2535.700385
866.088023	2518.056346
866.400162	2555.865000
866.712258	2424.795000
867.024313	2492.850577
867.336325	2533.179808
867.648296	2397.068654
867.960224	2528.138654
868.272110	2523.097500
868.583954	2485.288846
868.895755	2510.494615
869.207515	2442.439038
869.519233	2497.891731
869.830909	2550.823846
870.142542	2467.644808
870.454134	2500.412308
870.765684	2555.865000
871.077191	2482.768269
871.388657	2455.041923
871.700081	2447.480192
872.011463	2555.865000
872.322803	2477.727115
872.634101	2460.083077
872.945357	2492.850577
873.256571	2487.809423
873.567744	2487.809423
873.878874	2482.768269
874.189963	2480.247692
874.501010	2465.124231
874.812015	2462.603654
875.122979	2507.974038
875.433900	2505.453462
875.744780	2520.576923
876.055618	2558.385577
876.366415	2535.700385
876.677169	2497.891731
876.987882	2492.850577
877.298554	2550.823846
877.609183	2563.426731
877.919771	2513.015192
878.230317	2432.356731
878.540822	2434.877308
878.851285	2470.165385
879.161707	2495.371154
879.472087	2429.836154
879.782425	2470.165385
880.092722	2548.303269
880.402977	2510.494615
880.713191	2477.727115
881.023363	2510.494615
881.333494	2444.959615
881.643583	2477.727115
881.953631	2470.165385
882.263637	2558.385577
882.573602	2465.124231
882.883526	2568.467885
883.193408	2528.138654
883.503248	2510.494615
883.813048	2553.344423
884.122806	2482.768269
884.432522	2533.179808
884.742197	2427.315577
885.051831	2404.630385
885.361424	2520.576923
885.670975	2444.959615
885.980485	2500.412308
886.289954	2452.521346
886.599382	2528.138654
886.908768	2475.206538
887.218113	2598.714808
887.527417	2470.165385
887.836680	2530.659231
888.145901	2492.850577
888.455082	2507.974038
888.764221	2437.397885
889.073319	2515.535769
889.382376	2545.782692
889.691392	2439.918462
890.000366	2528.138654
890.309300	2523.097500
890.618193	2432.356731
890.927044	2492.850577
891.235855	2535.700385
891.544625	2432.356731
891.853353	2510.494615
892.162041	2455.041923
892.470687	2515.535769
892.779293	2442.439038
893.087858	2535.700385
893.396381	2434.877308
893.704864	2482.768269
894.013306	2452.521346
894.321707	2480.247692
894.630068	2523.097500
894.938387	2492.850577
895.246665	2520.576923
895.554903	2530.659231
895.863100	2429.836154
896.171256	2525.618077
896.479371	2490.330000
896.787446	2555.865000
897.095480	2520.576923
897.403473	2434.877308
897.711425	2442.439038
898.019336	2560.906154
898.327207	2407.150962
898.635038	2434.877308
898.942827	2528.138654
899.250576	2450.000769
899.558284	2545.782692
899.865952	2477.727115
900.173579	2518.056346
900.481165	2487.809423
900.788711	2530.659231
901.096216	2482.768269
901.403681	2437.397885
901.711105	2417.233269
902.018489	2507.974038
902.325832	2384.465769
902.633135	2485.288846
902.940397	2523.097500
903.247619	2477.727115
903.554800	2492.850577
903.861941	2462.603654
904.169041	2442.439038
904.476101	2500.412308
904.783121	2497.891731
905.090100	2424.795000
905.397039	2460.083077
905.703938	2520.576923
906.010796	2540.741538
906.317614	2497.891731
906.624391	2538.220962
906.931129	2520.576923
907.237826	2455.041923
907.544483	2500.412308
907.851099	2492.850577
908.157675	2457.562500
908.464211	2450.000769
908.770707	2523.097500
909.077163	2505.453462
909.383578	2414.712692
909.689954	2432.356731
909.996289	2525.618077
910.302584	2450.000769
910.608839	2507.974038
910.915054	2452.521346
911.221229	2434.877308
911.527363	2513.015192
911.833458	2550.823846
912.139513	2528.138654
912.445527	2530.659231
912.751502	2482.768269
913.057436	2450.000769
913.363331	2520.576923
913.669186	2497.891731
913.975000	2414.712692
914.280775	2450.000769
914.586510	2485.288846
914.892205	2475.206538
915.197859	2518.056346
915.503475	2487.809423
915.809050	2515.535769
916.114585	2563.426731
916.420081	2477.727115
916.725536	2477.727115
917.030952	2482.768269
917.336328	2432.356731
917.641665	2450.000769
917.946961	2442.439038
918.252218	2573.509038
918.557435	2505.453462
918.862612	2475.206538
919.167750	2515.535769
919.472848	2505.453462
919.777906	2540.741538
920.082925	2518.056346
920.387904	2543.262115
920.692843	2462.603654
920.997743	2507.974038
921.302603	2525.618077
921.607423	2518.056346
921.912204	2439.918462
922.216946	2444.959615
922.521647	2467.644808
922.826310	2533.179808
923.130932	2457.562500
923.435516	2495.371154
923.740059	2507.974038
924.044564	2543.262115
924.349028	2409.671538
924.653454	2538.220962
924.957840	2457.562500
925.262186	2543.262115
925.566493	2520.576923
925.870761	2490.330000
926.174989	2518.056346
926.479178	2492.850577
926.783328	2515.535769
927.087438	2510.494615
927.391509	2505.453462
927.695541	2447.480192
927.999533	2520.576923
928.303486	2432.356731
928.607400	2550.823846
928.911275	2467.644808
929.215110	2407.150962
929.518906	2485.288846
929.822663	2394.548077
930.126381	2485.288846
930.430060	2462.603654
930.733699	2452.521346
931.037299	2482.768269
931.340861	2467.644808
931.644383	2422.274423
931.947866	2515.535769
932.251309	2490.330000
932.554714	2470.165385
932.858080	2472.685962
933.161407	2555.865000
933.464694	2502.932885
933.767943	2460.083077
934.071153	2500.412308
934.374323	2525.618077
934.677455	2487.809423
934.980548	2470.165385
935.283602	2480.247692
935.586617	2540.741538
935.889593	2442.439038
936.192530	2513.015192
936.495428	2455.041923
936.798287	2455.041923
937.101108	2450.000769
937.403890	2540.741538
937.706632	2460.083077
938.009336	2563.426731
938.312002	2588.632500
938.614628	2530.659231
938.917216	2480.247692
939.219765	2545.782692
939.522275	2540.741538
939.824747	2452.521346
940.127179	2505.453462
940.429573	2485.288846
940.731929	2472.685962
941.034246	2439.918462
941.336524	2530.659231
941.638763	2507.974038
941.940964	2502.932885
942.243126	2429.836154
942.545250	2565.947308
942.847335	2565.947308
943.149381	2452.521346
943.451389	2500.412308
943.753359	2505.453462
944.055290	2513.015192
944.357182	2462.603654
944.659036	2364.301154
944.960851	2500.412308
945.262628	2598.714808
945.564367	2485.288846
945.866067	2434.877308
946.167729	2447.480192
946.469352	2515.535769
946.770937	2457.562500
947.072484	2412.192115
947.373992	2427.315577
947.675462	2472.685962
947.976893	2482.768269
948.278286	2462.603654
948.579641	2444.959615
948.880958	2497.891731
949.182236	2535.700385
949.483476	2490.330000
949.784678	2495.371154
950.085841	2543.262115
950.386967	2447.480192
950.688054	2457.562500
950.989103	2444.959615
951.290114	2477.727115
951.591087	2495.371154
951.892021	2452.521346
952.192917	2457.562500
952.493776	2432.356731
952.794596	2457.562500
953.095378	2548.303269
953.396122	2495.371154
953.696828	2432.356731
953.997496	2505.453462
954.298126	2472.685962
954.598718	2507.974038
954.899272	2533.179808
955.199788	2520.576923
955.500266	2442.439038
955.800706	2500.412308
956.101108	2492.850577
956.401472	2535.700385
956.701798	2419.753846
957.002087	2540.741538
957.302337	2515.535769
957.602550	2439.918462
957.902724	2417.233269
958.202861	2515.535769
958.502960	2500.412308
958.803022	2417.233269
959.103045	2510.494615
959.403031	2422.274423
959.702979	2447.480192
960.002889	2470.165385
960.302762	2502.932885
960.602596	2444.959615
960.902393	2510.494615
961.202153	2462.603654
961.501875	2540.741538
961.801559	2555.865000
962.101205	2573.509038
962.400814	2505.453462
962.700385	2535.700385
962.999918	2510.494615
963.299414	2467.644808
963.598873	2495.371154
963.898293	2497.891731
964.197677	2497.891731
964.497022	2419.753846
964.796331	2568.467885
965.095601	2437.397885
965.394835	2518.056346
965.694030	2482.768269
965.993189	2545.782692
966.292309	2578.550192
966.591393	2437.397885
966.890439	2477.727115
967.189447	2455.041923
967.488419	2528.138654
967.787353	2427.315577
968.086249	2543.262115
968.385108	2513.015192
968.683930	2447.480192
968.982714	2603.755962
969.281462	2457.562500
969.580172	2394.548077
969.878844	2475.206538
970.177480	2477.727115
970.476078	2560.906154
970.774639	2518.056346
971.073162	2523.097500
971.371649	2417.233269
971.670098	2507.974038
971.968510	2429.836154
972.266885	2492.850577
972.565223	2465.124231
972.863524	2457.562500
973.161788	2513.015192
973.460014	2485.288846
973.758204	2444.959615
974.056356	2497.891731
974.354471	2497.891731
974.652550	2490.330000
974.950591	2462.603654
975.248595	2427.315577
975.546563	2477.727115
975.844493	2482.768269
976.142386	2495.371154
976.440243	2429.836154
976.738062	2528.138654
977.035845	2553.344423
977.333590	2465.124231
977.631299	2482.768269
977.928971	2490.330000
978.226606	2528.138654
978.524204	2444.959615
978.821765	2533.179808
979.119290	2465.124231
979.416777	2540.741538
979.714228	2497.891731
980.011642	2427.315577
980.309020	2434.877308
980.606360	2492.850577
980.903664	2495.371154
981.200931	2492.850577
981.498162	2502.932885
981.795356	2507.974038
982.092513	2520.576923
982.389633	2427.315577
982.686717	2465.124231
982.983764	2530.659231
983.280775	2462.603654
983.577749	2560.906154
983.874686	2422.274423
984.171587	2422.274423
984.468451	2475.206538
984.765279	2475.206538
985.062070	2530.659231
985.358824	2434.877308
985.655543	2424.795000
985.952224	2482.768269
986.248869	2492.850577
986.545478	2515.535769
986.842050	2492.850577
987.138586	2442.439038
987.435086	2525.618077
987.731549	2470.165385
988.027975	2497.891731
988.324366	2515.535769
988.620719	2465.124231
988.917037	2432.356731
989.213318	2485.288846
989.509563	2528.138654
989.805772	2422.274423
990.101944	2513.015192
990.398080	2455.041923
990.694180	2467.644808
990.990244	2482.768269
991.286271	2500.412308
991.582262	2404.630385
991.878217	2477.727115
992.174136	2457.562500
992.470019	2485.288846
992.765865	2429.836154
993.061676	2417.233269
993.357450	2528.138654
993.653188	2467.644808
993.948890	2538.220962
994.244556	2505.453462
994.540186	2482.768269
994.835780	2477.727115
995.131337	2533.179808
995.426859	2422.274423
995.722345	2518.056346
996.017795	2475.206538
996.313208	2497.891731
996.608586	2500.412308
996.903928	2475.206538
997.199234	2482.768269
997.494504	2497.891731
997.789738	2492.850577
998.084936	2545.782692
998.380099	2392.027500
998.675225	2500.412308
998.970316	2477.727115
999.265371	2490.330000
999.560390	2457.562500
999.855373	2485.288846
1000.150320	2530.659231
1000.445232	2548.303269
1000.740108	2434.877308
1001.034948	2502.932885
1001.329752	2467.644808
1001.624521	2470.165385
1001.919254	2487.809423
1002.213951	2407.150962
1002.508613	2530.659231
1002.803239	2492.850577
1003.097829	2389.506923
1003.392384	2487.809423
1003.686903	2523.097500
1003.981386	2460.083077
1004.275834	2460.083077
1004.570246	2520.576923
1004.864623	2432.356731
1005.158964	2505.453462
1005.453270	2545.782692
1005.747540	2505.453462
1006.041775	2510.494615
1006.335974	2404.630385
1006.630138	2507.974038
1006.924266	2467.644808
1007.218359	2487.809423
1007.512416	2525.618077
1007.806438	2487.809423
1008.100425	2513.015192
1008.394376	2573.509038
1008.688292	2427.315577
1008.982172	2518.056346
1009.276017	2472.685962
1009.569827	2550.823846
1009.863602	2500.412308
1010.157341	2397.068654
1010.451045	2528.138654
1010.744714	2450.000769
1011.038347	2465.124231
1011.331945	2475.206538
1011.625508	2442.439038
1011.919036	2523.097500
1012.212528	2470.165385
1012.505986	2533.179808
1012.799408	2467.644808
1013.092795	2515.535769
1013.386147	2490.330000
1013.679464	2444.959615
1013.972745	2414.712692
1014.265992	2497.891731
1014.559204	2472.685962
1014.852380	2550.823846
1015.145521	2477.727115
1015.438628	2492.850577
1015.731699	2457.562500
1016.024736	2460.083077
1016.317737	2480.247692
1016.610703	2553.344423
1016.903635	2540.741538
1017.196531	2487.809423
1017.489393	2596.194231
1017.782219	2535.700385
1018.075011	2475.206538
1018.367768	2450.000769
1018.660490	2533.179808
1018.953177	2533.179808
1019.245829	2533.179808
