Dividing Wavelength (nm)	Counts (n)	Blue Motor Position (mm): 2.500000	Red Motor Position (mm): 0.000000	
326.493990	2061.831923
326.888308	2061.831923
327.282561	2061.831923
327.676750	2029.064423
328.070874	2016.461538
328.464933	2104.681731
328.858929	2087.037692
329.252859	2051.749615
329.646726	2046.708462
330.040528	2107.202308
330.434265	2134.928654
330.827938	2167.696154
331.221547	2160.134423
331.615091	2172.737308
332.008571	2248.354615
332.401986	2099.640577
332.795338	2238.272308
333.188625	2278.601538
333.581847	2326.492500
333.975006	2228.190000
334.368100	2308.848462
334.761129	2354.218846
335.154095	2339.095385
335.546996	2381.945192
335.939833	2414.712692
336.332606	2369.342308
336.725315	2437.397885
337.117960	2399.589231
337.510540	2374.383462
337.903056	2321.451346
338.295508	2480.247692
338.687896	2507.974038
339.080220	2434.877308
339.472480	2407.150962
339.864676	2434.877308
340.256807	2465.124231
340.648875	2457.562500
341.040879	2487.809423
341.432818	2492.850577
341.824694	2467.644808
342.216506	2502.932885
342.608253	2397.068654
342.999937	2447.480192
343.391557	2505.453462
343.783113	2447.480192
344.174605	2535.700385
344.566033	2427.315577
344.957397	2528.138654
345.348697	2523.097500
345.739934	2452.521346
346.131106	2492.850577
346.522215	2412.192115
346.913260	2386.986346
347.304241	2515.535769
347.695159	2530.659231
348.086012	2520.576923
348.476802	2444.959615
348.867528	2497.891731
349.258191	2447.480192
349.648789	2455.041923
350.039324	2460.083077
350.429796	2376.904038
350.820203	2462.603654
351.210548	2432.356731
351.600828	2467.644808
351.991045	2470.165385
352.381198	2518.056346
352.771288	2485.288846
353.161314	2404.630385
353.551276	2497.891731
353.941175	2480.247692
354.331010	2432.356731
354.720782	2412.192115
355.110490	2286.163269
355.500135	2402.109808
355.889717	2450.000769
356.279235	2414.712692
356.668689	2419.753846
357.058080	2467.644808
357.447408	2419.753846
357.836672	2460.083077
358.225873	2376.904038
358.615010	2480.247692
359.004084	2397.068654
359.393095	2389.506923
359.782043	2455.041923
360.170927	2417.233269
360.559748	2414.712692
360.948505	2442.439038
361.337199	2465.124231
361.725830	2482.768269
362.114398	2467.644808
362.502903	2482.768269
362.891344	2429.836154
363.279722	2361.780577
363.668037	2480.247692
364.056289	2427.315577
364.444478	2485.288846
364.832603	2313.889615
365.220665	2424.795000
365.608665	2470.165385
365.996601	2422.274423
366.384474	2407.150962
366.772284	2437.397885
367.160031	2437.397885
367.547715	2419.753846
367.935336	2460.083077
368.322893	2432.356731
368.710388	2548.303269
369.097820	2422.274423
369.485189	2450.000769
369.872495	2505.453462
370.259738	2429.836154
370.646918	2422.274423
371.034035	2439.918462
371.421090	2465.124231
371.808081	2392.027500
372.195010	2465.124231
372.581875	2409.671538
372.968678	2450.000769
373.355418	2452.521346
373.742096	2424.795000
374.128710	2543.262115
374.515262	2470.165385
374.901751	2505.453462
375.288177	2500.412308
375.674540	2482.768269
376.060841	2480.247692
376.447079	2480.247692
376.833254	2422.274423
377.219367	2490.330000
377.605417	2434.877308
377.991404	2495.371154
378.377329	2525.618077
378.763191	2475.206538
379.148991	2444.959615
379.534727	2543.262115
379.920402	2513.015192
380.306013	2487.809423
380.691563	2392.027500
381.077049	2492.850577
381.462474	2495.371154
381.847835	2470.165385
382.233134	2422.274423
382.618371	2414.712692
383.003545	2394.548077
383.388657	2487.809423
383.773706	2434.877308
384.158693	2394.548077
384.543618	2502.932885
384.928480	2447.480192
385.313280	2528.138654
385.698017	2417.233269
386.082692	2371.862885
386.467305	2460.083077
386.851856	2472.685962
387.236344	2366.821731
387.620770	2447.480192
388.005133	2389.506923
388.389435	2530.659231
388.773674	2424.795000
389.157851	2427.315577
389.541965	2437.397885
389.926018	2434.877308
390.310008	2444.959615
390.693936	2538.220962
391.077802	2477.727115
391.461606	2492.850577
391.845348	2392.027500
392.229027	2386.986346
392.612645	2477.727115
392.996200	2472.685962
393.379694	2505.453462
393.763125	2465.124231
394.146494	2472.685962
394.529801	2452.521346
394.913047	2399.589231
395.296230	2452.521346
395.679351	2432.356731
396.062410	2460.083077
396.445408	2515.535769
396.828343	2429.836154
397.211217	2505.453462
397.594028	2399.589231
397.976778	2490.330000
398.359466	2427.315577
398.742092	2444.959615
399.124656	2507.974038
399.507158	2444.959615
399.889598	2429.836154
400.271977	2513.015192
400.654294	2366.821731
401.036549	2432.356731
401.418742	2487.809423
401.800874	2465.124231
402.182944	2414.712692
402.564952	2507.974038
402.946898	2470.165385
403.328783	2462.603654
403.710606	2407.150962
404.092367	2447.480192
404.474067	2528.138654
404.855705	2510.494615
405.237282	2515.535769
405.618797	2472.685962
406.000250	2462.603654
406.381642	2457.562500
406.762972	2444.959615
407.144240	2492.850577
407.525447	2510.494615
407.906593	2465.124231
408.287677	2492.850577
408.668700	2422.274423
409.049661	2414.712692
409.430560	2495.371154
409.811399	2452.521346
410.192176	2485.288846
410.572891	2480.247692
410.953545	2497.891731
411.334138	2371.862885
411.714669	2550.823846
412.095139	2487.809423
412.475547	2460.083077
412.855894	2442.439038
413.236180	2520.576923
413.616405	2505.453462
413.996568	2452.521346
414.376670	2485.288846
414.756711	2384.465769
415.136691	2419.753846
415.516609	2477.727115
415.896466	2480.247692
416.276262	2457.562500
416.655997	2497.891731
417.035670	2455.041923
417.415283	2467.644808
417.794834	2429.836154
418.174324	2518.056346
418.553753	2528.138654
418.933121	2533.179808
419.312428	2462.603654
419.691674	2490.330000
420.070859	2457.562500
420.449983	2497.891731
420.829045	2545.782692
421.208047	2505.453462
421.586988	2500.412308
421.965867	2462.603654
422.344686	2507.974038
422.723444	2462.603654
423.102141	2518.056346
423.480777	2455.041923
423.859352	2485.288846
424.237866	2533.179808
424.616319	2480.247692
424.994712	2477.727115
425.373044	2533.179808
425.751314	2437.397885
426.129524	2540.741538
426.507673	2545.782692
426.885762	2427.315577
427.263789	2515.535769
427.641756	2452.521346
428.019662	2510.494615
428.397508	2472.685962
428.775292	2492.850577
429.153016	2381.945192
429.530679	2485.288846
429.908282	2480.247692
430.285824	2439.918462
430.663305	2455.041923
431.040726	2444.959615
431.418086	2432.356731
431.795385	2475.206538
432.172624	2450.000769
432.549802	2492.850577
432.926920	2472.685962
433.303977	2525.618077
433.680974	2417.233269
434.057910	2450.000769
434.434786	2439.918462
434.811601	2439.918462
435.188355	2447.480192
435.565050	2533.179808
435.941683	2419.753846
436.318257	2550.823846
436.694770	2480.247692
437.071222	2366.821731
437.447614	2515.535769
437.823946	2500.412308
438.200218	2414.712692
438.576429	2515.535769
438.952580	2588.632500
439.328670	2442.439038
439.704700	2485.288846
440.080670	2477.727115
440.456580	2442.439038
440.832429	2518.056346
441.208218	2510.494615
441.583947	2543.262115
441.959616	2472.685962
442.335224	2505.453462
442.710773	2472.685962
443.086261	2591.153077
443.461689	2439.918462
443.837057	2505.453462
444.212365	2497.891731
444.587612	2540.741538
444.962800	2535.700385
445.337927	2460.083077
445.712995	2492.850577
446.088002	2407.150962
446.462949	2485.288846
446.837837	2538.220962
447.212664	2570.988462
447.587431	2560.906154
447.962139	2477.727115
448.336786	2447.480192
448.711374	2467.644808
449.085901	2485.288846
449.460369	2550.823846
449.834776	2417.233269
450.209124	2492.850577
450.583412	2513.015192
450.957640	2487.809423
451.331808	2475.206538
451.705917	2603.755962
452.079965	2450.000769
452.453954	2490.330000
452.827883	2477.727115
453.201752	2487.809423
453.575562	2450.000769
453.949311	2465.124231
454.323001	2414.712692
454.696632	2523.097500
455.070202	2482.768269
455.443713	2439.918462
455.817164	2543.262115
456.190556	2427.315577
456.563888	2520.576923
456.937160	2439.918462
457.310373	2465.124231
457.683526	2480.247692
458.056619	2487.809423
458.429653	2480.247692
458.802628	2545.782692
459.175542	2467.644808
459.548398	2480.247692
459.921194	2467.644808
460.293930	2520.576923
460.666607	2482.768269
461.039224	2452.521346
461.411782	2460.083077
461.784280	2507.974038
462.156719	2374.383462
462.529099	2505.453462
462.901419	2424.795000
463.273680	2520.576923
463.645882	2482.768269
464.018024	2497.891731
464.390106	2472.685962
464.762130	2467.644808
465.134094	2444.959615
465.505999	2545.782692
465.877845	2558.385577
466.249631	2470.165385
466.621358	2502.932885
466.993026	2472.685962
467.364634	2558.385577
467.736184	2518.056346
468.107674	2434.877308
468.479105	2520.576923
468.850477	2414.712692
469.221790	2462.603654
469.593043	2538.220962
469.964238	2472.685962
470.335373	2510.494615
470.706449	2543.262115
471.077467	2465.124231
471.448425	2502.932885
471.819324	2490.330000
472.190164	2475.206538
472.560945	2505.453462
472.931667	2523.097500
473.302330	2485.288846
473.672934	2470.165385
474.043479	2568.467885
474.413965	2543.262115
474.784393	2490.330000
475.154761	2452.521346
475.525070	2490.330000
475.895321	2533.179808
476.265513	2530.659231
476.635645	2460.083077
477.005719	2535.700385
477.375734	2510.494615
477.745691	2480.247692
478.115588	2450.000769
478.485427	2485.288846
478.855207	2523.097500
479.224928	2490.330000
479.594591	2505.453462
479.964194	2475.206538
480.333739	2477.727115
480.703226	2439.918462
481.072653	2485.288846
481.442022	2528.138654
481.811333	2523.097500
482.180584	2452.521346
482.549777	2510.494615
482.918912	2477.727115
483.287988	2502.932885
483.657005	2505.453462
484.025964	2495.371154
484.394864	2505.453462
484.763706	2467.644808
485.132489	2409.671538
485.501213	2477.727115
485.869879	2518.056346
486.238487	2482.768269
486.607036	2543.262115
486.975527	2465.124231
487.343959	2386.986346
487.712333	2487.809423
488.080648	2480.247692
488.448905	2520.576923
488.817104	2432.356731
489.185244	2568.467885
489.553326	2447.480192
489.921350	2475.206538
490.289315	2490.330000
490.657222	2470.165385
491.025070	2402.109808
491.392861	2507.974038
491.760593	2452.521346
492.128267	2515.535769
492.495883	2530.659231
492.863440	2535.700385
493.230939	2442.439038
493.598380	2444.959615
493.965763	2487.809423
494.333088	2505.453462
494.700354	2553.344423
495.067563	2535.700385
495.434713	2513.015192
495.801805	2452.521346
496.168839	2502.932885
496.535815	2460.083077
496.902733	2583.591346
497.269593	2540.741538
497.636395	2560.906154
498.003139	2439.918462
498.369825	2570.988462
498.736453	2450.000769
499.103023	2439.918462
499.469535	2520.576923
499.835989	2465.124231
500.202385	2520.576923
500.568723	2439.918462
500.935003	2530.659231
501.301226	2581.070769
501.667390	2533.179808
502.033497	2495.371154
502.399546	2480.247692
502.765537	2520.576923
503.131470	2576.029615
503.497345	2550.823846
503.863163	2497.891731
504.228923	2500.412308
504.594625	2485.288846
504.960269	2417.233269
505.325856	2515.535769
505.691385	2477.727115
506.056856	2515.535769
506.422270	2407.150962
506.787625	2457.562500
507.152924	2417.233269
507.518164	2447.480192
507.883347	2472.685962
508.248472	2518.056346
508.613540	2518.056346
508.978550	2442.439038
509.343503	2487.809423
509.708398	2455.041923
510.073236	2472.685962
510.438016	2538.220962
510.802738	2535.700385
511.167403	2518.056346
511.532010	2518.056346
511.896561	2510.494615
512.261053	2452.521346
512.625488	2492.850577
512.989866	2507.974038
513.354186	2472.685962
513.718449	2475.206538
514.082655	2505.453462
514.446803	2515.535769
514.810894	2538.220962
515.174927	2525.618077
515.538904	2518.056346
515.902822	2492.850577
516.266684	2467.644808
516.630488	2518.056346
516.994235	2507.974038
517.357925	2457.562500
517.721558	2545.782692
518.085133	2437.397885
518.448651	2497.891731
518.812112	2507.974038
519.175516	2492.850577
519.538863	2528.138654
519.902152	2442.439038
520.265385	2482.768269
520.628560	2472.685962
520.991678	2591.153077
521.354739	2467.644808
521.717743	2540.741538
522.080690	2465.124231
522.443580	2510.494615
522.806413	2475.206538
523.169189	2457.562500
523.531908	2505.453462
523.894569	2492.850577
524.257174	2505.453462
524.619722	2447.480192
524.982213	2553.344423
525.344647	2497.891731
525.707025	2535.700385
526.069345	2477.727115
526.431608	2588.632500
526.793815	2465.124231
527.155964	2482.768269
527.518057	2518.056346
527.880093	2462.603654
528.242072	2477.727115
528.603995	2492.850577
528.965860	2565.947308
529.327669	2492.850577
529.689421	2495.371154
530.051117	2513.015192
530.412755	2520.576923
530.774337	2462.603654
531.135862	2475.206538
531.497331	2472.685962
531.858743	2510.494615
532.220098	2545.782692
532.581396	2505.453462
532.942638	2507.974038
533.303824	2475.206538
533.664953	2515.535769
534.026025	2563.426731
534.387040	2507.974038
534.747999	2548.303269
535.108902	2502.932885
535.469748	2518.056346
535.830537	2480.247692
536.191270	2523.097500
536.551947	2442.439038
536.912567	2510.494615
537.273131	2452.521346
537.633638	2510.494615
537.994089	2510.494615
538.354483	2455.041923
538.714821	2480.247692
539.075103	2389.506923
539.435328	2576.029615
539.795497	2525.618077
540.155609	2487.809423
540.515665	2450.000769
540.875665	2560.906154
541.235609	2507.974038
541.595496	2568.467885
541.955328	2573.509038
542.315102	2465.124231
542.674821	2444.959615
543.034483	2487.809423
543.394090	2507.974038
543.753640	2550.823846
544.113134	2427.315577
544.472571	2472.685962
544.831953	2507.974038
545.191278	2457.562500
545.550548	2444.959615
545.909761	2457.562500
546.268918	2500.412308
546.628019	2417.233269
546.987064	2538.220962
547.346053	2558.385577
547.704986	2533.179808
548.063863	2490.330000
548.422684	2442.439038
548.781449	2462.603654
549.140158	2366.821731
549.498811	2581.070769
549.857408	2465.124231
550.215949	2505.453462
550.574434	2414.712692
550.932864	2513.015192
551.291237	2444.959615
551.649555	2402.109808
552.007817	2487.809423
552.366022	2543.262115
552.724173	2510.494615
553.082267	2528.138654
553.440305	2520.576923
553.798288	2457.562500
554.156215	2510.494615
554.514086	2455.041923
554.871902	2487.809423
555.229661	2490.330000
555.587365	2402.109808
555.945014	2530.659231
556.302606	2502.932885
556.660143	2568.467885
557.017625	2510.494615
557.375050	2465.124231
557.732421	2490.330000
558.089735	2485.288846
558.446994	2513.015192
558.804197	2540.741538
559.161345	2487.809423
559.518437	2520.576923
559.875474	2502.932885
560.232455	2490.330000
560.589381	2515.535769
560.946251	2558.385577
561.303065	2515.535769
561.659825	2500.412308
562.016528	2490.330000
562.373177	2533.179808
562.729770	2528.138654
563.086307	2507.974038
563.442789	2470.165385
563.799216	2470.165385
564.155587	2576.029615
564.511904	2513.015192
564.868164	2477.727115
565.224370	2500.412308
565.580520	2581.070769
565.936615	2482.768269
566.292654	2540.741538
566.648638	2407.150962
567.004567	2455.041923
567.360441	2565.947308
567.716260	2485.288846
568.072023	2510.494615
568.427732	2543.262115
568.783385	2513.015192
569.138982	2533.179808
569.494525	2472.685962
569.850013	2439.918462
570.205445	2510.494615
570.560823	2520.576923
570.916145	2490.330000
571.271412	2444.959615
571.626625	2490.330000
571.981782	2455.041923
572.336884	2505.453462
572.691931	2480.247692
573.046923	2553.344423
573.401860	2434.877308
573.756743	2563.426731
574.111570	2467.644808
574.466342	2550.823846
574.821059	2510.494615
575.175722	2472.685962
575.530330	2424.795000
575.884882	2513.015192
576.239380	2500.412308
576.593823	2389.506923
576.948211	2444.959615
577.302544	2558.385577
577.656823	2455.041923
578.011047	2515.535769
578.365216	2485.288846
578.719330	2497.891731
579.073389	2543.262115
579.427394	2588.632500
579.781344	2502.932885
580.135239	2538.220962
580.489080	2477.727115
580.842866	2530.659231
581.196597	2538.220962
581.550273	2475.206538
581.903895	2422.274423
582.257463	2543.262115
582.610975	2555.865000
582.964434	2563.426731
583.317837	2563.426731
583.671186	2515.535769
584.024481	2545.782692
584.377721	2442.439038
584.730906	2520.576923
585.084037	2510.494615
585.437113	2533.179808
585.790135	2477.727115
586.143103	2444.959615
586.496016	2505.453462
586.848874	2460.083077
587.201679	2475.206538
587.554428	2442.439038
587.907124	2593.673654
588.259765	2457.562500
588.612352	2535.700385
588.964884	2417.233269
589.317362	2485.288846
589.669786	2505.453462
590.022155	2492.850577
590.374470	2568.467885
590.726731	2497.891731
591.078937	2467.644808
591.431090	2437.397885
591.783188	2460.083077
592.135232	2588.632500
592.487222	2513.015192
592.839157	2533.179808
593.191038	2548.303269
593.542866	2480.247692
593.894639	2492.850577
594.246358	2611.317692
594.598022	2409.671538
594.949633	2497.891731
595.301190	2560.906154
595.652692	2535.700385
596.004141	2485.288846
596.355535	2510.494615
596.706876	2482.768269
597.058162	2555.865000
597.409395	2528.138654
597.760573	2412.192115
598.111698	2525.618077
598.462768	2555.865000
598.813785	2482.768269
599.164748	2518.056346
599.515657	2560.906154
599.866511	2548.303269
600.217312	2482.768269
600.568060	2525.618077
600.918753	2538.220962
601.269392	2495.371154
601.619978	2437.397885
601.970510	2490.330000
602.320988	2548.303269
602.671412	2513.015192
603.021783	2487.809423
603.372100	2442.439038
603.722363	2555.865000
604.072572	2548.303269
604.422728	2570.988462
604.772830	2477.727115
605.122878	2581.070769
605.472872	2487.809423
605.822813	2447.480192
606.172701	2485.288846
606.522534	2447.480192
606.872314	2525.618077
607.222041	2482.768269
607.571714	2472.685962
607.921333	2482.768269
608.270899	2472.685962
608.620411	2497.891731
608.969870	2470.165385
609.319276	2505.453462
609.668627	2540.741538
610.017926	2475.206538
610.367171	2492.850577
610.716362	2480.247692
611.065500	2442.439038
611.414585	2500.412308
611.763616	2497.891731
612.112594	2505.453462
612.461518	2495.371154
612.810389	2520.576923
613.159207	2450.000769
613.507971	2487.809423
613.856682	2583.591346
614.205340	2507.974038
614.553945	2465.124231
614.902496	2570.988462
615.250994	2502.932885
615.599439	2500.412308
615.947830	2608.797115
616.296169	2482.768269
616.644454	2515.535769
616.992686	2560.906154
617.340864	2490.330000
617.688990	2452.521346
618.037063	2530.659231
618.385082	2538.220962
618.733048	2480.247692
619.080961	2424.795000
619.428821	2510.494615
619.776628	2470.165385
620.124382	2472.685962
620.472083	2540.741538
620.819731	2452.521346
621.167326	2465.124231
621.514868	2475.206538
621.862357	2530.659231
622.209793	2465.124231
622.557176	2525.618077
622.904506	2422.274423
623.251783	2523.097500
623.599007	2439.918462
623.946179	2447.480192
624.293297	2472.685962
624.640363	2540.741538
624.987376	2495.371154
625.334336	2520.576923
625.681243	2528.138654
626.028097	2540.741538
626.374899	2475.206538
626.721647	2523.097500
627.068343	2520.576923
627.414987	2518.056346
627.761577	2540.741538
628.108115	2477.727115
628.454600	2475.206538
628.801032	2460.083077
629.147412	2523.097500
629.493739	2465.124231
629.840014	2518.056346
630.186236	2487.809423
630.532405	2475.206538
630.878521	2510.494615
631.224585	2482.768269
631.570597	2432.356731
631.916556	2477.727115
632.262462	2487.809423
632.608316	2404.630385
632.954117	2485.288846
633.299866	2490.330000
633.645562	2492.850577
633.991206	2482.768269
634.336797	2432.356731
634.682336	2518.056346
635.027823	2404.630385
635.373257	2475.206538
635.718639	2439.918462
636.063968	2485.288846
636.409245	2437.397885
636.754470	2462.603654
637.099642	2407.150962
637.444762	2550.823846
637.789829	2482.768269
638.134845	2467.644808
638.479808	2439.918462
638.824719	2533.179808
639.169577	2500.412308
639.514383	2439.918462
639.859137	2543.262115
640.203839	2581.070769
640.548489	2505.453462
640.893086	2500.412308
641.237632	2429.836154
641.582125	2480.247692
641.926566	2485.288846
642.270955	2553.344423
642.615292	2379.424615
642.959576	2460.083077
643.303809	2591.153077
643.647990	2497.891731
643.992118	2525.618077
644.336195	2465.124231
644.680219	2475.206538
645.024192	2450.000769
645.368112	2518.056346
645.711981	2487.809423
646.055797	2578.550192
646.399562	2548.303269
646.743274	2520.576923
647.086935	2548.303269
647.430544	2477.727115
647.774101	2507.974038
648.117606	2543.262115
648.461059	2485.288846
648.804460	2376.904038
649.147810	2533.179808
649.491108	2513.015192
649.834354	2434.877308
650.177548	2507.974038
650.520690	2533.179808
650.863781	2465.124231
651.206820	2581.070769
651.549807	2462.603654
651.892742	2603.755962
652.235626	2515.535769
652.578458	2432.356731
652.921238	2495.371154
653.263967	2505.453462
653.606644	2500.412308
653.949269	2447.480192
654.291843	2470.165385
654.634365	2507.974038
654.976836	2457.562500
655.319255	2611.317692
655.661622	2533.179808
656.003938	2565.947308
656.346203	2447.480192
656.688416	2487.809423
657.030577	2389.506923
657.372687	2565.947308
657.714746	2502.932885
658.056753	2457.562500
658.398708	2538.220962
658.740612	2490.330000
659.082465	2487.809423
659.424266	2490.330000
659.766016	2492.850577
660.107715	2447.480192
660.449362	2480.247692
660.790958	2568.467885
661.132503	2455.041923
661.473996	2475.206538
661.815438	2452.521346
662.156829	2490.330000
662.498168	2608.797115
662.839456	2497.891731
663.180693	2472.685962
663.521879	2394.548077
663.863013	2490.330000
664.204097	2482.768269
664.545129	2513.015192
664.886110	2515.535769
665.227040	2543.262115
665.567918	2439.918462
665.908746	2485.288846
666.249522	2444.959615
666.590248	2437.397885
666.930922	2540.741538
667.271545	2485.288846
667.612118	2427.315577
667.952639	2548.303269
668.293109	2573.509038
668.633528	2465.124231
668.973896	2513.015192
669.314213	2422.274423
669.654480	2593.673654
669.994695	2555.865000
670.334859	2492.850577
670.674973	2545.782692
671.015035	2434.877308
671.355047	2530.659231
671.695008	2497.891731
672.034918	2550.823846
672.374777	2553.344423
672.714585	2417.233269
673.054342	2475.206538
673.394049	2447.480192
673.733705	2530.659231
674.073310	2439.918462
674.412864	2462.603654
674.752368	2507.974038
675.091820	2568.467885
675.431223	2450.000769
675.770574	2480.247692
676.109875	2424.795000
676.449125	2432.356731
676.788324	2457.562500
677.127473	2480.247692
677.466571	2550.823846
677.805619	2568.467885
678.144616	2439.918462
678.483562	2528.138654
678.822458	2515.535769
679.161303	2545.782692
679.500098	2492.850577
679.838842	2515.535769
680.177535	2457.562500
680.516179	2462.603654
680.854771	2432.356731
681.193314	2530.659231
681.531805	2583.591346
681.870247	2523.097500
682.208638	2460.083077
682.546978	2450.000769
682.885268	2475.206538
683.223508	2490.330000
683.561697	2505.453462
683.899836	2505.453462
684.237925	2611.317692
684.575963	2462.603654
684.913951	2565.947308
685.251889	2497.891731
685.589776	2518.056346
685.927614	2480.247692
686.265401	2616.358846
686.603137	2593.673654
686.940824	2583.591346
687.278460	2487.809423
687.616046	2515.535769
687.953582	2568.467885
688.291068	2500.412308
688.628504	2480.247692
688.965889	2457.562500
689.303224	2487.809423
689.640510	2447.480192
689.977745	2434.877308
690.314930	2530.659231
690.652065	2487.809423
690.989150	2533.179808
691.326185	2507.974038
691.663170	2477.727115
692.000105	2429.836154
692.336990	2548.303269
692.673825	2480.247692
693.010610	2583.591346
693.347345	2472.685962
693.684030	2455.041923
694.020665	2492.850577
694.357251	2505.453462
694.693786	2434.877308
695.030272	2530.659231
695.366707	2482.768269
695.703093	2520.576923
696.039429	2553.344423
696.375716	2477.727115
696.711952	2510.494615
697.048139	2470.165385
697.384276	2455.041923
697.720363	2510.494615
698.056400	2558.385577
698.392388	2419.753846
698.728326	2550.823846
699.064214	2538.220962
699.400053	2414.712692
699.735842	2578.550192
700.071581	2490.330000
700.407270	2485.288846
700.742910	2452.521346
701.078501	2472.685962
701.414042	2437.397885
701.749533	2520.576923
702.084974	2497.891731
702.420366	2495.371154
702.755709	2510.494615
703.091002	2432.356731
703.426246	2444.959615
703.761440	2502.932885
704.096584	2507.974038
704.431679	2505.453462
704.766725	2495.371154
705.101721	2528.138654
705.436668	2500.412308
705.771565	2543.262115
706.106413	2477.727115
706.441212	2507.974038
706.775961	2553.344423
707.110661	2460.083077
707.445311	2510.494615
707.779913	2558.385577
708.114465	2543.262115
708.448967	2565.947308
708.783421	2535.700385
709.117825	2495.371154
709.452180	2442.439038
709.786485	2485.288846
710.120742	2407.150962
710.454949	2553.344423
710.789107	2497.891731
711.123216	2515.535769
711.457275	2472.685962
711.791286	2598.714808
712.125247	2460.083077
712.459159	2397.068654
712.793023	2442.439038
713.126837	2540.741538
713.460602	2487.809423
713.794318	2520.576923
714.127985	2578.550192
714.461602	2480.247692
714.795171	2470.165385
715.128691	2513.015192
715.462162	2505.453462
715.795584	2472.685962
716.128957	2555.865000
716.462281	2490.330000
716.795556	2409.671538
717.128782	2528.138654
717.461960	2616.358846
717.795088	2618.879423
718.128167	2535.700385
718.461198	2455.041923
718.794180	2437.397885
719.127113	2417.233269
719.459997	2442.439038
719.792833	2543.262115
720.125619	2462.603654
720.458357	2467.644808
720.791046	2417.233269
721.123686	2444.959615
721.456278	2460.083077
721.788821	2530.659231
722.121315	2437.397885
722.453761	2462.603654
722.786158	2533.179808
723.118506	2565.947308
723.450805	2510.494615
723.783056	2573.509038
724.115259	2505.453462
724.447412	2515.535769
724.779518	2492.850577
725.111574	2550.823846
725.443582	2545.782692
725.775542	2427.315577
726.107453	2467.644808
726.439315	2455.041923
726.771129	2510.494615
727.102895	2513.015192
727.434612	2533.179808
727.766281	2533.179808
728.097901	2472.685962
728.429473	2480.247692
728.760996	2429.836154
729.092471	2470.165385
729.423897	2444.959615
729.755276	2525.618077
730.086606	2505.453462
730.417887	2475.206538
730.749120	2505.453462
731.080305	2518.056346
731.411442	2518.056346
731.742530	2462.603654
732.073570	2477.727115
732.404562	2523.097500
732.735506	2467.644808
733.066401	2513.015192
733.397249	2470.165385
733.728048	2598.714808
734.058798	2470.165385
734.389501	2422.274423
734.720156	2510.494615
735.050762	2475.206538
735.381320	2528.138654
735.711831	2495.371154
736.042293	2414.712692
736.372707	2444.959615
736.703073	2513.015192
737.033391	2442.439038
737.363661	2533.179808
737.693883	2477.727115
738.024056	2447.480192
738.354182	2515.535769
738.684260	2545.782692
739.014290	2550.823846
739.344272	2437.397885
739.674207	2533.179808
740.004093	2472.685962
740.333931	2573.509038
740.663722	2515.535769
740.993464	2477.727115
741.323159	2424.795000
741.652806	2475.206538
741.982405	2530.659231
742.311956	2452.521346
742.641460	2492.850577
742.970915	2472.685962
743.300323	2477.727115
743.629683	2515.535769
743.958996	2510.494615
744.288260	2470.165385
744.617477	2540.741538
744.946647	2432.356731
745.275768	2452.521346
745.604842	2439.918462
745.933869	2505.453462
746.262847	2530.659231
746.591778	2434.877308
746.920662	2419.753846
747.249498	2535.700385
747.578286	2583.591346
747.907027	2520.576923
748.235720	2462.603654
748.564365	2550.823846
748.892963	2447.480192
749.221514	2560.906154
749.550017	2419.753846
749.878473	2490.330000
750.206881	2525.618077
750.535242	2553.344423
750.863555	2470.165385
751.191821	2535.700385
751.520039	2500.412308
751.848210	2543.262115
752.176334	2596.194231
752.504411	2545.782692
752.832440	2528.138654
753.160421	2550.823846
753.488356	2565.947308
753.816243	2502.932885
754.144082	2513.015192
754.471875	2523.097500
754.799620	2409.671538
755.127318	2548.303269
755.454969	2520.576923
755.782572	2535.700385
756.110129	2480.247692
756.437638	2545.782692
756.765100	2497.891731
757.092515	2570.988462
757.419882	2523.097500
757.747203	2545.782692
758.074477	2588.632500
758.401703	2457.562500
758.728882	2565.947308
759.056014	2465.124231
759.383099	2437.397885
759.710138	2543.262115
760.037129	2462.603654
760.364073	2482.768269
760.690970	2507.974038
761.017820	2392.027500
761.344623	2424.795000
761.671379	2460.083077
761.998088	2515.535769
762.324751	2442.439038
762.651366	2434.877308
762.977935	2492.850577
763.304456	2530.659231
763.630931	2603.755962
763.957359	2505.453462
764.283740	2538.220962
764.610074	2510.494615
764.936362	2434.877308
765.262602	2510.494615
765.588796	2513.015192
765.914943	2497.891731
766.241044	2455.041923
766.567097	2427.315577
766.893104	2450.000769
767.219064	2550.823846
767.544978	2462.603654
767.870845	2543.262115
768.196665	2477.727115
768.522438	2460.083077
768.848165	2530.659231
769.173846	2510.494615
769.499479	2510.494615
769.825066	2513.015192
770.150607	2460.083077
770.476101	2495.371154
770.801548	2591.153077
771.126949	2510.494615
771.452303	2520.576923
771.777611	2475.206538
772.102872	2507.974038
772.428087	2470.165385
772.753256	2475.206538
773.078378	2465.124231
773.403453	2533.179808
773.728482	2513.015192
774.053465	2540.741538
774.378401	2553.344423
774.703291	2472.685962
775.028135	2485.288846
775.352932	2550.823846
775.677683	2414.712692
776.002388	2495.371154
776.327046	2520.576923
776.651658	2548.303269
776.976224	2455.041923
777.300743	2447.480192
777.625216	2462.603654
777.949643	2535.700385
778.274024	2578.550192
778.598359	2523.097500
778.922647	2452.521346
779.246889	2409.671538
779.571086	2457.562500
779.895236	2467.644808
780.219339	2495.371154
780.543397	2505.453462
780.867409	2560.906154
781.191374	2513.015192
781.515294	2477.727115
781.839167	2457.562500
782.162995	2432.356731
782.486776	2515.535769
782.810511	2560.906154
783.134201	2427.315577
783.457844	2407.150962
783.781441	2535.700385
784.104993	2427.315577
784.428498	2540.741538
784.751958	2442.439038
785.075372	2397.068654
785.398739	2467.644808
785.722061	2437.397885
786.045337	2530.659231
786.368568	2500.412308
786.691752	2482.768269
787.014891	2442.439038
787.337983	2472.685962
787.661030	2515.535769
787.984031	2460.083077
788.306987	2450.000769
788.629897	2475.206538
788.952760	2470.165385
789.275579	2497.891731
789.598351	2455.041923
789.921078	2581.070769
790.243759	2492.850577
790.566395	2616.358846
790.888984	2492.850577
791.211529	2528.138654
791.534027	2470.165385
791.856480	2581.070769
792.178888	2427.315577
792.501249	2510.494615
792.823566	2482.768269
793.145836	2439.918462
793.468062	2530.659231
793.790241	2513.015192
794.112375	2465.124231
794.434464	2455.041923
794.756507	2520.576923
795.078505	2545.782692
795.400457	2475.206538
795.722364	2487.809423
796.044226	2417.233269
796.366042	2510.494615
796.687812	2497.891731
797.009538	2477.727115
797.331218	2583.591346
797.652852	2487.809423
797.974442	2545.782692
798.295986	2452.521346
798.617484	2452.521346
798.938938	2455.041923
799.260346	2548.303269
799.581709	2407.150962
799.903026	2434.877308
800.224299	2520.576923
800.545526	2477.727115
800.866708	2497.891731
801.187845	2452.521346
801.508936	2422.274423
801.829983	2455.041923
802.150984	2528.138654
802.471940	2437.397885
802.792851	2520.576923
803.113717	2505.453462
803.434538	2412.192115
803.755314	2518.056346
804.076045	2417.233269
804.396731	2444.959615
804.717372	2568.467885
805.037967	2495.371154
805.358518	2548.303269
805.679024	2533.179808
805.999485	2477.727115
806.319901	2482.768269
806.640272	2533.179808
806.960598	2518.056346
807.280879	2510.494615
807.601115	2497.891731
807.921306	2495.371154
808.241453	2515.535769
808.561554	2523.097500
808.881611	2606.276538
809.201623	2533.179808
809.521590	2492.850577
809.841513	2543.262115
810.161390	2384.465769
810.481223	2523.097500
810.801011	2480.247692
811.120755	2565.947308
811.440453	2480.247692
811.760107	2558.385577
812.079716	2576.029615
812.399281	2475.206538
812.718801	2482.768269
813.038276	2455.041923
813.357707	2543.262115
813.677093	2477.727115
813.996434	2346.657115
814.315731	2404.630385
814.634983	2462.603654
814.954191	2404.630385
815.273354	2482.768269
815.592473	2492.850577
815.911547	2518.056346
816.230577	2530.659231
816.549562	2518.056346
816.868502	2530.659231
817.187399	2419.753846
817.506250	2447.480192
817.825058	2586.111923
818.143821	2457.562500
818.462539	2565.947308
818.781213	2460.083077
819.099843	2497.891731
819.418429	2432.356731
819.736970	2543.262115
820.055466	2427.315577
820.373919	2419.753846
820.692327	2502.932885
821.010691	2495.371154
821.329011	2490.330000
821.647286	2523.097500
821.965517	2485.288846
822.283704	2419.753846
822.601847	2558.385577
822.919945	2555.865000
823.237999	2505.453462
823.556010	2513.015192
823.873976	2470.165385
824.191897	2518.056346
824.509775	2457.562500
824.827609	2462.603654
825.145398	2490.330000
825.463144	2515.535769
825.780845	2492.850577
826.098502	2457.562500
826.416116	2470.165385
826.733685	2404.630385
827.051210	2447.480192
827.368692	2555.865000
827.686129	2467.644808
828.003522	2465.124231
828.320872	2447.480192
828.638177	2497.891731
828.955439	2447.480192
829.272656	2568.467885
829.589830	2432.356731
829.906960	2518.056346
830.224046	2462.603654
830.541088	2502.932885
830.858086	2452.521346
831.175041	2505.453462
831.491952	2462.603654
831.808819	2525.618077
832.125642	2450.000769
832.442421	2394.548077
832.759157	2487.809423
833.075849	2510.494615
833.392497	2553.344423
833.709101	2510.494615
834.025662	2457.562500
834.342179	2502.932885
834.658653	2565.947308
834.975083	2515.535769
835.291469	2485.288846
835.607811	2477.727115
835.924110	2515.535769
836.240366	2598.714808
836.556578	2523.097500
836.872746	2467.644808
837.188871	2502.932885
837.504952	2447.480192
837.820990	2462.603654
838.136984	2480.247692
838.452935	2528.138654
838.768842	2490.330000
839.084706	2482.768269
839.400526	2470.165385
839.716303	2505.453462
840.032037	2457.562500
840.347727	2470.165385
840.663373	2429.836154
840.978977	2500.412308
841.294537	2417.233269
841.610054	2573.509038
841.925527	2444.959615
842.240957	2520.576923
842.556344	2495.371154
842.871687	2427.315577
843.186987	2434.877308
843.502244	2432.356731
843.817458	2535.700385
844.132629	2472.685962
844.447756	2523.097500
844.762840	2543.262115
845.077881	2535.700385
845.392879	2538.220962
845.707833	2444.959615
846.022745	2495.371154
846.337613	2470.165385
846.652438	2492.850577
846.967221	2492.850577
847.281960	2548.303269
847.596656	2502.932885
847.911309	2520.576923
848.225919	2480.247692
848.540485	2424.795000
848.855009	2402.109808
849.169490	2480.247692
849.483928	2550.823846
849.798323	2485.288846
850.112675	2513.015192
850.426984	2429.836154
850.741251	2515.535769
851.055474	2540.741538
851.369654	2507.974038
851.683792	2490.330000
851.997887	2601.235385
852.311938	2523.097500
852.625947	2470.165385
852.939914	2477.727115
853.253837	2510.494615
853.567718	2500.412308
853.881555	2540.741538
854.195350	2450.000769
854.509103	2568.467885
854.822812	2525.618077
855.136479	2470.165385
855.450103	2429.836154
855.763685	2434.877308
856.077224	2477.727115
856.390720	2583.591346
856.704173	2540.741538
857.017584	2485.288846
857.330953	2558.385577
857.644278	2467.644808
857.957561	2535.700385
858.270802	2530.659231
858.584000	2452.521346
858.897155	2467.644808
859.210268	2452.521346
859.523339	2467.644808
859.836367	2450.000769
860.149352	2576.029615
860.462295	2467.644808
860.775195	2530.659231
861.088054	2427.315577
861.400869	2460.083077
861.713642	2553.344423
862.026373	2518.056346
862.339062	2490.330000
862.651708	2578.550192
862.964312	2439.918462
863.276873	2525.618077
863.589392	2502.932885
863.901869	2505.453462
864.214303	2523.097500
864.526696	2530.659231
864.839045	2507.974038
865.151353	2560.906154
865.463619	2462.603654
865.775842	2555.865000
866.088023	2485.288846
866.400162	2432.356731
866.712258	2500.412308
867.024313	2490.330000
867.336325	2558.385577
867.648296	2538.220962
867.960224	2394.548077
868.272110	2540.741538
868.583954	2424.795000
868.895755	2558.385577
869.207515	2427.315577
869.519233	2502.932885
869.830909	2460.083077
870.142542	2513.015192
870.454134	2472.685962
870.765684	2502.932885
871.077191	2510.494615
871.388657	2455.041923
871.700081	2576.029615
872.011463	2535.700385
872.322803	2404.630385
872.634101	2525.618077
872.945357	2523.097500
873.256571	2538.220962
873.567744	2533.179808
873.878874	2402.109808
874.189963	2543.262115
874.501010	2490.330000
874.812015	2573.509038
875.122979	2500.412308
875.433900	2424.795000
875.744780	2465.124231
876.055618	2540.741538
876.366415	2570.988462
876.677169	2530.659231
876.987882	2513.015192
877.298554	2578.550192
877.609183	2525.618077
877.919771	2525.618077
878.230317	2409.671538
878.540822	2460.083077
878.851285	2513.015192
879.161707	2407.150962
879.472087	2538.220962
879.782425	2500.412308
880.092722	2485.288846
880.402977	2510.494615
880.713191	2447.480192
881.023363	2553.344423
881.333494	2525.618077
881.643583	2487.809423
881.953631	2525.618077
882.263637	2492.850577
882.573602	2450.000769
882.883526	2447.480192
883.193408	2462.603654
883.503248	2492.850577
883.813048	2555.865000
884.122806	2490.330000
884.432522	2482.768269
884.742197	2480.247692
885.051831	2419.753846
885.361424	2452.521346
885.670975	2500.412308
885.980485	2480.247692
886.289954	2540.741538
886.599382	2515.535769
886.908768	2525.618077
887.218113	2480.247692
887.527417	2510.494615
887.836680	2510.494615
888.145901	2502.932885
888.455082	2518.056346
888.764221	2500.412308
889.073319	2520.576923
889.382376	2480.247692
889.691392	2485.288846
890.000366	2447.480192
890.309300	2434.877308
890.618193	2455.041923
890.927044	2525.618077
891.235855	2447.480192
891.544625	2472.685962
891.853353	2477.727115
892.162041	2497.891731
892.470687	2497.891731
892.779293	2518.056346
893.087858	2475.206538
893.396381	2492.850577
893.704864	2462.603654
894.013306	2427.315577
894.321707	2533.179808
894.630068	2553.344423
894.938387	2465.124231
895.246665	2460.083077
895.554903	2518.056346
895.863100	2555.865000
896.171256	2470.165385
896.479371	2553.344423
896.787446	2470.165385
897.095480	2402.109808
897.403473	2407.150962
897.711425	2414.712692
898.019336	2475.206538
898.327207	2530.659231
898.635038	2475.206538
898.942827	2518.056346
899.250576	2482.768269
899.558284	2467.644808
899.865952	2465.124231
900.173579	2462.603654
900.481165	2452.521346
900.788711	2505.453462
901.096216	2487.809423
901.403681	2528.138654
901.711105	2465.124231
902.018489	2515.535769
902.325832	2492.850577
902.633135	2447.480192
902.940397	2427.315577
903.247619	2432.356731
903.554800	2442.439038
903.861941	2475.206538
904.169041	2472.685962
904.476101	2492.850577
904.783121	2490.330000
905.090100	2470.165385
905.397039	2417.233269
905.703938	2535.700385
906.010796	2525.618077
906.317614	2465.124231
906.624391	2505.453462
906.931129	2457.562500
907.237826	2513.015192
907.544483	2548.303269
907.851099	2543.262115
908.157675	2502.932885
908.464211	2497.891731
908.770707	2545.782692
909.077163	2513.015192
909.383578	2475.206538
909.689954	2525.618077
909.996289	2457.562500
910.302584	2573.509038
910.608839	2505.453462
910.915054	2548.303269
911.221229	2487.809423
911.527363	2533.179808
911.833458	2525.618077
912.139513	2553.344423
912.445527	2472.685962
912.751502	2523.097500
913.057436	2475.206538
913.363331	2497.891731
913.669186	2424.795000
913.975000	2530.659231
914.280775	2485.288846
914.586510	2442.439038
914.892205	2588.632500
915.197859	2467.644808
915.503475	2530.659231
915.809050	2437.397885
916.114585	2485.288846
916.420081	2437.397885
916.725536	2533.179808
917.030952	2439.918462
917.336328	2558.385577
917.641665	2497.891731
917.946961	2482.768269
918.252218	2510.494615
918.557435	2475.206538
918.862612	2492.850577
919.167750	2487.809423
919.472848	2470.165385
919.777906	2460.083077
920.082925	2482.768269
920.387904	2510.494615
920.692843	2502.932885
920.997743	2505.453462
921.302603	2480.247692
921.607423	2530.659231
921.912204	2485.288846
922.216946	2495.371154
922.521647	2507.974038
922.826310	2505.453462
923.130932	2550.823846
923.435516	2492.850577
923.740059	2462.603654
924.044564	2518.056346
924.349028	2462.603654
924.653454	2394.548077
924.957840	2540.741538
925.262186	2515.535769
925.566493	2507.974038
925.870761	2570.988462
926.174989	2523.097500
926.479178	2384.465769
926.783328	2523.097500
927.087438	2487.809423
927.391509	2475.206538
927.695541	2560.906154
927.999533	2528.138654
928.303486	2576.029615
928.607400	2447.480192
928.911275	2472.685962
929.215110	2581.070769
929.518906	2507.974038
929.822663	2513.015192
930.126381	2523.097500
930.430060	2520.576923
930.733699	2419.753846
931.037299	2518.056346
931.340861	2490.330000
931.644383	2470.165385
931.947866	2510.494615
932.251309	2495.371154
932.554714	2356.739423
932.858080	2530.659231
933.161407	2525.618077
933.464694	2535.700385
933.767943	2422.274423
934.071153	2457.562500
934.374323	2485.288846
934.677455	2457.562500
934.980548	2518.056346
935.283602	2530.659231
935.586617	2432.356731
935.889593	2543.262115
936.192530	2507.974038
936.495428	2558.385577
936.798287	2475.206538
937.101108	2490.330000
937.403890	2424.795000
937.706632	2492.850577
938.009336	2568.467885
938.312002	2386.986346
938.614628	2460.083077
938.917216	2482.768269
939.219765	2510.494615
939.522275	2467.644808
939.824747	2507.974038
940.127179	2495.371154
940.429573	2434.877308
940.731929	2555.865000
941.034246	2457.562500
941.336524	2553.344423
941.638763	2467.644808
941.940964	2452.521346
942.243126	2563.426731
942.545250	2452.521346
942.847335	2490.330000
943.149381	2402.109808
943.451389	2500.412308
943.753359	2419.753846
944.055290	2364.301154
944.357182	2429.836154
944.659036	2490.330000
944.960851	2505.453462
945.262628	2485.288846
945.564367	2472.685962
945.866067	2500.412308
946.167729	2490.330000
946.469352	2543.262115
946.770937	2523.097500
947.072484	2495.371154
947.373992	2535.700385
947.675462	2475.206538
947.976893	2530.659231
948.278286	2434.877308
948.579641	2513.015192
948.880958	2427.315577
949.182236	2502.932885
949.483476	2485.288846
949.784678	2467.644808
950.085841	2495.371154
950.386967	2518.056346
950.688054	2480.247692
950.989103	2578.550192
951.290114	2507.974038
951.591087	2558.385577
951.892021	2533.179808
952.192917	2525.618077
952.493776	2502.932885
952.794596	2442.439038
953.095378	2528.138654
953.396122	2455.041923
953.696828	2482.768269
953.997496	2470.165385
954.298126	2470.165385
954.598718	2502.932885
954.899272	2558.385577
955.199788	2429.836154
955.500266	2500.412308
955.800706	2540.741538
956.101108	2439.918462
956.401472	2538.220962
956.701798	2490.330000
957.002087	2505.453462
957.302337	2560.906154
957.602550	2475.206538
957.902724	2497.891731
958.202861	2470.165385
958.502960	2563.426731
958.803022	2485.288846
959.103045	2502.932885
959.403031	2528.138654
959.702979	2525.618077
960.002889	2470.165385
960.302762	2518.056346
960.602596	2460.083077
960.902393	2482.768269
961.202153	2467.644808
961.501875	2520.576923
961.801559	2457.562500
962.101205	2455.041923
962.400814	2460.083077
962.700385	2487.809423
962.999918	2530.659231
963.299414	2497.891731
963.598873	2502.932885
963.898293	2409.671538
964.197677	2523.097500
964.497022	2465.124231
964.796331	2497.891731
965.095601	2450.000769
965.394835	2434.877308
965.694030	2424.795000
965.993189	2462.603654
966.292309	2437.397885
966.591393	2485.288846
966.890439	2467.644808
967.189447	2472.685962
967.488419	2404.630385
967.787353	2417.233269
968.086249	2507.974038
968.385108	2462.603654
968.683930	2444.959615
968.982714	2487.809423
969.281462	2548.303269
969.580172	2492.850577
969.878844	2550.823846
970.177480	2432.356731
970.476078	2497.891731
970.774639	2603.755962
971.073162	2490.330000
971.371649	2520.576923
971.670098	2455.041923
971.968510	2487.809423
972.266885	2404.630385
972.565223	2555.865000
972.863524	2545.782692
973.161788	2497.891731
973.460014	2502.932885
973.758204	2553.344423
974.056356	2518.056346
974.354471	2487.809423
974.652550	2573.509038
974.950591	2419.753846
975.248595	2444.959615
975.546563	2528.138654
975.844493	2402.109808
976.142386	2581.070769
976.440243	2460.083077
976.738062	2482.768269
977.035845	2513.015192
977.333590	2424.795000
977.631299	2485.288846
977.928971	2460.083077
978.226606	2550.823846
978.524204	2550.823846
978.821765	2472.685962
979.119290	2467.644808
979.416777	2515.535769
979.714228	2485.288846
980.011642	2450.000769
980.309020	2500.412308
980.606360	2507.974038
980.903664	2523.097500
981.200931	2467.644808
981.498162	2530.659231
981.795356	2475.206538
982.092513	2523.097500
982.389633	2475.206538
982.686717	2563.426731
982.983764	2470.165385
983.280775	2538.220962
983.577749	2465.124231
983.874686	2533.179808
984.171587	2399.589231
984.468451	2505.453462
984.765279	2492.850577
985.062070	2442.439038
985.358824	2465.124231
985.655543	2550.823846
985.952224	2543.262115
986.248869	2450.000769
986.545478	2480.247692
986.842050	2442.439038
987.138586	2485.288846
987.435086	2455.041923
987.731549	2510.494615
988.027975	2540.741538
988.324366	2460.083077
988.620719	2492.850577
988.917037	2432.356731
989.213318	2500.412308
989.509563	2485.288846
989.805772	2555.865000
990.101944	2460.083077
990.398080	2515.535769
990.694180	2460.083077
990.990244	2497.891731
991.286271	2528.138654
991.582262	2565.947308
991.878217	2538.220962
992.174136	2576.029615
992.470019	2447.480192
992.765865	2533.179808
993.061676	2457.562500
993.357450	2528.138654
993.653188	2553.344423
993.948890	2452.521346
994.244556	2485.288846
994.540186	2482.768269
994.835780	2492.850577
995.131337	2444.959615
995.426859	2535.700385
995.722345	2528.138654
996.017795	2460.083077
996.313208	2470.165385
996.608586	2487.809423
996.903928	2558.385577
997.199234	2523.097500
997.494504	2470.165385
997.789738	2444.959615
998.084936	2482.768269
998.380099	2507.974038
998.675225	2455.041923
998.970316	2545.782692
999.265371	2442.439038
999.560390	2505.453462
999.855373	2457.562500
1000.150320	2397.068654
1000.445232	2402.109808
1000.740108	2555.865000
1001.034948	2497.891731
1001.329752	2507.974038
1001.624521	2487.809423
1001.919254	2520.576923
1002.213951	2422.274423
1002.508613	2482.768269
1002.803239	2492.850577
1003.097829	2437.397885
1003.392384	2379.424615
1003.686903	2455.041923
1003.981386	2409.671538
1004.275834	2485.288846
1004.570246	2477.727115
1004.864623	2490.330000
1005.158964	2487.809423
1005.453270	2470.165385
1005.747540	2482.768269
1006.041775	2487.809423
1006.335974	2565.947308
1006.630138	2502.932885
1006.924266	2581.070769
1007.218359	2434.877308
1007.512416	2477.727115
1007.806438	2513.015192
1008.100425	2475.206538
1008.394376	2500.412308
1008.688292	2432.356731
1008.982172	2492.850577
1009.276017	2515.535769
1009.569827	2543.262115
1009.863602	2485.288846
1010.157341	2460.083077
1010.451045	2540.741538
1010.744714	2533.179808
1011.038347	2465.124231
1011.331945	2437.397885
1011.625508	2455.041923
1011.919036	2581.070769
1012.212528	2424.795000
1012.505986	2427.315577
1012.799408	2432.356731
1013.092795	2356.739423
1013.386147	2520.576923
1013.679464	2447.480192
1013.972745	2563.426731
1014.265992	2535.700385
1014.559204	2487.809423
1014.852380	2500.412308
1015.145521	2447.480192
1015.438628	2520.576923
1015.731699	2412.192115
1016.024736	2518.056346
1016.317737	2470.165385
1016.610703	2523.097500
1016.903635	2434.877308
1017.196531	2480.247692
1017.489393	2442.439038
1017.782219	2470.165385
1018.075011	2439.918462
1018.367768	2392.027500
1018.660490	2444.959615
1018.953177	2444.959615
1019.245829	2444.959615
