Dividing Wavelength (nm)	Counts (n)	Blue Motor Position (mm): 7.300000	Red Motor Position (mm): 0.000000	
326.493990	2165.175577
326.888308	2165.175577
327.282561	2165.175577
327.676750	2122.325769
328.070874	2076.955385
328.464933	2089.558269
328.858929	2084.517115
329.252859	2114.764038
329.646726	2084.517115
330.040528	2076.955385
330.434265	2021.502692
330.827938	2150.052115
331.221547	2129.887500
331.615091	2185.340192
332.008571	2162.655000
332.401986	2180.299038
332.795338	2258.436923
333.188625	2182.819615
333.581847	2215.587115
333.975006	2296.245577
334.368100	2329.013077
334.761129	2369.342308
335.154095	2392.027500
335.546996	2291.204423
335.939833	2432.356731
336.332606	2334.054231
336.725315	2450.000769
337.117960	2429.836154
337.510540	2465.124231
337.903056	2429.836154
338.295508	2482.768269
338.687896	2439.918462
339.080220	2465.124231
339.472480	2371.862885
339.864676	2505.453462
340.256807	2434.877308
340.648875	2460.083077
341.040879	2437.397885
341.432818	2470.165385
341.824694	2467.644808
342.216506	2472.685962
342.608253	2621.400000
342.999937	2442.439038
343.391557	2530.659231
343.783113	2533.179808
344.174605	2465.124231
344.566033	2455.041923
344.957397	2470.165385
345.348697	2495.371154
345.739934	2475.206538
346.131106	2528.138654
346.522215	2447.480192
346.913260	2475.206538
347.304241	2533.179808
347.695159	2523.097500
348.086012	2477.727115
348.476802	2381.945192
348.867528	2397.068654
349.258191	2465.124231
349.648789	2434.877308
350.039324	2533.179808
350.429796	2419.753846
350.820203	2492.850577
351.210548	2437.397885
351.600828	2513.015192
351.991045	2344.136538
352.381198	2414.712692
352.771288	2540.741538
353.161314	2492.850577
353.551276	2434.877308
353.941175	2346.657115
354.331010	2417.233269
354.720782	2470.165385
355.110490	2535.700385
355.500135	2457.562500
355.889717	2482.768269
356.279235	2432.356731
356.668689	2455.041923
357.058080	2467.644808
357.447408	2442.439038
357.836672	2313.889615
358.225873	2510.494615
358.615010	2392.027500
359.004084	2452.521346
359.393095	2399.589231
359.782043	2381.945192
360.170927	2465.124231
360.559748	2409.671538
360.948505	2424.795000
361.337199	2485.288846
361.725830	2419.753846
362.114398	2477.727115
362.502903	2429.836154
362.891344	2462.603654
363.279722	2452.521346
363.668037	2475.206538
364.056289	2417.233269
364.444478	2404.630385
364.832603	2490.330000
365.220665	2434.877308
365.608665	2361.780577
365.996601	2477.727115
366.384474	2477.727115
366.772284	2399.589231
367.160031	2447.480192
367.547715	2500.412308
367.935336	2467.644808
368.322893	2558.385577
368.710388	2429.836154
369.097820	2356.739423
369.485189	2460.083077
369.872495	2467.644808
370.259738	2497.891731
370.646918	2455.041923
371.034035	2513.015192
371.421090	2384.465769
371.808081	2371.862885
372.195010	2381.945192
372.581875	2452.521346
372.968678	2439.918462
373.355418	2462.603654
373.742096	2374.383462
374.128710	2520.576923
374.515262	2450.000769
374.901751	2465.124231
375.288177	2465.124231
375.674540	2558.385577
376.060841	2550.823846
376.447079	2429.836154
376.833254	2437.397885
377.219367	2386.986346
377.605417	2407.150962
377.991404	2520.576923
378.377329	2460.083077
378.763191	2397.068654
379.148991	2432.356731
379.534727	2513.015192
379.920402	2465.124231
380.306013	2490.330000
380.691563	2386.986346
381.077049	2520.576923
381.462474	2475.206538
381.847835	2447.480192
382.233134	2399.589231
382.618371	2467.644808
383.003545	2424.795000
383.388657	2507.974038
383.773706	2432.356731
384.158693	2470.165385
384.543618	2381.945192
384.928480	2523.097500
385.313280	2437.397885
385.698017	2510.494615
386.082692	2540.741538
386.467305	2460.083077
386.851856	2439.918462
387.236344	2376.904038
387.620770	2495.371154
388.005133	2434.877308
388.389435	2374.383462
388.773674	2505.453462
389.157851	2432.356731
389.541965	2452.521346
389.926018	2502.932885
390.310008	2538.220962
390.693936	2518.056346
391.077802	2434.877308
391.461606	2364.301154
391.845348	2500.412308
392.229027	2432.356731
392.612645	2462.603654
392.996200	2502.932885
393.379694	2457.562500
393.763125	2490.330000
394.146494	2485.288846
394.529801	2505.453462
394.913047	2550.823846
395.296230	2447.480192
395.679351	2520.576923
396.062410	2402.109808
396.445408	2452.521346
396.828343	2515.535769
397.211217	2397.068654
397.594028	2419.753846
397.976778	2510.494615
398.359466	2439.918462
398.742092	2502.932885
399.124656	2472.685962
399.507158	2480.247692
399.889598	2465.124231
400.271977	2520.576923
400.654294	2490.330000
401.036549	2530.659231
401.418742	2475.206538
401.800874	2492.850577
402.182944	2475.206538
402.564952	2520.576923
402.946898	2485.288846
403.328783	2558.385577
403.710606	2515.535769
404.092367	2553.344423
404.474067	2434.877308
404.855705	2472.685962
405.237282	2482.768269
405.618797	2452.521346
406.000250	2545.782692
406.381642	2412.192115
406.762972	2409.671538
407.144240	2434.877308
407.525447	2444.959615
407.906593	2437.397885
408.287677	2530.659231
408.668700	2424.795000
409.049661	2528.138654
409.430560	2452.521346
409.811399	2543.262115
410.192176	2404.630385
410.572891	2513.015192
410.953545	2492.850577
411.334138	2460.083077
411.714669	2475.206538
412.095139	2553.344423
412.475547	2530.659231
412.855894	2414.712692
413.236180	2530.659231
413.616405	2457.562500
413.996568	2490.330000
414.376670	2460.083077
414.756711	2477.727115
415.136691	2535.700385
415.516609	2427.315577
415.896466	2439.918462
416.276262	2429.836154
416.655997	2351.698269
417.035670	2457.562500
417.415283	2407.150962
417.794834	2535.700385
418.174324	2520.576923
418.553753	2525.618077
418.933121	2427.315577
419.312428	2477.727115
419.691674	2492.850577
420.070859	2550.823846
420.449983	2386.986346
420.829045	2518.056346
421.208047	2548.303269
421.586988	2555.865000
421.965867	2540.741538
422.344686	2502.932885
422.723444	2518.056346
423.102141	2467.644808
423.480777	2513.015192
423.859352	2490.330000
424.237866	2500.412308
424.616319	2502.932885
424.994712	2452.521346
425.373044	2460.083077
425.751314	2520.576923
426.129524	2419.753846
426.507673	2450.000769
426.885762	2565.947308
427.263789	2434.877308
427.641756	2550.823846
428.019662	2540.741538
428.397508	2520.576923
428.775292	2447.480192
429.153016	2492.850577
429.530679	2530.659231
429.908282	2455.041923
430.285824	2520.576923
430.663305	2462.603654
431.040726	2495.371154
431.418086	2470.165385
431.795385	2507.974038
432.172624	2379.424615
432.549802	2510.494615
432.926920	2457.562500
433.303977	2586.111923
433.680974	2467.644808
434.057910	2424.795000
434.434786	2505.453462
434.811601	2477.727115
435.188355	2553.344423
435.565050	2523.097500
435.941683	2457.562500
436.318257	2442.439038
436.694770	2533.179808
437.071222	2439.918462
437.447614	2495.371154
437.823946	2487.809423
438.200218	2515.535769
438.576429	2515.535769
438.952580	2505.453462
439.328670	2598.714808
439.704700	2437.397885
440.080670	2472.685962
440.456580	2472.685962
440.832429	2558.385577
441.208218	2487.809423
441.583947	2492.850577
441.959616	2490.330000
442.335224	2475.206538
442.710773	2548.303269
443.086261	2417.233269
443.461689	2490.330000
443.837057	2439.918462
444.212365	2548.303269
444.587612	2518.056346
444.962800	2528.138654
445.337927	2550.823846
445.712995	2470.165385
446.088002	2482.768269
446.462949	2422.274423
446.837837	2487.809423
447.212664	2505.453462
447.587431	2495.371154
447.962139	2555.865000
448.336786	2490.330000
448.711374	2462.603654
449.085901	2568.467885
449.460369	2513.015192
449.834776	2457.562500
450.209124	2480.247692
450.583412	2455.041923
450.957640	2533.179808
451.331808	2460.083077
451.705917	2563.426731
452.079965	2429.836154
452.453954	2437.397885
452.827883	2530.659231
453.201752	2429.836154
453.575562	2429.836154
453.949311	2500.412308
454.323001	2432.356731
454.696632	2495.371154
455.070202	2520.576923
455.443713	2419.753846
455.817164	2490.330000
456.190556	2424.795000
456.563888	2543.262115
456.937160	2540.741538
457.310373	2475.206538
457.683526	2455.041923
458.056619	2502.932885
458.429653	2450.000769
458.802628	2490.330000
459.175542	2513.015192
459.548398	2477.727115
459.921194	2439.918462
460.293930	2515.535769
460.666607	2429.836154
461.039224	2434.877308
461.411782	2447.480192
461.784280	2419.753846
462.156719	2548.303269
462.529099	2485.288846
462.901419	2543.262115
463.273680	2457.562500
463.645882	2525.618077
464.018024	2482.768269
464.390106	2613.838269
464.762130	2434.877308
465.134094	2507.974038
465.505999	2477.727115
465.877845	2510.494615
466.249631	2495.371154
466.621358	2543.262115
466.993026	2462.603654
467.364634	2417.233269
467.736184	2480.247692
468.107674	2588.632500
468.479105	2490.330000
468.850477	2490.330000
469.221790	2432.356731
469.593043	2444.959615
469.964238	2487.809423
470.335373	2565.947308
470.706449	2465.124231
471.077467	2515.535769
471.448425	2417.233269
471.819324	2507.974038
472.190164	2548.303269
472.560945	2412.192115
472.931667	2497.891731
473.302330	2553.344423
473.672934	2543.262115
474.043479	2482.768269
474.413965	2485.288846
474.784393	2472.685962
475.154761	2455.041923
475.525070	2485.288846
475.895321	2606.276538
476.265513	2533.179808
476.635645	2490.330000
477.005719	2487.809423
477.375734	2513.015192
477.745691	2502.932885
478.115588	2409.671538
478.485427	2540.741538
478.855207	2397.068654
479.224928	2525.618077
479.594591	2495.371154
479.964194	2485.288846
480.333739	2465.124231
480.703226	2513.015192
481.072653	2507.974038
481.442022	2472.685962
481.811333	2507.974038
482.180584	2452.521346
482.549777	2510.494615
482.918912	2518.056346
483.287988	2520.576923
483.657005	2407.150962
484.025964	2520.576923
484.394864	2490.330000
484.763706	2392.027500
485.132489	2354.218846
485.501213	2487.809423
485.869879	2475.206538
486.238487	2429.836154
486.607036	2495.371154
486.975527	2492.850577
487.343959	2482.768269
487.712333	2472.685962
488.080648	2555.865000
488.448905	2457.562500
488.817104	2520.576923
489.185244	2505.453462
489.553326	2500.412308
489.921350	2482.768269
490.289315	2502.932885
490.657222	2505.453462
491.025070	2477.727115
491.392861	2465.124231
491.760593	2500.412308
492.128267	2520.576923
492.495883	2417.233269
492.863440	2502.932885
493.230939	2482.768269
493.598380	2460.083077
493.965763	2470.165385
494.333088	2462.603654
494.700354	2465.124231
495.067563	2510.494615
495.434713	2545.782692
495.801805	2510.494615
496.168839	2359.260000
496.535815	2422.274423
496.902733	2495.371154
497.269593	2538.220962
497.636395	2429.836154
498.003139	2485.288846
498.369825	2439.918462
498.736453	2412.192115
499.103023	2442.439038
499.469535	2480.247692
499.835989	2533.179808
500.202385	2540.741538
500.568723	2444.959615
500.935003	2565.947308
501.301226	2495.371154
501.667390	2470.165385
502.033497	2424.795000
502.399546	2507.974038
502.765537	2452.521346
503.131470	2447.480192
503.497345	2470.165385
503.863163	2523.097500
504.228923	2447.480192
504.594625	2369.342308
504.960269	2502.932885
505.325856	2379.424615
505.691385	2555.865000
506.056856	2386.986346
506.422270	2520.576923
506.787625	2485.288846
507.152924	2500.412308
507.518164	2487.809423
507.883347	2538.220962
508.248472	2475.206538
508.613540	2583.591346
508.978550	2510.494615
509.343503	2442.439038
509.708398	2452.521346
510.073236	2467.644808
510.438016	2525.618077
510.802738	2475.206538
511.167403	2505.453462
511.532010	2460.083077
511.896561	2487.809423
512.261053	2427.315577
512.625488	2487.809423
512.989866	2427.315577
513.354186	2429.836154
513.718449	2472.685962
514.082655	2543.262115
514.446803	2518.056346
514.810894	2518.056346
515.174927	2500.412308
515.538904	2540.741538
515.902822	2404.630385
516.266684	2523.097500
516.630488	2523.097500
516.994235	2470.165385
517.357925	2480.247692
517.721558	2467.644808
518.085133	2500.412308
518.448651	2460.083077
518.812112	2560.906154
519.175516	2545.782692
519.538863	2513.015192
519.902152	2455.041923
520.265385	2424.795000
520.628560	2560.906154
520.991678	2487.809423
521.354739	2540.741538
521.717743	2513.015192
522.080690	2492.850577
522.443580	2500.412308
522.806413	2523.097500
523.169189	2565.947308
523.531908	2460.083077
523.894569	2404.630385
524.257174	2455.041923
524.619722	2485.288846
524.982213	2573.509038
525.344647	2465.124231
525.707025	2523.097500
526.069345	2528.138654
526.431608	2447.480192
526.793815	2530.659231
527.155964	2422.274423
527.518057	2565.947308
527.880093	2513.015192
528.242072	2427.315577
528.603995	2515.535769
528.965860	2565.947308
529.327669	2492.850577
529.689421	2495.371154
530.051117	2462.603654
530.412755	2407.150962
530.774337	2497.891731
531.135862	2419.753846
531.497331	2507.974038
531.858743	2429.836154
532.220098	2558.385577
532.581396	2412.192115
532.942638	2439.918462
533.303824	2437.397885
533.664953	2439.918462
534.026025	2472.685962
534.387040	2404.630385
534.747999	2485.288846
535.108902	2482.768269
535.469748	2485.288846
535.830537	2515.535769
536.191270	2492.850577
536.551947	2487.809423
536.912567	2399.589231
537.273131	2523.097500
537.633638	2507.974038
537.994089	2460.083077
538.354483	2502.932885
538.714821	2465.124231
539.075103	2576.029615
539.435328	2407.150962
539.795497	2540.741538
540.155609	2540.741538
540.515665	2492.850577
540.875665	2497.891731
541.235609	2487.809423
541.595496	2515.535769
541.955328	2475.206538
542.315102	2515.535769
542.674821	2482.768269
543.034483	2427.315577
543.394090	2457.562500
543.753640	2497.891731
544.113134	2487.809423
544.472571	2404.630385
544.831953	2502.932885
545.191278	2497.891731
545.550548	2538.220962
545.909761	2437.397885
546.268918	2548.303269
546.628019	2495.371154
546.987064	2472.685962
547.346053	2513.015192
547.704986	2482.768269
548.063863	2513.015192
548.422684	2472.685962
548.781449	2490.330000
549.140158	2540.741538
549.498811	2470.165385
549.857408	2535.700385
550.215949	2505.453462
550.574434	2490.330000
550.932864	2495.371154
551.291237	2495.371154
551.649555	2533.179808
552.007817	2497.891731
552.366022	2485.288846
552.724173	2533.179808
553.082267	2497.891731
553.440305	2465.124231
553.798288	2502.932885
554.156215	2518.056346
554.514086	2424.795000
554.871902	2472.685962
555.229661	2553.344423
555.587365	2540.741538
555.945014	2457.562500
556.302606	2538.220962
556.660143	2455.041923
557.017625	2465.124231
557.375050	2495.371154
557.732421	2502.932885
558.089735	2533.179808
558.446994	2558.385577
558.804197	2427.315577
559.161345	2437.397885
559.518437	2505.453462
559.875474	2525.618077
560.232455	2497.891731
560.589381	2447.480192
560.946251	2487.809423
561.303065	2568.467885
561.659825	2487.809423
562.016528	2417.233269
562.373177	2497.891731
562.729770	2528.138654
563.086307	2523.097500
563.442789	2492.850577
563.799216	2462.603654
564.155587	2482.768269
564.511904	2513.015192
564.868164	2505.453462
565.224370	2545.782692
565.580520	2480.247692
565.936615	2460.083077
566.292654	2505.453462
566.648638	2533.179808
567.004567	2613.838269
567.360441	2525.618077
567.716260	2565.947308
568.072023	2598.714808
568.427732	2515.535769
568.783385	2475.206538
569.138982	2588.632500
569.494525	2467.644808
569.850013	2568.467885
570.205445	2507.974038
570.560823	2528.138654
570.916145	2452.521346
571.271412	2523.097500
571.626625	2543.262115
571.981782	2507.974038
572.336884	2518.056346
572.691931	2490.330000
573.046923	2429.836154
573.401860	2576.029615
573.756743	2513.015192
574.111570	2507.974038
574.466342	2495.371154
574.821059	2515.535769
575.175722	2447.480192
575.530330	2530.659231
575.884882	2543.262115
576.239380	2467.644808
576.593823	2639.044038
576.948211	2507.974038
577.302544	2576.029615
577.656823	2485.288846
578.011047	2487.809423
578.365216	2447.480192
578.719330	2502.932885
579.073389	2472.685962
579.427394	2543.262115
579.781344	2482.768269
580.135239	2492.850577
580.489080	2444.959615
580.842866	2409.671538
581.196597	2535.700385
581.550273	2465.124231
581.903895	2510.494615
582.257463	2518.056346
582.610975	2510.494615
582.964434	2497.891731
583.317837	2513.015192
583.671186	2480.247692
584.024481	2477.727115
584.377721	2470.165385
584.730906	2482.768269
585.084037	2495.371154
585.437113	2465.124231
585.790135	2497.891731
586.143103	2515.535769
586.496016	2470.165385
586.848874	2452.521346
587.201679	2472.685962
587.554428	2487.809423
587.907124	2447.480192
588.259765	2419.753846
588.612352	2495.371154
588.964884	2409.671538
589.317362	2386.986346
589.669786	2467.644808
590.022155	2475.206538
590.374470	2583.591346
590.726731	2520.576923
591.078937	2452.521346
591.431090	2518.056346
591.783188	2457.562500
592.135232	2515.535769
592.487222	2455.041923
592.839157	2444.959615
593.191038	2543.262115
593.542866	2533.179808
593.894639	2477.727115
594.246358	2513.015192
594.598022	2482.768269
594.949633	2450.000769
595.301190	2490.330000
595.652692	2482.768269
596.004141	2515.535769
596.355535	2555.865000
596.706876	2439.918462
597.058162	2460.083077
597.409395	2475.206538
597.760573	2583.591346
598.111698	2462.603654
598.462768	2550.823846
598.813785	2470.165385
599.164748	2543.262115
599.515657	2460.083077
599.866511	2510.494615
600.217312	2475.206538
600.568060	2565.947308
600.918753	2480.247692
601.269392	2591.153077
601.619978	2495.371154
601.970510	2497.891731
602.320988	2497.891731
602.671412	2399.589231
603.021783	2565.947308
603.372100	2467.644808
603.722363	2563.426731
604.072572	2502.932885
604.422728	2535.700385
604.772830	2432.356731
605.122878	2487.809423
605.472872	2465.124231
605.822813	2495.371154
606.172701	2442.439038
606.522534	2545.782692
606.872314	2427.315577
607.222041	2497.891731
607.571714	2487.809423
607.921333	2490.330000
608.270899	2533.179808
608.620411	2528.138654
608.969870	2492.850577
609.319276	2568.467885
609.668627	2460.083077
610.017926	2550.823846
610.367171	2462.603654
610.716362	2475.206538
611.065500	2507.974038
611.414585	2505.453462
611.763616	2500.412308
612.112594	2555.865000
612.461518	2467.644808
612.810389	2513.015192
613.159207	2558.385577
613.507971	2540.741538
613.856682	2583.591346
614.205340	2477.727115
614.553945	2515.535769
614.902496	2452.521346
615.250994	2555.865000
615.599439	2591.153077
615.947830	2513.015192
616.296169	2548.303269
616.644454	2465.124231
616.992686	2513.015192
617.340864	2470.165385
617.688990	2555.865000
618.037063	2462.603654
618.385082	2502.932885
618.733048	2500.412308
619.080961	2530.659231
619.428821	2472.685962
619.776628	2495.371154
620.124382	2434.877308
620.472083	2495.371154
620.819731	2576.029615
621.167326	2419.753846
621.514868	2507.974038
621.862357	2507.974038
622.209793	2492.850577
622.557176	2497.891731
622.904506	2555.865000
623.251783	2492.850577
623.599007	2588.632500
623.946179	2424.795000
624.293297	2533.179808
624.640363	2568.467885
624.987376	2500.412308
625.334336	2548.303269
625.681243	2497.891731
626.028097	2465.124231
626.374899	2523.097500
626.721647	2404.630385
627.068343	2548.303269
627.414987	2492.850577
627.761577	2462.603654
628.108115	2439.918462
628.454600	2427.315577
628.801032	2452.521346
629.147412	2505.453462
629.493739	2465.124231
629.840014	2495.371154
630.186236	2477.727115
630.532405	2586.111923
630.878521	2487.809423
631.224585	2588.632500
631.570597	2497.891731
631.916556	2518.056346
632.262462	2568.467885
632.608316	2513.015192
632.954117	2452.521346
633.299866	2538.220962
633.645562	2533.179808
633.991206	2482.768269
634.336797	2505.453462
634.682336	2424.795000
635.027823	2437.397885
635.373257	2510.494615
635.718639	2540.741538
636.063968	2462.603654
636.409245	2588.632500
636.754470	2533.179808
637.099642	2414.712692
637.444762	2510.494615
637.789829	2455.041923
638.134845	2477.727115
638.479808	2444.959615
638.824719	2548.303269
639.169577	2545.782692
639.514383	2497.891731
639.859137	2518.056346
640.203839	2492.850577
640.548489	2523.097500
640.893086	2588.632500
641.237632	2447.480192
641.582125	2507.974038
641.926566	2434.877308
642.270955	2480.247692
642.615292	2442.439038
642.959576	2492.850577
643.303809	2472.685962
643.647990	2533.179808
643.992118	2591.153077
644.336195	2555.865000
644.680219	2510.494615
645.024192	2510.494615
645.368112	2480.247692
645.711981	2495.371154
646.055797	2573.509038
646.399562	2485.288846
646.743274	2606.276538
647.086935	2505.453462
647.430544	2427.315577
647.774101	2520.576923
648.117606	2502.932885
648.461059	2538.220962
648.804460	2452.521346
649.147810	2543.262115
649.491108	2545.782692
649.834354	2530.659231
650.177548	2472.685962
650.520690	2460.083077
650.863781	2465.124231
651.206820	2538.220962
651.549807	2465.124231
651.892742	2540.741538
652.235626	2525.618077
652.578458	2618.879423
652.921238	2482.768269
653.263967	2543.262115
653.606644	2455.041923
653.949269	2563.426731
654.291843	2487.809423
654.634365	2500.412308
654.976836	2525.618077
655.319255	2452.521346
655.661622	2550.823846
656.003938	2528.138654
656.346203	2515.535769
656.688416	2528.138654
657.030577	2576.029615
657.372687	2455.041923
657.714746	2558.385577
658.056753	2452.521346
658.398708	2462.603654
658.740612	2533.179808
659.082465	2523.097500
659.424266	2482.768269
659.766016	2535.700385
660.107715	2596.194231
660.449362	2505.453462
660.790958	2510.494615
661.132503	2424.795000
661.473996	2528.138654
661.815438	2452.521346
662.156829	2523.097500
662.498168	2510.494615
662.839456	2533.179808
663.180693	2588.632500
663.521879	2535.700385
663.863013	2439.918462
664.204097	2490.330000
664.545129	2495.371154
664.886110	2558.385577
665.227040	2437.397885
665.567918	2419.753846
665.908746	2450.000769
666.249522	2523.097500
666.590248	2467.644808
666.930922	2497.891731
667.271545	2510.494615
667.612118	2490.330000
667.952639	2500.412308
668.293109	2502.932885
668.633528	2608.797115
668.973896	2465.124231
669.314213	2495.371154
669.654480	2520.576923
669.994695	2480.247692
670.334859	2538.220962
670.674973	2442.439038
671.015035	2452.521346
671.355047	2495.371154
671.695008	2480.247692
672.034918	2538.220962
672.374777	2611.317692
672.714585	2480.247692
673.054342	2482.768269
673.394049	2500.412308
673.733705	2502.932885
674.073310	2530.659231
674.412864	2480.247692
674.752368	2515.535769
675.091820	2460.083077
675.431223	2530.659231
675.770574	2485.288846
676.109875	2470.165385
676.449125	2543.262115
676.788324	2500.412308
677.127473	2520.576923
677.466571	2603.755962
677.805619	2475.206538
678.144616	2535.700385
678.483562	2475.206538
678.822458	2525.618077
679.161303	2495.371154
679.500098	2563.426731
679.838842	2422.274423
680.177535	2528.138654
680.516179	2472.685962
680.854771	2487.809423
681.193314	2444.959615
681.531805	2565.947308
681.870247	2608.797115
682.208638	2520.576923
682.546978	2407.150962
682.885268	2518.056346
683.223508	2397.068654
683.561697	2507.974038
683.899836	2545.782692
684.237925	2553.344423
684.575963	2457.562500
684.913951	2538.220962
685.251889	2523.097500
685.589776	2593.673654
685.927614	2480.247692
686.265401	2386.986346
686.603137	2487.809423
686.940824	2470.165385
687.278460	2460.083077
687.616046	2485.288846
687.953582	2497.891731
688.291068	2452.521346
688.628504	2434.877308
688.965889	2520.576923
689.303224	2427.315577
689.640510	2573.509038
689.977745	2455.041923
690.314930	2518.056346
690.652065	2460.083077
690.989150	2528.138654
691.326185	2475.206538
691.663170	2492.850577
692.000105	2427.315577
692.336990	2465.124231
692.673825	2548.303269
693.010610	2533.179808
693.347345	2520.576923
693.684030	2553.344423
694.020665	2482.768269
694.357251	2477.727115
694.693786	2480.247692
695.030272	2495.371154
695.366707	2601.235385
695.703093	2485.288846
696.039429	2477.727115
696.375716	2450.000769
696.711952	2492.850577
697.048139	2439.918462
697.384276	2482.768269
697.720363	2467.644808
698.056400	2505.453462
698.392388	2505.453462
698.728326	2576.029615
699.064214	2485.288846
699.400053	2447.480192
699.735842	2558.385577
700.071581	2502.932885
700.407270	2502.932885
700.742910	2502.932885
701.078501	2492.850577
701.414042	2497.891731
701.749533	2540.741538
702.084974	2455.041923
702.420366	2480.247692
702.755709	2480.247692
703.091002	2472.685962
703.426246	2475.206538
703.761440	2467.644808
704.096584	2480.247692
704.431679	2439.918462
704.766725	2525.618077
705.101721	2472.685962
705.436668	2482.768269
705.771565	2490.330000
706.106413	2576.029615
706.441212	2518.056346
706.775961	2545.782692
707.110661	2525.618077
707.445311	2520.576923
707.779913	2482.768269
708.114465	2533.179808
708.448967	2487.809423
708.783421	2432.356731
709.117825	2414.712692
709.452180	2439.918462
709.786485	2500.412308
710.120742	2457.562500
710.454949	2500.412308
710.789107	2432.356731
711.123216	2490.330000
711.457275	2465.124231
711.791286	2472.685962
712.125247	2505.453462
712.459159	2424.795000
712.793023	2465.124231
713.126837	2543.262115
713.460602	2550.823846
713.794318	2442.439038
714.127985	2462.603654
714.461602	2588.632500
714.795171	2480.247692
715.128691	2490.330000
715.462162	2560.906154
715.795584	2530.659231
716.128957	2447.480192
716.462281	2560.906154
716.795556	2480.247692
717.128782	2475.206538
717.461960	2555.865000
717.795088	2548.303269
718.128167	2485.288846
718.461198	2470.165385
718.794180	2482.768269
719.127113	2487.809423
719.459997	2452.521346
719.792833	2538.220962
720.125619	2480.247692
720.458357	2540.741538
720.791046	2533.179808
721.123686	2419.753846
721.456278	2457.562500
721.788821	2500.412308
722.121315	2555.865000
722.453761	2444.959615
722.786158	2520.576923
723.118506	2457.562500
723.450805	2510.494615
723.783056	2518.056346
724.115259	2487.809423
724.447412	2444.959615
724.779518	2583.591346
725.111574	2460.083077
725.443582	2487.809423
725.775542	2482.768269
726.107453	2513.015192
726.439315	2505.453462
726.771129	2555.865000
727.102895	2432.356731
727.434612	2480.247692
727.766281	2505.453462
728.097901	2482.768269
728.429473	2507.974038
728.760996	2550.823846
729.092471	2515.535769
729.423897	2513.015192
729.755276	2535.700385
730.086606	2507.974038
730.417887	2424.795000
730.749120	2523.097500
731.080305	2510.494615
731.411442	2548.303269
731.742530	2502.932885
732.073570	2533.179808
732.404562	2581.070769
732.735506	2505.453462
733.066401	2497.891731
733.397249	2475.206538
733.728048	2515.535769
734.058798	2520.576923
734.389501	2477.727115
734.720156	2513.015192
735.050762	2497.891731
735.381320	2467.644808
735.711831	2570.988462
736.042293	2492.850577
736.372707	2540.741538
736.703073	2513.015192
737.033391	2563.426731
737.363661	2455.041923
737.693883	2470.165385
738.024056	2419.753846
738.354182	2530.659231
738.684260	2495.371154
739.014290	2548.303269
739.344272	2505.453462
739.674207	2470.165385
740.004093	2510.494615
740.333931	2492.850577
740.663722	2543.262115
740.993464	2497.891731
741.323159	2570.988462
741.652806	2424.795000
741.982405	2540.741538
742.311956	2601.235385
742.641460	2558.385577
742.970915	2384.465769
743.300323	2543.262115
743.629683	2470.165385
743.958996	2515.535769
744.288260	2578.550192
744.617477	2462.603654
744.946647	2545.782692
745.275768	2565.947308
745.604842	2412.192115
745.933869	2563.426731
746.262847	2490.330000
746.591778	2553.344423
746.920662	2513.015192
747.249498	2500.412308
747.578286	2490.330000
747.907027	2414.712692
748.235720	2490.330000
748.564365	2535.700385
748.892963	2439.918462
749.221514	2480.247692
749.550017	2548.303269
749.878473	2485.288846
750.206881	2492.850577
750.535242	2475.206538
750.863555	2550.823846
751.191821	2467.644808
751.520039	2492.850577
751.848210	2434.877308
752.176334	2487.809423
752.504411	2465.124231
752.832440	2457.562500
753.160421	2480.247692
753.488356	2442.439038
753.816243	2507.974038
754.144082	2447.480192
754.471875	2427.315577
754.799620	2576.029615
755.127318	2450.000769
755.454969	2477.727115
755.782572	2492.850577
756.110129	2452.521346
756.437638	2518.056346
756.765100	2535.700385
757.092515	2523.097500
757.419882	2414.712692
757.747203	2545.782692
758.074477	2543.262115
758.401703	2492.850577
758.728882	2460.083077
759.056014	2452.521346
759.383099	2528.138654
759.710138	2520.576923
760.037129	2434.877308
760.364073	2510.494615
760.690970	2500.412308
761.017820	2528.138654
761.344623	2520.576923
761.671379	2452.521346
761.998088	2555.865000
762.324751	2490.330000
762.651366	2538.220962
762.977935	2510.494615
763.304456	2465.124231
763.630931	2417.233269
763.957359	2429.836154
764.283740	2538.220962
764.610074	2495.371154
764.936362	2568.467885
765.262602	2467.644808
765.588796	2520.576923
765.914943	2452.521346
766.241044	2518.056346
766.567097	2482.768269
766.893104	2538.220962
767.219064	2460.083077
767.544978	2480.247692
767.870845	2518.056346
768.196665	2414.712692
768.522438	2558.385577
768.848165	2505.453462
769.173846	2444.959615
769.499479	2528.138654
769.825066	2533.179808
770.150607	2412.192115
770.476101	2422.274423
770.801548	2497.891731
771.126949	2558.385577
771.452303	2525.618077
771.777611	2495.371154
772.102872	2550.823846
772.428087	2518.056346
772.753256	2452.521346
773.078378	2502.932885
773.403453	2427.315577
773.728482	2485.288846
774.053465	2422.274423
774.378401	2550.823846
774.703291	2515.535769
775.028135	2437.397885
775.352932	2502.932885
775.677683	2500.412308
776.002388	2545.782692
776.327046	2477.727115
776.651658	2487.809423
776.976224	2540.741538
777.300743	2520.576923
777.625216	2452.521346
777.949643	2513.015192
778.274024	2543.262115
778.598359	2439.918462
778.922647	2495.371154
779.246889	2419.753846
779.571086	2555.865000
779.895236	2490.330000
780.219339	2515.535769
780.543397	2467.644808
780.867409	2520.576923
781.191374	2477.727115
781.515294	2480.247692
781.839167	2548.303269
782.162995	2482.768269
782.486776	2485.288846
782.810511	2502.932885
783.134201	2505.453462
783.457844	2422.274423
783.781441	2540.741538
784.104993	2583.591346
784.428498	2500.412308
784.751958	2472.685962
785.075372	2444.959615
785.398739	2475.206538
785.722061	2444.959615
786.045337	2500.412308
786.368568	2505.453462
786.691752	2492.850577
787.014891	2442.439038
787.337983	2472.685962
787.661030	2535.700385
787.984031	2528.138654
788.306987	2495.371154
788.629897	2439.918462
788.952760	2450.000769
789.275579	2533.179808
789.598351	2432.356731
789.921078	2462.603654
790.243759	2500.412308
790.566395	2389.506923
790.888984	2455.041923
791.211529	2409.671538
791.534027	2535.700385
791.856480	2475.206538
792.178888	2470.165385
792.501249	2502.932885
792.823566	2429.836154
793.145836	2533.179808
793.468062	2507.974038
793.790241	2560.906154
794.112375	2515.535769
794.434464	2540.741538
794.756507	2470.165385
795.078505	2533.179808
795.400457	2450.000769
795.722364	2472.685962
796.044226	2500.412308
796.366042	2490.330000
796.687812	2535.700385
797.009538	2444.959615
797.331218	2485.288846
797.652852	2485.288846
797.974442	2530.659231
798.295986	2477.727115
798.617484	2482.768269
798.938938	2538.220962
799.260346	2397.068654
799.581709	2480.247692
799.903026	2573.509038
800.224299	2465.124231
800.545526	2502.932885
800.866708	2558.385577
801.187845	2550.823846
801.508936	2490.330000
801.829983	2558.385577
802.150984	2480.247692
802.471940	2487.809423
802.792851	2444.959615
803.113717	2535.700385
803.434538	2477.727115
803.755314	2530.659231
804.076045	2432.356731
804.396731	2603.755962
804.717372	2437.397885
805.037967	2492.850577
805.358518	2616.358846
805.679024	2530.659231
805.999485	2530.659231
806.319901	2568.467885
806.640272	2465.124231
806.960598	2543.262115
807.280879	2424.795000
807.601115	2515.535769
807.921306	2472.685962
808.241453	2482.768269
808.561554	2485.288846
808.881611	2427.315577
809.201623	2467.644808
809.521590	2500.412308
809.841513	2525.618077
810.161390	2523.097500
810.481223	2507.974038
810.801011	2462.603654
811.120755	2439.918462
811.440453	2543.262115
811.760107	2540.741538
812.079716	2507.974038
812.399281	2450.000769
812.718801	2550.823846
813.038276	2455.041923
813.357707	2515.535769
813.677093	2472.685962
813.996434	2495.371154
814.315731	2485.288846
814.634983	2528.138654
814.954191	2447.480192
815.273354	2540.741538
815.592473	2507.974038
815.911547	2513.015192
816.230577	2502.932885
816.549562	2482.768269
816.868502	2465.124231
817.187399	2553.344423
817.506250	2460.083077
817.825058	2500.412308
818.143821	2505.453462
818.462539	2502.932885
818.781213	2555.865000
819.099843	2439.918462
819.418429	2515.535769
819.736970	2447.480192
820.055466	2455.041923
820.373919	2533.179808
820.692327	2485.288846
821.010691	2558.385577
821.329011	2528.138654
821.647286	2543.262115
821.965517	2475.206538
822.283704	2492.850577
822.601847	2518.056346
822.919945	2513.015192
823.237999	2505.453462
823.556010	2502.932885
823.873976	2530.659231
824.191897	2477.727115
824.509775	2525.618077
824.827609	2432.356731
825.145398	2500.412308
825.463144	2515.535769
825.780845	2472.685962
826.098502	2452.521346
826.416116	2450.000769
826.733685	2434.877308
827.051210	2472.685962
827.368692	2470.165385
827.686129	2535.700385
828.003522	2444.959615
828.320872	2462.603654
828.638177	2480.247692
828.955439	2364.301154
829.272656	2452.521346
829.589830	2462.603654
829.906960	2490.330000
830.224046	2439.918462
830.541088	2472.685962
830.858086	2444.959615
831.175041	2555.865000
831.491952	2470.165385
831.808819	2495.371154
832.125642	2460.083077
832.442421	2518.056346
832.759157	2497.891731
833.075849	2495.371154
833.392497	2523.097500
833.709101	2439.918462
834.025662	2447.480192
834.342179	2528.138654
834.658653	2457.562500
834.975083	2450.000769
835.291469	2525.618077
835.607811	2563.426731
835.924110	2487.809423
836.240366	2457.562500
836.556578	2485.288846
836.872746	2492.850577
837.188871	2505.453462
837.504952	2447.480192
837.820990	2513.015192
838.136984	2472.685962
838.452935	2475.206538
838.768842	2507.974038
839.084706	2462.603654
839.400526	2470.165385
839.716303	2525.618077
840.032037	2482.768269
840.347727	2553.344423
840.663373	2490.330000
840.978977	2535.700385
841.294537	2513.015192
841.610054	2450.000769
841.925527	2540.741538
842.240957	2475.206538
842.556344	2533.179808
842.871687	2500.412308
843.186987	2596.194231
843.502244	2500.412308
843.817458	2462.603654
844.132629	2505.453462
844.447756	2525.618077
844.762840	2467.644808
845.077881	2500.412308
845.392879	2555.865000
845.707833	2563.426731
846.022745	2447.480192
846.337613	2523.097500
846.652438	2505.453462
846.967221	2487.809423
847.281960	2555.865000
847.596656	2462.603654
847.911309	2419.753846
848.225919	2407.150962
848.540485	2548.303269
848.855009	2502.932885
849.169490	2470.165385
849.483928	2515.535769
849.798323	2538.220962
850.112675	2427.315577
850.426984	2465.124231
850.741251	2495.371154
851.055474	2507.974038
851.369654	2452.521346
851.683792	2492.850577
851.997887	2452.521346
852.311938	2487.809423
852.625947	2452.521346
852.939914	2530.659231
853.253837	2530.659231
853.567718	2520.576923
853.881555	2518.056346
854.195350	2470.165385
854.509103	2570.988462
854.822812	2550.823846
855.136479	2444.959615
855.450103	2452.521346
855.763685	2434.877308
856.077224	2490.330000
856.390720	2424.795000
856.704173	2452.521346
857.017584	2490.330000
857.330953	2528.138654
857.644278	2465.124231
857.957561	2467.644808
858.270802	2480.247692
858.584000	2450.000769
858.897155	2523.097500
859.210268	2442.439038
859.523339	2487.809423
859.836367	2525.618077
860.149352	2540.741538
860.462295	2535.700385
860.775195	2500.412308
861.088054	2528.138654
861.400869	2558.385577
861.713642	2540.741538
862.026373	2422.274423
862.339062	2525.618077
862.651708	2523.097500
862.964312	2563.426731
863.276873	2439.918462
863.589392	2550.823846
863.901869	2528.138654
864.214303	2505.453462
864.526696	2369.342308
864.839045	2570.988462
865.151353	2570.988462
865.463619	2533.179808
865.775842	2452.521346
866.088023	2576.029615
866.400162	2460.083077
866.712258	2490.330000
867.024313	2444.959615
867.336325	2455.041923
867.648296	2502.932885
867.960224	2560.906154
868.272110	2545.782692
868.583954	2518.056346
868.895755	2502.932885
869.207515	2515.535769
869.519233	2475.206538
869.830909	2518.056346
870.142542	2482.768269
870.454134	2565.947308
870.765684	2472.685962
871.077191	2523.097500
871.388657	2608.797115
871.700081	2470.165385
872.011463	2472.685962
872.322803	2424.795000
872.634101	2505.453462
872.945357	2513.015192
873.256571	2434.877308
873.567744	2525.618077
873.878874	2507.974038
874.189963	2482.768269
874.501010	2455.041923
874.812015	2563.426731
875.122979	2457.562500
875.433900	2462.603654
875.744780	2444.959615
876.055618	2487.809423
876.366415	2505.453462
876.677169	2492.850577
876.987882	2470.165385
877.298554	2518.056346
877.609183	2553.344423
877.919771	2487.809423
878.230317	2505.453462
878.540822	2465.124231
878.851285	2528.138654
879.161707	2485.288846
879.472087	2472.685962
879.782425	2507.974038
880.092722	2528.138654
880.402977	2538.220962
880.713191	2502.932885
881.023363	2480.247692
881.333494	2497.891731
881.643583	2543.262115
881.953631	2472.685962
882.263637	2500.412308
882.573602	2500.412308
882.883526	2528.138654
883.193408	2500.412308
883.503248	2570.988462
883.813048	2470.165385
884.122806	2404.630385
884.432522	2457.562500
884.742197	2500.412308
885.051831	2495.371154
885.361424	2560.906154
885.670975	2467.644808
885.980485	2447.480192
886.289954	2450.000769
886.599382	2447.480192
886.908768	2455.041923
887.218113	2442.439038
887.527417	2523.097500
887.836680	2480.247692
888.145901	2437.397885
888.455082	2538.220962
888.764221	2465.124231
889.073319	2450.000769
889.382376	2505.453462
889.691392	2462.603654
890.000366	2538.220962
890.309300	2457.562500
890.618193	2591.153077
890.927044	2422.274423
891.235855	2581.070769
891.544625	2477.727115
891.853353	2497.891731
892.162041	2510.494615
892.470687	2439.918462
892.779293	2606.276538
893.087858	2437.397885
893.396381	2538.220962
893.704864	2505.453462
894.013306	2555.865000
894.321707	2452.521346
894.630068	2513.015192
894.938387	2462.603654
895.246665	2442.439038
895.554903	2543.262115
895.863100	2500.412308
896.171256	2535.700385
896.479371	2500.412308
896.787446	2490.330000
897.095480	2485.288846
897.403473	2465.124231
897.711425	2472.685962
898.019336	2570.988462
898.327207	2490.330000
898.635038	2462.603654
898.942827	2558.385577
899.250576	2470.165385
899.558284	2565.947308
899.865952	2510.494615
900.173579	2530.659231
900.481165	2447.480192
900.788711	2444.959615
901.096216	2432.356731
901.403681	2500.412308
901.711105	2490.330000
902.018489	2477.727115
902.325832	2487.809423
902.633135	2545.782692
902.940397	2490.330000
903.247619	2455.041923
903.554800	2477.727115
903.861941	2518.056346
904.169041	2502.932885
904.476101	2465.124231
904.783121	2482.768269
905.090100	2442.439038
905.397039	2568.467885
905.703938	2470.165385
906.010796	2518.056346
906.317614	2450.000769
906.624391	2460.083077
906.931129	2457.562500
907.237826	2475.206538
907.544483	2543.262115
907.851099	2535.700385
908.157675	2510.494615
908.464211	2543.262115
908.770707	2523.097500
909.077163	2439.918462
909.383578	2593.673654
909.689954	2510.494615
909.996289	2515.535769
910.302584	2515.535769
910.608839	2470.165385
910.915054	2591.153077
911.221229	2475.206538
911.527363	2513.015192
911.833458	2447.480192
912.139513	2465.124231
912.445527	2525.618077
912.751502	2513.015192
913.057436	2550.823846
913.363331	2548.303269
913.669186	2467.644808
913.975000	2422.274423
914.280775	2465.124231
914.586510	2606.276538
914.892205	2462.603654
915.197859	2487.809423
915.503475	2560.906154
915.809050	2497.891731
916.114585	2507.974038
916.420081	2495.371154
916.725536	2523.097500
917.030952	2460.083077
917.336328	2457.562500
917.641665	2482.768269
917.946961	2538.220962
918.252218	2545.782692
918.557435	2399.589231
918.862612	2437.397885
919.167750	2450.000769
919.472848	2513.015192
919.777906	2462.603654
920.082925	2404.630385
920.387904	2462.603654
920.692843	2465.124231
920.997743	2545.782692
921.302603	2495.371154
921.607423	2568.467885
921.912204	2525.618077
922.216946	2412.192115
922.521647	2492.850577
922.826310	2447.480192
923.130932	2442.439038
923.435516	2452.521346
923.740059	2520.576923
924.044564	2455.041923
924.349028	2538.220962
924.653454	2460.083077
924.957840	2485.288846
925.262186	2505.453462
925.566493	2568.467885
925.870761	2442.439038
926.174989	2475.206538
926.479178	2472.685962
926.783328	2523.097500
927.087438	2507.974038
927.391509	2500.412308
927.695541	2477.727115
927.999533	2500.412308
928.303486	2515.535769
928.607400	2507.974038
928.911275	2490.330000
929.215110	2523.097500
929.518906	2485.288846
929.822663	2417.233269
930.126381	2477.727115
930.430060	2520.576923
930.733699	2460.083077
931.037299	2523.097500
931.340861	2507.974038
931.644383	2467.644808
931.947866	2505.453462
932.251309	2520.576923
932.554714	2470.165385
932.858080	2568.467885
933.161407	2492.850577
933.464694	2528.138654
933.767943	2485.288846
934.071153	2525.618077
934.374323	2472.685962
934.677455	2510.494615
934.980548	2432.356731
935.283602	2417.233269
935.586617	2457.562500
935.889593	2560.906154
936.192530	2465.124231
936.495428	2480.247692
936.798287	2482.768269
937.101108	2502.932885
937.403890	2560.906154
937.706632	2583.591346
938.009336	2450.000769
938.312002	2510.494615
938.614628	2480.247692
938.917216	2560.906154
939.219765	2480.247692
939.522275	2465.124231
939.824747	2394.548077
940.127179	2480.247692
940.429573	2455.041923
940.731929	2510.494615
941.034246	2472.685962
941.336524	2492.850577
941.638763	2460.083077
941.940964	2472.685962
942.243126	2439.918462
942.545250	2525.618077
942.847335	2444.959615
943.149381	2480.247692
943.451389	2404.630385
943.753359	2480.247692
944.055290	2467.644808
944.357182	2477.727115
944.659036	2495.371154
944.960851	2477.727115
945.262628	2455.041923
945.564367	2397.068654
945.866067	2487.809423
946.167729	2533.179808
946.469352	2482.768269
946.770937	2507.974038
947.072484	2548.303269
947.373992	2422.274423
947.675462	2495.371154
947.976893	2500.412308
948.278286	2457.562500
948.579641	2497.891731
948.880958	2465.124231
949.182236	2513.015192
949.483476	2500.412308
949.784678	2457.562500
950.085841	2447.480192
950.386967	2492.850577
950.688054	2530.659231
950.989103	2414.712692
951.290114	2563.426731
951.591087	2487.809423
951.892021	2515.535769
952.192917	2505.453462
952.493776	2518.056346
952.794596	2490.330000
953.095378	2543.262115
953.396122	2427.315577
953.696828	2482.768269
953.997496	2447.480192
954.298126	2444.959615
954.598718	2570.988462
954.899272	2563.426731
955.199788	2505.453462
955.500266	2472.685962
955.800706	2513.015192
956.101108	2429.836154
956.401472	2495.371154
956.701798	2563.426731
957.002087	2434.877308
957.302337	2540.741538
957.602550	2414.712692
957.902724	2548.303269
958.202861	2490.330000
958.502960	2497.891731
958.803022	2490.330000
959.103045	2528.138654
959.403031	2513.015192
959.702979	2480.247692
960.002889	2447.480192
960.302762	2434.877308
960.602596	2502.932885
960.902393	2404.630385
961.202153	2465.124231
961.501875	2432.356731
961.801559	2507.974038
962.101205	2455.041923
962.400814	2518.056346
962.700385	2523.097500
962.999918	2530.659231
963.299414	2477.727115
963.598873	2523.097500
963.898293	2442.439038
964.197677	2480.247692
964.497022	2485.288846
964.796331	2437.397885
965.095601	2434.877308
965.394835	2480.247692
965.694030	2480.247692
965.993189	2502.932885
966.292309	2518.056346
966.591393	2427.315577
966.890439	2490.330000
967.189447	2414.712692
967.488419	2465.124231
967.787353	2477.727115
968.086249	2487.809423
968.385108	2495.371154
968.683930	2447.480192
968.982714	2462.603654
969.281462	2482.768269
969.580172	2573.509038
969.878844	2457.562500
970.177480	2457.562500
970.476078	2616.358846
970.774639	2439.918462
971.073162	2480.247692
971.371649	2492.850577
971.670098	2502.932885
971.968510	2432.356731
972.266885	2540.741538
972.565223	2560.906154
972.863524	2419.753846
973.161788	2490.330000
973.460014	2475.206538
973.758204	2565.947308
974.056356	2444.959615
974.354471	2560.906154
974.652550	2495.371154
974.950591	2417.233269
975.248595	2518.056346
975.546563	2432.356731
975.844493	2500.412308
976.142386	2492.850577
976.440243	2442.439038
976.738062	2412.192115
977.035845	2439.918462
977.333590	2500.412308
977.631299	2490.330000
977.928971	2450.000769
978.226606	2525.618077
978.524204	2505.453462
978.821765	2525.618077
979.119290	2455.041923
979.416777	2404.630385
979.714228	2487.809423
980.011642	2452.521346
980.309020	2513.015192
980.606360	2563.426731
980.903664	2452.521346
981.200931	2427.315577
981.498162	2586.111923
981.795356	2560.906154
982.092513	2369.342308
982.389633	2490.330000
982.686717	2442.439038
982.983764	2578.550192
983.280775	2535.700385
983.577749	2485.288846
983.874686	2465.124231
984.171587	2485.288846
984.468451	2417.233269
984.765279	2422.274423
985.062070	2462.603654
985.358824	2492.850577
985.655543	2507.974038
985.952224	2538.220962
986.248869	2596.194231
986.545478	2490.330000
986.842050	2510.494615
987.138586	2472.685962
987.435086	2477.727115
987.731549	2492.850577
988.027975	2500.412308
988.324366	2485.288846
988.620719	2510.494615
988.917037	2523.097500
989.213318	2505.453462
989.509563	2510.494615
989.805772	2452.521346
990.101944	2470.165385
990.398080	2495.371154
990.694180	2467.644808
990.990244	2465.124231
991.286271	2550.823846
991.582262	2480.247692
991.878217	2523.097500
992.174136	2492.850577
992.470019	2482.768269
992.765865	2460.083077
993.061676	2490.330000
993.357450	2490.330000
993.653188	2510.494615
993.948890	2500.412308
994.244556	2545.782692
994.540186	2465.124231
994.835780	2485.288846
995.131337	2444.959615
995.426859	2505.453462
995.722345	2548.303269
996.017795	2447.480192
996.313208	2507.974038
996.608586	2442.439038
996.903928	2442.439038
997.199234	2482.768269
997.494504	2462.603654
997.789738	2442.439038
998.084936	2510.494615
998.380099	2490.330000
998.675225	2495.371154
998.970316	2495.371154
999.265371	2515.535769
999.560390	2434.877308
999.855373	2515.535769
1000.150320	2477.727115
1000.445232	2497.891731
1000.740108	2523.097500
1001.034948	2402.109808
1001.329752	2533.179808
1001.624521	2467.644808
1001.919254	2497.891731
1002.213951	2515.535769
1002.508613	2485.288846
1002.803239	2444.959615
1003.097829	2422.274423
1003.392384	2432.356731
1003.686903	2361.780577
1003.981386	2477.727115
1004.275834	2457.562500
1004.570246	2515.535769
1004.864623	2475.206538
1005.158964	2530.659231
1005.453270	2462.603654
1005.747540	2432.356731
1006.041775	2528.138654
1006.335974	2467.644808
1006.630138	2515.535769
1006.924266	2455.041923
1007.218359	2530.659231
1007.512416	2492.850577
1007.806438	2482.768269
1008.100425	2412.192115
1008.394376	2523.097500
1008.688292	2460.083077
1008.982172	2475.206538
1009.276017	2495.371154
1009.569827	2470.165385
1009.863602	2460.083077
1010.157341	2480.247692
1010.451045	2412.192115
1010.744714	2442.439038
1011.038347	2450.000769
1011.331945	2475.206538
1011.625508	2439.918462
1011.919036	2439.918462
1012.212528	2480.247692
1012.505986	2560.906154
1012.799408	2644.085192
1013.092795	2520.576923
1013.386147	2616.358846
1013.679464	2540.741538
1013.972745	2419.753846
1014.265992	2439.918462
1014.559204	2515.535769
1014.852380	2417.233269
1015.145521	2535.700385
1015.438628	2570.988462
1015.731699	2550.823846
1016.024736	2568.467885
1016.317737	2482.768269
1016.610703	2472.685962
1016.903635	2444.959615
1017.196531	2515.535769
1017.489393	2507.974038
1017.782219	2450.000769
1018.075011	2475.206538
1018.367768	2467.644808
1018.660490	2442.439038
1018.953177	2442.439038
1019.245829	2442.439038
