Dividing Wavelength (nm)	Counts (n)	Blue Motor Position (mm): 1.300000	Red Motor Position (mm): 0.000000	
326.493990	2167.696154
326.888308	2167.696154
327.282561	2167.696154
327.676750	2094.599423
328.070874	2066.873077
328.464933	2006.379231
328.858929	1991.255769
329.252859	2087.037692
329.646726	2109.722885
330.040528	2066.873077
330.434265	2167.696154
330.827938	2114.764038
331.221547	2097.120000
331.615091	2157.613846
332.008571	2167.696154
332.401986	2218.107692
332.795338	2155.093269
333.188625	2329.013077
333.581847	2298.766154
333.975006	2273.560385
334.368100	2308.848462
334.761129	2255.916346
335.154095	2389.506923
335.546996	2268.519231
335.939833	2386.986346
336.332606	2359.260000
336.725315	2326.492500
337.117960	2394.548077
337.510540	2384.465769
337.903056	2407.150962
338.295508	2495.371154
338.687896	2412.192115
339.080220	2437.397885
339.472480	2392.027500
339.864676	2457.562500
340.256807	2497.891731
340.648875	2429.836154
341.040879	2376.904038
341.432818	2349.177692
341.824694	2477.727115
342.216506	2397.068654
342.608253	2455.041923
342.999937	2457.562500
343.391557	2480.247692
343.783113	2482.768269
344.174605	2497.891731
344.566033	2427.315577
344.957397	2437.397885
345.348697	2500.412308
345.739934	2586.111923
346.131106	2462.603654
346.522215	2437.397885
346.913260	2518.056346
347.304241	2409.671538
347.695159	2548.303269
348.086012	2439.918462
348.476802	2422.274423
348.867528	2487.809423
349.258191	2475.206538
349.648789	2477.727115
350.039324	2500.412308
350.429796	2439.918462
350.820203	2518.056346
351.210548	2472.685962
351.600828	2538.220962
351.991045	2439.918462
352.381198	2439.918462
352.771288	2457.562500
353.161314	2460.083077
353.551276	2472.685962
353.941175	2500.412308
354.331010	2444.959615
354.720782	2381.945192
355.110490	2500.412308
355.500135	2364.301154
355.889717	2404.630385
356.279235	2386.986346
356.668689	2520.576923
357.058080	2444.959615
357.447408	2417.233269
357.836672	2402.109808
358.225873	2502.932885
358.615010	2450.000769
359.004084	2392.027500
359.393095	2366.821731
359.782043	2414.712692
360.170927	2369.342308
360.559748	2480.247692
360.948505	2485.288846
361.337199	2477.727115
361.725830	2376.904038
362.114398	2455.041923
362.502903	2450.000769
362.891344	2402.109808
363.279722	2457.562500
363.668037	2346.657115
364.056289	2467.644808
364.444478	2490.330000
364.832603	2429.836154
365.220665	2472.685962
365.608665	2477.727115
365.996601	2548.303269
366.384474	2444.959615
366.772284	2520.576923
367.160031	2419.753846
367.547715	2477.727115
367.935336	2452.521346
368.322893	2502.932885
368.710388	2475.206538
369.097820	2439.918462
369.485189	2417.233269
369.872495	2439.918462
370.259738	2470.165385
370.646918	2467.644808
371.034035	2530.659231
371.421090	2412.192115
371.808081	2455.041923
372.195010	2439.918462
372.581875	2422.274423
372.968678	2460.083077
373.355418	2500.412308
373.742096	2452.521346
374.128710	2439.918462
374.515262	2439.918462
374.901751	2520.576923
375.288177	2520.576923
375.674540	2409.671538
376.060841	2495.371154
376.447079	2465.124231
376.833254	2505.453462
377.219367	2455.041923
377.605417	2424.795000
377.991404	2513.015192
378.377329	2361.780577
378.763191	2497.891731
379.148991	2528.138654
379.534727	2397.068654
379.920402	2465.124231
380.306013	2535.700385
380.691563	2417.233269
381.077049	2437.397885
381.462474	2492.850577
381.847835	2407.150962
382.233134	2437.397885
382.618371	2427.315577
383.003545	2487.809423
383.388657	2535.700385
383.773706	2437.397885
384.158693	2457.562500
384.543618	2412.192115
384.928480	2442.439038
385.313280	2432.356731
385.698017	2487.809423
386.082692	2548.303269
386.467305	2550.823846
386.851856	2450.000769
387.236344	2555.865000
387.620770	2432.356731
388.005133	2513.015192
388.389435	2535.700385
388.773674	2434.877308
389.157851	2487.809423
389.541965	2455.041923
389.926018	2460.083077
390.310008	2437.397885
390.693936	2447.480192
391.077802	2533.179808
391.461606	2467.644808
391.845348	2565.947308
392.229027	2497.891731
392.612645	2487.809423
392.996200	2450.000769
393.379694	2523.097500
393.763125	2361.780577
394.146494	2482.768269
394.529801	2472.685962
394.913047	2505.453462
395.296230	2399.589231
395.679351	2434.877308
396.062410	2404.630385
396.445408	2515.535769
396.828343	2437.397885
397.211217	2419.753846
397.594028	2482.768269
397.976778	2467.644808
398.359466	2513.015192
398.742092	2447.480192
399.124656	2475.206538
399.507158	2414.712692
399.889598	2447.480192
400.271977	2485.288846
400.654294	2563.426731
401.036549	2477.727115
401.418742	2502.932885
401.800874	2472.685962
402.182944	2492.850577
402.564952	2475.206538
402.946898	2538.220962
403.328783	2439.918462
403.710606	2475.206538
404.092367	2500.412308
404.474067	2407.150962
404.855705	2482.768269
405.237282	2404.630385
405.618797	2502.932885
406.000250	2429.836154
406.381642	2467.644808
406.762972	2424.795000
407.144240	2543.262115
407.525447	2455.041923
407.906593	2581.070769
408.287677	2467.644808
408.668700	2507.974038
409.049661	2480.247692
409.430560	2497.891731
409.811399	2409.671538
410.192176	2477.727115
410.572891	2432.356731
410.953545	2419.753846
411.334138	2543.262115
411.714669	2535.700385
412.095139	2568.467885
412.475547	2460.083077
412.855894	2460.083077
413.236180	2460.083077
413.616405	2452.521346
413.996568	2452.521346
414.376670	2515.535769
414.756711	2465.124231
415.136691	2460.083077
415.516609	2485.288846
415.896466	2535.700385
416.276262	2513.015192
416.655997	2492.850577
417.035670	2515.535769
417.415283	2407.150962
417.794834	2437.397885
418.174324	2520.576923
418.553753	2560.906154
418.933121	2462.603654
419.312428	2568.467885
419.691674	2422.274423
420.070859	2490.330000
420.449983	2480.247692
420.829045	2535.700385
421.208047	2442.439038
421.586988	2460.083077
421.965867	2444.959615
422.344686	2434.877308
422.723444	2412.192115
423.102141	2450.000769
423.480777	2505.453462
423.859352	2548.303269
424.237866	2447.480192
424.616319	2434.877308
424.994712	2570.988462
425.373044	2467.644808
425.751314	2502.932885
426.129524	2381.945192
426.507673	2392.027500
426.885762	2540.741538
427.263789	2513.015192
427.641756	2500.412308
428.019662	2515.535769
428.397508	2455.041923
428.775292	2429.836154
429.153016	2399.589231
429.530679	2515.535769
429.908282	2507.974038
430.285824	2437.397885
430.663305	2460.083077
431.040726	2555.865000
431.418086	2492.850577
431.795385	2528.138654
432.172624	2492.850577
432.549802	2460.083077
432.926920	2437.397885
433.303977	2520.576923
433.680974	2477.727115
434.057910	2510.494615
434.434786	2444.959615
434.811601	2472.685962
435.188355	2485.288846
435.565050	2487.809423
435.941683	2485.288846
436.318257	2452.521346
436.694770	2520.576923
437.071222	2427.315577
437.447614	2523.097500
437.823946	2528.138654
438.200218	2530.659231
438.576429	2439.918462
438.952580	2422.274423
439.328670	2535.700385
439.704700	2563.426731
440.080670	2520.576923
440.456580	2439.918462
440.832429	2424.795000
441.208218	2528.138654
441.583947	2374.383462
441.959616	2470.165385
442.335224	2510.494615
442.710773	2472.685962
443.086261	2472.685962
443.461689	2533.179808
443.837057	2424.795000
444.212365	2480.247692
444.587612	2399.589231
444.962800	2550.823846
445.337927	2455.041923
445.712995	2467.644808
446.088002	2570.988462
446.462949	2480.247692
446.837837	2505.453462
447.212664	2432.356731
447.587431	2472.685962
447.962139	2555.865000
448.336786	2424.795000
448.711374	2482.768269
449.085901	2429.836154
449.460369	2490.330000
449.834776	2533.179808
450.209124	2402.109808
450.583412	2429.836154
450.957640	2540.741538
451.331808	2434.877308
451.705917	2424.795000
452.079965	2460.083077
452.453954	2485.288846
452.827883	2576.029615
453.201752	2482.768269
453.575562	2533.179808
453.949311	2429.836154
454.323001	2518.056346
454.696632	2482.768269
455.070202	2485.288846
455.443713	2495.371154
455.817164	2384.465769
456.190556	2518.056346
456.563888	2439.918462
456.937160	2427.315577
457.310373	2533.179808
457.683526	2563.426731
458.056619	2477.727115
458.429653	2455.041923
458.802628	2487.809423
459.175542	2384.465769
459.548398	2480.247692
459.921194	2472.685962
460.293930	2588.632500
460.666607	2487.809423
461.039224	2497.891731
461.411782	2434.877308
461.784280	2460.083077
462.156719	2462.603654
462.529099	2513.015192
462.901419	2497.891731
463.273680	2462.603654
463.645882	2404.630385
464.018024	2530.659231
464.390106	2525.618077
464.762130	2502.932885
465.134094	2434.877308
465.505999	2472.685962
465.877845	2586.111923
466.249631	2518.056346
466.621358	2450.000769
466.993026	2472.685962
467.364634	2434.877308
467.736184	2432.356731
468.107674	2533.179808
468.479105	2434.877308
468.850477	2470.165385
469.221790	2513.015192
469.593043	2414.712692
469.964238	2389.506923
470.335373	2482.768269
470.706449	2450.000769
471.077467	2490.330000
471.448425	2477.727115
471.819324	2500.412308
472.190164	2500.412308
472.560945	2490.330000
472.931667	2450.000769
473.302330	2462.603654
473.672934	2510.494615
474.043479	2460.083077
474.413965	2535.700385
474.784393	2485.288846
475.154761	2460.083077
475.525070	2505.453462
475.895321	2444.959615
476.265513	2518.056346
476.635645	2467.644808
477.005719	2515.535769
477.375734	2457.562500
477.745691	2588.632500
478.115588	2417.233269
478.485427	2507.974038
478.855207	2482.768269
479.224928	2477.727115
479.594591	2452.521346
479.964194	2487.809423
480.333739	2457.562500
480.703226	2550.823846
481.072653	2407.150962
481.442022	2475.206538
481.811333	2407.150962
482.180584	2507.974038
482.549777	2510.494615
482.918912	2553.344423
483.287988	2447.480192
483.657005	2417.233269
484.025964	2518.056346
484.394864	2490.330000
484.763706	2455.041923
485.132489	2397.068654
485.501213	2467.644808
485.869879	2417.233269
486.238487	2465.124231
486.607036	2407.150962
486.975527	2452.521346
487.343959	2477.727115
487.712333	2472.685962
488.080648	2543.262115
488.448905	2497.891731
488.817104	2404.630385
489.185244	2538.220962
489.553326	2495.371154
489.921350	2520.576923
490.289315	2477.727115
490.657222	2402.109808
491.025070	2543.262115
491.392861	2518.056346
491.760593	2429.836154
492.128267	2513.015192
492.495883	2510.494615
492.863440	2475.206538
493.230939	2477.727115
493.598380	2480.247692
493.965763	2495.371154
494.333088	2414.712692
494.700354	2548.303269
495.067563	2472.685962
495.434713	2485.288846
495.801805	2412.192115
496.168839	2497.891731
496.535815	2518.056346
496.902733	2550.823846
497.269593	2402.109808
497.636395	2525.618077
498.003139	2482.768269
498.369825	2507.974038
498.736453	2470.165385
499.103023	2495.371154
499.469535	2437.397885
499.835989	2545.782692
500.202385	2457.562500
500.568723	2480.247692
500.935003	2452.521346
501.301226	2523.097500
501.667390	2528.138654
502.033497	2507.974038
502.399546	2404.630385
502.765537	2470.165385
503.131470	2429.836154
503.497345	2457.562500
503.863163	2432.356731
504.228923	2523.097500
504.594625	2535.700385
504.960269	2535.700385
505.325856	2533.179808
505.691385	2485.288846
506.056856	2485.288846
506.422270	2553.344423
506.787625	2452.521346
507.152924	2450.000769
507.518164	2497.891731
507.883347	2442.439038
508.248472	2465.124231
508.613540	2470.165385
508.978550	2450.000769
509.343503	2422.274423
509.708398	2429.836154
510.073236	2523.097500
510.438016	2470.165385
510.802738	2480.247692
511.167403	2450.000769
511.532010	2475.206538
511.896561	2576.029615
512.261053	2515.535769
512.625488	2434.877308
512.989866	2450.000769
513.354186	2467.644808
513.718449	2588.632500
514.082655	2477.727115
514.446803	2598.714808
514.810894	2500.412308
515.174927	2482.768269
515.538904	2513.015192
515.902822	2548.303269
516.266684	2593.673654
516.630488	2520.576923
516.994235	2495.371154
517.357925	2399.589231
517.721558	2548.303269
518.085133	2475.206538
518.448651	2515.535769
518.812112	2457.562500
519.175516	2475.206538
519.538863	2523.097500
519.902152	2472.685962
520.265385	2513.015192
520.628560	2386.986346
520.991678	2553.344423
521.354739	2404.630385
521.717743	2495.371154
522.080690	2550.823846
522.443580	2497.891731
522.806413	2429.836154
523.169189	2462.603654
523.531908	2502.932885
523.894569	2429.836154
524.257174	2507.974038
524.619722	2465.124231
524.982213	2565.947308
525.344647	2485.288846
525.707025	2510.494615
526.069345	2437.397885
526.431608	2462.603654
526.793815	2447.480192
527.155964	2437.397885
527.518057	2419.753846
527.880093	2593.673654
528.242072	2520.576923
528.603995	2482.768269
528.965860	2477.727115
529.327669	2540.741538
529.689421	2535.700385
530.051117	2515.535769
530.412755	2535.700385
530.774337	2492.850577
531.135862	2424.795000
531.497331	2482.768269
531.858743	2548.303269
532.220098	2381.945192
532.581396	2500.412308
532.942638	2452.521346
533.303824	2414.712692
533.664953	2553.344423
534.026025	2535.700385
534.387040	2450.000769
534.747999	2470.165385
535.108902	2437.397885
535.469748	2444.959615
535.830537	2422.274423
536.191270	2480.247692
536.551947	2465.124231
536.912567	2392.027500
537.273131	2457.562500
537.633638	2419.753846
537.994089	2525.618077
538.354483	2593.673654
538.714821	2439.918462
539.075103	2528.138654
539.435328	2581.070769
539.795497	2513.015192
540.155609	2540.741538
540.515665	2414.712692
540.875665	2553.344423
541.235609	2520.576923
541.595496	2545.782692
541.955328	2520.576923
542.315102	2502.932885
542.674821	2515.535769
543.034483	2485.288846
543.394090	2492.850577
543.753640	2525.618077
544.113134	2460.083077
544.472571	2497.891731
544.831953	2467.644808
545.191278	2570.988462
545.550548	2472.685962
545.909761	2530.659231
546.268918	2462.603654
546.628019	2487.809423
546.987064	2434.877308
547.346053	2515.535769
547.704986	2545.782692
548.063863	2450.000769
548.422684	2513.015192
548.781449	2467.644808
549.140158	2487.809423
549.498811	2457.562500
549.857408	2384.465769
550.215949	2465.124231
550.574434	2487.809423
550.932864	2392.027500
551.291237	2477.727115
551.649555	2447.480192
552.007817	2533.179808
552.366022	2513.015192
552.724173	2434.877308
553.082267	2528.138654
553.440305	2502.932885
553.798288	2540.741538
554.156215	2515.535769
554.514086	2472.685962
554.871902	2502.932885
555.229661	2500.412308
555.587365	2485.288846
555.945014	2452.521346
556.302606	2490.330000
556.660143	2455.041923
557.017625	2480.247692
557.375050	2472.685962
557.732421	2485.288846
558.089735	2495.371154
558.446994	2447.480192
558.804197	2490.330000
559.161345	2475.206538
559.518437	2397.068654
559.875474	2477.727115
560.232455	2462.603654
560.589381	2535.700385
560.946251	2402.109808
561.303065	2608.797115
561.659825	2462.603654
562.016528	2586.111923
562.373177	2538.220962
562.729770	2525.618077
563.086307	2603.755962
563.442789	2409.671538
563.799216	2507.974038
564.155587	2467.644808
564.511904	2497.891731
564.868164	2565.947308
565.224370	2455.041923
565.580520	2457.562500
565.936615	2432.356731
566.292654	2482.768269
566.648638	2432.356731
567.004567	2497.891731
567.360441	2497.891731
567.716260	2450.000769
568.072023	2470.165385
568.427732	2535.700385
568.783385	2492.850577
569.138982	2452.521346
569.494525	2480.247692
569.850013	2570.988462
570.205445	2407.150962
570.560823	2550.823846
570.916145	2520.576923
571.271412	2520.576923
571.626625	2545.782692
571.981782	2472.685962
572.336884	2450.000769
572.691931	2455.041923
573.046923	2434.877308
573.401860	2578.550192
573.756743	2500.412308
574.111570	2540.741538
574.466342	2452.521346
574.821059	2543.262115
575.175722	2492.850577
575.530330	2495.371154
575.884882	2490.330000
576.239380	2455.041923
576.593823	2565.947308
576.948211	2545.782692
577.302544	2502.932885
577.656823	2505.453462
578.011047	2472.685962
578.365216	2558.385577
578.719330	2437.397885
579.073389	2550.823846
579.427394	2523.097500
579.781344	2565.947308
580.135239	2467.644808
580.489080	2427.315577
580.842866	2470.165385
581.196597	2500.412308
581.550273	2492.850577
581.903895	2452.521346
582.257463	2533.179808
582.610975	2485.288846
582.964434	2485.288846
583.317837	2520.576923
583.671186	2505.453462
584.024481	2510.494615
584.377721	2497.891731
584.730906	2361.780577
585.084037	2520.576923
585.437113	2467.644808
585.790135	2520.576923
586.143103	2442.439038
586.496016	2515.535769
586.848874	2525.618077
587.201679	2472.685962
587.554428	2455.041923
587.907124	2500.412308
588.259765	2553.344423
588.612352	2502.932885
588.964884	2510.494615
589.317362	2553.344423
589.669786	2465.124231
590.022155	2565.947308
590.374470	2490.330000
590.726731	2540.741538
591.078937	2465.124231
591.431090	2548.303269
591.783188	2553.344423
592.135232	2510.494615
592.487222	2520.576923
592.839157	2528.138654
593.191038	2588.632500
593.542866	2505.453462
593.894639	2485.288846
594.246358	2525.618077
594.598022	2462.603654
594.949633	2528.138654
595.301190	2467.644808
595.652692	2502.932885
596.004141	2497.891731
596.355535	2520.576923
596.706876	2457.562500
597.058162	2447.480192
597.409395	2470.165385
597.760573	2452.521346
598.111698	2475.206538
598.462768	2502.932885
598.813785	2507.974038
599.164748	2470.165385
599.515657	2535.700385
599.866511	2482.768269
600.217312	2500.412308
600.568060	2472.685962
600.918753	2560.906154
601.269392	2533.179808
601.619978	2525.618077
601.970510	2596.194231
602.320988	2510.494615
602.671412	2505.453462
603.021783	2555.865000
603.372100	2528.138654
603.722363	2497.891731
604.072572	2429.836154
604.422728	2533.179808
604.772830	2528.138654
605.122878	2558.385577
605.472872	2412.192115
605.822813	2535.700385
606.172701	2515.535769
606.522534	2563.426731
606.872314	2492.850577
607.222041	2530.659231
607.571714	2593.673654
607.921333	2497.891731
608.270899	2490.330000
608.620411	2424.795000
608.969870	2475.206538
609.319276	2439.918462
609.668627	2492.850577
610.017926	2414.712692
610.367171	2477.727115
610.716362	2467.644808
611.065500	2439.918462
611.414585	2555.865000
611.763616	2422.274423
612.112594	2482.768269
612.461518	2528.138654
612.810389	2520.576923
613.159207	2528.138654
613.507971	2495.371154
613.856682	2444.959615
614.205340	2518.056346
614.553945	2470.165385
614.902496	2422.274423
615.250994	2507.974038
615.599439	2492.850577
615.947830	2497.891731
616.296169	2510.494615
616.644454	2444.959615
616.992686	2548.303269
617.340864	2500.412308
617.688990	2558.385577
618.037063	2470.165385
618.385082	2482.768269
618.733048	2533.179808
619.080961	2525.618077
619.428821	2523.097500
619.776628	2444.959615
620.124382	2565.947308
620.472083	2475.206538
620.819731	2513.015192
621.167326	2394.548077
621.514868	2452.521346
621.862357	2477.727115
622.209793	2381.945192
622.557176	2460.083077
622.904506	2528.138654
623.251783	2515.535769
623.599007	2422.274423
623.946179	2470.165385
624.293297	2470.165385
624.640363	2528.138654
624.987376	2487.809423
625.334336	2515.535769
625.681243	2550.823846
626.028097	2444.959615
626.374899	2502.932885
626.721647	2472.685962
627.068343	2538.220962
627.414987	2520.576923
627.761577	2457.562500
628.108115	2550.823846
628.454600	2439.918462
628.801032	2487.809423
629.147412	2581.070769
629.493739	2513.015192
629.840014	2450.000769
630.186236	2444.959615
630.532405	2548.303269
630.878521	2520.576923
631.224585	2515.535769
631.570597	2470.165385
631.916556	2502.932885
632.262462	2513.015192
632.608316	2540.741538
632.954117	2472.685962
633.299866	2500.412308
633.645562	2465.124231
633.991206	2480.247692
634.336797	2455.041923
634.682336	2495.371154
635.027823	2505.453462
635.373257	2442.439038
635.718639	2480.247692
636.063968	2507.974038
636.409245	2457.562500
636.754470	2528.138654
637.099642	2455.041923
637.444762	2450.000769
637.789829	2482.768269
638.134845	2381.945192
638.479808	2548.303269
638.824719	2467.644808
639.169577	2500.412308
639.514383	2515.535769
639.859137	2550.823846
640.203839	2417.233269
640.548489	2518.056346
640.893086	2485.288846
641.237632	2402.109808
641.582125	2455.041923
641.926566	2502.932885
642.270955	2558.385577
642.615292	2543.262115
642.959576	2570.988462
643.303809	2513.015192
643.647990	2535.700385
643.992118	2523.097500
644.336195	2490.330000
644.680219	2485.288846
645.024192	2490.330000
645.368112	2513.015192
645.711981	2550.823846
646.055797	2560.906154
646.399562	2412.192115
646.743274	2576.029615
647.086935	2495.371154
647.430544	2500.412308
647.774101	2429.836154
648.117606	2505.453462
648.461059	2472.685962
648.804460	2432.356731
649.147810	2465.124231
649.491108	2591.153077
649.834354	2573.509038
650.177548	2490.330000
650.520690	2444.959615
650.863781	2452.521346
651.206820	2530.659231
651.549807	2475.206538
651.892742	2495.371154
652.235626	2457.562500
652.578458	2535.700385
652.921238	2535.700385
653.263967	2482.768269
653.606644	2497.891731
653.949269	2477.727115
654.291843	2502.932885
654.634365	2492.850577
654.976836	2465.124231
655.319255	2513.015192
655.661622	2447.480192
656.003938	2515.535769
656.346203	2404.630385
656.688416	2467.644808
657.030577	2525.618077
657.372687	2487.809423
657.714746	2492.850577
658.056753	2502.932885
658.398708	2528.138654
658.740612	2477.727115
659.082465	2427.315577
659.424266	2500.412308
659.766016	2450.000769
660.107715	2457.562500
660.449362	2528.138654
660.790958	2472.685962
661.132503	2495.371154
661.473996	2434.877308
661.815438	2538.220962
662.156829	2553.344423
662.498168	2465.124231
662.839456	2538.220962
663.180693	2513.015192
663.521879	2568.467885
663.863013	2560.906154
664.204097	2507.974038
664.545129	2447.480192
664.886110	2515.535769
665.227040	2432.356731
665.567918	2490.330000
665.908746	2548.303269
666.249522	2442.439038
666.590248	2543.262115
666.930922	2510.494615
667.271545	2460.083077
667.612118	2518.056346
667.952639	2490.330000
668.293109	2475.206538
668.633528	2555.865000
668.973896	2495.371154
669.314213	2482.768269
669.654480	2520.576923
669.994695	2538.220962
670.334859	2467.644808
670.674973	2437.397885
671.015035	2515.535769
671.355047	2369.342308
671.695008	2502.932885
672.034918	2467.644808
672.374777	2502.932885
672.714585	2462.603654
673.054342	2530.659231
673.394049	2424.795000
673.733705	2568.467885
674.073310	2455.041923
674.412864	2460.083077
674.752368	2505.453462
675.091820	2533.179808
675.431223	2427.315577
675.770574	2462.603654
676.109875	2515.535769
676.449125	2502.932885
676.788324	2490.330000
677.127473	2472.685962
677.466571	2535.700385
677.805619	2513.015192
678.144616	2450.000769
678.483562	2444.959615
678.822458	2510.494615
679.161303	2543.262115
679.500098	2475.206538
679.838842	2515.535769
680.177535	2477.727115
680.516179	2530.659231
680.854771	2500.412308
681.193314	2543.262115
681.531805	2593.673654
681.870247	2513.015192
682.208638	2616.358846
682.546978	2560.906154
682.885268	2530.659231
683.223508	2500.412308
683.561697	2530.659231
683.899836	2553.344423
684.237925	2525.618077
684.575963	2480.247692
684.913951	2480.247692
685.251889	2455.041923
685.589776	2545.782692
685.927614	2427.315577
686.265401	2485.288846
686.603137	2434.877308
686.940824	2467.644808
687.278460	2432.356731
687.616046	2492.850577
687.953582	2452.521346
688.291068	2553.344423
688.628504	2472.685962
688.965889	2374.383462
689.303224	2515.535769
689.640510	2470.165385
689.977745	2444.959615
690.314930	2404.630385
690.652065	2392.027500
690.989150	2487.809423
691.326185	2465.124231
691.663170	2523.097500
692.000105	2588.632500
692.336990	2515.535769
692.673825	2497.891731
693.010610	2412.192115
693.347345	2530.659231
693.684030	2558.385577
694.020665	2457.562500
694.357251	2497.891731
694.693786	2581.070769
695.030272	2510.494615
695.366707	2533.179808
695.703093	2497.891731
696.039429	2467.644808
696.375716	2490.330000
696.711952	2520.576923
697.048139	2384.465769
697.384276	2457.562500
697.720363	2457.562500
698.056400	2475.206538
698.392388	2545.782692
698.728326	2538.220962
699.064214	2518.056346
699.400053	2507.974038
699.735842	2538.220962
700.071581	2603.755962
700.407270	2452.521346
700.742910	2371.862885
701.078501	2447.480192
701.414042	2442.439038
701.749533	2439.918462
702.084974	2560.906154
702.420366	2520.576923
702.755709	2412.192115
703.091002	2550.823846
703.426246	2470.165385
703.761440	2565.947308
704.096584	2399.589231
704.431679	2485.288846
704.766725	2500.412308
705.101721	2480.247692
705.436668	2568.467885
705.771565	2515.535769
706.106413	2487.809423
706.441212	2485.288846
706.775961	2535.700385
707.110661	2386.986346
707.445311	2412.192115
707.779913	2432.356731
708.114465	2392.027500
708.448967	2543.262115
708.783421	2507.974038
709.117825	2555.865000
709.452180	2550.823846
709.786485	2525.618077
710.120742	2475.206538
710.454949	2477.727115
710.789107	2518.056346
711.123216	2530.659231
711.457275	2548.303269
711.791286	2573.509038
712.125247	2402.109808
712.459159	2497.891731
712.793023	2455.041923
713.126837	2452.521346
713.460602	2450.000769
713.794318	2505.453462
714.127985	2578.550192
714.461602	2477.727115
714.795171	2500.412308
715.128691	2570.988462
715.462162	2492.850577
715.795584	2528.138654
716.128957	2513.015192
716.462281	2460.083077
716.795556	2515.535769
717.128782	2555.865000
717.461960	2518.056346
717.795088	2530.659231
718.128167	2495.371154
718.461198	2502.932885
718.794180	2507.974038
719.127113	2452.521346
719.459997	2485.288846
719.792833	2427.315577
720.125619	2500.412308
720.458357	2487.809423
720.791046	2530.659231
721.123686	2477.727115
721.456278	2543.262115
721.788821	2460.083077
722.121315	2381.945192
722.453761	2429.836154
722.786158	2432.356731
723.118506	2510.494615
723.450805	2465.124231
723.783056	2515.535769
724.115259	2465.124231
724.447412	2480.247692
724.779518	2500.412308
725.111574	2543.262115
725.443582	2427.315577
725.775542	2432.356731
726.107453	2460.083077
726.439315	2470.165385
726.771129	2500.412308
727.102895	2467.644808
727.434612	2515.535769
727.766281	2465.124231
728.097901	2450.000769
728.429473	2500.412308
728.760996	2472.685962
729.092471	2457.562500
729.423897	2513.015192
729.755276	2545.782692
730.086606	2424.795000
730.417887	2485.288846
730.749120	2502.932885
731.080305	2540.741538
731.411442	2513.015192
731.742530	2462.603654
732.073570	2513.015192
732.404562	2520.576923
732.735506	2419.753846
733.066401	2495.371154
733.397249	2515.535769
733.728048	2450.000769
734.058798	2535.700385
734.389501	2530.659231
734.720156	2452.521346
735.050762	2583.591346
735.381320	2470.165385
735.711831	2543.262115
736.042293	2460.083077
736.372707	2550.823846
736.703073	2444.959615
737.033391	2570.988462
737.363661	2495.371154
737.693883	2500.412308
738.024056	2480.247692
738.354182	2472.685962
738.684260	2530.659231
739.014290	2447.480192
739.344272	2535.700385
739.674207	2545.782692
740.004093	2565.947308
740.333931	2439.918462
740.663722	2432.356731
740.993464	2507.974038
741.323159	2538.220962
741.652806	2442.439038
741.982405	2545.782692
742.311956	2470.165385
742.641460	2487.809423
742.970915	2487.809423
743.300323	2465.124231
743.629683	2538.220962
743.958996	2560.906154
744.288260	2437.397885
744.617477	2563.426731
744.946647	2472.685962
745.275768	2417.233269
745.604842	2490.330000
745.933869	2427.315577
746.262847	2480.247692
746.591778	2399.589231
746.920662	2523.097500
747.249498	2465.124231
747.578286	2442.439038
747.907027	2419.753846
748.235720	2414.712692
748.564365	2490.330000
748.892963	2487.809423
749.221514	2495.371154
749.550017	2520.576923
749.878473	2432.356731
750.206881	2424.795000
750.535242	2523.097500
750.863555	2497.891731
751.191821	2510.494615
751.520039	2455.041923
751.848210	2513.015192
752.176334	2475.206538
752.504411	2518.056346
752.832440	2505.453462
753.160421	2452.521346
753.488356	2460.083077
753.816243	2538.220962
754.144082	2392.027500
754.471875	2533.179808
754.799620	2354.218846
755.127318	2545.782692
755.454969	2568.467885
755.782572	2444.959615
756.110129	2520.576923
756.437638	2407.150962
756.765100	2457.562500
757.092515	2482.768269
757.419882	2487.809423
757.747203	2495.371154
758.074477	2492.850577
758.401703	2533.179808
758.728882	2611.317692
759.056014	2482.768269
759.383099	2432.356731
759.710138	2434.877308
760.037129	2520.576923
760.364073	2490.330000
760.690970	2500.412308
761.017820	2475.206538
761.344623	2477.727115
761.671379	2495.371154
761.998088	2424.795000
762.324751	2550.823846
762.651366	2502.932885
762.977935	2417.233269
763.304456	2553.344423
763.630931	2467.644808
763.957359	2434.877308
764.283740	2495.371154
764.610074	2457.562500
764.936362	2525.618077
765.262602	2528.138654
765.588796	2462.603654
765.914943	2462.603654
766.241044	2497.891731
766.567097	2457.562500
766.893104	2492.850577
767.219064	2455.041923
767.544978	2414.712692
767.870845	2472.685962
768.196665	2492.850577
768.522438	2439.918462
768.848165	2492.850577
769.173846	2467.644808
769.499479	2530.659231
769.825066	2510.494615
770.150607	2404.630385
770.476101	2475.206538
770.801548	2573.509038
771.126949	2444.959615
771.452303	2460.083077
771.777611	2457.562500
772.102872	2497.891731
772.428087	2475.206538
772.753256	2462.603654
773.078378	2439.918462
773.403453	2528.138654
773.728482	2432.356731
774.053465	2497.891731
774.378401	2586.111923
774.703291	2596.194231
775.028135	2497.891731
775.352932	2480.247692
775.677683	2533.179808
776.002388	2376.904038
776.327046	2492.850577
776.651658	2457.562500
776.976224	2515.535769
777.300743	2424.795000
777.625216	2573.509038
777.949643	2535.700385
778.274024	2477.727115
778.598359	2482.768269
778.922647	2442.439038
779.246889	2485.288846
779.571086	2462.603654
779.895236	2442.439038
780.219339	2540.741538
780.543397	2444.959615
780.867409	2548.303269
781.191374	2500.412308
781.515294	2465.124231
781.839167	2429.836154
782.162995	2437.397885
782.486776	2543.262115
782.810511	2480.247692
783.134201	2507.974038
783.457844	2455.041923
783.781441	2462.603654
784.104993	2485.288846
784.428498	2480.247692
784.751958	2492.850577
785.075372	2518.056346
785.398739	2505.453462
785.722061	2487.809423
786.045337	2550.823846
786.368568	2505.453462
786.691752	2437.397885
787.014891	2538.220962
787.337983	2472.685962
787.661030	2510.494615
787.984031	2472.685962
788.306987	2427.315577
788.629897	2457.562500
788.952760	2470.165385
789.275579	2510.494615
789.598351	2460.083077
789.921078	2487.809423
790.243759	2558.385577
790.566395	2500.412308
790.888984	2555.865000
791.211529	2505.453462
791.534027	2502.932885
791.856480	2538.220962
792.178888	2495.371154
792.501249	2502.932885
792.823566	2442.439038
793.145836	2520.576923
793.468062	2477.727115
793.790241	2548.303269
794.112375	2530.659231
794.434464	2439.918462
794.756507	2450.000769
795.078505	2583.591346
795.400457	2543.262115
795.722364	2369.342308
796.044226	2505.453462
796.366042	2520.576923
796.687812	2480.247692
797.009538	2500.412308
797.331218	2409.671538
797.652852	2497.891731
797.974442	2414.712692
798.295986	2495.371154
798.617484	2444.959615
798.938938	2515.535769
799.260346	2497.891731
799.581709	2538.220962
799.903026	2482.768269
800.224299	2543.262115
800.545526	2492.850577
800.866708	2553.344423
801.187845	2457.562500
801.508936	2480.247692
801.829983	2470.165385
802.150984	2515.535769
802.471940	2485.288846
802.792851	2447.480192
803.113717	2550.823846
803.434538	2505.453462
803.755314	2507.974038
804.076045	2492.850577
804.396731	2518.056346
804.717372	2540.741538
805.037967	2432.356731
805.358518	2513.015192
805.679024	2404.630385
805.999485	2497.891731
806.319901	2505.453462
806.640272	2465.124231
806.960598	2560.906154
807.280879	2452.521346
807.601115	2492.850577
807.921306	2548.303269
808.241453	2452.521346
808.561554	2525.618077
808.881611	2434.877308
809.201623	2424.795000
809.521590	2492.850577
809.841513	2510.494615
810.161390	2492.850577
810.481223	2518.056346
810.801011	2376.904038
811.120755	2545.782692
811.440453	2455.041923
811.760107	2550.823846
812.079716	2477.727115
812.399281	2492.850577
812.718801	2533.179808
813.038276	2543.262115
813.357707	2409.671538
813.677093	2518.056346
813.996434	2550.823846
814.315731	2450.000769
814.634983	2560.906154
814.954191	2490.330000
815.273354	2548.303269
815.592473	2550.823846
815.911547	2545.782692
816.230577	2540.741538
816.549562	2520.576923
816.868502	2482.768269
817.187399	2480.247692
817.506250	2472.685962
817.825058	2520.576923
818.143821	2560.906154
818.462539	2586.111923
818.781213	2490.330000
819.099843	2465.124231
819.418429	2429.836154
819.736970	2555.865000
820.055466	2472.685962
820.373919	2495.371154
820.692327	2492.850577
821.010691	2495.371154
821.329011	2558.385577
821.647286	2429.836154
821.965517	2457.562500
822.283704	2510.494615
822.601847	2518.056346
822.919945	2523.097500
823.237999	2581.070769
823.556010	2558.385577
823.873976	2480.247692
824.191897	2497.891731
824.509775	2576.029615
824.827609	2495.371154
825.145398	2477.727115
825.463144	2500.412308
825.780845	2477.727115
826.098502	2442.439038
826.416116	2513.015192
826.733685	2502.932885
827.051210	2560.906154
827.368692	2381.945192
827.686129	2490.330000
828.003522	2480.247692
828.320872	2495.371154
828.638177	2505.453462
828.955439	2465.124231
829.272656	2480.247692
829.589830	2439.918462
829.906960	2452.521346
830.224046	2558.385577
830.541088	2518.056346
830.858086	2455.041923
831.175041	2510.494615
831.491952	2485.288846
831.808819	2462.603654
832.125642	2528.138654
832.442421	2543.262115
832.759157	2505.453462
833.075849	2543.262115
833.392497	2404.630385
833.709101	2523.097500
834.025662	2475.206538
834.342179	2538.220962
834.658653	2394.548077
834.975083	2538.220962
835.291469	2429.836154
835.607811	2523.097500
835.924110	2432.356731
836.240366	2472.685962
836.556578	2492.850577
836.872746	2560.906154
837.188871	2399.589231
837.504952	2490.330000
837.820990	2540.741538
838.136984	2550.823846
838.452935	2485.288846
838.768842	2490.330000
839.084706	2419.753846
839.400526	2550.823846
839.716303	2470.165385
840.032037	2583.591346
840.347727	2510.494615
840.663373	2540.741538
840.978977	2530.659231
841.294537	2505.453462
841.610054	2520.576923
841.925527	2434.877308
842.240957	2530.659231
842.556344	2460.083077
842.871687	2452.521346
843.186987	2404.630385
843.502244	2417.233269
843.817458	2465.124231
844.132629	2414.712692
844.447756	2485.288846
844.762840	2477.727115
845.077881	2497.891731
845.392879	2412.192115
845.707833	2507.974038
846.022745	2477.727115
846.337613	2442.439038
846.652438	2477.727115
846.967221	2495.371154
847.281960	2447.480192
847.596656	2467.644808
847.911309	2444.959615
848.225919	2533.179808
848.540485	2487.809423
848.855009	2533.179808
849.169490	2462.603654
849.483928	2427.315577
849.798323	2480.247692
850.112675	2432.356731
850.426984	2500.412308
850.741251	2530.659231
851.055474	2497.891731
851.369654	2495.371154
851.683792	2545.782692
851.997887	2545.782692
852.311938	2500.412308
852.625947	2457.562500
852.939914	2417.233269
853.253837	2507.974038
853.567718	2467.644808
853.881555	2465.124231
854.195350	2472.685962
854.509103	2487.809423
854.822812	2447.480192
855.136479	2381.945192
855.450103	2467.644808
855.763685	2450.000769
856.077224	2487.809423
856.390720	2477.727115
856.704173	2485.288846
857.017584	2528.138654
857.330953	2510.494615
857.644278	2518.056346
857.957561	2402.109808
858.270802	2502.932885
858.584000	2523.097500
858.897155	2576.029615
859.210268	2533.179808
859.523339	2525.618077
859.836367	2495.371154
860.149352	2540.741538
860.462295	2518.056346
860.775195	2434.877308
861.088054	2452.521346
861.400869	2397.068654
861.713642	2525.618077
862.026373	2477.727115
862.339062	2578.550192
862.651708	2581.070769
862.964312	2523.097500
863.276873	2518.056346
863.589392	2533.179808
863.901869	2376.904038
864.214303	2490.330000
864.526696	2475.206538
864.839045	2523.097500
865.151353	2475.206538
865.463619	2472.685962
865.775842	2510.494615
866.088023	2427.315577
866.400162	2480.247692
866.712258	2528.138654
867.024313	2455.041923
867.336325	2434.877308
867.648296	2507.974038
867.960224	2495.371154
868.272110	2538.220962
868.583954	2386.986346
868.895755	2533.179808
869.207515	2437.397885
869.519233	2523.097500
869.830909	2482.768269
870.142542	2558.385577
870.454134	2424.795000
870.765684	2502.932885
871.077191	2439.918462
871.388657	2460.083077
871.700081	2513.015192
872.011463	2492.850577
872.322803	2480.247692
872.634101	2444.959615
872.945357	2495.371154
873.256571	2495.371154
873.567744	2500.412308
873.878874	2444.959615
874.189963	2422.274423
874.501010	2548.303269
874.812015	2467.644808
875.122979	2515.535769
875.433900	2487.809423
875.744780	2470.165385
876.055618	2558.385577
876.366415	2492.850577
876.677169	2507.974038
876.987882	2487.809423
877.298554	2540.741538
877.609183	2518.056346
877.919771	2570.988462
878.230317	2482.768269
878.540822	2487.809423
878.851285	2394.548077
879.161707	2487.809423
879.472087	2490.330000
879.782425	2550.823846
880.092722	2462.603654
880.402977	2492.850577
880.713191	2457.562500
881.023363	2520.576923
881.333494	2500.412308
881.643583	2545.782692
881.953631	2480.247692
882.263637	2427.315577
882.573602	2490.330000
882.883526	2495.371154
883.193408	2462.603654
883.503248	2329.013077
883.813048	2548.303269
884.122806	2485.288846
884.432522	2507.974038
884.742197	2510.494615
885.051831	2434.877308
885.361424	2477.727115
885.670975	2553.344423
885.980485	2553.344423
886.289954	2570.988462
886.599382	2513.015192
886.908768	2462.603654
887.218113	2475.206538
887.527417	2480.247692
887.836680	2505.453462
888.145901	2515.535769
888.455082	2515.535769
888.764221	2437.397885
889.073319	2500.412308
889.382376	2462.603654
889.691392	2502.932885
890.000366	2502.932885
890.309300	2477.727115
890.618193	2495.371154
890.927044	2460.083077
891.235855	2480.247692
891.544625	2439.918462
891.853353	2487.809423
892.162041	2538.220962
892.470687	2505.453462
892.779293	2530.659231
893.087858	2510.494615
893.396381	2397.068654
893.704864	2497.891731
894.013306	2442.439038
894.321707	2475.206538
894.630068	2530.659231
894.938387	2467.644808
895.246665	2452.521346
895.554903	2475.206538
895.863100	2583.591346
896.171256	2530.659231
896.479371	2513.015192
896.787446	2495.371154
897.095480	2553.344423
897.403473	2460.083077
897.711425	2495.371154
898.019336	2520.576923
898.327207	2533.179808
898.635038	2500.412308
898.942827	2520.576923
899.250576	2533.179808
899.558284	2500.412308
899.865952	2460.083077
900.173579	2364.301154
900.481165	2419.753846
900.788711	2495.371154
901.096216	2535.700385
901.403681	2530.659231
901.711105	2412.192115
902.018489	2490.330000
902.325832	2603.755962
902.633135	2482.768269
902.940397	2465.124231
903.247619	2500.412308
903.554800	2510.494615
903.861941	2414.712692
904.169041	2535.700385
904.476101	2386.986346
904.783121	2495.371154
905.090100	2444.959615
905.397039	2523.097500
905.703938	2487.809423
906.010796	2497.891731
906.317614	2528.138654
906.624391	2538.220962
906.931129	2419.753846
907.237826	2538.220962
907.544483	2482.768269
907.851099	2487.809423
908.157675	2518.056346
908.464211	2550.823846
908.770707	2412.192115
909.077163	2515.535769
909.383578	2528.138654
909.689954	2492.850577
909.996289	2465.124231
910.302584	2424.795000
910.608839	2487.809423
910.915054	2553.344423
911.221229	2550.823846
911.527363	2528.138654
911.833458	2528.138654
912.139513	2533.179808
912.445527	2344.136538
912.751502	2545.782692
913.057436	2462.603654
913.363331	2518.056346
913.669186	2439.918462
913.975000	2407.150962
914.280775	2533.179808
914.586510	2450.000769
914.892205	2598.714808
915.197859	2505.453462
915.503475	2523.097500
915.809050	2555.865000
916.114585	2460.083077
916.420081	2447.480192
916.725536	2447.480192
917.030952	2455.041923
917.336328	2533.179808
917.641665	2490.330000
917.946961	2492.850577
918.252218	2528.138654
918.557435	2472.685962
918.862612	2434.877308
919.167750	2535.700385
919.472848	2424.795000
919.777906	2457.562500
920.082925	2404.630385
920.387904	2563.426731
920.692843	2492.850577
920.997743	2472.685962
921.302603	2538.220962
921.607423	2487.809423
921.912204	2500.412308
922.216946	2485.288846
922.521647	2485.288846
922.826310	2442.439038
923.130932	2523.097500
923.435516	2424.795000
923.740059	2502.932885
924.044564	2412.192115
924.349028	2460.083077
924.653454	2480.247692
924.957840	2432.356731
925.262186	2424.795000
925.566493	2540.741538
925.870761	2455.041923
926.174989	2460.083077
926.479178	2525.618077
926.783328	2487.809423
927.087438	2480.247692
927.391509	2543.262115
927.695541	2450.000769
927.999533	2533.179808
928.303486	2482.768269
928.607400	2424.795000
928.911275	2475.206538
929.215110	2404.630385
929.518906	2505.453462
929.822663	2470.165385
930.126381	2397.068654
930.430060	2386.986346
930.733699	2507.974038
931.037299	2472.685962
931.340861	2465.124231
931.644383	2538.220962
931.947866	2513.015192
932.251309	2507.974038
932.554714	2480.247692
932.858080	2523.097500
933.161407	2563.426731
933.464694	2414.712692
933.767943	2538.220962
934.071153	2520.576923
934.374323	2490.330000
934.677455	2394.548077
934.980548	2467.644808
935.283602	2533.179808
935.586617	2429.836154
935.889593	2510.494615
936.192530	2507.974038
936.495428	2442.439038
936.798287	2555.865000
937.101108	2495.371154
937.403890	2520.576923
937.706632	2472.685962
938.009336	2404.630385
938.312002	2447.480192
938.614628	2487.809423
938.917216	2485.288846
939.219765	2500.412308
939.522275	2507.974038
939.824747	2502.932885
940.127179	2422.274423
940.429573	2472.685962
940.731929	2465.124231
941.034246	2533.179808
941.336524	2414.712692
941.638763	2389.506923
941.940964	2545.782692
942.243126	2462.603654
942.545250	2480.247692
942.847335	2442.439038
943.149381	2525.618077
943.451389	2462.603654
943.753359	2475.206538
944.055290	2545.782692
944.357182	2480.247692
944.659036	2497.891731
944.960851	2450.000769
945.262628	2543.262115
945.564367	2457.562500
945.866067	2439.918462
946.167729	2497.891731
946.469352	2470.165385
946.770937	2485.288846
947.072484	2502.932885
947.373992	2460.083077
947.675462	2477.727115
947.976893	2560.906154
948.278286	2523.097500
948.579641	2470.165385
948.880958	2490.330000
949.182236	2497.891731
949.483476	2379.424615
949.784678	2439.918462
950.085841	2485.288846
950.386967	2419.753846
950.688054	2528.138654
950.989103	2455.041923
951.290114	2505.453462
951.591087	2573.509038
951.892021	2465.124231
952.192917	2427.315577
952.493776	2467.644808
952.794596	2452.521346
953.095378	2490.330000
953.396122	2502.932885
953.696828	2412.192115
953.997496	2437.397885
954.298126	2535.700385
954.598718	2525.618077
954.899272	2475.206538
955.199788	2460.083077
955.500266	2528.138654
955.800706	2432.356731
956.101108	2558.385577
956.401472	2487.809423
956.701798	2535.700385
957.002087	2467.644808
957.302337	2470.165385
957.602550	2457.562500
957.902724	2472.685962
958.202861	2543.262115
958.502960	2457.562500
958.803022	2555.865000
959.103045	2472.685962
959.403031	2591.153077
959.702979	2500.412308
960.002889	2402.109808
960.302762	2427.315577
960.602596	2470.165385
960.902393	2550.823846
961.202153	2500.412308
961.501875	2535.700385
961.801559	2432.356731
962.101205	2465.124231
962.400814	2480.247692
962.700385	2520.576923
962.999918	2477.727115
963.299414	2480.247692
963.598873	2518.056346
963.898293	2520.576923
964.197677	2515.535769
964.497022	2392.027500
964.796331	2323.971923
965.095601	2467.644808
965.394835	2379.424615
965.694030	2427.315577
965.993189	2490.330000
966.292309	2452.521346
966.591393	2518.056346
966.890439	2530.659231
967.189447	2417.233269
967.488419	2455.041923
967.787353	2439.918462
968.086249	2412.192115
968.385108	2515.535769
968.683930	2412.192115
968.982714	2502.932885
969.281462	2545.782692
969.580172	2515.535769
969.878844	2518.056346
970.177480	2460.083077
970.476078	2439.918462
970.774639	2432.356731
971.073162	2462.603654
971.371649	2553.344423
971.670098	2455.041923
971.968510	2434.877308
972.266885	2515.535769
972.565223	2419.753846
972.863524	2535.700385
973.161788	2407.150962
973.460014	2518.056346
973.758204	2513.015192
974.056356	2545.782692
974.354471	2457.562500
974.652550	2432.356731
974.950591	2538.220962
975.248595	2485.288846
975.546563	2487.809423
975.844493	2487.809423
976.142386	2490.330000
976.440243	2492.850577
976.738062	2402.109808
977.035845	2543.262115
977.333590	2472.685962
977.631299	2515.535769
977.928971	2505.453462
978.226606	2460.083077
978.524204	2439.918462
978.821765	2581.070769
979.119290	2472.685962
979.416777	2538.220962
979.714228	2465.124231
980.011642	2500.412308
980.309020	2540.741538
980.606360	2475.206538
980.903664	2477.727115
981.200931	2507.974038
981.498162	2535.700385
981.795356	2414.712692
982.092513	2482.768269
982.389633	2467.644808
982.686717	2523.097500
982.983764	2432.356731
983.280775	2472.685962
983.577749	2475.206538
983.874686	2477.727115
984.171587	2520.576923
984.468451	2510.494615
984.765279	2505.453462
985.062070	2563.426731
985.358824	2381.945192
985.655543	2455.041923
985.952224	2480.247692
986.248869	2422.274423
986.545478	2545.782692
986.842050	2500.412308
987.138586	2477.727115
987.435086	2409.671538
987.731549	2480.247692
988.027975	2578.550192
988.324366	2505.453462
988.620719	2412.192115
988.917037	2535.700385
989.213318	2550.823846
989.509563	2427.315577
989.805772	2492.850577
990.101944	2389.506923
990.398080	2573.509038
990.694180	2495.371154
990.990244	2492.850577
991.286271	2505.453462
991.582262	2565.947308
991.878217	2485.288846
992.174136	2427.315577
992.470019	2495.371154
992.765865	2467.644808
993.061676	2558.385577
993.357450	2447.480192
993.653188	2482.768269
993.948890	2492.850577
994.244556	2507.974038
994.540186	2507.974038
994.835780	2442.439038
995.131337	2495.371154
995.426859	2555.865000
995.722345	2452.521346
996.017795	2513.015192
996.313208	2510.494615
996.608586	2447.480192
996.903928	2482.768269
997.199234	2480.247692
997.494504	2455.041923
997.789738	2530.659231
998.084936	2417.233269
998.380099	2429.836154
998.675225	2535.700385
998.970316	2427.315577
999.265371	2485.288846
999.560390	2477.727115
999.855373	2424.795000
1000.150320	2513.015192
1000.445232	2422.274423
1000.740108	2487.809423
1001.034948	2502.932885
1001.329752	2497.891731
1001.624521	2485.288846
1001.919254	2525.618077
1002.213951	2477.727115
1002.508613	2510.494615
1002.803239	2492.850577
1003.097829	2573.509038
1003.392384	2477.727115
1003.686903	2427.315577
1003.981386	2535.700385
1004.275834	2505.453462
1004.570246	2439.918462
1004.864623	2472.685962
1005.158964	2502.932885
1005.453270	2497.891731
1005.747540	2482.768269
1006.041775	2465.124231
1006.335974	2414.712692
1006.630138	2389.506923
1006.924266	2502.932885
1007.218359	2565.947308
1007.512416	2497.891731
1007.806438	2392.027500
1008.100425	2485.288846
1008.394376	2460.083077
1008.688292	2497.891731
1008.982172	2613.838269
1009.276017	2470.165385
1009.569827	2492.850577
1009.863602	2490.330000
1010.157341	2472.685962
1010.451045	2520.576923
1010.744714	2535.700385
1011.038347	2429.836154
1011.331945	2540.741538
1011.625508	2591.153077
1011.919036	2429.836154
1012.212528	2548.303269
1012.505986	2470.165385
1012.799408	2525.618077
1013.092795	2465.124231
1013.386147	2510.494615
1013.679464	2497.891731
1013.972745	2470.165385
1014.265992	2497.891731
1014.559204	2397.068654
1014.852380	2530.659231
1015.145521	2502.932885
1015.438628	2490.330000
1015.731699	2356.739423
1016.024736	2482.768269
1016.317737	2485.288846
1016.610703	2505.453462
1016.903635	2515.535769
1017.196531	2472.685962
1017.489393	2414.712692
1017.782219	2507.974038
1018.075011	2452.521346
1018.367768	2518.056346
1018.660490	2480.247692
1018.953177	2480.247692
1019.245829	2480.247692
