Dividing Wavelength (nm)	Counts (n)	Blue Motor Position (mm): 3.600000	Red Motor Position (mm): 0.000000	
326.493990	2114.764038
326.888308	2114.764038
327.282561	2114.764038
327.676750	2051.749615
328.070874	2069.393654
328.464933	1998.817500
328.858929	2024.023269
329.252859	2044.187885
329.646726	2044.187885
330.040528	2051.749615
330.434265	2087.037692
330.827938	2129.887500
331.221547	2119.805192
331.615091	2225.669423
332.008571	2170.216731
332.401986	2162.655000
332.795338	2187.860769
333.188625	2213.066538
333.581847	2291.204423
333.975006	2268.519231
334.368100	2271.039808
334.761129	2233.231154
335.154095	2276.080962
335.546996	2409.671538
335.939833	2344.136538
336.332606	2313.889615
336.725315	2432.356731
337.117960	2452.521346
337.510540	2424.795000
337.903056	2351.698269
338.295508	2351.698269
338.687896	2374.383462
339.080220	2409.671538
339.472480	2452.521346
339.864676	2510.494615
340.256807	2540.741538
340.648875	2487.809423
341.040879	2409.671538
341.432818	2439.918462
341.824694	2480.247692
342.216506	2520.576923
342.608253	2447.480192
342.999937	2540.741538
343.391557	2439.918462
343.783113	2460.083077
344.174605	2455.041923
344.566033	2376.904038
344.957397	2525.618077
345.348697	2444.959615
345.739934	2490.330000
346.131106	2507.974038
346.522215	2437.397885
346.913260	2427.315577
347.304241	2507.974038
347.695159	2434.877308
348.086012	2437.397885
348.476802	2583.591346
348.867528	2447.480192
349.258191	2482.768269
349.648789	2427.315577
350.039324	2427.315577
350.429796	2530.659231
350.820203	2427.315577
351.210548	2460.083077
351.600828	2407.150962
351.991045	2497.891731
352.381198	2429.836154
352.771288	2412.192115
353.161314	2439.918462
353.551276	2492.850577
353.941175	2417.233269
354.331010	2450.000769
354.720782	2455.041923
355.110490	2465.124231
355.500135	2399.589231
355.889717	2447.480192
356.279235	2374.383462
356.668689	2417.233269
357.058080	2412.192115
357.447408	2394.548077
357.836672	2412.192115
358.225873	2482.768269
358.615010	2568.467885
359.004084	2465.124231
359.393095	2346.657115
359.782043	2470.165385
360.170927	2510.494615
360.559748	2477.727115
360.948505	2538.220962
361.337199	2432.356731
361.725830	2429.836154
362.114398	2535.700385
362.502903	2412.192115
362.891344	2447.480192
363.279722	2429.836154
363.668037	2434.877308
364.056289	2507.974038
364.444478	2404.630385
364.832603	2467.644808
365.220665	2460.083077
365.608665	2452.521346
365.996601	2467.644808
366.384474	2432.356731
366.772284	2407.150962
367.160031	2455.041923
367.547715	2399.589231
367.935336	2513.015192
368.322893	2490.330000
368.710388	2472.685962
369.097820	2427.315577
369.485189	2439.918462
369.872495	2505.453462
370.259738	2409.671538
370.646918	2475.206538
371.034035	2447.480192
371.421090	2450.000769
371.808081	2442.439038
372.195010	2460.083077
372.581875	2417.233269
372.968678	2482.768269
373.355418	2384.465769
373.742096	2419.753846
374.128710	2429.836154
374.515262	2477.727115
374.901751	2475.206538
375.288177	2371.862885
375.674540	2525.618077
376.060841	2444.959615
376.447079	2502.932885
376.833254	2452.521346
377.219367	2444.959615
377.605417	2442.439038
377.991404	2447.480192
378.377329	2429.836154
378.763191	2450.000769
379.148991	2422.274423
379.534727	2444.959615
379.920402	2538.220962
380.306013	2500.412308
380.691563	2460.083077
381.077049	2480.247692
381.462474	2477.727115
381.847835	2472.685962
382.233134	2439.918462
382.618371	2475.206538
383.003545	2424.795000
383.388657	2462.603654
383.773706	2525.618077
384.158693	2495.371154
384.543618	2487.809423
384.928480	2376.904038
385.313280	2460.083077
385.698017	2457.562500
386.082692	2487.809423
386.467305	2452.521346
386.851856	2533.179808
387.236344	2485.288846
387.620770	2412.192115
388.005133	2452.521346
388.389435	2369.342308
388.773674	2475.206538
389.157851	2533.179808
389.541965	2470.165385
389.926018	2460.083077
390.310008	2555.865000
390.693936	2497.891731
391.077802	2495.371154
391.461606	2419.753846
391.845348	2434.877308
392.229027	2407.150962
392.612645	2397.068654
392.996200	2381.945192
393.379694	2414.712692
393.763125	2381.945192
394.146494	2528.138654
394.529801	2457.562500
394.913047	2465.124231
395.296230	2523.097500
395.679351	2475.206538
396.062410	2467.644808
396.445408	2397.068654
396.828343	2482.768269
397.211217	2570.988462
397.594028	2477.727115
397.976778	2477.727115
398.359466	2422.274423
398.742092	2520.576923
399.124656	2490.330000
399.507158	2412.192115
399.889598	2513.015192
400.271977	2515.535769
400.654294	2404.630385
401.036549	2460.083077
401.418742	2429.836154
401.800874	2475.206538
402.182944	2432.356731
402.564952	2492.850577
402.946898	2374.383462
403.328783	2369.342308
403.710606	2492.850577
404.092367	2414.712692
404.474067	2505.453462
404.855705	2432.356731
405.237282	2530.659231
405.618797	2450.000769
406.000250	2427.315577
406.381642	2472.685962
406.762972	2515.535769
407.144240	2500.412308
407.525447	2520.576923
407.906593	2487.809423
408.287677	2525.618077
408.668700	2472.685962
409.049661	2480.247692
409.430560	2434.877308
409.811399	2482.768269
410.192176	2427.315577
410.572891	2515.535769
410.953545	2475.206538
411.334138	2507.974038
411.714669	2515.535769
412.095139	2487.809423
412.475547	2518.056346
412.855894	2502.932885
413.236180	2457.562500
413.616405	2412.192115
413.996568	2472.685962
414.376670	2654.167500
414.756711	2404.630385
415.136691	2442.439038
415.516609	2429.836154
415.896466	2475.206538
416.276262	2414.712692
416.655997	2492.850577
417.035670	2475.206538
417.415283	2520.576923
417.794834	2477.727115
418.174324	2487.809423
418.553753	2429.836154
418.933121	2457.562500
419.312428	2490.330000
419.691674	2397.068654
420.070859	2457.562500
420.449983	2465.124231
420.829045	2457.562500
421.208047	2490.330000
421.586988	2528.138654
421.965867	2442.439038
422.344686	2507.974038
422.723444	2442.439038
423.102141	2490.330000
423.480777	2407.150962
423.859352	2424.795000
424.237866	2487.809423
424.616319	2460.083077
424.994712	2455.041923
425.373044	2477.727115
425.751314	2442.439038
426.129524	2492.850577
426.507673	2455.041923
426.885762	2507.974038
427.263789	2487.809423
427.641756	2490.330000
428.019662	2439.918462
428.397508	2528.138654
428.775292	2523.097500
429.153016	2518.056346
429.530679	2490.330000
429.908282	2505.453462
430.285824	2432.356731
430.663305	2450.000769
431.040726	2462.603654
431.418086	2374.383462
431.795385	2558.385577
432.172624	2419.753846
432.549802	2540.741538
432.926920	2530.659231
433.303977	2548.303269
433.680974	2518.056346
434.057910	2434.877308
434.434786	2450.000769
434.811601	2525.618077
435.188355	2442.439038
435.565050	2533.179808
435.941683	2462.603654
436.318257	2520.576923
436.694770	2407.150962
437.071222	2455.041923
437.447614	2450.000769
437.823946	2540.741538
438.200218	2439.918462
438.576429	2523.097500
438.952580	2477.727115
439.328670	2470.165385
439.704700	2460.083077
440.080670	2520.576923
440.456580	2525.618077
440.832429	2482.768269
441.208218	2490.330000
441.583947	2550.823846
441.959616	2480.247692
442.335224	2402.109808
442.710773	2540.741538
443.086261	2485.288846
443.461689	2379.424615
443.837057	2475.206538
444.212365	2510.494615
444.587612	2565.947308
444.962800	2462.603654
445.337927	2530.659231
445.712995	2427.315577
446.088002	2530.659231
446.462949	2442.439038
446.837837	2475.206538
447.212664	2419.753846
447.587431	2538.220962
447.962139	2495.371154
448.336786	2439.918462
448.711374	2533.179808
449.085901	2485.288846
449.460369	2477.727115
449.834776	2533.179808
450.209124	2515.535769
450.583412	2555.865000
450.957640	2467.644808
451.331808	2482.768269
451.705917	2535.700385
452.079965	2502.932885
452.453954	2583.591346
452.827883	2432.356731
453.201752	2510.494615
453.575562	2457.562500
453.949311	2525.618077
454.323001	2475.206538
454.696632	2505.453462
455.070202	2495.371154
455.443713	2467.644808
455.817164	2452.521346
456.190556	2447.480192
456.563888	2487.809423
456.937160	2462.603654
457.310373	2487.809423
457.683526	2570.988462
458.056619	2447.480192
458.429653	2497.891731
458.802628	2404.630385
459.175542	2422.274423
459.548398	2490.330000
459.921194	2497.891731
460.293930	2533.179808
460.666607	2518.056346
461.039224	2510.494615
461.411782	2455.041923
461.784280	2513.015192
462.156719	2500.412308
462.529099	2452.521346
462.901419	2505.453462
463.273680	2457.562500
463.645882	2495.371154
464.018024	2480.247692
464.390106	2444.959615
464.762130	2417.233269
465.134094	2437.397885
465.505999	2497.891731
465.877845	2470.165385
466.249631	2442.439038
466.621358	2528.138654
466.993026	2482.768269
467.364634	2563.426731
467.736184	2550.823846
468.107674	2475.206538
468.479105	2548.303269
468.850477	2450.000769
469.221790	2530.659231
469.593043	2490.330000
469.964238	2573.509038
470.335373	2538.220962
470.706449	2460.083077
471.077467	2510.494615
471.448425	2480.247692
471.819324	2490.330000
472.190164	2432.356731
472.560945	2475.206538
472.931667	2455.041923
473.302330	2399.589231
473.672934	2525.618077
474.043479	2500.412308
474.413965	2462.603654
474.784393	2507.974038
475.154761	2465.124231
475.525070	2417.233269
475.895321	2490.330000
476.265513	2399.589231
476.635645	2523.097500
477.005719	2467.644808
477.375734	2553.344423
477.745691	2510.494615
478.115588	2414.712692
478.485427	2510.494615
478.855207	2518.056346
479.224928	2535.700385
479.594591	2480.247692
479.964194	2507.974038
480.333739	2545.782692
480.703226	2432.356731
481.072653	2482.768269
481.442022	2515.535769
481.811333	2528.138654
482.180584	2422.274423
482.549777	2495.371154
482.918912	2475.206538
483.287988	2523.097500
483.657005	2533.179808
484.025964	2510.494615
484.394864	2543.262115
484.763706	2492.850577
485.132489	2419.753846
485.501213	2495.371154
485.869879	2465.124231
486.238487	2465.124231
486.607036	2434.877308
486.975527	2419.753846
487.343959	2548.303269
487.712333	2487.809423
488.080648	2598.714808
488.448905	2497.891731
488.817104	2434.877308
489.185244	2513.015192
489.553326	2477.727115
489.921350	2482.768269
490.289315	2528.138654
490.657222	2518.056346
491.025070	2485.288846
491.392861	2447.480192
491.760593	2550.823846
492.128267	2533.179808
492.495883	2487.809423
492.863440	2497.891731
493.230939	2518.056346
493.598380	2490.330000
493.965763	2480.247692
494.333088	2523.097500
494.700354	2457.562500
495.067563	2563.426731
495.434713	2545.782692
495.801805	2505.453462
496.168839	2480.247692
496.535815	2518.056346
496.902733	2505.453462
497.269593	2482.768269
497.636395	2507.974038
498.003139	2450.000769
498.369825	2513.015192
498.736453	2457.562500
499.103023	2530.659231
499.469535	2568.467885
499.835989	2510.494615
500.202385	2480.247692
500.568723	2497.891731
500.935003	2429.836154
501.301226	2533.179808
501.667390	2500.412308
502.033497	2480.247692
502.399546	2462.603654
502.765537	2540.741538
503.131470	2515.535769
503.497345	2530.659231
503.863163	2475.206538
504.228923	2515.535769
504.594625	2444.959615
504.960269	2497.891731
505.325856	2525.618077
505.691385	2457.562500
506.056856	2533.179808
506.422270	2457.562500
506.787625	2558.385577
507.152924	2497.891731
507.518164	2573.509038
507.883347	2510.494615
508.248472	2578.550192
508.613540	2507.974038
508.978550	2518.056346
509.343503	2545.782692
509.708398	2470.165385
510.073236	2538.220962
510.438016	2437.397885
510.802738	2497.891731
511.167403	2502.932885
511.532010	2495.371154
511.896561	2482.768269
512.261053	2628.961731
512.625488	2472.685962
512.989866	2424.795000
513.354186	2538.220962
513.718449	2465.124231
514.082655	2523.097500
514.446803	2404.630385
514.810894	2487.809423
515.174927	2492.850577
515.538904	2523.097500
515.902822	2500.412308
516.266684	2538.220962
516.630488	2523.097500
516.994235	2550.823846
517.357925	2515.535769
517.721558	2490.330000
518.085133	2447.480192
518.448651	2505.453462
518.812112	2470.165385
519.175516	2462.603654
519.538863	2465.124231
519.902152	2472.685962
520.265385	2442.439038
520.628560	2490.330000
520.991678	2510.494615
521.354739	2467.644808
521.717743	2470.165385
522.080690	2460.083077
522.443580	2485.288846
522.806413	2535.700385
523.169189	2538.220962
523.531908	2560.906154
523.894569	2550.823846
524.257174	2502.932885
524.619722	2487.809423
524.982213	2507.974038
525.344647	2485.288846
525.707025	2576.029615
526.069345	2460.083077
526.431608	2487.809423
526.793815	2397.068654
527.155964	2462.603654
527.518057	2457.562500
527.880093	2545.782692
528.242072	2518.056346
528.603995	2502.932885
528.965860	2576.029615
529.327669	2442.439038
529.689421	2487.809423
530.051117	2417.233269
530.412755	2545.782692
530.774337	2492.850577
531.135862	2550.823846
531.497331	2472.685962
531.858743	2492.850577
532.220098	2432.356731
532.581396	2560.906154
532.942638	2419.753846
533.303824	2450.000769
533.664953	2424.795000
534.026025	2439.918462
534.387040	2515.535769
534.747999	2485.288846
535.108902	2414.712692
535.469748	2487.809423
535.830537	2475.206538
536.191270	2513.015192
536.551947	2492.850577
536.912567	2457.562500
537.273131	2442.439038
537.633638	2462.603654
537.994089	2414.712692
538.354483	2439.918462
538.714821	2573.509038
539.075103	2379.424615
539.435328	2500.412308
539.795497	2437.397885
540.155609	2505.453462
540.515665	2555.865000
540.875665	2525.618077
541.235609	2555.865000
541.595496	2472.685962
541.955328	2538.220962
542.315102	2482.768269
542.674821	2518.056346
543.034483	2502.932885
543.394090	2535.700385
543.753640	2487.809423
544.113134	2601.235385
544.472571	2513.015192
544.831953	2485.288846
545.191278	2558.385577
545.550548	2518.056346
545.909761	2475.206538
546.268918	2505.453462
546.628019	2518.056346
546.987064	2452.521346
547.346053	2467.644808
547.704986	2513.015192
548.063863	2583.591346
548.422684	2513.015192
548.781449	2545.782692
549.140158	2558.385577
549.498811	2540.741538
549.857408	2565.947308
550.215949	2470.165385
550.574434	2523.097500
550.932864	2442.439038
551.291237	2460.083077
551.649555	2477.727115
552.007817	2434.877308
552.366022	2510.494615
552.724173	2444.959615
553.082267	2540.741538
553.440305	2533.179808
553.798288	2507.974038
554.156215	2515.535769
554.514086	2507.974038
554.871902	2530.659231
555.229661	2465.124231
555.587365	2523.097500
555.945014	2588.632500
556.302606	2452.521346
556.660143	2530.659231
557.017625	2502.932885
557.375050	2444.959615
557.732421	2598.714808
558.089735	2520.576923
558.446994	2444.959615
558.804197	2550.823846
559.161345	2538.220962
559.518437	2482.768269
559.875474	2581.070769
560.232455	2386.986346
560.589381	2525.618077
560.946251	2452.521346
561.303065	2555.865000
561.659825	2545.782692
562.016528	2432.356731
562.373177	2533.179808
562.729770	2530.659231
563.086307	2477.727115
563.442789	2492.850577
563.799216	2379.424615
564.155587	2510.494615
564.511904	2465.124231
564.868164	2523.097500
565.224370	2601.235385
565.580520	2480.247692
565.936615	2485.288846
566.292654	2528.138654
566.648638	2490.330000
567.004567	2490.330000
567.360441	2490.330000
567.716260	2487.809423
568.072023	2507.974038
568.427732	2470.165385
568.783385	2545.782692
569.138982	2455.041923
569.494525	2477.727115
569.850013	2487.809423
570.205445	2490.330000
570.560823	2492.850577
570.916145	2634.002885
571.271412	2538.220962
571.626625	2487.809423
571.981782	2460.083077
572.336884	2500.412308
572.691931	2475.206538
573.046923	2507.974038
573.401860	2563.426731
573.756743	2510.494615
574.111570	2490.330000
574.466342	2528.138654
574.821059	2523.097500
575.175722	2500.412308
575.530330	2500.412308
575.884882	2530.659231
576.239380	2518.056346
576.593823	2555.865000
576.948211	2525.618077
577.302544	2470.165385
577.656823	2475.206538
578.011047	2553.344423
578.365216	2513.015192
578.719330	2502.932885
579.073389	2490.330000
579.427394	2573.509038
579.781344	2505.453462
580.135239	2490.330000
580.489080	2525.618077
580.842866	2530.659231
581.196597	2525.618077
581.550273	2502.932885
581.903895	2450.000769
582.257463	2502.932885
582.610975	2596.194231
582.964434	2457.562500
583.317837	2510.494615
583.671186	2535.700385
584.024481	2399.589231
584.377721	2492.850577
584.730906	2432.356731
585.084037	2490.330000
585.437113	2417.233269
585.790135	2490.330000
586.143103	2384.465769
586.496016	2470.165385
586.848874	2455.041923
587.201679	2518.056346
587.554428	2480.247692
587.907124	2528.138654
588.259765	2570.988462
588.612352	2513.015192
588.964884	2543.262115
589.317362	2560.906154
589.669786	2538.220962
590.022155	2429.836154
590.374470	2550.823846
590.726731	2480.247692
591.078937	2535.700385
591.431090	2447.480192
591.783188	2500.412308
592.135232	2525.618077
592.487222	2470.165385
592.839157	2487.809423
593.191038	2543.262115
593.542866	2565.947308
593.894639	2573.509038
594.246358	2490.330000
594.598022	2492.850577
594.949633	2475.206538
595.301190	2578.550192
595.652692	2495.371154
596.004141	2490.330000
596.355535	2495.371154
596.706876	2442.439038
597.058162	2477.727115
597.409395	2502.932885
597.760573	2525.618077
598.111698	2558.385577
598.462768	2490.330000
598.813785	2452.521346
599.164748	2500.412308
599.515657	2467.644808
599.866511	2487.809423
600.217312	2520.576923
600.568060	2520.576923
600.918753	2490.330000
601.269392	2472.685962
601.619978	2432.356731
601.970510	2515.535769
602.320988	2520.576923
602.671412	2520.576923
603.021783	2641.564615
603.372100	2540.741538
603.722363	2523.097500
604.072572	2455.041923
604.422728	2510.494615
604.772830	2510.494615
605.122878	2490.330000
605.472872	2510.494615
605.822813	2548.303269
606.172701	2444.959615
606.522534	2550.823846
606.872314	2550.823846
607.222041	2500.412308
607.571714	2472.685962
607.921333	2487.809423
608.270899	2490.330000
608.620411	2540.741538
608.969870	2495.371154
609.319276	2565.947308
609.668627	2462.603654
610.017926	2525.618077
610.367171	2626.441154
610.716362	2472.685962
611.065500	2528.138654
611.414585	2475.206538
611.763616	2543.262115
612.112594	2528.138654
612.461518	2465.124231
612.810389	2492.850577
613.159207	2518.056346
613.507971	2500.412308
613.856682	2472.685962
614.205340	2588.632500
614.553945	2570.988462
614.902496	2583.591346
615.250994	2525.618077
615.599439	2490.330000
615.947830	2427.315577
616.296169	2535.700385
616.644454	2555.865000
616.992686	2533.179808
617.340864	2535.700385
617.688990	2528.138654
618.037063	2487.809423
618.385082	2558.385577
618.733048	2465.124231
619.080961	2528.138654
619.428821	2507.974038
619.776628	2568.467885
620.124382	2568.467885
620.472083	2528.138654
620.819731	2507.974038
621.167326	2472.685962
621.514868	2447.480192
621.862357	2467.644808
622.209793	2447.480192
622.557176	2518.056346
622.904506	2485.288846
623.251783	2588.632500
623.599007	2603.755962
623.946179	2447.480192
624.293297	2452.521346
624.640363	2523.097500
624.987376	2447.480192
625.334336	2465.124231
625.681243	2533.179808
626.028097	2505.453462
626.374899	2525.618077
626.721647	2437.397885
627.068343	2497.891731
627.414987	2555.865000
627.761577	2528.138654
628.108115	2457.562500
628.454600	2487.809423
628.801032	2392.027500
629.147412	2437.397885
629.493739	2548.303269
629.840014	2452.521346
630.186236	2467.644808
630.532405	2525.618077
630.878521	2437.397885
631.224585	2492.850577
631.570597	2505.453462
631.916556	2462.603654
632.262462	2558.385577
632.608316	2507.974038
632.954117	2520.576923
633.299866	2548.303269
633.645562	2495.371154
633.991206	2518.056346
634.336797	2492.850577
634.682336	2545.782692
635.027823	2487.809423
635.373257	2528.138654
635.718639	2507.974038
636.063968	2525.618077
636.409245	2573.509038
636.754470	2538.220962
637.099642	2518.056346
637.444762	2487.809423
637.789829	2568.467885
638.134845	2505.453462
638.479808	2462.603654
638.824719	2482.768269
639.169577	2437.397885
639.514383	2523.097500
639.859137	2523.097500
640.203839	2515.535769
640.548489	2555.865000
640.893086	2457.562500
641.237632	2545.782692
641.582125	2490.330000
641.926566	2563.426731
642.270955	2437.397885
642.615292	2548.303269
642.959576	2482.768269
643.303809	2505.453462
643.647990	2565.947308
643.992118	2523.097500
644.336195	2487.809423
644.680219	2444.959615
645.024192	2543.262115
645.368112	2518.056346
645.711981	2515.535769
646.055797	2442.439038
646.399562	2533.179808
646.743274	2424.795000
647.086935	2548.303269
647.430544	2467.644808
647.774101	2515.535769
648.117606	2510.494615
648.461059	2513.015192
648.804460	2538.220962
649.147810	2502.932885
649.491108	2523.097500
649.834354	2455.041923
650.177548	2520.576923
650.520690	2487.809423
650.863781	2535.700385
651.206820	2344.136538
651.549807	2568.467885
651.892742	2465.124231
652.235626	2528.138654
652.578458	2497.891731
652.921238	2487.809423
653.263967	2477.727115
653.606644	2558.385577
653.949269	2402.109808
654.291843	2507.974038
654.634365	2502.932885
654.976836	2492.850577
655.319255	2497.891731
655.661622	2480.247692
656.003938	2482.768269
656.346203	2576.029615
656.688416	2586.111923
657.030577	2487.809423
657.372687	2455.041923
657.714746	2404.630385
658.056753	2432.356731
658.398708	2457.562500
658.740612	2452.521346
659.082465	2457.562500
659.424266	2528.138654
659.766016	2505.453462
660.107715	2467.644808
660.449362	2555.865000
660.790958	2507.974038
661.132503	2397.068654
661.473996	2432.356731
661.815438	2507.974038
662.156829	2472.685962
662.498168	2417.233269
662.839456	2548.303269
663.180693	2434.877308
663.521879	2497.891731
663.863013	2495.371154
664.204097	2543.262115
664.545129	2452.521346
664.886110	2528.138654
665.227040	2467.644808
665.567918	2513.015192
665.908746	2515.535769
666.249522	2480.247692
666.590248	2462.603654
666.930922	2497.891731
667.271545	2439.918462
667.612118	2507.974038
667.952639	2434.877308
668.293109	2565.947308
668.633528	2528.138654
668.973896	2520.576923
669.314213	2548.303269
669.654480	2422.274423
669.994695	2482.768269
670.334859	2467.644808
670.674973	2480.247692
671.015035	2497.891731
671.355047	2485.288846
671.695008	2540.741538
672.034918	2502.932885
672.374777	2535.700385
672.714585	2432.356731
673.054342	2518.056346
673.394049	2485.288846
673.733705	2510.494615
674.073310	2548.303269
674.412864	2485.288846
674.752368	2497.891731
675.091820	2472.685962
675.431223	2535.700385
675.770574	2432.356731
676.109875	2467.644808
676.449125	2492.850577
676.788324	2555.865000
677.127473	2563.426731
677.466571	2455.041923
677.805619	2497.891731
678.144616	2424.795000
678.483562	2502.932885
678.822458	2475.206538
679.161303	2447.480192
679.500098	2523.097500
679.838842	2507.974038
680.177535	2545.782692
680.516179	2482.768269
680.854771	2528.138654
681.193314	2545.782692
681.531805	2487.809423
681.870247	2528.138654
682.208638	2450.000769
682.546978	2482.768269
682.885268	2558.385577
683.223508	2432.356731
683.561697	2543.262115
683.899836	2550.823846
684.237925	2480.247692
684.575963	2472.685962
684.913951	2450.000769
685.251889	2485.288846
685.589776	2490.330000
685.927614	2510.494615
686.265401	2525.618077
686.603137	2475.206538
686.940824	2477.727115
687.278460	2545.782692
687.616046	2555.865000
687.953582	2457.562500
688.291068	2518.056346
688.628504	2477.727115
688.965889	2523.097500
689.303224	2528.138654
689.640510	2472.685962
689.977745	2442.439038
690.314930	2477.727115
690.652065	2495.371154
690.989150	2497.891731
691.326185	2490.330000
691.663170	2525.618077
692.000105	2497.891731
692.336990	2487.809423
692.673825	2573.509038
693.010610	2555.865000
693.347345	2497.891731
693.684030	2477.727115
694.020665	2492.850577
694.357251	2570.988462
694.693786	2538.220962
695.030272	2538.220962
695.366707	2568.467885
695.703093	2586.111923
696.039429	2495.371154
696.375716	2462.603654
696.711952	2507.974038
697.048139	2492.850577
697.384276	2538.220962
697.720363	2477.727115
698.056400	2450.000769
698.392388	2452.521346
698.728326	2570.988462
699.064214	2447.480192
699.400053	2487.809423
699.735842	2500.412308
700.071581	2500.412308
700.407270	2505.453462
700.742910	2507.974038
701.078501	2553.344423
701.414042	2520.576923
701.749533	2490.330000
702.084974	2497.891731
702.420366	2472.685962
702.755709	2520.576923
703.091002	2414.712692
703.426246	2576.029615
703.761440	2502.932885
704.096584	2485.288846
704.431679	2480.247692
704.766725	2472.685962
705.101721	2507.974038
705.436668	2465.124231
705.771565	2472.685962
706.106413	2480.247692
706.441212	2490.330000
706.775961	2462.603654
707.110661	2467.644808
707.445311	2570.988462
707.779913	2505.453462
708.114465	2530.659231
708.448967	2545.782692
708.783421	2502.932885
709.117825	2480.247692
709.452180	2543.262115
709.786485	2495.371154
710.120742	2477.727115
710.454949	2495.371154
710.789107	2540.741538
711.123216	2505.453462
711.457275	2457.562500
711.791286	2452.521346
712.125247	2548.303269
712.459159	2545.782692
712.793023	2543.262115
713.126837	2467.644808
713.460602	2500.412308
713.794318	2472.685962
714.127985	2507.974038
714.461602	2379.424615
714.795171	2417.233269
715.128691	2581.070769
715.462162	2520.576923
715.795584	2513.015192
716.128957	2500.412308
716.462281	2558.385577
716.795556	2500.412308
717.128782	2510.494615
717.461960	2460.083077
717.795088	2540.741538
718.128167	2462.603654
718.461198	2555.865000
718.794180	2465.124231
719.127113	2485.288846
719.459997	2525.618077
719.792833	2555.865000
720.125619	2507.974038
720.458357	2528.138654
720.791046	2452.521346
721.123686	2477.727115
721.456278	2457.562500
721.788821	2477.727115
722.121315	2513.015192
722.453761	2540.741538
722.786158	2528.138654
723.118506	2442.439038
723.450805	2538.220962
723.783056	2540.741538
724.115259	2495.371154
724.447412	2608.797115
724.779518	2500.412308
725.111574	2477.727115
725.443582	2475.206538
725.775542	2482.768269
726.107453	2432.356731
726.439315	2480.247692
726.771129	2437.397885
727.102895	2467.644808
727.434612	2465.124231
727.766281	2565.947308
728.097901	2510.494615
728.429473	2487.809423
728.760996	2427.315577
729.092471	2452.521346
729.423897	2523.097500
729.755276	2510.494615
730.086606	2447.480192
730.417887	2538.220962
730.749120	2510.494615
731.080305	2530.659231
731.411442	2500.412308
731.742530	2518.056346
732.073570	2457.562500
732.404562	2394.548077
732.735506	2495.371154
733.066401	2495.371154
733.397249	2462.603654
733.728048	2513.015192
734.058798	2492.850577
734.389501	2472.685962
734.720156	2452.521346
735.050762	2424.795000
735.381320	2490.330000
735.711831	2475.206538
736.042293	2535.700385
736.372707	2565.947308
736.703073	2422.274423
737.033391	2510.494615
737.363661	2563.426731
737.693883	2523.097500
738.024056	2477.727115
738.354182	2520.576923
738.684260	2429.836154
739.014290	2510.494615
739.344272	2510.494615
739.674207	2513.015192
740.004093	2404.630385
740.333931	2646.605769
740.663722	2540.741538
740.993464	2419.753846
741.323159	2530.659231
741.652806	2558.385577
741.982405	2497.891731
742.311956	2520.576923
742.641460	2576.029615
742.970915	2450.000769
743.300323	2528.138654
743.629683	2442.439038
743.958996	2480.247692
744.288260	2452.521346
744.617477	2520.576923
744.946647	2528.138654
745.275768	2560.906154
745.604842	2505.453462
745.933869	2545.782692
746.262847	2570.988462
746.591778	2437.397885
746.920662	2465.124231
747.249498	2502.932885
747.578286	2422.274423
747.907027	2485.288846
748.235720	2402.109808
748.564365	2492.850577
748.892963	2581.070769
749.221514	2490.330000
749.550017	2518.056346
749.878473	2455.041923
750.206881	2480.247692
750.535242	2560.906154
750.863555	2520.576923
751.191821	2457.562500
751.520039	2442.439038
751.848210	2555.865000
752.176334	2550.823846
752.504411	2525.618077
752.832440	2623.920577
753.160421	2495.371154
753.488356	2518.056346
753.816243	2444.959615
754.144082	2548.303269
754.471875	2465.124231
754.799620	2452.521346
755.127318	2497.891731
755.454969	2608.797115
755.782572	2497.891731
756.110129	2533.179808
756.437638	2414.712692
756.765100	2543.262115
757.092515	2573.509038
757.419882	2518.056346
757.747203	2470.165385
758.074477	2543.262115
758.401703	2429.836154
758.728882	2414.712692
759.056014	2533.179808
759.383099	2429.836154
759.710138	2439.918462
760.037129	2480.247692
760.364073	2502.932885
760.690970	2444.959615
761.017820	2530.659231
761.344623	2505.453462
761.671379	2535.700385
761.998088	2520.576923
762.324751	2528.138654
762.651366	2555.865000
762.977935	2543.262115
763.304456	2533.179808
763.630931	2424.795000
763.957359	2533.179808
764.283740	2487.809423
764.610074	2515.535769
764.936362	2505.453462
765.262602	2407.150962
765.588796	2419.753846
765.914943	2492.850577
766.241044	2497.891731
766.567097	2477.727115
766.893104	2492.850577
767.219064	2525.618077
767.544978	2444.959615
767.870845	2452.521346
768.196665	2497.891731
768.522438	2450.000769
768.848165	2608.797115
769.173846	2578.550192
769.499479	2444.959615
769.825066	2507.974038
770.150607	2555.865000
770.476101	2472.685962
770.801548	2588.632500
771.126949	2417.233269
771.452303	2442.439038
771.777611	2497.891731
772.102872	2510.494615
772.428087	2538.220962
772.753256	2442.439038
773.078378	2500.412308
773.403453	2507.974038
773.728482	2439.918462
774.053465	2598.714808
774.378401	2586.111923
774.703291	2525.618077
775.028135	2497.891731
775.352932	2606.276538
775.677683	2452.521346
776.002388	2492.850577
776.327046	2538.220962
776.651658	2482.768269
776.976224	2467.644808
777.300743	2586.111923
777.625216	2510.494615
777.949643	2518.056346
778.274024	2444.959615
778.598359	2507.974038
778.922647	2538.220962
779.246889	2490.330000
779.571086	2553.344423
779.895236	2482.768269
780.219339	2507.974038
780.543397	2518.056346
780.867409	2545.782692
781.191374	2460.083077
781.515294	2424.795000
781.839167	2492.850577
782.162995	2447.480192
782.486776	2507.974038
782.810511	2480.247692
783.134201	2422.274423
783.457844	2515.535769
783.781441	2507.974038
784.104993	2432.356731
784.428498	2495.371154
784.751958	2475.206538
785.075372	2437.397885
785.398739	2477.727115
785.722061	2429.836154
786.045337	2497.891731
786.368568	2462.603654
786.691752	2502.932885
787.014891	2432.356731
787.337983	2540.741538
787.661030	2432.356731
787.984031	2540.741538
788.306987	2480.247692
788.629897	2545.782692
788.952760	2450.000769
789.275579	2560.906154
789.598351	2555.865000
789.921078	2485.288846
790.243759	2422.274423
790.566395	2515.535769
790.888984	2510.494615
791.211529	2467.644808
791.534027	2548.303269
791.856480	2485.288846
792.178888	2573.509038
792.501249	2485.288846
792.823566	2462.603654
793.145836	2518.056346
793.468062	2502.932885
793.790241	2414.712692
794.112375	2513.015192
794.434464	2565.947308
794.756507	2447.480192
795.078505	2495.371154
795.400457	2427.315577
795.722364	2439.918462
796.044226	2558.385577
796.366042	2487.809423
796.687812	2477.727115
797.009538	2573.509038
797.331218	2444.959615
797.652852	2467.644808
797.974442	2462.603654
798.295986	2523.097500
798.617484	2586.111923
798.938938	2573.509038
799.260346	2392.027500
799.581709	2424.795000
799.903026	2520.576923
800.224299	2452.521346
800.545526	2530.659231
800.866708	2480.247692
801.187845	2523.097500
801.508936	2429.836154
801.829983	2515.535769
802.150984	2480.247692
802.471940	2475.206538
802.792851	2460.083077
803.113717	2475.206538
803.434538	2457.562500
803.755314	2520.576923
804.076045	2432.356731
804.396731	2475.206538
804.717372	2507.974038
805.037967	2518.056346
805.358518	2530.659231
805.679024	2475.206538
805.999485	2518.056346
806.319901	2528.138654
806.640272	2417.233269
806.960598	2555.865000
807.280879	2507.974038
807.601115	2543.262115
807.921306	2437.397885
808.241453	2518.056346
808.561554	2407.150962
808.881611	2492.850577
809.201623	2515.535769
809.521590	2442.439038
809.841513	2452.521346
810.161390	2492.850577
810.481223	2576.029615
810.801011	2477.727115
811.120755	2470.165385
811.440453	2505.453462
811.760107	2429.836154
812.079716	2492.850577
812.399281	2482.768269
812.718801	2515.535769
813.038276	2427.315577
813.357707	2510.494615
813.677093	2545.782692
813.996434	2465.124231
814.315731	2507.974038
814.634983	2543.262115
814.954191	2424.795000
815.273354	2457.562500
815.592473	2472.685962
815.911547	2533.179808
816.230577	2434.877308
816.549562	2523.097500
816.868502	2528.138654
817.187399	2490.330000
817.506250	2520.576923
817.825058	2513.015192
818.143821	2444.959615
818.462539	2457.562500
818.781213	2540.741538
819.099843	2465.124231
819.418429	2510.494615
819.736970	2452.521346
820.055466	2523.097500
820.373919	2475.206538
820.692327	2477.727115
821.010691	2455.041923
821.329011	2450.000769
821.647286	2490.330000
821.965517	2336.574808
822.283704	2457.562500
822.601847	2437.397885
822.919945	2460.083077
823.237999	2545.782692
823.556010	2518.056346
823.873976	2513.015192
824.191897	2513.015192
824.509775	2495.371154
824.827609	2472.685962
825.145398	2452.521346
825.463144	2480.247692
825.780845	2525.618077
826.098502	2518.056346
826.416116	2470.165385
826.733685	2545.782692
827.051210	2560.906154
827.368692	2502.932885
827.686129	2533.179808
828.003522	2460.083077
828.320872	2563.426731
828.638177	2560.906154
828.955439	2434.877308
829.272656	2550.823846
829.589830	2490.330000
829.906960	2470.165385
830.224046	2455.041923
830.541088	2477.727115
830.858086	2465.124231
831.175041	2490.330000
831.491952	2475.206538
831.808819	2376.904038
832.125642	2497.891731
832.442421	2482.768269
832.759157	2520.576923
833.075849	2502.932885
833.392497	2477.727115
833.709101	2528.138654
834.025662	2439.918462
834.342179	2525.618077
834.658653	2490.330000
834.975083	2568.467885
835.291469	2477.727115
835.607811	2545.782692
835.924110	2472.685962
836.240366	2586.111923
836.556578	2528.138654
836.872746	2563.426731
837.188871	2492.850577
837.504952	2480.247692
837.820990	2392.027500
838.136984	2452.521346
838.452935	2515.535769
838.768842	2515.535769
839.084706	2581.070769
839.400526	2530.659231
839.716303	2570.988462
840.032037	2553.344423
840.347727	2492.850577
840.663373	2429.836154
840.978977	2505.453462
841.294537	2434.877308
841.610054	2490.330000
841.925527	2439.918462
842.240957	2525.618077
842.556344	2502.932885
842.871687	2472.685962
843.186987	2485.288846
843.502244	2535.700385
843.817458	2507.974038
844.132629	2550.823846
844.447756	2470.165385
844.762840	2487.809423
845.077881	2447.480192
845.392879	2533.179808
845.707833	2490.330000
846.022745	2515.535769
846.337613	2452.521346
846.652438	2442.439038
846.967221	2505.453462
847.281960	2545.782692
847.596656	2518.056346
847.911309	2520.576923
848.225919	2500.412308
848.540485	2538.220962
848.855009	2513.015192
849.169490	2538.220962
849.483928	2455.041923
849.798323	2434.877308
850.112675	2487.809423
850.426984	2510.494615
850.741251	2452.521346
851.055474	2462.603654
851.369654	2513.015192
851.683792	2588.632500
851.997887	2500.412308
852.311938	2495.371154
852.625947	2520.576923
852.939914	2475.206538
853.253837	2568.467885
853.567718	2485.288846
853.881555	2497.891731
854.195350	2510.494615
854.509103	2462.603654
854.822812	2573.509038
855.136479	2422.274423
855.450103	2497.891731
855.763685	2465.124231
856.077224	2570.988462
856.390720	2495.371154
856.704173	2439.918462
857.017584	2507.974038
857.330953	2452.521346
857.644278	2560.906154
857.957561	2533.179808
858.270802	2444.959615
858.584000	2462.603654
858.897155	2565.947308
859.210268	2500.412308
859.523339	2480.247692
859.836367	2472.685962
860.149352	2475.206538
860.462295	2442.439038
860.775195	2485.288846
861.088054	2460.083077
861.400869	2510.494615
861.713642	2432.356731
862.026373	2576.029615
862.339062	2583.591346
862.651708	2450.000769
862.964312	2545.782692
863.276873	2475.206538
863.589392	2533.179808
863.901869	2540.741538
864.214303	2480.247692
864.526696	2548.303269
864.839045	2432.356731
865.151353	2500.412308
865.463619	2485.288846
865.775842	2510.494615
866.088023	2371.862885
866.400162	2434.877308
866.712258	2470.165385
867.024313	2563.426731
867.336325	2515.535769
867.648296	2520.576923
867.960224	2432.356731
868.272110	2485.288846
868.583954	2510.494615
868.895755	2452.521346
869.207515	2545.782692
869.519233	2465.124231
869.830909	2497.891731
870.142542	2460.083077
870.454134	2465.124231
870.765684	2502.932885
871.077191	2593.673654
871.388657	2513.015192
871.700081	2525.618077
872.011463	2457.562500
872.322803	2495.371154
872.634101	2505.453462
872.945357	2485.288846
873.256571	2417.233269
873.567744	2518.056346
873.878874	2507.974038
874.189963	2487.809423
874.501010	2437.397885
874.812015	2588.632500
875.122979	2507.974038
875.433900	2558.385577
875.744780	2477.727115
876.055618	2518.056346
876.366415	2502.932885
876.677169	2513.015192
876.987882	2422.274423
877.298554	2437.397885
877.609183	2502.932885
877.919771	2465.124231
878.230317	2520.576923
878.540822	2470.165385
878.851285	2492.850577
879.161707	2450.000769
879.472087	2608.797115
879.782425	2485.288846
880.092722	2545.782692
880.402977	2586.111923
880.713191	2495.371154
881.023363	2558.385577
881.333494	2487.809423
881.643583	2538.220962
881.953631	2497.891731
882.263637	2548.303269
882.573602	2417.233269
882.883526	2538.220962
883.193408	2472.685962
883.503248	2452.521346
883.813048	2543.262115
884.122806	2482.768269
884.432522	2477.727115
884.742197	2439.918462
885.051831	2409.671538
885.361424	2475.206538
885.670975	2540.741538
885.980485	2568.467885
886.289954	2450.000769
886.599382	2601.235385
886.908768	2492.850577
887.218113	2505.453462
887.527417	2528.138654
887.836680	2424.795000
888.145901	2555.865000
888.455082	2434.877308
888.764221	2518.056346
889.073319	2518.056346
889.382376	2518.056346
889.691392	2447.480192
890.000366	2563.426731
890.309300	2452.521346
890.618193	2422.274423
890.927044	2487.809423
891.235855	2432.356731
891.544625	2485.288846
891.853353	2515.535769
892.162041	2525.618077
892.470687	2437.397885
892.779293	2510.494615
893.087858	2452.521346
893.396381	2507.974038
893.704864	2402.109808
894.013306	2472.685962
894.321707	2439.918462
894.630068	2500.412308
894.938387	2518.056346
895.246665	2475.206538
895.554903	2495.371154
895.863100	2485.288846
896.171256	2444.959615
896.479371	2457.562500
896.787446	2513.015192
897.095480	2523.097500
897.403473	2573.509038
897.711425	2563.426731
898.019336	2477.727115
898.327207	2470.165385
898.635038	2465.124231
898.942827	2510.494615
899.250576	2475.206538
899.558284	2422.274423
899.865952	2490.330000
900.173579	2467.644808
900.481165	2555.865000
900.788711	2497.891731
901.096216	2490.330000
901.403681	2535.700385
901.711105	2422.274423
902.018489	2492.850577
902.325832	2492.850577
902.633135	2555.865000
902.940397	2507.974038
903.247619	2485.288846
903.554800	2490.330000
903.861941	2540.741538
904.169041	2462.603654
904.476101	2467.644808
904.783121	2502.932885
905.090100	2515.535769
905.397039	2439.918462
905.703938	2510.494615
906.010796	2553.344423
906.317614	2460.083077
906.624391	2507.974038
906.931129	2535.700385
907.237826	2490.330000
907.544483	2480.247692
907.851099	2399.589231
908.157675	2518.056346
908.464211	2392.027500
908.770707	2485.288846
909.077163	2439.918462
909.383578	2490.330000
909.689954	2462.603654
909.996289	2460.083077
910.302584	2462.603654
910.608839	2399.589231
910.915054	2480.247692
911.221229	2581.070769
911.527363	2495.371154
911.833458	2490.330000
912.139513	2530.659231
912.445527	2414.712692
912.751502	2480.247692
913.057436	2437.397885
913.363331	2520.576923
913.669186	2470.165385
913.975000	2487.809423
914.280775	2480.247692
914.586510	2462.603654
914.892205	2540.741538
915.197859	2505.453462
915.503475	2533.179808
915.809050	2490.330000
916.114585	2555.865000
916.420081	2460.083077
916.725536	2588.632500
917.030952	2444.959615
917.336328	2545.782692
917.641665	2447.480192
917.946961	2434.877308
918.252218	2513.015192
918.557435	2548.303269
918.862612	2427.315577
919.167750	2457.562500
919.472848	2568.467885
919.777906	2439.918462
920.082925	2513.015192
920.387904	2467.644808
920.692843	2477.727115
920.997743	2417.233269
921.302603	2565.947308
921.607423	2520.576923
921.912204	2482.768269
922.216946	2507.974038
922.521647	2507.974038
922.826310	2467.644808
923.130932	2455.041923
923.435516	2450.000769
923.740059	2548.303269
924.044564	2533.179808
924.349028	2487.809423
924.653454	2487.809423
924.957840	2500.412308
925.262186	2507.974038
925.566493	2475.206538
925.870761	2533.179808
926.174989	2507.974038
926.479178	2490.330000
926.783328	2432.356731
927.087438	2548.303269
927.391509	2480.247692
927.695541	2472.685962
927.999533	2495.371154
928.303486	2510.494615
928.607400	2472.685962
928.911275	2545.782692
929.215110	2530.659231
929.518906	2442.439038
929.822663	2495.371154
930.126381	2460.083077
930.430060	2518.056346
930.733699	2460.083077
931.037299	2480.247692
931.340861	2518.056346
931.644383	2434.877308
931.947866	2518.056346
932.251309	2515.535769
932.554714	2535.700385
932.858080	2528.138654
933.161407	2442.439038
933.464694	2497.891731
933.767943	2477.727115
934.071153	2507.974038
934.374323	2477.727115
934.677455	2414.712692
934.980548	2447.480192
935.283602	2437.397885
935.586617	2538.220962
935.889593	2518.056346
936.192530	2588.632500
936.495428	2538.220962
936.798287	2447.480192
937.101108	2573.509038
937.403890	2432.356731
937.706632	2407.150962
938.009336	2568.467885
938.312002	2502.932885
938.614628	2480.247692
938.917216	2535.700385
939.219765	2518.056346
939.522275	2497.891731
939.824747	2530.659231
940.127179	2545.782692
940.429573	2507.974038
940.731929	2543.262115
941.034246	2538.220962
941.336524	2545.782692
941.638763	2568.467885
941.940964	2397.068654
942.243126	2485.288846
942.545250	2437.397885
942.847335	2487.809423
943.149381	2477.727115
943.451389	2427.315577
943.753359	2523.097500
944.055290	2482.768269
944.357182	2467.644808
944.659036	2442.439038
944.960851	2518.056346
945.262628	2389.506923
945.564367	2455.041923
945.866067	2533.179808
946.167729	2389.506923
946.469352	2513.015192
946.770937	2525.618077
947.072484	2497.891731
947.373992	2485.288846
947.675462	2455.041923
947.976893	2515.535769
948.278286	2442.439038
948.579641	2507.974038
948.880958	2558.385577
949.182236	2548.303269
949.483476	2528.138654
949.784678	2465.124231
950.085841	2477.727115
950.386967	2523.097500
950.688054	2472.685962
950.989103	2467.644808
951.290114	2457.562500
951.591087	2523.097500
951.892021	2490.330000
952.192917	2510.494615
952.493776	2412.192115
952.794596	2457.562500
953.095378	2480.247692
953.396122	2540.741538
953.696828	2450.000769
953.997496	2470.165385
954.298126	2477.727115
954.598718	2545.782692
954.899272	2510.494615
955.199788	2535.700385
955.500266	2475.206538
955.800706	2513.015192
956.101108	2447.480192
956.401472	2545.782692
956.701798	2467.644808
957.002087	2502.932885
957.302337	2429.836154
957.602550	2538.220962
957.902724	2432.356731
958.202861	2558.385577
958.502960	2510.494615
958.803022	2540.741538
959.103045	2497.891731
959.403031	2450.000769
959.702979	2477.727115
960.002889	2515.535769
960.302762	2439.918462
960.602596	2497.891731
960.902393	2480.247692
961.202153	2462.603654
961.501875	2487.809423
961.801559	2505.453462
962.101205	2507.974038
962.400814	2465.124231
962.700385	2596.194231
962.999918	2487.809423
963.299414	2462.603654
963.598873	2482.768269
963.898293	2482.768269
964.197677	2437.397885
964.497022	2457.562500
964.796331	2520.576923
965.095601	2480.247692
965.394835	2434.877308
965.694030	2497.891731
965.993189	2497.891731
966.292309	2490.330000
966.591393	2495.371154
966.890439	2457.562500
967.189447	2417.233269
967.488419	2452.521346
967.787353	2515.535769
968.086249	2507.974038
968.385108	2492.850577
968.683930	2513.015192
968.982714	2465.124231
969.281462	2568.467885
969.580172	2538.220962
969.878844	2470.165385
970.177480	2470.165385
970.476078	2553.344423
970.774639	2502.932885
971.073162	2603.755962
971.371649	2455.041923
971.670098	2480.247692
971.968510	2444.959615
972.266885	2460.083077
972.565223	2450.000769
972.863524	2422.274423
973.161788	2455.041923
973.460014	2487.809423
973.758204	2480.247692
974.056356	2480.247692
974.354471	2505.453462
974.652550	2447.480192
974.950591	2507.974038
975.248595	2419.753846
975.546563	2576.029615
975.844493	2492.850577
976.142386	2452.521346
976.440243	2492.850577
976.738062	2500.412308
977.035845	2492.850577
977.333590	2495.371154
977.631299	2444.959615
977.928971	2530.659231
978.226606	2394.548077
978.524204	2429.836154
978.821765	2432.356731
979.119290	2507.974038
979.416777	2520.576923
979.714228	2492.850577
980.011642	2510.494615
980.309020	2444.959615
980.606360	2502.932885
980.903664	2475.206538
981.200931	2490.330000
981.498162	2570.988462
981.795356	2422.274423
982.092513	2465.124231
982.389633	2472.685962
982.686717	2515.535769
982.983764	2490.330000
983.280775	2545.782692
983.577749	2427.315577
983.874686	2429.836154
984.171587	2553.344423
984.468451	2495.371154
984.765279	2538.220962
985.062070	2603.755962
985.358824	2475.206538
985.655543	2465.124231
985.952224	2477.727115
986.248869	2507.974038
986.545478	2429.836154
986.842050	2533.179808
987.138586	2407.150962
987.435086	2523.097500
987.731549	2412.192115
988.027975	2535.700385
988.324366	2530.659231
988.620719	2442.439038
988.917037	2485.288846
989.213318	2439.918462
989.509563	2482.768269
989.805772	2470.165385
990.101944	2515.535769
990.398080	2497.891731
990.694180	2460.083077
990.990244	2495.371154
991.286271	2399.589231
991.582262	2538.220962
991.878217	2427.315577
992.174136	2545.782692
992.470019	2533.179808
992.765865	2495.371154
993.061676	2553.344423
993.357450	2482.768269
993.653188	2487.809423
993.948890	2545.782692
994.244556	2407.150962
994.540186	2515.535769
994.835780	2495.371154
995.131337	2447.480192
995.426859	2467.644808
995.722345	2518.056346
996.017795	2447.480192
996.313208	2523.097500
996.608586	2442.439038
996.903928	2462.603654
997.199234	2397.068654
997.494504	2507.974038
997.789738	2540.741538
998.084936	2399.589231
998.380099	2545.782692
998.675225	2502.932885
998.970316	2482.768269
999.265371	2455.041923
999.560390	2520.576923
999.855373	2447.480192
1000.150320	2434.877308
1000.445232	2460.083077
1000.740108	2502.932885
1001.034948	2465.124231
1001.329752	2548.303269
1001.624521	2507.974038
1001.919254	2525.618077
1002.213951	2485.288846
1002.508613	2467.644808
1002.803239	2523.097500
1003.097829	2472.685962
1003.392384	2482.768269
1003.686903	2472.685962
1003.981386	2442.439038
1004.275834	2505.453462
1004.570246	2409.671538
1004.864623	2555.865000
1005.158964	2485.288846
1005.453270	2525.618077
1005.747540	2548.303269
1006.041775	2424.795000
1006.335974	2553.344423
1006.630138	2407.150962
1006.924266	2558.385577
1007.218359	2452.521346
1007.512416	2407.150962
1007.806438	2450.000769
1008.100425	2593.673654
1008.394376	2457.562500
1008.688292	2414.712692
1008.982172	2497.891731
1009.276017	2470.165385
1009.569827	2480.247692
1009.863602	2482.768269
1010.157341	2427.315577
1010.451045	2518.056346
1010.744714	2399.589231
1011.038347	2444.959615
1011.331945	2389.506923
1011.625508	2497.891731
1011.919036	2412.192115
1012.212528	2535.700385
1012.505986	2457.562500
1012.799408	2460.083077
1013.092795	2417.233269
1013.386147	2505.453462
1013.679464	2397.068654
1013.972745	2528.138654
1014.265992	2520.576923
1014.559204	2548.303269
1014.852380	2447.480192
1015.145521	2402.109808
1015.438628	2442.439038
1015.731699	2439.918462
1016.024736	2492.850577
1016.317737	2442.439038
1016.610703	2419.753846
1016.903635	2500.412308
1017.196531	2455.041923
1017.489393	2495.371154
1017.782219	2500.412308
1018.075011	2470.165385
1018.367768	2540.741538
1018.660490	2533.179808
1018.953177	2533.179808
1019.245829	2533.179808
