Dividing Wavelength (nm)	Counts (n)	Blue Motor Position (mm): 7.200000	Red Motor Position (mm): 0.000000	
326.493990	2124.846346
326.888308	2124.846346
327.282561	2124.846346
327.676750	2044.187885
328.070874	2046.708462
328.464933	2049.229038
328.858929	2114.764038
329.252859	2114.764038
329.646726	2029.064423
330.040528	2122.325769
330.434265	2051.749615
330.827938	2109.722885
331.221547	2160.134423
331.615091	2157.613846
332.008571	2119.805192
332.401986	2134.928654
332.795338	2187.860769
333.188625	2177.778462
333.581847	2313.889615
333.975006	2273.560385
334.368100	2306.327885
334.761129	2182.819615
335.154095	2374.383462
335.546996	2326.492500
335.939833	2321.451346
336.332606	2366.821731
336.725315	2361.780577
337.117960	2381.945192
337.510540	2427.315577
337.903056	2399.589231
338.295508	2397.068654
338.687896	2394.548077
339.080220	2444.959615
339.472480	2427.315577
339.864676	2439.918462
340.256807	2472.685962
340.648875	2477.727115
341.040879	2482.768269
341.432818	2507.974038
341.824694	2465.124231
342.216506	2485.288846
342.608253	2402.109808
342.999937	2429.836154
343.391557	2568.467885
343.783113	2518.056346
344.174605	2447.480192
344.566033	2429.836154
344.957397	2545.782692
345.348697	2492.850577
345.739934	2497.891731
346.131106	2437.397885
346.522215	2434.877308
346.913260	2452.521346
347.304241	2455.041923
347.695159	2513.015192
348.086012	2417.233269
348.476802	2543.262115
348.867528	2500.412308
349.258191	2447.480192
349.648789	2535.700385
350.039324	2392.027500
350.429796	2495.371154
350.820203	2520.576923
351.210548	2392.027500
351.600828	2422.274423
351.991045	2465.124231
352.381198	2452.521346
352.771288	2480.247692
353.161314	2399.589231
353.551276	2394.548077
353.941175	2472.685962
354.331010	2429.836154
354.720782	2404.630385
355.110490	2409.671538
355.500135	2462.603654
355.889717	2455.041923
356.279235	2470.165385
356.668689	2442.439038
357.058080	2439.918462
357.447408	2444.959615
357.836672	2417.233269
358.225873	2429.836154
358.615010	2455.041923
359.004084	2434.877308
359.393095	2462.603654
359.782043	2447.480192
360.170927	2480.247692
360.559748	2452.521346
360.948505	2487.809423
361.337199	2515.535769
361.725830	2442.439038
362.114398	2439.918462
362.502903	2434.877308
362.891344	2376.904038
363.279722	2497.891731
363.668037	2465.124231
364.056289	2475.206538
364.444478	2366.821731
364.832603	2407.150962
365.220665	2407.150962
365.608665	2432.356731
365.996601	2593.673654
366.384474	2452.521346
366.772284	2447.480192
367.160031	2467.644808
367.547715	2455.041923
367.935336	2475.206538
368.322893	2465.124231
368.710388	2381.945192
369.097820	2457.562500
369.485189	2407.150962
369.872495	2331.533654
370.259738	2477.727115
370.646918	2480.247692
371.034035	2518.056346
371.421090	2452.521346
371.808081	2450.000769
372.195010	2528.138654
372.581875	2404.630385
372.968678	2397.068654
373.355418	2404.630385
373.742096	2404.630385
374.128710	2482.768269
374.515262	2392.027500
374.901751	2412.192115
375.288177	2482.768269
375.674540	2462.603654
376.060841	2510.494615
376.447079	2475.206538
376.833254	2424.795000
377.219367	2510.494615
377.605417	2434.877308
377.991404	2475.206538
378.377329	2477.727115
378.763191	2366.821731
379.148991	2530.659231
379.534727	2462.603654
379.920402	2371.862885
380.306013	2518.056346
380.691563	2467.644808
381.077049	2460.083077
381.462474	2450.000769
381.847835	2485.288846
382.233134	2437.397885
382.618371	2543.262115
383.003545	2480.247692
383.388657	2429.836154
383.773706	2457.562500
384.158693	2548.303269
384.543618	2505.453462
384.928480	2429.836154
385.313280	2500.412308
385.698017	2487.809423
386.082692	2427.315577
386.467305	2467.644808
386.851856	2530.659231
387.236344	2444.959615
387.620770	2513.015192
388.005133	2452.521346
388.389435	2472.685962
388.773674	2500.412308
389.157851	2412.192115
389.541965	2404.630385
389.926018	2500.412308
390.310008	2424.795000
390.693936	2470.165385
391.077802	2434.877308
391.461606	2432.356731
391.845348	2409.671538
392.229027	2502.932885
392.612645	2520.576923
392.996200	2482.768269
393.379694	2480.247692
393.763125	2419.753846
394.146494	2475.206538
394.529801	2550.823846
394.913047	2419.753846
395.296230	2500.412308
395.679351	2465.124231
396.062410	2502.932885
396.445408	2424.795000
396.828343	2429.836154
397.211217	2525.618077
397.594028	2407.150962
397.976778	2470.165385
398.359466	2477.727115
398.742092	2460.083077
399.124656	2402.109808
399.507158	2492.850577
399.889598	2470.165385
400.271977	2457.562500
400.654294	2419.753846
401.036549	2444.959615
401.418742	2455.041923
401.800874	2475.206538
402.182944	2366.821731
402.564952	2490.330000
402.946898	2427.315577
403.328783	2487.809423
403.710606	2462.603654
404.092367	2513.015192
404.474067	2394.548077
404.855705	2402.109808
405.237282	2492.850577
405.618797	2520.576923
406.000250	2434.877308
406.381642	2518.056346
406.762972	2505.453462
407.144240	2439.918462
407.525447	2545.782692
407.906593	2442.439038
408.287677	2497.891731
408.668700	2472.685962
409.049661	2444.959615
409.430560	2523.097500
409.811399	2465.124231
410.192176	2482.768269
410.572891	2505.453462
410.953545	2513.015192
411.334138	2465.124231
411.714669	2467.644808
412.095139	2465.124231
412.475547	2533.179808
412.855894	2555.865000
413.236180	2437.397885
413.616405	2457.562500
413.996568	2462.603654
414.376670	2450.000769
414.756711	2492.850577
415.136691	2573.509038
415.516609	2462.603654
415.896466	2495.371154
416.276262	2450.000769
416.655997	2389.506923
417.035670	2570.988462
417.415283	2490.330000
417.794834	2492.850577
418.174324	2419.753846
418.553753	2490.330000
418.933121	2460.083077
419.312428	2480.247692
419.691674	2460.083077
420.070859	2555.865000
420.449983	2470.165385
420.829045	2510.494615
421.208047	2394.548077
421.586988	2525.618077
421.965867	2513.015192
422.344686	2450.000769
422.723444	2490.330000
423.102141	2392.027500
423.480777	2467.644808
423.859352	2424.795000
424.237866	2490.330000
424.616319	2434.877308
424.994712	2505.453462
425.373044	2371.862885
425.751314	2467.644808
426.129524	2535.700385
426.507673	2477.727115
426.885762	2467.644808
427.263789	2424.795000
427.641756	2487.809423
428.019662	2447.480192
428.397508	2442.439038
428.775292	2507.974038
429.153016	2417.233269
429.530679	2528.138654
429.908282	2472.685962
430.285824	2455.041923
430.663305	2553.344423
431.040726	2442.439038
431.418086	2427.315577
431.795385	2520.576923
432.172624	2523.097500
432.549802	2515.535769
432.926920	2495.371154
433.303977	2528.138654
433.680974	2535.700385
434.057910	2414.712692
434.434786	2457.562500
434.811601	2513.015192
435.188355	2518.056346
435.565050	2417.233269
435.941683	2487.809423
436.318257	2487.809423
436.694770	2480.247692
437.071222	2497.891731
437.447614	2477.727115
437.823946	2442.439038
438.200218	2371.862885
438.576429	2475.206538
438.952580	2482.768269
439.328670	2538.220962
439.704700	2455.041923
440.080670	2565.947308
440.456580	2507.974038
440.832429	2495.371154
441.208218	2462.603654
441.583947	2513.015192
441.959616	2588.632500
442.335224	2437.397885
442.710773	2538.220962
443.086261	2419.753846
443.461689	2495.371154
443.837057	2417.233269
444.212365	2513.015192
444.587612	2477.727115
444.962800	2470.165385
445.337927	2437.397885
445.712995	2457.562500
446.088002	2495.371154
446.462949	2472.685962
446.837837	2414.712692
447.212664	2578.550192
447.587431	2442.439038
447.962139	2467.644808
448.336786	2490.330000
448.711374	2427.315577
449.085901	2538.220962
449.460369	2500.412308
449.834776	2553.344423
450.209124	2485.288846
450.583412	2573.509038
450.957640	2513.015192
451.331808	2470.165385
451.705917	2555.865000
452.079965	2457.562500
452.453954	2525.618077
452.827883	2455.041923
453.201752	2480.247692
453.575562	2523.097500
453.949311	2538.220962
454.323001	2472.685962
454.696632	2513.015192
455.070202	2505.453462
455.443713	2515.535769
455.817164	2507.974038
456.190556	2495.371154
456.563888	2429.836154
456.937160	2412.192115
457.310373	2538.220962
457.683526	2427.315577
458.056619	2513.015192
458.429653	2515.535769
458.802628	2555.865000
459.175542	2528.138654
459.548398	2603.755962
459.921194	2490.330000
460.293930	2533.179808
460.666607	2472.685962
461.039224	2528.138654
461.411782	2490.330000
461.784280	2500.412308
462.156719	2404.630385
462.529099	2475.206538
462.901419	2487.809423
463.273680	2475.206538
463.645882	2520.576923
464.018024	2432.356731
464.390106	2507.974038
464.762130	2533.179808
465.134094	2412.192115
465.505999	2495.371154
465.877845	2540.741538
466.249631	2548.303269
466.621358	2475.206538
466.993026	2505.453462
467.364634	2442.439038
467.736184	2490.330000
468.107674	2513.015192
468.479105	2513.015192
468.850477	2528.138654
469.221790	2490.330000
469.593043	2586.111923
469.964238	2455.041923
470.335373	2555.865000
470.706449	2432.356731
471.077467	2450.000769
471.448425	2518.056346
471.819324	2432.356731
472.190164	2442.439038
472.560945	2515.535769
472.931667	2495.371154
473.302330	2457.562500
473.672934	2525.618077
474.043479	2485.288846
474.413965	2502.932885
474.784393	2578.550192
475.154761	2492.850577
475.525070	2533.179808
475.895321	2523.097500
476.265513	2500.412308
476.635645	2528.138654
477.005719	2540.741538
477.375734	2495.371154
477.745691	2470.165385
478.115588	2444.959615
478.485427	2543.262115
478.855207	2570.988462
479.224928	2472.685962
479.594591	2455.041923
479.964194	2568.467885
480.333739	2455.041923
480.703226	2495.371154
481.072653	2480.247692
481.442022	2523.097500
481.811333	2397.068654
482.180584	2407.150962
482.549777	2462.603654
482.918912	2434.877308
483.287988	2510.494615
483.657005	2518.056346
484.025964	2543.262115
484.394864	2465.124231
484.763706	2472.685962
485.132489	2465.124231
485.501213	2563.426731
485.869879	2500.412308
486.238487	2482.768269
486.607036	2540.741538
486.975527	2477.727115
487.343959	2480.247692
487.712333	2520.576923
488.080648	2470.165385
488.448905	2520.576923
488.817104	2608.797115
489.185244	2450.000769
489.553326	2450.000769
489.921350	2394.548077
490.289315	2540.741538
490.657222	2457.562500
491.025070	2495.371154
491.392861	2490.330000
491.760593	2533.179808
492.128267	2460.083077
492.495883	2583.591346
492.863440	2462.603654
493.230939	2450.000769
493.598380	2490.330000
493.965763	2394.548077
494.333088	2530.659231
494.700354	2555.865000
495.067563	2429.836154
495.434713	2505.453462
495.801805	2477.727115
496.168839	2520.576923
496.535815	2588.632500
496.902733	2540.741538
497.269593	2518.056346
497.636395	2437.397885
498.003139	2414.712692
498.369825	2497.891731
498.736453	2460.083077
499.103023	2568.467885
499.469535	2518.056346
499.835989	2583.591346
500.202385	2502.932885
500.568723	2525.618077
500.935003	2467.644808
501.301226	2437.397885
501.667390	2505.453462
502.033497	2591.153077
502.399546	2548.303269
502.765537	2523.097500
503.131470	2533.179808
503.497345	2553.344423
503.863163	2384.465769
504.228923	2477.727115
504.594625	2576.029615
504.960269	2460.083077
505.325856	2530.659231
505.691385	2477.727115
506.056856	2513.015192
506.422270	2578.550192
506.787625	2480.247692
507.152924	2485.288846
507.518164	2518.056346
507.883347	2515.535769
508.248472	2482.768269
508.613540	2525.618077
508.978550	2492.850577
509.343503	2523.097500
509.708398	2558.385577
510.073236	2520.576923
510.438016	2558.385577
510.802738	2480.247692
511.167403	2515.535769
511.532010	2452.521346
511.896561	2530.659231
512.261053	2533.179808
512.625488	2480.247692
512.989866	2502.932885
513.354186	2470.165385
513.718449	2495.371154
514.082655	2434.877308
514.446803	2480.247692
514.810894	2450.000769
515.174927	2540.741538
515.538904	2447.480192
515.902822	2502.932885
516.266684	2490.330000
516.630488	2535.700385
516.994235	2439.918462
517.357925	2477.727115
517.721558	2535.700385
518.085133	2525.618077
518.448651	2513.015192
518.812112	2500.412308
519.175516	2523.097500
519.538863	2523.097500
519.902152	2538.220962
520.265385	2480.247692
520.628560	2525.618077
520.991678	2515.535769
521.354739	2434.877308
521.717743	2462.603654
522.080690	2490.330000
522.443580	2528.138654
522.806413	2553.344423
523.169189	2472.685962
523.531908	2480.247692
523.894569	2465.124231
524.257174	2507.974038
524.619722	2565.947308
524.982213	2485.288846
525.344647	2560.906154
525.707025	2558.385577
526.069345	2533.179808
526.431608	2472.685962
526.793815	2523.097500
527.155964	2500.412308
527.518057	2518.056346
527.880093	2460.083077
528.242072	2384.465769
528.603995	2470.165385
528.965860	2455.041923
529.327669	2452.521346
529.689421	2490.330000
530.051117	2482.768269
530.412755	2596.194231
530.774337	2497.891731
531.135862	2455.041923
531.497331	2500.412308
531.858743	2450.000769
532.220098	2412.192115
532.581396	2573.509038
532.942638	2558.385577
533.303824	2470.165385
533.664953	2424.795000
534.026025	2510.494615
534.387040	2495.371154
534.747999	2472.685962
535.108902	2424.795000
535.469748	2543.262115
535.830537	2455.041923
536.191270	2533.179808
536.551947	2480.247692
536.912567	2563.426731
537.273131	2510.494615
537.633638	2477.727115
537.994089	2500.412308
538.354483	2470.165385
538.714821	2560.906154
539.075103	2540.741538
539.435328	2492.850577
539.795497	2540.741538
540.155609	2570.988462
540.515665	2465.124231
540.875665	2510.494615
541.235609	2455.041923
541.595496	2500.412308
541.955328	2460.083077
542.315102	2523.097500
542.674821	2520.576923
543.034483	2472.685962
543.394090	2510.494615
543.753640	2470.165385
544.113134	2490.330000
544.472571	2535.700385
544.831953	2520.576923
545.191278	2545.782692
545.550548	2581.070769
545.909761	2424.795000
546.268918	2518.056346
546.628019	2470.165385
546.987064	2538.220962
547.346053	2404.630385
547.704986	2477.727115
548.063863	2467.644808
548.422684	2530.659231
548.781449	2487.809423
549.140158	2472.685962
549.498811	2432.356731
549.857408	2528.138654
550.215949	2409.671538
550.574434	2467.644808
550.932864	2485.288846
551.291237	2545.782692
551.649555	2477.727115
552.007817	2424.795000
552.366022	2603.755962
552.724173	2467.644808
553.082267	2462.603654
553.440305	2492.850577
553.798288	2442.439038
554.156215	2505.453462
554.514086	2447.480192
554.871902	2505.453462
555.229661	2555.865000
555.587365	2490.330000
555.945014	2659.208654
556.302606	2492.850577
556.660143	2538.220962
557.017625	2462.603654
557.375050	2545.782692
557.732421	2477.727115
558.089735	2515.535769
558.446994	2543.262115
558.804197	2555.865000
559.161345	2502.932885
559.518437	2497.891731
559.875474	2457.562500
560.232455	2389.506923
560.589381	2518.056346
560.946251	2470.165385
561.303065	2477.727115
561.659825	2462.603654
562.016528	2530.659231
562.373177	2523.097500
562.729770	2460.083077
563.086307	2497.891731
563.442789	2510.494615
563.799216	2545.782692
564.155587	2450.000769
564.511904	2550.823846
564.868164	2462.603654
565.224370	2450.000769
565.580520	2528.138654
565.936615	2560.906154
566.292654	2450.000769
566.648638	2495.371154
567.004567	2540.741538
567.360441	2492.850577
567.716260	2565.947308
568.072023	2515.535769
568.427732	2477.727115
568.783385	2530.659231
569.138982	2500.412308
569.494525	2502.932885
569.850013	2477.727115
570.205445	2543.262115
570.560823	2535.700385
570.916145	2439.918462
571.271412	2444.959615
571.626625	2563.426731
571.981782	2429.836154
572.336884	2528.138654
572.691931	2550.823846
573.046923	2457.562500
573.401860	2560.906154
573.756743	2404.630385
574.111570	2467.644808
574.466342	2535.700385
574.821059	2467.644808
575.175722	2515.535769
575.530330	2477.727115
575.884882	2492.850577
576.239380	2492.850577
576.593823	2563.426731
576.948211	2482.768269
577.302544	2422.274423
577.656823	2429.836154
578.011047	2515.535769
578.365216	2490.330000
578.719330	2450.000769
579.073389	2480.247692
579.427394	2500.412308
579.781344	2588.632500
580.135239	2555.865000
580.489080	2555.865000
580.842866	2439.918462
581.196597	2560.906154
581.550273	2412.192115
581.903895	2507.974038
582.257463	2502.932885
582.610975	2565.947308
582.964434	2465.124231
583.317837	2535.700385
583.671186	2462.603654
584.024481	2550.823846
584.377721	2482.768269
584.730906	2558.385577
585.084037	2538.220962
585.437113	2465.124231
585.790135	2530.659231
586.143103	2525.618077
586.496016	2528.138654
586.848874	2523.097500
587.201679	2497.891731
587.554428	2480.247692
587.907124	2523.097500
588.259765	2502.932885
588.612352	2500.412308
588.964884	2492.850577
589.317362	2490.330000
589.669786	2591.153077
590.022155	2565.947308
590.374470	2540.741538
590.726731	2505.453462
591.078937	2439.918462
591.431090	2520.576923
591.783188	2492.850577
592.135232	2530.659231
592.487222	2452.521346
592.839157	2490.330000
593.191038	2480.247692
593.542866	2470.165385
593.894639	2455.041923
594.246358	2485.288846
594.598022	2485.288846
594.949633	2545.782692
595.301190	2429.836154
595.652692	2437.397885
596.004141	2482.768269
596.355535	2507.974038
596.706876	2518.056346
597.058162	2424.795000
597.409395	2467.644808
597.760573	2560.906154
598.111698	2386.986346
598.462768	2543.262115
598.813785	2513.015192
599.164748	2538.220962
599.515657	2530.659231
599.866511	2528.138654
600.217312	2455.041923
600.568060	2535.700385
600.918753	2487.809423
601.269392	2495.371154
601.619978	2452.521346
601.970510	2472.685962
602.320988	2513.015192
602.671412	2457.562500
603.021783	2502.932885
603.372100	2555.865000
603.722363	2520.576923
604.072572	2510.494615
604.422728	2528.138654
604.772830	2450.000769
605.122878	2558.385577
605.472872	2439.918462
605.822813	2434.877308
606.172701	2533.179808
606.522534	2485.288846
606.872314	2518.056346
607.222041	2565.947308
607.571714	2533.179808
607.921333	2475.206538
608.270899	2533.179808
608.620411	2447.480192
608.969870	2487.809423
609.319276	2480.247692
609.668627	2533.179808
610.017926	2520.576923
610.367171	2513.015192
610.716362	2477.727115
611.065500	2540.741538
611.414585	2560.906154
611.763616	2434.877308
612.112594	2505.453462
612.461518	2437.397885
612.810389	2439.918462
613.159207	2500.412308
613.507971	2462.603654
613.856682	2543.262115
614.205340	2472.685962
614.553945	2455.041923
614.902496	2490.330000
615.250994	2550.823846
615.599439	2485.288846
615.947830	2540.741538
616.296169	2492.850577
616.644454	2545.782692
616.992686	2485.288846
617.340864	2482.768269
617.688990	2520.576923
618.037063	2565.947308
618.385082	2513.015192
618.733048	2407.150962
619.080961	2545.782692
619.428821	2475.206538
619.776628	2492.850577
620.124382	2510.494615
620.472083	2502.932885
620.819731	2543.262115
621.167326	2472.685962
621.514868	2535.700385
621.862357	2485.288846
622.209793	2591.153077
622.557176	2596.194231
622.904506	2525.618077
623.251783	2528.138654
623.599007	2407.150962
623.946179	2475.206538
624.293297	2487.809423
624.640363	2482.768269
624.987376	2497.891731
625.334336	2442.439038
625.681243	2477.727115
626.028097	2528.138654
626.374899	2510.494615
626.721647	2447.480192
627.068343	2500.412308
627.414987	2482.768269
627.761577	2482.768269
628.108115	2510.494615
628.454600	2548.303269
628.801032	2545.782692
629.147412	2540.741538
629.493739	2460.083077
629.840014	2485.288846
630.186236	2487.809423
630.532405	2366.821731
630.878521	2540.741538
631.224585	2515.535769
631.570597	2457.562500
631.916556	2447.480192
632.262462	2472.685962
632.608316	2565.947308
632.954117	2472.685962
633.299866	2573.509038
633.645562	2487.809423
633.991206	2495.371154
634.336797	2507.974038
634.682336	2550.823846
635.027823	2475.206538
635.373257	2462.603654
635.718639	2437.397885
636.063968	2553.344423
636.409245	2641.564615
636.754470	2518.056346
637.099642	2520.576923
637.444762	2518.056346
637.789829	2550.823846
638.134845	2530.659231
638.479808	2513.015192
638.824719	2465.124231
639.169577	2437.397885
639.514383	2480.247692
639.859137	2480.247692
640.203839	2515.535769
640.548489	2543.262115
640.893086	2457.562500
641.237632	2515.535769
641.582125	2419.753846
641.926566	2533.179808
642.270955	2460.083077
642.615292	2568.467885
642.959576	2492.850577
643.303809	2500.412308
643.647990	2520.576923
643.992118	2455.041923
644.336195	2467.644808
644.680219	2565.947308
645.024192	2470.165385
645.368112	2550.823846
645.711981	2528.138654
646.055797	2492.850577
646.399562	2543.262115
646.743274	2470.165385
647.086935	2475.206538
647.430544	2533.179808
647.774101	2535.700385
648.117606	2525.618077
648.461059	2520.576923
648.804460	2467.644808
649.147810	2505.453462
649.491108	2482.768269
649.834354	2523.097500
650.177548	2460.083077
650.520690	2437.397885
650.863781	2528.138654
651.206820	2450.000769
651.549807	2500.412308
651.892742	2500.412308
652.235626	2523.097500
652.578458	2492.850577
652.921238	2510.494615
653.263967	2475.206538
653.606644	2485.288846
653.949269	2455.041923
654.291843	2500.412308
654.634365	2439.918462
654.976836	2477.727115
655.319255	2472.685962
655.661622	2507.974038
656.003938	2535.700385
656.346203	2444.959615
656.688416	2538.220962
657.030577	2485.288846
657.372687	2513.015192
657.714746	2482.768269
658.056753	2392.027500
658.398708	2513.015192
658.740612	2518.056346
659.082465	2500.412308
659.424266	2490.330000
659.766016	2535.700385
660.107715	2404.630385
660.449362	2477.727115
660.790958	2460.083077
661.132503	2500.412308
661.473996	2533.179808
661.815438	2533.179808
662.156829	2553.344423
662.498168	2555.865000
662.839456	2535.700385
663.180693	2540.741538
663.521879	2444.959615
663.863013	2480.247692
664.204097	2457.562500
664.545129	2477.727115
664.886110	2560.906154
665.227040	2502.932885
665.567918	2530.659231
665.908746	2467.644808
666.249522	2543.262115
666.590248	2576.029615
666.930922	2485.288846
667.271545	2414.712692
667.612118	2543.262115
667.952639	2470.165385
668.293109	2573.509038
668.633528	2523.097500
668.973896	2513.015192
669.314213	2555.865000
669.654480	2364.301154
669.994695	2409.671538
670.334859	2480.247692
670.674973	2444.959615
671.015035	2518.056346
671.355047	2513.015192
671.695008	2550.823846
672.034918	2465.124231
672.374777	2497.891731
672.714585	2432.356731
673.054342	2490.330000
673.394049	2530.659231
673.733705	2528.138654
674.073310	2513.015192
674.412864	2434.877308
674.752368	2550.823846
675.091820	2500.412308
675.431223	2462.603654
675.770574	2520.576923
676.109875	2497.891731
676.449125	2596.194231
676.788324	2581.070769
677.127473	2500.412308
677.466571	2475.206538
677.805619	2502.932885
678.144616	2447.480192
678.483562	2490.330000
678.822458	2535.700385
679.161303	2472.685962
679.500098	2505.453462
679.838842	2502.932885
680.177535	2515.535769
680.516179	2573.509038
680.854771	2490.330000
681.193314	2472.685962
681.531805	2535.700385
681.870247	2462.603654
682.208638	2409.671538
682.546978	2565.947308
682.885268	2581.070769
683.223508	2457.562500
683.561697	2530.659231
683.899836	2520.576923
684.237925	2588.632500
684.575963	2560.906154
684.913951	2447.480192
685.251889	2515.535769
685.589776	2450.000769
685.927614	2613.838269
686.265401	2460.083077
686.603137	2492.850577
686.940824	2513.015192
687.278460	2520.576923
687.616046	2439.918462
687.953582	2500.412308
688.291068	2465.124231
688.628504	2520.576923
688.965889	2500.412308
689.303224	2455.041923
689.640510	2374.383462
689.977745	2528.138654
690.314930	2485.288846
690.652065	2510.494615
690.989150	2462.603654
691.326185	2528.138654
691.663170	2528.138654
692.000105	2497.891731
692.336990	2550.823846
692.673825	2485.288846
693.010610	2507.974038
693.347345	2422.274423
693.684030	2412.192115
694.020665	2475.206538
694.357251	2538.220962
694.693786	2528.138654
695.030272	2525.618077
695.366707	2475.206538
695.703093	2513.015192
696.039429	2457.562500
696.375716	2588.632500
696.711952	2407.150962
697.048139	2553.344423
697.384276	2550.823846
697.720363	2518.056346
698.056400	2492.850577
698.392388	2442.439038
698.728326	2505.453462
699.064214	2540.741538
699.400053	2523.097500
699.735842	2480.247692
700.071581	2495.371154
700.407270	2538.220962
700.742910	2434.877308
701.078501	2510.494615
701.414042	2545.782692
701.749533	2472.685962
702.084974	2452.521346
702.420366	2507.974038
702.755709	2485.288846
703.091002	2573.509038
703.426246	2455.041923
703.761440	2465.124231
704.096584	2502.932885
704.431679	2543.262115
704.766725	2520.576923
705.101721	2467.644808
705.436668	2507.974038
705.771565	2475.206538
706.106413	2555.865000
706.441212	2515.535769
706.775961	2487.809423
707.110661	2442.439038
707.445311	2502.932885
707.779913	2563.426731
708.114465	2583.591346
708.448967	2472.685962
708.783421	2495.371154
709.117825	2480.247692
709.452180	2384.465769
709.786485	2505.453462
710.120742	2490.330000
710.454949	2507.974038
710.789107	2495.371154
711.123216	2487.809423
711.457275	2467.644808
711.791286	2500.412308
712.125247	2513.015192
712.459159	2523.097500
712.793023	2513.015192
713.126837	2412.192115
713.460602	2555.865000
713.794318	2485.288846
714.127985	2555.865000
714.461602	2470.165385
714.795171	2520.576923
715.128691	2513.015192
715.462162	2477.727115
715.795584	2477.727115
716.128957	2550.823846
716.462281	2444.959615
716.795556	2550.823846
717.128782	2447.480192
717.461960	2538.220962
717.795088	2465.124231
718.128167	2497.891731
718.461198	2490.330000
718.794180	2558.385577
719.127113	2502.932885
719.459997	2533.179808
719.792833	2502.932885
720.125619	2495.371154
720.458357	2477.727115
720.791046	2530.659231
721.123686	2439.918462
721.456278	2500.412308
721.788821	2502.932885
722.121315	2502.932885
722.453761	2510.494615
722.786158	2490.330000
723.118506	2429.836154
723.450805	2525.618077
723.783056	2465.124231
724.115259	2419.753846
724.447412	2490.330000
724.779518	2515.535769
725.111574	2533.179808
725.443582	2497.891731
725.775542	2500.412308
726.107453	2525.618077
726.439315	2523.097500
726.771129	2535.700385
727.102895	2482.768269
727.434612	2560.906154
727.766281	2573.509038
728.097901	2475.206538
728.429473	2523.097500
728.760996	2601.235385
729.092471	2495.371154
729.423897	2525.618077
729.755276	2457.562500
730.086606	2475.206538
730.417887	2475.206538
730.749120	2381.945192
731.080305	2502.932885
731.411442	2507.974038
731.742530	2452.521346
732.073570	2538.220962
732.404562	2495.371154
732.735506	2500.412308
733.066401	2492.850577
733.397249	2450.000769
733.728048	2462.603654
734.058798	2422.274423
734.389501	2520.576923
734.720156	2495.371154
735.050762	2470.165385
735.381320	2601.235385
735.711831	2515.535769
736.042293	2525.618077
736.372707	2437.397885
736.703073	2540.741538
737.033391	2480.247692
737.363661	2457.562500
737.693883	2507.974038
738.024056	2482.768269
738.354182	2480.247692
738.684260	2525.618077
739.014290	2447.480192
739.344272	2502.932885
739.674207	2505.453462
740.004093	2455.041923
740.333931	2492.850577
740.663722	2412.192115
740.993464	2404.630385
741.323159	2497.891731
741.652806	2507.974038
741.982405	2480.247692
742.311956	2545.782692
742.641460	2467.644808
742.970915	2497.891731
743.300323	2392.027500
743.629683	2560.906154
743.958996	2472.685962
744.288260	2432.356731
744.617477	2558.385577
744.946647	2540.741538
745.275768	2434.877308
745.604842	2419.753846
745.933869	2525.618077
746.262847	2502.932885
746.591778	2515.535769
746.920662	2477.727115
747.249498	2455.041923
747.578286	2528.138654
747.907027	2520.576923
748.235720	2518.056346
748.564365	2452.521346
748.892963	2502.932885
749.221514	2492.850577
749.550017	2424.795000
749.878473	2437.397885
750.206881	2419.753846
750.535242	2520.576923
750.863555	2439.918462
751.191821	2442.439038
751.520039	2558.385577
751.848210	2439.918462
752.176334	2525.618077
752.504411	2480.247692
752.832440	2500.412308
753.160421	2543.262115
753.488356	2520.576923
753.816243	2472.685962
754.144082	2545.782692
754.471875	2439.918462
754.799620	2515.535769
755.127318	2450.000769
755.454969	2424.795000
755.782572	2502.932885
756.110129	2444.959615
756.437638	2513.015192
756.765100	2429.836154
757.092515	2553.344423
757.419882	2485.288846
757.747203	2563.426731
758.074477	2510.494615
758.401703	2495.371154
758.728882	2530.659231
759.056014	2528.138654
759.383099	2540.741538
759.710138	2470.165385
760.037129	2608.797115
760.364073	2439.918462
760.690970	2528.138654
761.017820	2495.371154
761.344623	2510.494615
761.671379	2467.644808
761.998088	2450.000769
762.324751	2492.850577
762.651366	2452.521346
762.977935	2419.753846
763.304456	2462.603654
763.630931	2550.823846
763.957359	2545.782692
764.283740	2480.247692
764.610074	2510.494615
764.936362	2495.371154
765.262602	2545.782692
765.588796	2518.056346
765.914943	2525.618077
766.241044	2480.247692
766.567097	2442.439038
766.893104	2477.727115
767.219064	2538.220962
767.544978	2558.385577
767.870845	2510.494615
768.196665	2434.877308
768.522438	2477.727115
768.848165	2437.397885
769.173846	2513.015192
769.499479	2414.712692
769.825066	2513.015192
770.150607	2487.809423
770.476101	2457.562500
770.801548	2586.111923
771.126949	2442.439038
771.452303	2545.782692
771.777611	2447.480192
772.102872	2578.550192
772.428087	2472.685962
772.753256	2500.412308
773.078378	2487.809423
773.403453	2502.932885
773.728482	2492.850577
774.053465	2545.782692
774.378401	2470.165385
774.703291	2492.850577
775.028135	2500.412308
775.352932	2505.453462
775.677683	2518.056346
776.002388	2490.330000
776.327046	2439.918462
776.651658	2535.700385
776.976224	2462.603654
777.300743	2513.015192
777.625216	2525.618077
777.949643	2530.659231
778.274024	2472.685962
778.598359	2535.700385
778.922647	2495.371154
779.246889	2573.509038
779.571086	2550.823846
779.895236	2550.823846
780.219339	2487.809423
780.543397	2487.809423
780.867409	2525.618077
781.191374	2505.453462
781.515294	2515.535769
781.839167	2518.056346
782.162995	2502.932885
782.486776	2492.850577
782.810511	2462.603654
783.134201	2447.480192
783.457844	2462.603654
783.781441	2525.618077
784.104993	2475.206538
784.428498	2475.206538
784.751958	2457.562500
785.075372	2455.041923
785.398739	2518.056346
785.722061	2487.809423
786.045337	2513.015192
786.368568	2507.974038
786.691752	2533.179808
787.014891	2462.603654
787.337983	2482.768269
787.661030	2550.823846
787.984031	2442.439038
788.306987	2535.700385
788.629897	2485.288846
788.952760	2545.782692
789.275579	2399.589231
789.598351	2530.659231
789.921078	2472.685962
790.243759	2452.521346
790.566395	2558.385577
790.888984	2409.671538
791.211529	2565.947308
791.534027	2520.576923
791.856480	2495.371154
792.178888	2507.974038
792.501249	2465.124231
792.823566	2518.056346
793.145836	2490.330000
793.468062	2497.891731
793.790241	2492.850577
794.112375	2538.220962
794.434464	2432.356731
794.756507	2485.288846
795.078505	2417.233269
795.400457	2570.988462
795.722364	2543.262115
796.044226	2500.412308
796.366042	2482.768269
796.687812	2432.356731
797.009538	2460.083077
797.331218	2535.700385
797.652852	2429.836154
797.974442	2505.453462
798.295986	2470.165385
798.617484	2450.000769
798.938938	2502.932885
799.260346	2515.535769
799.581709	2502.932885
799.903026	2535.700385
800.224299	2530.659231
800.545526	2515.535769
800.866708	2371.862885
801.187845	2490.330000
801.508936	2502.932885
801.829983	2550.823846
802.150984	2437.397885
802.471940	2465.124231
802.792851	2470.165385
803.113717	2520.576923
803.434538	2505.453462
803.755314	2467.644808
804.076045	2467.644808
804.396731	2490.330000
804.717372	2576.029615
805.037967	2482.768269
805.358518	2412.192115
805.679024	2447.480192
805.999485	2540.741538
806.319901	2513.015192
806.640272	2535.700385
806.960598	2500.412308
807.280879	2563.426731
807.601115	2450.000769
807.921306	2500.412308
808.241453	2528.138654
808.561554	2490.330000
808.881611	2465.124231
809.201623	2399.589231
809.521590	2500.412308
809.841513	2507.974038
810.161390	2510.494615
810.481223	2427.315577
810.801011	2540.741538
811.120755	2460.083077
811.440453	2502.932885
811.760107	2555.865000
812.079716	2452.521346
812.399281	2565.947308
812.718801	2515.535769
813.038276	2485.288846
813.357707	2477.727115
813.677093	2515.535769
813.996434	2497.891731
814.315731	2467.644808
814.634983	2502.932885
814.954191	2588.632500
815.273354	2452.521346
815.592473	2437.397885
815.911547	2533.179808
816.230577	2510.494615
816.549562	2497.891731
816.868502	2525.618077
817.187399	2457.562500
817.506250	2470.165385
817.825058	2490.330000
818.143821	2437.397885
818.462539	2452.521346
818.781213	2563.426731
819.099843	2515.535769
819.418429	2460.083077
819.736970	2558.385577
820.055466	2450.000769
820.373919	2414.712692
820.692327	2558.385577
821.010691	2465.124231
821.329011	2548.303269
821.647286	2500.412308
821.965517	2518.056346
822.283704	2422.274423
822.601847	2482.768269
822.919945	2492.850577
823.237999	2565.947308
823.556010	2477.727115
823.873976	2470.165385
824.191897	2540.741538
824.509775	2439.918462
824.827609	2482.768269
825.145398	2558.385577
825.463144	2515.535769
825.780845	2455.041923
826.098502	2444.959615
826.416116	2515.535769
826.733685	2502.932885
827.051210	2402.109808
827.368692	2472.685962
827.686129	2477.727115
828.003522	2492.850577
828.320872	2505.453462
828.638177	2399.589231
828.955439	2555.865000
829.272656	2553.344423
829.589830	2505.453462
829.906960	2533.179808
830.224046	2581.070769
830.541088	2452.521346
830.858086	2555.865000
831.175041	2432.356731
831.491952	2439.918462
831.808819	2495.371154
832.125642	2460.083077
832.442421	2492.850577
832.759157	2359.260000
833.075849	2495.371154
833.392497	2487.809423
833.709101	2530.659231
834.025662	2419.753846
834.342179	2520.576923
834.658653	2563.426731
834.975083	2407.150962
835.291469	2429.836154
835.607811	2470.165385
835.924110	2490.330000
836.240366	2460.083077
836.556578	2462.603654
836.872746	2530.659231
837.188871	2565.947308
837.504952	2429.836154
837.820990	2530.659231
838.136984	2394.548077
838.452935	2545.782692
838.768842	2477.727115
839.084706	2505.453462
839.400526	2475.206538
839.716303	2482.768269
840.032037	2513.015192
840.347727	2452.521346
840.663373	2477.727115
840.978977	2482.768269
841.294537	2339.095385
841.610054	2465.124231
841.925527	2450.000769
842.240957	2487.809423
842.556344	2586.111923
842.871687	2510.494615
843.186987	2507.974038
843.502244	2505.453462
843.817458	2457.562500
844.132629	2603.755962
844.447756	2475.206538
844.762840	2558.385577
845.077881	2447.480192
845.392879	2523.097500
845.707833	2570.988462
846.022745	2447.480192
846.337613	2457.562500
846.652438	2472.685962
846.967221	2450.000769
847.281960	2480.247692
847.596656	2523.097500
847.911309	2568.467885
848.225919	2465.124231
848.540485	2555.865000
848.855009	2424.795000
849.169490	2480.247692
849.483928	2467.644808
849.798323	2497.891731
850.112675	2427.315577
850.426984	2467.644808
850.741251	2450.000769
851.055474	2533.179808
851.369654	2376.904038
851.683792	2497.891731
851.997887	2432.356731
852.311938	2510.494615
852.625947	2460.083077
852.939914	2497.891731
853.253837	2502.932885
853.567718	2495.371154
853.881555	2419.753846
854.195350	2450.000769
854.509103	2518.056346
854.822812	2419.753846
855.136479	2482.768269
855.450103	2429.836154
855.763685	2414.712692
856.077224	2392.027500
856.390720	2495.371154
856.704173	2525.618077
857.017584	2490.330000
857.330953	2427.315577
857.644278	2480.247692
857.957561	2432.356731
858.270802	2578.550192
858.584000	2439.918462
858.897155	2518.056346
859.210268	2530.659231
859.523339	2490.330000
859.836367	2563.426731
860.149352	2455.041923
860.462295	2543.262115
860.775195	2409.671538
861.088054	2495.371154
861.400869	2525.618077
861.713642	2608.797115
862.026373	2505.453462
862.339062	2540.741538
862.651708	2553.344423
862.964312	2558.385577
863.276873	2563.426731
863.589392	2528.138654
863.901869	2475.206538
864.214303	2465.124231
864.526696	2482.768269
864.839045	2555.865000
865.151353	2467.644808
865.463619	2507.974038
865.775842	2452.521346
866.088023	2429.836154
866.400162	2447.480192
866.712258	2603.755962
867.024313	2472.685962
867.336325	2485.288846
867.648296	2475.206538
867.960224	2528.138654
868.272110	2540.741538
868.583954	2490.330000
868.895755	2558.385577
869.207515	2442.439038
869.519233	2492.850577
869.830909	2485.288846
870.142542	2545.782692
870.454134	2583.591346
870.765684	2455.041923
871.077191	2550.823846
871.388657	2442.439038
871.700081	2467.644808
872.011463	2525.618077
872.322803	2412.192115
872.634101	2520.576923
872.945357	2439.918462
873.256571	2467.644808
873.567744	2467.644808
873.878874	2465.124231
874.189963	2455.041923
874.501010	2490.330000
874.812015	2452.521346
875.122979	2472.685962
875.433900	2482.768269
875.744780	2407.150962
876.055618	2616.358846
876.366415	2515.535769
876.677169	2565.947308
876.987882	2460.083077
877.298554	2487.809423
877.609183	2568.467885
877.919771	2513.015192
878.230317	2477.727115
878.540822	2455.041923
878.851285	2492.850577
879.161707	2397.068654
879.472087	2530.659231
879.782425	2442.439038
880.092722	2472.685962
880.402977	2530.659231
880.713191	2482.768269
881.023363	2535.700385
881.333494	2389.506923
881.643583	2429.836154
881.953631	2460.083077
882.263637	2455.041923
882.573602	2543.262115
882.883526	2439.918462
883.193408	2500.412308
883.503248	2495.371154
883.813048	2563.426731
884.122806	2414.712692
884.432522	2485.288846
884.742197	2535.700385
885.051831	2538.220962
885.361424	2565.947308
885.670975	2497.891731
885.980485	2528.138654
886.289954	2593.673654
886.599382	2507.974038
886.908768	2432.356731
887.218113	2477.727115
887.527417	2467.644808
887.836680	2500.412308
888.145901	2528.138654
888.455082	2555.865000
888.764221	2492.850577
889.073319	2523.097500
889.382376	2555.865000
889.691392	2497.891731
890.000366	2523.097500
890.309300	2470.165385
890.618193	2545.782692
890.927044	2513.015192
891.235855	2467.644808
891.544625	2389.506923
891.853353	2505.453462
892.162041	2417.233269
892.470687	2485.288846
892.779293	2447.480192
893.087858	2540.741538
893.396381	2497.891731
893.704864	2472.685962
894.013306	2502.932885
894.321707	2386.986346
894.630068	2434.877308
894.938387	2518.056346
895.246665	2455.041923
895.554903	2495.371154
895.863100	2543.262115
896.171256	2437.397885
896.479371	2472.685962
896.787446	2497.891731
897.095480	2422.274423
897.403473	2475.206538
897.711425	2487.809423
898.019336	2470.165385
898.327207	2543.262115
898.635038	2470.165385
898.942827	2507.974038
899.250576	2513.015192
899.558284	2455.041923
899.865952	2450.000769
900.173579	2465.124231
900.481165	2513.015192
900.788711	2444.959615
901.096216	2507.974038
901.403681	2480.247692
901.711105	2472.685962
902.018489	2555.865000
902.325832	2548.303269
902.633135	2573.509038
902.940397	2444.959615
903.247619	2470.165385
903.554800	2523.097500
903.861941	2502.932885
904.169041	2560.906154
904.476101	2497.891731
904.783121	2495.371154
905.090100	2510.494615
905.397039	2591.153077
905.703938	2500.412308
906.010796	2497.891731
906.317614	2543.262115
906.624391	2560.906154
906.931129	2540.741538
907.237826	2470.165385
907.544483	2543.262115
907.851099	2475.206538
908.157675	2535.700385
908.464211	2470.165385
908.770707	2495.371154
909.077163	2540.741538
909.383578	2528.138654
909.689954	2477.727115
909.996289	2460.083077
910.302584	2487.809423
910.608839	2439.918462
910.915054	2497.891731
911.221229	2553.344423
911.527363	2530.659231
911.833458	2447.480192
912.139513	2530.659231
912.445527	2432.356731
912.751502	2460.083077
913.057436	2434.877308
913.363331	2467.644808
913.669186	2520.576923
913.975000	2485.288846
914.280775	2485.288846
914.586510	2502.932885
914.892205	2472.685962
915.197859	2414.712692
915.503475	2477.727115
915.809050	2523.097500
916.114585	2470.165385
916.420081	2505.453462
916.725536	2447.480192
917.030952	2487.809423
917.336328	2510.494615
917.641665	2520.576923
917.946961	2392.027500
918.252218	2467.644808
918.557435	2467.644808
918.862612	2444.959615
919.167750	2424.795000
919.472848	2439.918462
919.777906	2462.603654
920.082925	2402.109808
920.387904	2457.562500
920.692843	2457.562500
920.997743	2444.959615
921.302603	2495.371154
921.607423	2520.576923
921.912204	2497.891731
922.216946	2513.015192
922.521647	2477.727115
922.826310	2392.027500
923.130932	2505.453462
923.435516	2422.274423
923.740059	2470.165385
924.044564	2492.850577
924.349028	2450.000769
924.653454	2502.932885
924.957840	2530.659231
925.262186	2500.412308
925.566493	2450.000769
925.870761	2495.371154
926.174989	2409.671538
926.479178	2409.671538
926.783328	2429.836154
927.087438	2500.412308
927.391509	2492.850577
927.695541	2530.659231
927.999533	2515.535769
928.303486	2480.247692
928.607400	2505.453462
928.911275	2419.753846
929.215110	2450.000769
929.518906	2412.192115
929.822663	2510.494615
930.126381	2442.439038
930.430060	2495.371154
930.733699	2581.070769
931.037299	2444.959615
931.340861	2455.041923
931.644383	2495.371154
931.947866	2497.891731
932.251309	2414.712692
932.554714	2513.015192
932.858080	2507.974038
933.161407	2497.891731
933.464694	2462.603654
933.767943	2528.138654
934.071153	2434.877308
934.374323	2477.727115
934.677455	2533.179808
934.980548	2475.206538
935.283602	2513.015192
935.586617	2472.685962
935.889593	2437.397885
936.192530	2429.836154
936.495428	2427.315577
936.798287	2495.371154
937.101108	2570.988462
937.403890	2437.397885
937.706632	2490.330000
938.009336	2477.727115
938.312002	2452.521346
938.614628	2515.535769
938.917216	2497.891731
939.219765	2389.506923
939.522275	2507.974038
939.824747	2485.288846
940.127179	2467.644808
940.429573	2376.904038
940.731929	2444.959615
941.034246	2533.179808
941.336524	2462.603654
941.638763	2518.056346
941.940964	2472.685962
942.243126	2457.562500
942.545250	2495.371154
942.847335	2455.041923
943.149381	2492.850577
943.451389	2475.206538
943.753359	2487.809423
944.055290	2477.727115
944.357182	2563.426731
944.659036	2520.576923
944.960851	2513.015192
945.262628	2442.439038
945.564367	2477.727115
945.866067	2434.877308
946.167729	2455.041923
946.469352	2465.124231
946.770937	2450.000769
947.072484	2437.397885
947.373992	2487.809423
947.675462	2432.356731
947.976893	2462.603654
948.278286	2475.206538
948.579641	2437.397885
948.880958	2472.685962
949.182236	2576.029615
949.483476	2470.165385
949.784678	2543.262115
950.085841	2477.727115
950.386967	2525.618077
950.688054	2452.521346
950.989103	2389.506923
951.290114	2460.083077
951.591087	2442.439038
951.892021	2407.150962
952.192917	2490.330000
952.493776	2500.412308
952.794596	2480.247692
953.095378	2535.700385
953.396122	2523.097500
953.696828	2525.618077
953.997496	2455.041923
954.298126	2414.712692
954.598718	2472.685962
954.899272	2434.877308
955.199788	2523.097500
955.500266	2417.233269
955.800706	2568.467885
956.101108	2500.412308
956.401472	2538.220962
956.701798	2444.959615
957.002087	2533.179808
957.302337	2497.891731
957.602550	2520.576923
957.902724	2432.356731
958.202861	2518.056346
958.502960	2470.165385
958.803022	2457.562500
959.103045	2505.453462
959.403031	2550.823846
959.702979	2502.932885
960.002889	2505.453462
960.302762	2492.850577
960.602596	2487.809423
960.902393	2520.576923
961.202153	2510.494615
961.501875	2386.986346
961.801559	2450.000769
962.101205	2462.603654
962.400814	2515.535769
962.700385	2475.206538
962.999918	2457.562500
963.299414	2465.124231
963.598873	2555.865000
963.898293	2578.550192
964.197677	2452.521346
964.497022	2447.480192
964.796331	2507.974038
965.095601	2467.644808
965.394835	2452.521346
965.694030	2525.618077
965.993189	2447.480192
966.292309	2533.179808
966.591393	2497.891731
966.890439	2576.029615
967.189447	2533.179808
967.488419	2502.932885
967.787353	2576.029615
968.086249	2507.974038
968.385108	2507.974038
968.683930	2465.124231
968.982714	2465.124231
969.281462	2543.262115
969.580172	2482.768269
969.878844	2507.974038
970.177480	2477.727115
970.476078	2447.480192
970.774639	2560.906154
971.073162	2475.206538
971.371649	2518.056346
971.670098	2432.356731
971.968510	2533.179808
972.266885	2434.877308
972.565223	2548.303269
972.863524	2568.467885
973.161788	2545.782692
973.460014	2465.124231
973.758204	2538.220962
974.056356	2432.356731
974.354471	2507.974038
974.652550	2502.932885
974.950591	2492.850577
975.248595	2467.644808
975.546563	2525.618077
975.844493	2472.685962
976.142386	2429.836154
976.440243	2555.865000
976.738062	2543.262115
977.035845	2502.932885
977.333590	2480.247692
977.631299	2465.124231
977.928971	2447.480192
978.226606	2525.618077
978.524204	2480.247692
978.821765	2465.124231
979.119290	2523.097500
979.416777	2492.850577
979.714228	2457.562500
980.011642	2475.206538
980.309020	2467.644808
980.606360	2520.576923
980.903664	2485.288846
981.200931	2472.685962
981.498162	2538.220962
981.795356	2477.727115
982.092513	2540.741538
982.389633	2437.397885
982.686717	2560.906154
982.983764	2558.385577
983.280775	2528.138654
983.577749	2465.124231
983.874686	2513.015192
984.171587	2480.247692
984.468451	2472.685962
984.765279	2502.932885
985.062070	2432.356731
985.358824	2515.535769
985.655543	2450.000769
985.952224	2535.700385
986.248869	2465.124231
986.545478	2450.000769
986.842050	2452.521346
987.138586	2530.659231
987.435086	2427.315577
987.731549	2442.439038
988.027975	2460.083077
988.324366	2545.782692
988.620719	2485.288846
988.917037	2507.974038
989.213318	2510.494615
989.509563	2500.412308
989.805772	2518.056346
990.101944	2492.850577
990.398080	2482.768269
990.694180	2480.247692
990.990244	2520.576923
991.286271	2356.739423
991.582262	2465.124231
991.878217	2429.836154
992.174136	2535.700385
992.470019	2399.589231
992.765865	2427.315577
993.061676	2477.727115
993.357450	2480.247692
993.653188	2452.521346
993.948890	2490.330000
994.244556	2336.574808
994.540186	2427.315577
994.835780	2525.618077
995.131337	2540.741538
995.426859	2470.165385
995.722345	2513.015192
996.017795	2452.521346
996.313208	2518.056346
996.608586	2455.041923
996.903928	2535.700385
997.199234	2480.247692
997.494504	2455.041923
997.789738	2452.521346
998.084936	2472.685962
998.380099	2477.727115
998.675225	2596.194231
998.970316	2472.685962
999.265371	2399.589231
999.560390	2444.959615
999.855373	2437.397885
1000.150320	2462.603654
1000.445232	2500.412308
1000.740108	2460.083077
1001.034948	2492.850577
1001.329752	2523.097500
1001.624521	2470.165385
1001.919254	2520.576923
1002.213951	2460.083077
1002.508613	2485.288846
1002.803239	2419.753846
1003.097829	2490.330000
1003.392384	2480.247692
1003.686903	2510.494615
1003.981386	2457.562500
1004.275834	2379.424615
1004.570246	2525.618077
1004.864623	2354.218846
1005.158964	2550.823846
1005.453270	2487.809423
1005.747540	2490.330000
1006.041775	2447.480192
1006.335974	2462.603654
1006.630138	2505.453462
1006.924266	2452.521346
1007.218359	2429.836154
1007.512416	2528.138654
1007.806438	2465.124231
1008.100425	2477.727115
1008.394376	2525.618077
1008.688292	2555.865000
1008.982172	2513.015192
1009.276017	2427.315577
1009.569827	2437.397885
1009.863602	2502.932885
1010.157341	2548.303269
1010.451045	2480.247692
1010.744714	2538.220962
1011.038347	2492.850577
1011.331945	2505.453462
1011.625508	2497.891731
1011.919036	2495.371154
1012.212528	2513.015192
1012.505986	2550.823846
1012.799408	2472.685962
1013.092795	2432.356731
1013.386147	2442.439038
1013.679464	2555.865000
1013.972745	2525.618077
1014.265992	2419.753846
1014.559204	2480.247692
1014.852380	2495.371154
1015.145521	2386.986346
1015.438628	2422.274423
1015.731699	2485.288846
1016.024736	2475.206538
1016.317737	2447.480192
1016.610703	2407.150962
1016.903635	2409.671538
1017.196531	2523.097500
1017.489393	2543.262115
1017.782219	2472.685962
1018.075011	2578.550192
1018.367768	2570.988462
1018.660490	2500.412308
1018.953177	2500.412308
1019.245829	2500.412308
