Dividing Wavelength (nm)	Counts (n)	Blue Motor Position (mm): 1.100000	Red Motor Position (mm): 0.000000	
326.493990	2139.969808
326.888308	2139.969808
327.282561	2139.969808
327.676750	2079.475962
328.070874	2092.078846
328.464933	2036.626154
328.858929	2074.434808
329.252859	2081.996538
329.646726	2127.366923
330.040528	2150.052115
330.434265	2117.284615
330.827938	2064.352500
331.221547	2119.805192
331.615091	2122.325769
332.008571	2213.066538
332.401986	2202.984231
332.795338	2255.916346
333.188625	2273.560385
333.581847	2235.751731
333.975006	2260.957500
334.368100	2306.327885
334.761129	2271.039808
335.154095	2316.410192
335.546996	2356.739423
335.939833	2344.136538
336.332606	2397.068654
336.725315	2374.383462
337.117960	2306.327885
337.510540	2381.945192
337.903056	2497.891731
338.295508	2427.315577
338.687896	2462.603654
339.080220	2462.603654
339.472480	2419.753846
339.864676	2578.550192
340.256807	2412.192115
340.648875	2444.959615
341.040879	2480.247692
341.432818	2424.795000
341.824694	2437.397885
342.216506	2475.206538
342.608253	2452.521346
342.999937	2394.548077
343.391557	2482.768269
343.783113	2392.027500
344.174605	2518.056346
344.566033	2520.576923
344.957397	2538.220962
345.348697	2495.371154
345.739934	2525.618077
346.131106	2513.015192
346.522215	2384.465769
346.913260	2397.068654
347.304241	2447.480192
347.695159	2381.945192
348.086012	2500.412308
348.476802	2472.685962
348.867528	2497.891731
349.258191	2472.685962
349.648789	2439.918462
350.039324	2500.412308
350.429796	2444.959615
350.820203	2442.439038
351.210548	2450.000769
351.600828	2455.041923
351.991045	2460.083077
352.381198	2427.315577
352.771288	2455.041923
353.161314	2455.041923
353.551276	2482.768269
353.941175	2515.535769
354.331010	2432.356731
354.720782	2422.274423
355.110490	2497.891731
355.500135	2313.889615
355.889717	2442.439038
356.279235	2399.589231
356.668689	2480.247692
357.058080	2422.274423
357.447408	2361.780577
357.836672	2374.383462
358.225873	2313.889615
358.615010	2419.753846
359.004084	2480.247692
359.393095	2414.712692
359.782043	2336.574808
360.170927	2457.562500
360.559748	2384.465769
360.948505	2450.000769
361.337199	2487.809423
361.725830	2452.521346
362.114398	2502.932885
362.502903	2417.233269
362.891344	2470.165385
363.279722	2437.397885
363.668037	2485.288846
364.056289	2570.988462
364.444478	2487.809423
364.832603	2429.836154
365.220665	2523.097500
365.608665	2437.397885
365.996601	2354.218846
366.384474	2412.192115
366.772284	2480.247692
367.160031	2444.959615
367.547715	2462.603654
367.935336	2427.315577
368.322893	2429.836154
368.710388	2570.988462
369.097820	2427.315577
369.485189	2429.836154
369.872495	2417.233269
370.259738	2450.000769
370.646918	2465.124231
371.034035	2437.397885
371.421090	2434.877308
371.808081	2462.603654
372.195010	2434.877308
372.581875	2497.891731
372.968678	2497.891731
373.355418	2492.850577
373.742096	2485.288846
374.128710	2427.315577
374.515262	2442.439038
374.901751	2467.644808
375.288177	2450.000769
375.674540	2487.809423
376.060841	2447.480192
376.447079	2429.836154
376.833254	2402.109808
377.219367	2455.041923
377.605417	2467.644808
377.991404	2427.315577
378.377329	2450.000769
378.763191	2480.247692
379.148991	2502.932885
379.534727	2417.233269
379.920402	2513.015192
380.306013	2429.836154
380.691563	2475.206538
381.077049	2414.712692
381.462474	2543.262115
381.847835	2429.836154
382.233134	2525.618077
382.618371	2447.480192
383.003545	2578.550192
383.388657	2404.630385
383.773706	2369.342308
384.158693	2533.179808
384.543618	2437.397885
384.928480	2457.562500
385.313280	2482.768269
385.698017	2505.453462
386.082692	2581.070769
386.467305	2442.439038
386.851856	2513.015192
387.236344	2500.412308
387.620770	2442.439038
388.005133	2460.083077
388.389435	2444.959615
388.773674	2485.288846
389.157851	2485.288846
389.541965	2439.918462
389.926018	2515.535769
390.310008	2412.192115
390.693936	2437.397885
391.077802	2533.179808
391.461606	2429.836154
391.845348	2497.891731
392.229027	2399.589231
392.612645	2442.439038
392.996200	2525.618077
393.379694	2399.589231
393.763125	2447.480192
394.146494	2576.029615
394.529801	2470.165385
394.913047	2437.397885
395.296230	2409.671538
395.679351	2356.739423
396.062410	2518.056346
396.445408	2424.795000
396.828343	2462.603654
397.211217	2601.235385
397.594028	2462.603654
397.976778	2422.274423
398.359466	2518.056346
398.742092	2480.247692
399.124656	2480.247692
399.507158	2429.836154
399.889598	2515.535769
400.271977	2417.233269
400.654294	2455.041923
401.036549	2384.465769
401.418742	2515.535769
401.800874	2487.809423
402.182944	2462.603654
402.564952	2437.397885
402.946898	2528.138654
403.328783	2477.727115
403.710606	2432.356731
404.092367	2439.918462
404.474067	2437.397885
404.855705	2502.932885
405.237282	2462.603654
405.618797	2399.589231
406.000250	2419.753846
406.381642	2437.397885
406.762972	2470.165385
407.144240	2465.124231
407.525447	2465.124231
407.906593	2510.494615
408.287677	2472.685962
408.668700	2439.918462
409.049661	2462.603654
409.430560	2417.233269
409.811399	2515.535769
410.192176	2424.795000
410.572891	2460.083077
410.953545	2434.877308
411.334138	2437.397885
411.714669	2432.356731
412.095139	2492.850577
412.475547	2460.083077
412.855894	2447.480192
413.236180	2477.727115
413.616405	2485.288846
413.996568	2439.918462
414.376670	2505.453462
414.756711	2462.603654
415.136691	2437.397885
415.516609	2523.097500
415.896466	2535.700385
416.276262	2598.714808
416.655997	2439.918462
417.035670	2321.451346
417.415283	2485.288846
417.794834	2442.439038
418.174324	2422.274423
418.553753	2450.000769
418.933121	2490.330000
419.312428	2507.974038
419.691674	2495.371154
420.070859	2374.383462
420.449983	2581.070769
420.829045	2419.753846
421.208047	2472.685962
421.586988	2442.439038
421.965867	2482.768269
422.344686	2389.506923
422.723444	2525.618077
423.102141	2419.753846
423.480777	2520.576923
423.859352	2490.330000
424.237866	2460.083077
424.616319	2518.056346
424.994712	2465.124231
425.373044	2520.576923
425.751314	2535.700385
426.129524	2475.206538
426.507673	2417.233269
426.885762	2502.932885
427.263789	2485.288846
427.641756	2533.179808
428.019662	2492.850577
428.397508	2462.603654
428.775292	2470.165385
429.153016	2482.768269
429.530679	2369.342308
429.908282	2475.206538
430.285824	2465.124231
430.663305	2545.782692
431.040726	2470.165385
431.418086	2505.453462
431.795385	2487.809423
432.172624	2432.356731
432.549802	2528.138654
432.926920	2510.494615
433.303977	2553.344423
433.680974	2407.150962
434.057910	2505.453462
434.434786	2487.809423
434.811601	2500.412308
435.188355	2500.412308
435.565050	2497.891731
435.941683	2462.603654
436.318257	2518.056346
436.694770	2540.741538
437.071222	2535.700385
437.447614	2467.644808
437.823946	2424.795000
438.200218	2422.274423
438.576429	2450.000769
438.952580	2492.850577
439.328670	2492.850577
439.704700	2518.056346
440.080670	2485.288846
440.456580	2515.535769
440.832429	2535.700385
441.208218	2439.918462
441.583947	2487.809423
441.959616	2507.974038
442.335224	2462.603654
442.710773	2381.945192
443.086261	2520.576923
443.461689	2452.521346
443.837057	2548.303269
444.212365	2424.795000
444.587612	2550.823846
444.962800	2490.330000
445.337927	2460.083077
445.712995	2507.974038
446.088002	2472.685962
446.462949	2510.494615
446.837837	2520.576923
447.212664	2490.330000
447.587431	2518.056346
447.962139	2419.753846
448.336786	2480.247692
448.711374	2450.000769
449.085901	2525.618077
449.460369	2502.932885
449.834776	2505.453462
450.209124	2434.877308
450.583412	2545.782692
450.957640	2422.274423
451.331808	2530.659231
451.705917	2507.974038
452.079965	2583.591346
452.453954	2472.685962
452.827883	2586.111923
453.201752	2540.741538
453.575562	2502.932885
453.949311	2460.083077
454.323001	2404.630385
454.696632	2447.480192
455.070202	2550.823846
455.443713	2586.111923
455.817164	2490.330000
456.190556	2447.480192
456.563888	2507.974038
456.937160	2530.659231
457.310373	2432.356731
457.683526	2525.618077
458.056619	2422.274423
458.429653	2477.727115
458.802628	2540.741538
459.175542	2470.165385
459.548398	2563.426731
459.921194	2414.712692
460.293930	2447.480192
460.666607	2545.782692
461.039224	2465.124231
461.411782	2505.453462
461.784280	2447.480192
462.156719	2502.932885
462.529099	2462.603654
462.901419	2563.426731
463.273680	2487.809423
463.645882	2407.150962
464.018024	2520.576923
464.390106	2409.671538
464.762130	2586.111923
465.134094	2477.727115
465.505999	2523.097500
465.877845	2565.947308
466.249631	2444.959615
466.621358	2462.603654
466.993026	2492.850577
467.364634	2465.124231
467.736184	2472.685962
468.107674	2523.097500
468.479105	2510.494615
468.850477	2460.083077
469.221790	2457.562500
469.593043	2495.371154
469.964238	2545.782692
470.335373	2450.000769
470.706449	2500.412308
471.077467	2513.015192
471.448425	2452.521346
471.819324	2613.838269
472.190164	2485.288846
472.560945	2480.247692
472.931667	2465.124231
473.302330	2490.330000
473.672934	2485.288846
474.043479	2598.714808
474.413965	2424.795000
474.784393	2578.550192
475.154761	2530.659231
475.525070	2518.056346
475.895321	2497.891731
476.265513	2447.480192
476.635645	2523.097500
477.005719	2485.288846
477.375734	2533.179808
477.745691	2462.603654
478.115588	2563.426731
478.485427	2550.823846
478.855207	2553.344423
479.224928	2510.494615
479.594591	2475.206538
479.964194	2424.795000
480.333739	2490.330000
480.703226	2515.535769
481.072653	2540.741538
481.442022	2502.932885
481.811333	2573.509038
482.180584	2555.865000
482.549777	2482.768269
482.918912	2374.383462
483.287988	2540.741538
483.657005	2495.371154
484.025964	2518.056346
484.394864	2500.412308
484.763706	2543.262115
485.132489	2465.124231
485.501213	2533.179808
485.869879	2437.397885
486.238487	2520.576923
486.607036	2424.795000
486.975527	2588.632500
487.343959	2515.535769
487.712333	2462.603654
488.080648	2470.165385
488.448905	2528.138654
488.817104	2538.220962
489.185244	2523.097500
489.553326	2555.865000
489.921350	2530.659231
490.289315	2442.439038
490.657222	2477.727115
491.025070	2470.165385
491.392861	2492.850577
491.760593	2560.906154
492.128267	2495.371154
492.495883	2417.233269
492.863440	2450.000769
493.230939	2444.959615
493.598380	2535.700385
493.965763	2412.192115
494.333088	2502.932885
494.700354	2409.671538
495.067563	2487.809423
495.434713	2492.850577
495.801805	2540.741538
496.168839	2450.000769
496.535815	2495.371154
496.902733	2472.685962
497.269593	2545.782692
497.636395	2515.535769
498.003139	2530.659231
498.369825	2467.644808
498.736453	2515.535769
499.103023	2528.138654
499.469535	2528.138654
499.835989	2490.330000
500.202385	2543.262115
500.568723	2543.262115
500.935003	2447.480192
501.301226	2528.138654
501.667390	2495.371154
502.033497	2424.795000
502.399546	2510.494615
502.765537	2502.932885
503.131470	2502.932885
503.497345	2457.562500
503.863163	2548.303269
504.228923	2470.165385
504.594625	2530.659231
504.960269	2455.041923
505.325856	2422.274423
505.691385	2558.385577
506.056856	2495.371154
506.422270	2495.371154
506.787625	2447.480192
507.152924	2450.000769
507.518164	2497.891731
507.883347	2583.591346
508.248472	2472.685962
508.613540	2432.356731
508.978550	2540.741538
509.343503	2553.344423
509.708398	2450.000769
510.073236	2495.371154
510.438016	2500.412308
510.802738	2439.918462
511.167403	2480.247692
511.532010	2560.906154
511.896561	2392.027500
512.261053	2535.700385
512.625488	2510.494615
512.989866	2485.288846
513.354186	2545.782692
513.718449	2520.576923
514.082655	2548.303269
514.446803	2480.247692
514.810894	2477.727115
515.174927	2442.439038
515.538904	2455.041923
515.902822	2553.344423
516.266684	2505.453462
516.630488	2533.179808
516.994235	2455.041923
517.357925	2518.056346
517.721558	2434.877308
518.085133	2533.179808
518.448651	2465.124231
518.812112	2548.303269
519.175516	2462.603654
519.538863	2467.644808
519.902152	2515.535769
520.265385	2422.274423
520.628560	2477.727115
520.991678	2439.918462
521.354739	2417.233269
521.717743	2487.809423
522.080690	2505.453462
522.443580	2462.603654
522.806413	2439.918462
523.169189	2472.685962
523.531908	2523.097500
523.894569	2422.274423
524.257174	2510.494615
524.619722	2550.823846
524.982213	2450.000769
525.344647	2515.535769
525.707025	2470.165385
526.069345	2510.494615
526.431608	2444.959615
526.793815	2505.453462
527.155964	2528.138654
527.518057	2505.453462
527.880093	2505.453462
528.242072	2518.056346
528.603995	2467.644808
528.965860	2492.850577
529.327669	2482.768269
529.689421	2507.974038
530.051117	2452.521346
530.412755	2533.179808
530.774337	2540.741538
531.135862	2510.494615
531.497331	2548.303269
531.858743	2475.206538
532.220098	2545.782692
532.581396	2465.124231
532.942638	2485.288846
533.303824	2452.521346
533.664953	2487.809423
534.026025	2558.385577
534.387040	2568.467885
534.747999	2482.768269
535.108902	2450.000769
535.469748	2417.233269
535.830537	2497.891731
536.191270	2467.644808
536.551947	2485.288846
536.912567	2470.165385
537.273131	2523.097500
537.633638	2548.303269
537.994089	2578.550192
538.354483	2528.138654
538.714821	2490.330000
539.075103	2475.206538
539.435328	2523.097500
539.795497	2523.097500
540.155609	2412.192115
540.515665	2555.865000
540.875665	2487.809423
541.235609	2540.741538
541.595496	2465.124231
541.955328	2505.453462
542.315102	2502.932885
542.674821	2543.262115
543.034483	2560.906154
543.394090	2618.879423
543.753640	2492.850577
544.113134	2550.823846
544.472571	2455.041923
544.831953	2439.918462
545.191278	2502.932885
545.550548	2505.453462
545.909761	2450.000769
546.268918	2573.509038
546.628019	2570.988462
546.987064	2515.535769
547.346053	2533.179808
547.704986	2525.618077
548.063863	2450.000769
548.422684	2520.576923
548.781449	2513.015192
549.140158	2586.111923
549.498811	2497.891731
549.857408	2485.288846
550.215949	2475.206538
550.574434	2470.165385
550.932864	2533.179808
551.291237	2523.097500
551.649555	2467.644808
552.007817	2528.138654
552.366022	2515.535769
552.724173	2485.288846
553.082267	2455.041923
553.440305	2457.562500
553.798288	2518.056346
554.156215	2447.480192
554.514086	2573.509038
554.871902	2513.015192
555.229661	2528.138654
555.587365	2472.685962
555.945014	2381.945192
556.302606	2505.453462
556.660143	2470.165385
557.017625	2543.262115
557.375050	2450.000769
557.732421	2530.659231
558.089735	2457.562500
558.446994	2520.576923
558.804197	2379.424615
559.161345	2540.741538
559.518437	2591.153077
559.875474	2452.521346
560.232455	2500.412308
560.589381	2424.795000
560.946251	2475.206538
561.303065	2475.206538
561.659825	2535.700385
562.016528	2515.535769
562.373177	2533.179808
562.729770	2523.097500
563.086307	2548.303269
563.442789	2477.727115
563.799216	2558.385577
564.155587	2525.618077
564.511904	2455.041923
564.868164	2497.891731
565.224370	2553.344423
565.580520	2467.644808
565.936615	2513.015192
566.292654	2487.809423
566.648638	2477.727115
567.004567	2359.260000
567.360441	2528.138654
567.716260	2565.947308
568.072023	2548.303269
568.427732	2422.274423
568.783385	2460.083077
569.138982	2523.097500
569.494525	2548.303269
569.850013	2417.233269
570.205445	2500.412308
570.560823	2470.165385
570.916145	2475.206538
571.271412	2513.015192
571.626625	2432.356731
571.981782	2525.618077
572.336884	2545.782692
572.691931	2558.385577
573.046923	2520.576923
573.401860	2515.535769
573.756743	2563.426731
574.111570	2482.768269
574.466342	2447.480192
574.821059	2475.206538
575.175722	2487.809423
575.530330	2565.947308
575.884882	2591.153077
576.239380	2442.439038
576.593823	2513.015192
576.948211	2482.768269
577.302544	2492.850577
577.656823	2540.741538
578.011047	2414.712692
578.365216	2480.247692
578.719330	2475.206538
579.073389	2576.029615
579.427394	2434.877308
579.781344	2497.891731
580.135239	2480.247692
580.489080	2502.932885
580.842866	2462.603654
581.196597	2598.714808
581.550273	2513.015192
581.903895	2444.959615
582.257463	2475.206538
582.610975	2419.753846
582.964434	2392.027500
583.317837	2455.041923
583.671186	2502.932885
584.024481	2472.685962
584.377721	2510.494615
584.730906	2485.288846
585.084037	2538.220962
585.437113	2545.782692
585.790135	2530.659231
586.143103	2515.535769
586.496016	2523.097500
586.848874	2407.150962
587.201679	2432.356731
587.554428	2485.288846
587.907124	2523.097500
588.259765	2530.659231
588.612352	2492.850577
588.964884	2540.741538
589.317362	2457.562500
589.669786	2570.988462
590.022155	2555.865000
590.374470	2394.548077
590.726731	2429.836154
591.078937	2427.315577
591.431090	2475.206538
591.783188	2558.385577
592.135232	2462.603654
592.487222	2591.153077
592.839157	2432.356731
593.191038	2523.097500
593.542866	2523.097500
593.894639	2555.865000
594.246358	2500.412308
594.598022	2570.988462
594.949633	2550.823846
595.301190	2470.165385
595.652692	2513.015192
596.004141	2535.700385
596.355535	2500.412308
596.706876	2576.029615
597.058162	2591.153077
597.409395	2485.288846
597.760573	2502.932885
598.111698	2505.453462
598.462768	2447.480192
598.813785	2545.782692
599.164748	2558.385577
599.515657	2530.659231
599.866511	2472.685962
600.217312	2603.755962
600.568060	2492.850577
600.918753	2528.138654
601.269392	2576.029615
601.619978	2480.247692
601.970510	2434.877308
602.320988	2485.288846
602.671412	2502.932885
603.021783	2477.727115
603.372100	2505.453462
603.722363	2482.768269
604.072572	2528.138654
604.422728	2530.659231
604.772830	2513.015192
605.122878	2482.768269
605.472872	2490.330000
605.822813	2513.015192
606.172701	2576.029615
606.522534	2470.165385
606.872314	2414.712692
607.222041	2480.247692
607.571714	2500.412308
607.921333	2452.521346
608.270899	2465.124231
608.620411	2513.015192
608.969870	2470.165385
609.319276	2495.371154
609.668627	2465.124231
610.017926	2507.974038
610.367171	2414.712692
610.716362	2465.124231
611.065500	2477.727115
611.414585	2528.138654
611.763616	2437.397885
612.112594	2452.521346
612.461518	2477.727115
612.810389	2492.850577
613.159207	2487.809423
613.507971	2457.562500
613.856682	2520.576923
614.205340	2477.727115
614.553945	2550.823846
614.902496	2543.262115
615.250994	2507.974038
615.599439	2500.412308
615.947830	2533.179808
616.296169	2475.206538
616.644454	2505.453462
616.992686	2477.727115
617.340864	2550.823846
617.688990	2460.083077
618.037063	2538.220962
618.385082	2528.138654
618.733048	2497.891731
619.080961	2545.782692
619.428821	2535.700385
619.776628	2543.262115
620.124382	2558.385577
620.472083	2422.274423
620.819731	2492.850577
621.167326	2487.809423
621.514868	2545.782692
621.862357	2497.891731
622.209793	2500.412308
622.557176	2444.959615
622.904506	2497.891731
623.251783	2538.220962
623.599007	2457.562500
623.946179	2424.795000
624.293297	2553.344423
624.640363	2543.262115
624.987376	2422.274423
625.334336	2492.850577
625.681243	2507.974038
626.028097	2510.494615
626.374899	2470.165385
626.721647	2535.700385
627.068343	2525.618077
627.414987	2513.015192
627.761577	2515.535769
628.108115	2439.918462
628.454600	2548.303269
628.801032	2528.138654
629.147412	2419.753846
629.493739	2422.274423
629.840014	2460.083077
630.186236	2467.644808
630.532405	2386.986346
630.878521	2480.247692
631.224585	2535.700385
631.570597	2444.959615
631.916556	2502.932885
632.262462	2472.685962
632.608316	2500.412308
632.954117	2477.727115
633.299866	2381.945192
633.645562	2485.288846
633.991206	2434.877308
634.336797	2444.959615
634.682336	2482.768269
635.027823	2444.959615
635.373257	2467.644808
635.718639	2573.509038
636.063968	2402.109808
636.409245	2485.288846
636.754470	2477.727115
637.099642	2482.768269
637.444762	2540.741538
637.789829	2500.412308
638.134845	2553.344423
638.479808	2457.562500
638.824719	2475.206538
639.169577	2515.535769
639.514383	2555.865000
639.859137	2530.659231
640.203839	2583.591346
640.548489	2553.344423
640.893086	2518.056346
641.237632	2553.344423
641.582125	2535.700385
641.926566	2500.412308
642.270955	2510.494615
642.615292	2507.974038
642.959576	2596.194231
643.303809	2507.974038
643.647990	2540.741538
643.992118	2515.535769
644.336195	2452.521346
644.680219	2477.727115
645.024192	2563.426731
645.368112	2560.906154
645.711981	2528.138654
646.055797	2520.576923
646.399562	2533.179808
646.743274	2470.165385
647.086935	2535.700385
647.430544	2563.426731
647.774101	2490.330000
648.117606	2520.576923
648.461059	2500.412308
648.804460	2598.714808
649.147810	2470.165385
649.491108	2520.576923
649.834354	2525.618077
650.177548	2515.535769
650.520690	2533.179808
650.863781	2540.741538
651.206820	2429.836154
651.549807	2598.714808
651.892742	2492.850577
652.235626	2480.247692
652.578458	2450.000769
652.921238	2586.111923
653.263967	2518.056346
653.606644	2465.124231
653.949269	2414.712692
654.291843	2560.906154
654.634365	2472.685962
654.976836	2437.397885
655.319255	2417.233269
655.661622	2553.344423
656.003938	2515.535769
656.346203	2530.659231
656.688416	2477.727115
657.030577	2497.891731
657.372687	2535.700385
657.714746	2533.179808
658.056753	2455.041923
658.398708	2513.015192
658.740612	2452.521346
659.082465	2452.521346
659.424266	2576.029615
659.766016	2457.562500
660.107715	2500.412308
660.449362	2460.083077
660.790958	2510.494615
661.132503	2502.932885
661.473996	2548.303269
661.815438	2560.906154
662.156829	2560.906154
662.498168	2505.453462
662.839456	2500.412308
663.180693	2548.303269
663.521879	2495.371154
663.863013	2470.165385
664.204097	2523.097500
664.545129	2545.782692
664.886110	2462.603654
665.227040	2492.850577
665.567918	2495.371154
665.908746	2540.741538
666.249522	2497.891731
666.590248	2399.589231
666.930922	2490.330000
667.271545	2573.509038
667.612118	2515.535769
667.952639	2533.179808
668.293109	2560.906154
668.633528	2545.782692
668.973896	2500.412308
669.314213	2477.727115
669.654480	2555.865000
669.994695	2505.453462
670.334859	2467.644808
670.674973	2419.753846
671.015035	2477.727115
671.355047	2457.562500
671.695008	2492.850577
672.034918	2507.974038
672.374777	2455.041923
672.714585	2608.797115
673.054342	2528.138654
673.394049	2495.371154
673.733705	2533.179808
674.073310	2523.097500
674.412864	2528.138654
674.752368	2553.344423
675.091820	2513.015192
675.431223	2525.618077
675.770574	2555.865000
676.109875	2457.562500
676.449125	2535.700385
676.788324	2520.576923
677.127473	2528.138654
677.466571	2452.521346
677.805619	2417.233269
678.144616	2513.015192
678.483562	2444.959615
678.822458	2518.056346
679.161303	2444.959615
679.500098	2467.644808
679.838842	2495.371154
680.177535	2523.097500
680.516179	2518.056346
680.854771	2497.891731
681.193314	2513.015192
681.531805	2543.262115
681.870247	2525.618077
682.208638	2518.056346
682.546978	2518.056346
682.885268	2424.795000
683.223508	2490.330000
683.561697	2462.603654
683.899836	2487.809423
684.237925	2482.768269
684.575963	2487.809423
684.913951	2460.083077
685.251889	2490.330000
685.589776	2472.685962
685.927614	2581.070769
686.265401	2518.056346
686.603137	2450.000769
686.940824	2495.371154
687.278460	2505.453462
687.616046	2490.330000
687.953582	2548.303269
688.291068	2535.700385
688.628504	2548.303269
688.965889	2492.850577
689.303224	2434.877308
689.640510	2422.274423
689.977745	2462.603654
690.314930	2528.138654
690.652065	2510.494615
690.989150	2563.426731
691.326185	2485.288846
691.663170	2485.288846
692.000105	2553.344423
692.336990	2460.083077
692.673825	2525.618077
693.010610	2422.274423
693.347345	2467.644808
693.684030	2490.330000
694.020665	2535.700385
694.357251	2502.932885
694.693786	2545.782692
695.030272	2497.891731
695.366707	2444.959615
695.703093	2497.891731
696.039429	2490.330000
696.375716	2482.768269
696.711952	2407.150962
697.048139	2523.097500
697.384276	2467.644808
697.720363	2535.700385
698.056400	2495.371154
698.392388	2578.550192
698.728326	2495.371154
699.064214	2553.344423
699.400053	2447.480192
699.735842	2492.850577
700.071581	2447.480192
700.407270	2397.068654
700.742910	2560.906154
701.078501	2432.356731
701.414042	2550.823846
701.749533	2452.521346
702.084974	2543.262115
702.420366	2434.877308
702.755709	2510.494615
703.091002	2434.877308
703.426246	2399.589231
703.761440	2490.330000
704.096584	2487.809423
704.431679	2596.194231
704.766725	2513.015192
705.101721	2626.441154
705.436668	2480.247692
705.771565	2528.138654
706.106413	2528.138654
706.441212	2450.000769
706.775961	2457.562500
707.110661	2510.494615
707.445311	2533.179808
707.779913	2477.727115
708.114465	2475.206538
708.448967	2502.932885
708.783421	2520.576923
709.117825	2555.865000
709.452180	2477.727115
709.786485	2472.685962
710.120742	2525.618077
710.454949	2490.330000
710.789107	2513.015192
711.123216	2437.397885
711.457275	2495.371154
711.791286	2432.356731
712.125247	2565.947308
712.459159	2515.535769
712.793023	2523.097500
713.126837	2432.356731
713.460602	2485.288846
713.794318	2497.891731
714.127985	2518.056346
714.461602	2490.330000
714.795171	2475.206538
715.128691	2397.068654
715.462162	2543.262115
715.795584	2477.727115
716.128957	2510.494615
716.462281	2427.315577
716.795556	2513.015192
717.128782	2485.288846
717.461960	2497.891731
717.795088	2611.317692
718.128167	2528.138654
718.461198	2545.782692
718.794180	2402.109808
719.127113	2608.797115
719.459997	2465.124231
719.792833	2477.727115
720.125619	2457.562500
720.458357	2450.000769
720.791046	2487.809423
721.123686	2472.685962
721.456278	2513.015192
721.788821	2432.356731
722.121315	2444.959615
722.453761	2427.315577
722.786158	2586.111923
723.118506	2505.453462
723.450805	2460.083077
723.783056	2502.932885
724.115259	2543.262115
724.447412	2502.932885
724.779518	2427.315577
725.111574	2475.206538
725.443582	2444.959615
725.775542	2495.371154
726.107453	2444.959615
726.439315	2487.809423
726.771129	2538.220962
727.102895	2513.015192
727.434612	2538.220962
727.766281	2543.262115
728.097901	2457.562500
728.429473	2432.356731
728.760996	2505.453462
729.092471	2452.521346
729.423897	2530.659231
729.755276	2502.932885
730.086606	2570.988462
730.417887	2497.891731
730.749120	2450.000769
731.080305	2460.083077
731.411442	2490.330000
731.742530	2515.535769
732.073570	2492.850577
732.404562	2500.412308
732.735506	2540.741538
733.066401	2495.371154
733.397249	2538.220962
733.728048	2535.700385
734.058798	2586.111923
734.389501	2560.906154
734.720156	2538.220962
735.050762	2482.768269
735.381320	2513.015192
735.711831	2482.768269
736.042293	2520.576923
736.372707	2472.685962
736.703073	2505.453462
737.033391	2480.247692
737.363661	2545.782692
737.693883	2510.494615
738.024056	2394.548077
738.354182	2507.974038
738.684260	2520.576923
739.014290	2492.850577
739.344272	2485.288846
739.674207	2507.974038
740.004093	2462.603654
740.333931	2570.988462
740.663722	2500.412308
740.993464	2482.768269
741.323159	2467.644808
741.652806	2480.247692
741.982405	2465.124231
742.311956	2530.659231
742.641460	2455.041923
742.970915	2533.179808
743.300323	2525.618077
743.629683	2467.644808
743.958996	2480.247692
744.288260	2548.303269
744.617477	2450.000769
744.946647	2593.673654
745.275768	2583.591346
745.604842	2545.782692
745.933869	2558.385577
746.262847	2369.342308
746.591778	2505.453462
746.920662	2439.918462
747.249498	2437.397885
747.578286	2533.179808
747.907027	2520.576923
748.235720	2487.809423
748.564365	2480.247692
748.892963	2487.809423
749.221514	2460.083077
749.550017	2450.000769
749.878473	2533.179808
750.206881	2601.235385
750.535242	2462.603654
750.863555	2475.206538
751.191821	2495.371154
751.520039	2576.029615
751.848210	2450.000769
752.176334	2495.371154
752.504411	2553.344423
752.832440	2432.356731
753.160421	2543.262115
753.488356	2565.947308
753.816243	2487.809423
754.144082	2510.494615
754.471875	2439.918462
754.799620	2480.247692
755.127318	2497.891731
755.454969	2447.480192
755.782572	2545.782692
756.110129	2480.247692
756.437638	2470.165385
756.765100	2457.562500
757.092515	2563.426731
757.419882	2397.068654
757.747203	2495.371154
758.074477	2540.741538
758.401703	2563.426731
758.728882	2419.753846
759.056014	2452.521346
759.383099	2518.056346
759.710138	2490.330000
760.037129	2525.618077
760.364073	2500.412308
760.690970	2520.576923
761.017820	2452.521346
761.344623	2545.782692
761.671379	2482.768269
761.998088	2460.083077
762.324751	2550.823846
762.651366	2480.247692
762.977935	2432.356731
763.304456	2540.741538
763.630931	2581.070769
763.957359	2444.959615
764.283740	2434.877308
764.610074	2490.330000
764.936362	2505.453462
765.262602	2475.206538
765.588796	2502.932885
765.914943	2513.015192
766.241044	2505.453462
766.567097	2482.768269
766.893104	2528.138654
767.219064	2520.576923
767.544978	2581.070769
767.870845	2477.727115
768.196665	2500.412308
768.522438	2452.521346
768.848165	2545.782692
769.173846	2525.618077
769.499479	2573.509038
769.825066	2525.618077
770.150607	2515.535769
770.476101	2548.303269
770.801548	2427.315577
771.126949	2480.247692
771.452303	2523.097500
771.777611	2497.891731
772.102872	2467.644808
772.428087	2528.138654
772.753256	2414.712692
773.078378	2480.247692
773.403453	2507.974038
773.728482	2518.056346
774.053465	2482.768269
774.378401	2452.521346
774.703291	2495.371154
775.028135	2497.891731
775.352932	2548.303269
775.677683	2495.371154
776.002388	2475.206538
776.327046	2513.015192
776.651658	2407.150962
776.976224	2477.727115
777.300743	2558.385577
777.625216	2553.344423
777.949643	2485.288846
778.274024	2513.015192
778.598359	2573.509038
778.922647	2457.562500
779.246889	2490.330000
779.571086	2392.027500
779.895236	2525.618077
780.219339	2510.494615
780.543397	2497.891731
780.867409	2485.288846
781.191374	2545.782692
781.515294	2523.097500
781.839167	2444.959615
782.162995	2543.262115
782.486776	2432.356731
782.810511	2497.891731
783.134201	2414.712692
783.457844	2533.179808
783.781441	2444.959615
784.104993	2565.947308
784.428498	2492.850577
784.751958	2573.509038
785.075372	2535.700385
785.398739	2482.768269
785.722061	2407.150962
786.045337	2485.288846
786.368568	2465.124231
786.691752	2568.467885
787.014891	2515.535769
787.337983	2467.644808
787.661030	2492.850577
787.984031	2437.397885
788.306987	2452.521346
788.629897	2563.426731
788.952760	2528.138654
789.275579	2510.494615
789.598351	2457.562500
789.921078	2394.548077
790.243759	2490.330000
790.566395	2467.644808
790.888984	2515.535769
791.211529	2397.068654
791.534027	2518.056346
791.856480	2419.753846
792.178888	2538.220962
792.501249	2467.644808
792.823566	2533.179808
793.145836	2427.315577
793.468062	2439.918462
793.790241	2548.303269
794.112375	2477.727115
794.434464	2495.371154
794.756507	2563.426731
795.078505	2555.865000
795.400457	2492.850577
795.722364	2518.056346
796.044226	2487.809423
796.366042	2515.535769
796.687812	2402.109808
797.009538	2465.124231
797.331218	2467.644808
797.652852	2497.891731
797.974442	2548.303269
798.295986	2520.576923
798.617484	2497.891731
798.938938	2533.179808
799.260346	2427.315577
799.581709	2427.315577
799.903026	2515.535769
800.224299	2467.644808
800.545526	2429.836154
800.866708	2452.521346
801.187845	2497.891731
801.508936	2472.685962
801.829983	2452.521346
802.150984	2485.288846
802.471940	2490.330000
802.792851	2472.685962
803.113717	2414.712692
803.434538	2510.494615
803.755314	2492.850577
804.076045	2525.618077
804.396731	2424.795000
804.717372	2583.591346
805.037967	2475.206538
805.358518	2500.412308
805.679024	2467.644808
805.999485	2533.179808
806.319901	2611.317692
806.640272	2477.727115
806.960598	2460.083077
807.280879	2457.562500
807.601115	2490.330000
807.921306	2460.083077
808.241453	2457.562500
808.561554	2444.959615
808.881611	2518.056346
809.201623	2485.288846
809.521590	2485.288846
809.841513	2528.138654
810.161390	2457.562500
810.481223	2477.727115
810.801011	2427.315577
811.120755	2457.562500
811.440453	2442.439038
811.760107	2467.644808
812.079716	2447.480192
812.399281	2472.685962
812.718801	2543.262115
813.038276	2520.576923
813.357707	2467.644808
813.677093	2457.562500
813.996434	2515.535769
814.315731	2460.083077
814.634983	2470.165385
814.954191	2427.315577
815.273354	2568.467885
815.592473	2462.603654
815.911547	2439.918462
816.230577	2535.700385
816.549562	2518.056346
816.868502	2497.891731
817.187399	2384.465769
817.506250	2404.630385
817.825058	2598.714808
818.143821	2457.562500
818.462539	2482.768269
818.781213	2477.727115
819.099843	2578.550192
819.418429	2497.891731
819.736970	2492.850577
820.055466	2389.506923
820.373919	2502.932885
820.692327	2502.932885
821.010691	2523.097500
821.329011	2490.330000
821.647286	2480.247692
821.965517	2505.453462
822.283704	2460.083077
822.601847	2515.535769
822.919945	2460.083077
823.237999	2525.618077
823.556010	2563.426731
823.873976	2480.247692
824.191897	2497.891731
824.509775	2404.630385
824.827609	2447.480192
825.145398	2555.865000
825.463144	2520.576923
825.780845	2558.385577
826.098502	2558.385577
826.416116	2482.768269
826.733685	2593.673654
827.051210	2520.576923
827.368692	2533.179808
827.686129	2507.974038
828.003522	2475.206538
828.320872	2545.782692
828.638177	2485.288846
828.955439	2520.576923
829.272656	2427.315577
829.589830	2432.356731
829.906960	2452.521346
830.224046	2452.521346
830.541088	2570.988462
830.858086	2447.480192
831.175041	2515.535769
831.491952	2530.659231
831.808819	2480.247692
832.125642	2455.041923
832.442421	2502.932885
832.759157	2497.891731
833.075849	2465.124231
833.392497	2515.535769
833.709101	2482.768269
834.025662	2540.741538
834.342179	2457.562500
834.658653	2472.685962
834.975083	2553.344423
835.291469	2560.906154
835.607811	2455.041923
835.924110	2452.521346
836.240366	2475.206538
836.556578	2480.247692
836.872746	2475.206538
837.188871	2513.015192
837.504952	2475.206538
837.820990	2502.932885
838.136984	2460.083077
838.452935	2457.562500
838.768842	2601.235385
839.084706	2447.480192
839.400526	2485.288846
839.716303	2540.741538
840.032037	2528.138654
840.347727	2450.000769
840.663373	2502.932885
840.978977	2563.426731
841.294537	2424.795000
841.610054	2497.891731
841.925527	2465.124231
842.240957	2550.823846
842.556344	2389.506923
842.871687	2427.315577
843.186987	2452.521346
843.502244	2452.521346
843.817458	2490.330000
844.132629	2460.083077
844.447756	2412.192115
844.762840	2540.741538
845.077881	2434.877308
845.392879	2515.535769
845.707833	2424.795000
846.022745	2460.083077
846.337613	2545.782692
846.652438	2427.315577
846.967221	2507.974038
847.281960	2502.932885
847.596656	2495.371154
847.911309	2462.603654
848.225919	2472.685962
848.540485	2502.932885
848.855009	2460.083077
849.169490	2513.015192
849.483928	2591.153077
849.798323	2535.700385
850.112675	2455.041923
850.426984	2535.700385
850.741251	2450.000769
851.055474	2475.206538
851.369654	2487.809423
851.683792	2507.974038
851.997887	2462.603654
852.311938	2429.836154
852.625947	2513.015192
852.939914	2482.768269
853.253837	2477.727115
853.567718	2455.041923
853.881555	2460.083077
854.195350	2560.906154
854.509103	2455.041923
854.822812	2513.015192
855.136479	2507.974038
855.450103	2470.165385
855.763685	2505.453462
856.077224	2467.644808
856.390720	2495.371154
856.704173	2502.932885
857.017584	2470.165385
857.330953	2523.097500
857.644278	2492.850577
857.957561	2457.562500
858.270802	2444.959615
858.584000	2470.165385
858.897155	2581.070769
859.210268	2409.671538
859.523339	2502.932885
859.836367	2507.974038
860.149352	2500.412308
860.462295	2520.576923
860.775195	2505.453462
861.088054	2500.412308
861.400869	2497.891731
861.713642	2404.630385
862.026373	2530.659231
862.339062	2462.603654
862.651708	2439.918462
862.964312	2578.550192
863.276873	2452.521346
863.589392	2560.906154
863.901869	2490.330000
864.214303	2530.659231
864.526696	2558.385577
864.839045	2550.823846
865.151353	2540.741538
865.463619	2434.877308
865.775842	2460.083077
866.088023	2523.097500
866.400162	2586.111923
866.712258	2601.235385
867.024313	2427.315577
867.336325	2586.111923
867.648296	2455.041923
867.960224	2528.138654
868.272110	2470.165385
868.583954	2528.138654
868.895755	2538.220962
869.207515	2513.015192
869.519233	2513.015192
869.830909	2450.000769
870.142542	2497.891731
870.454134	2437.397885
870.765684	2510.494615
871.077191	2434.877308
871.388657	2419.753846
871.700081	2397.068654
872.011463	2467.644808
872.322803	2455.041923
872.634101	2467.644808
872.945357	2555.865000
873.256571	2558.385577
873.567744	2477.727115
873.878874	2472.685962
874.189963	2528.138654
874.501010	2472.685962
874.812015	2528.138654
875.122979	2462.603654
875.433900	2465.124231
875.744780	2588.632500
876.055618	2455.041923
876.366415	2472.685962
876.677169	2500.412308
876.987882	2462.603654
877.298554	2492.850577
877.609183	2507.974038
877.919771	2515.535769
878.230317	2460.083077
878.540822	2500.412308
878.851285	2475.206538
879.161707	2502.932885
879.472087	2518.056346
879.782425	2525.618077
880.092722	2515.535769
880.402977	2437.397885
880.713191	2560.906154
881.023363	2467.644808
881.333494	2412.192115
881.643583	2432.356731
881.953631	2422.274423
882.263637	2389.506923
882.573602	2548.303269
882.883526	2429.836154
883.193408	2510.494615
883.503248	2429.836154
883.813048	2510.494615
884.122806	2528.138654
884.432522	2540.741538
884.742197	2439.918462
885.051831	2485.288846
885.361424	2379.424615
885.670975	2507.974038
885.980485	2455.041923
886.289954	2379.424615
886.599382	2558.385577
886.908768	2510.494615
887.218113	2548.303269
887.527417	2543.262115
887.836680	2475.206538
888.145901	2452.521346
888.455082	2535.700385
888.764221	2533.179808
889.073319	2475.206538
889.382376	2482.768269
889.691392	2414.712692
890.000366	2407.150962
890.309300	2450.000769
890.618193	2497.891731
890.927044	2379.424615
891.235855	2558.385577
891.544625	2487.809423
891.853353	2424.795000
892.162041	2497.891731
892.470687	2510.494615
892.779293	2487.809423
893.087858	2497.891731
893.396381	2487.809423
893.704864	2502.932885
894.013306	2490.330000
894.321707	2392.027500
894.630068	2502.932885
894.938387	2533.179808
895.246665	2480.247692
895.554903	2490.330000
895.863100	2560.906154
896.171256	2490.330000
896.479371	2530.659231
896.787446	2565.947308
897.095480	2525.618077
897.403473	2505.453462
897.711425	2530.659231
898.019336	2490.330000
898.327207	2548.303269
898.635038	2462.603654
898.942827	2437.397885
899.250576	2520.576923
899.558284	2495.371154
899.865952	2477.727115
900.173579	2520.576923
900.481165	2513.015192
900.788711	2500.412308
901.096216	2502.932885
901.403681	2538.220962
901.711105	2414.712692
902.018489	2455.041923
902.325832	2444.959615
902.633135	2475.206538
902.940397	2467.644808
903.247619	2518.056346
903.554800	2513.015192
903.861941	2563.426731
904.169041	2492.850577
904.476101	2472.685962
904.783121	2472.685962
905.090100	2455.041923
905.397039	2505.453462
905.703938	2480.247692
906.010796	2500.412308
906.317614	2570.988462
906.624391	2518.056346
906.931129	2437.397885
907.237826	2540.741538
907.544483	2399.589231
907.851099	2535.700385
908.157675	2432.356731
908.464211	2462.603654
908.770707	2510.494615
909.077163	2555.865000
909.383578	2487.809423
909.689954	2444.959615
909.996289	2505.453462
910.302584	2480.247692
910.608839	2442.439038
910.915054	2482.768269
911.221229	2457.562500
911.527363	2477.727115
911.833458	2540.741538
912.139513	2601.235385
912.445527	2475.206538
912.751502	2523.097500
913.057436	2543.262115
913.363331	2439.918462
913.669186	2369.342308
913.975000	2487.809423
914.280775	2581.070769
914.586510	2505.453462
914.892205	2485.288846
915.197859	2455.041923
915.503475	2361.780577
915.809050	2490.330000
916.114585	2492.850577
916.420081	2492.850577
916.725536	2558.385577
917.030952	2490.330000
917.336328	2540.741538
917.641665	2560.906154
917.946961	2530.659231
918.252218	2452.521346
918.557435	2455.041923
918.862612	2520.576923
919.167750	2515.535769
919.472848	2485.288846
919.777906	2495.371154
920.082925	2422.274423
920.387904	2515.535769
920.692843	2513.015192
920.997743	2588.632500
921.302603	2482.768269
921.607423	2565.947308
921.912204	2482.768269
922.216946	2510.494615
922.521647	2573.509038
922.826310	2520.576923
923.130932	2548.303269
923.435516	2460.083077
923.740059	2545.782692
924.044564	2414.712692
924.349028	2460.083077
924.653454	2497.891731
924.957840	2525.618077
925.262186	2472.685962
925.566493	2598.714808
925.870761	2550.823846
926.174989	2497.891731
926.479178	2563.426731
926.783328	2450.000769
927.087438	2548.303269
927.391509	2439.918462
927.695541	2553.344423
927.999533	2419.753846
928.303486	2490.330000
928.607400	2472.685962
928.911275	2545.782692
929.215110	2550.823846
929.518906	2444.959615
929.822663	2530.659231
930.126381	2485.288846
930.430060	2513.015192
930.733699	2495.371154
931.037299	2507.974038
931.340861	2525.618077
931.644383	2528.138654
931.947866	2465.124231
932.251309	2578.550192
932.554714	2472.685962
932.858080	2553.344423
933.161407	2432.356731
933.464694	2507.974038
933.767943	2457.562500
934.071153	2525.618077
934.374323	2545.782692
934.677455	2460.083077
934.980548	2558.385577
935.283602	2487.809423
935.586617	2553.344423
935.889593	2407.150962
936.192530	2470.165385
936.495428	2472.685962
936.798287	2462.603654
937.101108	2490.330000
937.403890	2442.439038
937.706632	2505.453462
938.009336	2530.659231
938.312002	2485.288846
938.614628	2495.371154
938.917216	2485.288846
939.219765	2513.015192
939.522275	2470.165385
939.824747	2502.932885
940.127179	2533.179808
940.429573	2553.344423
940.731929	2460.083077
941.034246	2465.124231
941.336524	2550.823846
941.638763	2434.877308
941.940964	2475.206538
942.243126	2485.288846
942.545250	2507.974038
942.847335	2570.988462
943.149381	2397.068654
943.451389	2492.850577
943.753359	2558.385577
944.055290	2366.821731
944.357182	2500.412308
944.659036	2528.138654
944.960851	2490.330000
945.262628	2437.397885
945.564367	2513.015192
945.866067	2429.836154
946.167729	2452.521346
946.469352	2500.412308
946.770937	2407.150962
947.072484	2515.535769
947.373992	2465.124231
947.675462	2399.589231
947.976893	2465.124231
948.278286	2523.097500
948.579641	2528.138654
948.880958	2492.850577
949.182236	2424.795000
949.483476	2533.179808
949.784678	2485.288846
950.085841	2523.097500
950.386967	2520.576923
950.688054	2427.315577
950.989103	2455.041923
951.290114	2507.974038
951.591087	2490.330000
951.892021	2560.906154
952.192917	2422.274423
952.493776	2507.974038
952.794596	2482.768269
953.095378	2535.700385
953.396122	2480.247692
953.696828	2500.412308
953.997496	2492.850577
954.298126	2450.000769
954.598718	2427.315577
954.899272	2500.412308
955.199788	2540.741538
955.500266	2581.070769
955.800706	2510.494615
956.101108	2513.015192
956.401472	2570.988462
956.701798	2510.494615
957.002087	2424.795000
957.302337	2535.700385
957.602550	2409.671538
957.902724	2450.000769
958.202861	2530.659231
958.502960	2523.097500
958.803022	2502.932885
959.103045	2470.165385
959.403031	2465.124231
959.702979	2419.753846
960.002889	2520.576923
960.302762	2495.371154
960.602596	2490.330000
960.902393	2447.480192
961.202153	2439.918462
961.501875	2495.371154
961.801559	2477.727115
962.101205	2480.247692
962.400814	2467.644808
962.700385	2525.618077
962.999918	2407.150962
963.299414	2417.233269
963.598873	2540.741538
963.898293	2482.768269
964.197677	2538.220962
964.497022	2472.685962
964.796331	2603.755962
965.095601	2424.795000
965.394835	2535.700385
965.694030	2477.727115
965.993189	2500.412308
966.292309	2475.206538
966.591393	2518.056346
966.890439	2507.974038
967.189447	2558.385577
967.488419	2510.494615
967.787353	2412.192115
968.086249	2462.603654
968.385108	2528.138654
968.683930	2467.644808
968.982714	2495.371154
969.281462	2465.124231
969.580172	2399.589231
969.878844	2447.480192
970.177480	2472.685962
970.476078	2452.521346
970.774639	2507.974038
971.073162	2565.947308
971.371649	2437.397885
971.670098	2475.206538
971.968510	2470.165385
972.266885	2523.097500
972.565223	2492.850577
972.863524	2487.809423
973.161788	2477.727115
973.460014	2490.330000
973.758204	2404.630385
974.056356	2450.000769
974.354471	2553.344423
974.652550	2492.850577
974.950591	2520.576923
975.248595	2543.262115
975.546563	2470.165385
975.844493	2545.782692
976.142386	2550.823846
976.440243	2535.700385
976.738062	2460.083077
977.035845	2505.453462
977.333590	2507.974038
977.631299	2470.165385
977.928971	2523.097500
978.226606	2404.630385
978.524204	2523.097500
978.821765	2523.097500
979.119290	2530.659231
979.416777	2480.247692
979.714228	2513.015192
980.011642	2455.041923
980.309020	2586.111923
980.606360	2570.988462
980.903664	2535.700385
981.200931	2530.659231
981.498162	2417.233269
981.795356	2427.315577
982.092513	2545.782692
982.389633	2452.521346
982.686717	2555.865000
982.983764	2502.932885
983.280775	2502.932885
983.577749	2422.274423
983.874686	2455.041923
984.171587	2487.809423
984.468451	2540.741538
984.765279	2535.700385
985.062070	2444.959615
985.358824	2548.303269
985.655543	2472.685962
985.952224	2465.124231
986.248869	2487.809423
986.545478	2472.685962
986.842050	2462.603654
987.138586	2475.206538
987.435086	2447.480192
987.731549	2502.932885
988.027975	2480.247692
988.324366	2485.288846
988.620719	2492.850577
988.917037	2603.755962
989.213318	2414.712692
989.509563	2470.165385
989.805772	2437.397885
990.101944	2510.494615
990.398080	2510.494615
990.694180	2422.274423
990.990244	2455.041923
991.286271	2598.714808
991.582262	2394.548077
991.878217	2510.494615
992.174136	2450.000769
992.470019	2467.644808
992.765865	2507.974038
993.061676	2467.644808
993.357450	2409.671538
993.653188	2444.959615
993.948890	2472.685962
994.244556	2548.303269
994.540186	2452.521346
994.835780	2475.206538
995.131337	2528.138654
995.426859	2515.535769
995.722345	2457.562500
996.017795	2485.288846
996.313208	2452.521346
996.608586	2442.439038
996.903928	2427.315577
997.199234	2543.262115
997.494504	2452.521346
997.789738	2470.165385
998.084936	2419.753846
998.380099	2392.027500
998.675225	2510.494615
998.970316	2364.301154
999.265371	2490.330000
999.560390	2570.988462
999.855373	2450.000769
1000.150320	2515.535769
1000.445232	2412.192115
1000.740108	2429.836154
1001.034948	2550.823846
1001.329752	2500.412308
1001.624521	2447.480192
1001.919254	2500.412308
1002.213951	2434.877308
1002.508613	2434.877308
1002.803239	2389.506923
1003.097829	2462.603654
1003.392384	2444.959615
1003.686903	2507.974038
1003.981386	2477.727115
1004.275834	2520.576923
1004.570246	2495.371154
1004.864623	2407.150962
1005.158964	2497.891731
1005.453270	2502.932885
1005.747540	2485.288846
1006.041775	2507.974038
1006.335974	2492.850577
1006.630138	2482.768269
1006.924266	2475.206538
1007.218359	2497.891731
1007.512416	2452.521346
1007.806438	2455.041923
1008.100425	2439.918462
1008.394376	2598.714808
1008.688292	2533.179808
1008.982172	2545.782692
1009.276017	2497.891731
1009.569827	2520.576923
1009.863602	2447.480192
1010.157341	2439.918462
1010.451045	2442.439038
1010.744714	2402.109808
1011.038347	2424.795000
1011.331945	2497.891731
1011.625508	2480.247692
1011.919036	2439.918462
1012.212528	2465.124231
1012.505986	2518.056346
1012.799408	2447.480192
1013.092795	2480.247692
1013.386147	2455.041923
1013.679464	2462.603654
1013.972745	2507.974038
1014.265992	2497.891731
1014.559204	2581.070769
1014.852380	2543.262115
1015.145521	2510.494615
1015.438628	2482.768269
1015.731699	2518.056346
1016.024736	2565.947308
1016.317737	2444.959615
1016.610703	2500.412308
1016.903635	2535.700385
1017.196531	2502.932885
1017.489393	2462.603654
1017.782219	2462.603654
1018.075011	2475.206538
1018.367768	2482.768269
1018.660490	2535.700385
1018.953177	2535.700385
1019.245829	2535.700385
