Dividing Wavelength (nm)	Counts (n)	Blue Motor Position (mm): 10.000000	Red Motor Position (mm): 0.000000	
326.493990	2099.640577
326.888308	2099.640577
327.282561	2099.640577
327.676750	2092.078846
328.070874	2018.982115
328.464933	2142.490385
328.858929	2061.831923
329.252859	2114.764038
329.646726	2034.105577
330.040528	2006.379231
330.434265	2119.805192
330.827938	2114.764038
331.221547	2094.599423
331.615091	2114.764038
332.008571	2177.778462
332.401986	2228.190000
332.795338	2215.587115
333.188625	2180.299038
333.581847	2281.122115
333.975006	2334.054231
334.368100	2268.519231
334.761129	2296.245577
335.154095	2394.548077
335.546996	2293.725000
335.939833	2346.657115
336.332606	2399.589231
336.725315	2356.739423
337.117960	2407.150962
337.510540	2427.315577
337.903056	2513.015192
338.295508	2444.959615
338.687896	2402.109808
339.080220	2402.109808
339.472480	2528.138654
339.864676	2439.918462
340.256807	2543.262115
340.648875	2510.494615
341.040879	2429.836154
341.432818	2548.303269
341.824694	2495.371154
342.216506	2404.630385
342.608253	2465.124231
342.999937	2465.124231
343.391557	2553.344423
343.783113	2427.315577
344.174605	2331.533654
344.566033	2507.974038
344.957397	2523.097500
345.348697	2495.371154
345.739934	2507.974038
346.131106	2409.671538
346.522215	2502.932885
346.913260	2495.371154
347.304241	2422.274423
347.695159	2417.233269
348.086012	2495.371154
348.476802	2404.630385
348.867528	2447.480192
349.258191	2480.247692
349.648789	2417.233269
350.039324	2361.780577
350.429796	2482.768269
350.820203	2452.521346
351.210548	2414.712692
351.600828	2457.562500
351.991045	2480.247692
352.381198	2434.877308
352.771288	2429.836154
353.161314	2472.685962
353.551276	2482.768269
353.941175	2460.083077
354.331010	2548.303269
354.720782	2444.959615
355.110490	2570.988462
355.500135	2455.041923
355.889717	2495.371154
356.279235	2422.274423
356.668689	2427.315577
357.058080	2480.247692
357.447408	2507.974038
357.836672	2432.356731
358.225873	2455.041923
358.615010	2402.109808
359.004084	2515.535769
359.393095	2462.603654
359.782043	2379.424615
360.170927	2452.521346
360.559748	2374.383462
360.948505	2346.657115
361.337199	2399.589231
361.725830	2465.124231
362.114398	2470.165385
362.502903	2417.233269
362.891344	2432.356731
363.279722	2389.506923
363.668037	2417.233269
364.056289	2424.795000
364.444478	2467.644808
364.832603	2465.124231
365.220665	2475.206538
365.608665	2472.685962
365.996601	2452.521346
366.384474	2472.685962
366.772284	2422.274423
367.160031	2472.685962
367.547715	2500.412308
367.935336	2450.000769
368.322893	2414.712692
368.710388	2520.576923
369.097820	2460.083077
369.485189	2429.836154
369.872495	2394.548077
370.259738	2518.056346
370.646918	2490.330000
371.034035	2510.494615
371.421090	2419.753846
371.808081	2487.809423
372.195010	2528.138654
372.581875	2429.836154
372.968678	2520.576923
373.355418	2404.630385
373.742096	2457.562500
374.128710	2513.015192
374.515262	2439.918462
374.901751	2480.247692
375.288177	2417.233269
375.674540	2518.056346
376.060841	2344.136538
376.447079	2465.124231
376.833254	2429.836154
377.219367	2427.315577
377.605417	2447.480192
377.991404	2452.521346
378.377329	2482.768269
378.763191	2560.906154
379.148991	2407.150962
379.534727	2472.685962
379.920402	2419.753846
380.306013	2500.412308
380.691563	2510.494615
381.077049	2447.480192
381.462474	2480.247692
381.847835	2465.124231
382.233134	2500.412308
382.618371	2444.959615
383.003545	2472.685962
383.388657	2409.671538
383.773706	2452.521346
384.158693	2490.330000
384.543618	2371.862885
384.928480	2515.535769
385.313280	2369.342308
385.698017	2505.453462
386.082692	2545.782692
386.467305	2455.041923
386.851856	2452.521346
387.236344	2399.589231
387.620770	2442.439038
388.005133	2477.727115
388.389435	2477.727115
388.773674	2500.412308
389.157851	2465.124231
389.541965	2480.247692
389.926018	2437.397885
390.310008	2472.685962
390.693936	2520.576923
391.077802	2563.426731
391.461606	2429.836154
391.845348	2507.974038
392.229027	2429.836154
392.612645	2465.124231
392.996200	2424.795000
393.379694	2530.659231
393.763125	2477.727115
394.146494	2460.083077
394.529801	2437.397885
394.913047	2422.274423
395.296230	2460.083077
395.679351	2482.768269
396.062410	2480.247692
396.445408	2502.932885
396.828343	2429.836154
397.211217	2505.453462
397.594028	2515.535769
397.976778	2591.153077
398.359466	2450.000769
398.742092	2500.412308
399.124656	2497.891731
399.507158	2462.603654
399.889598	2495.371154
400.271977	2429.836154
400.654294	2384.465769
401.036549	2442.439038
401.418742	2495.371154
401.800874	2447.480192
402.182944	2444.959615
402.564952	2452.521346
402.946898	2460.083077
403.328783	2442.439038
403.710606	2457.562500
404.092367	2452.521346
404.474067	2545.782692
404.855705	2545.782692
405.237282	2545.782692
405.618797	2533.179808
406.000250	2470.165385
406.381642	2507.974038
406.762972	2422.274423
407.144240	2381.945192
407.525447	2429.836154
407.906593	2404.630385
408.287677	2502.932885
408.668700	2450.000769
409.049661	2520.576923
409.430560	2429.836154
409.811399	2482.768269
410.192176	2485.288846
410.572891	2510.494615
410.953545	2419.753846
411.334138	2419.753846
411.714669	2520.576923
412.095139	2472.685962
412.475547	2525.618077
412.855894	2520.576923
413.236180	2444.959615
413.616405	2480.247692
413.996568	2439.918462
414.376670	2513.015192
414.756711	2404.630385
415.136691	2497.891731
415.516609	2475.206538
415.896466	2500.412308
416.276262	2470.165385
416.655997	2397.068654
417.035670	2407.150962
417.415283	2543.262115
417.794834	2455.041923
418.174324	2465.124231
418.553753	2543.262115
418.933121	2477.727115
419.312428	2455.041923
419.691674	2513.015192
420.070859	2447.480192
420.449983	2455.041923
420.829045	2422.274423
421.208047	2457.562500
421.586988	2439.918462
421.965867	2513.015192
422.344686	2487.809423
422.723444	2480.247692
423.102141	2462.603654
423.480777	2409.671538
423.859352	2520.576923
424.237866	2432.356731
424.616319	2450.000769
424.994712	2394.548077
425.373044	2429.836154
425.751314	2485.288846
426.129524	2555.865000
426.507673	2505.453462
426.885762	2437.397885
427.263789	2444.959615
427.641756	2447.480192
428.019662	2518.056346
428.397508	2528.138654
428.775292	2487.809423
429.153016	2507.974038
429.530679	2477.727115
429.908282	2543.262115
430.285824	2467.644808
430.663305	2507.974038
431.040726	2457.562500
431.418086	2518.056346
431.795385	2490.330000
432.172624	2538.220962
432.549802	2407.150962
432.926920	2427.315577
433.303977	2452.521346
433.680974	2505.453462
434.057910	2432.356731
434.434786	2407.150962
434.811601	2442.439038
435.188355	2434.877308
435.565050	2467.644808
435.941683	2434.877308
436.318257	2578.550192
436.694770	2434.877308
437.071222	2467.644808
437.447614	2518.056346
437.823946	2497.891731
438.200218	2452.521346
438.576429	2497.891731
438.952580	2417.233269
439.328670	2422.274423
439.704700	2477.727115
440.080670	2409.671538
440.456580	2497.891731
440.832429	2487.809423
441.208218	2460.083077
441.583947	2422.274423
441.959616	2485.288846
442.335224	2482.768269
442.710773	2523.097500
443.086261	2500.412308
443.461689	2500.412308
443.837057	2386.986346
444.212365	2500.412308
444.587612	2475.206538
444.962800	2495.371154
445.337927	2555.865000
445.712995	2538.220962
446.088002	2404.630385
446.462949	2513.015192
446.837837	2477.727115
447.212664	2467.644808
447.587431	2477.727115
447.962139	2528.138654
448.336786	2379.424615
448.711374	2452.521346
449.085901	2518.056346
449.460369	2548.303269
449.834776	2492.850577
450.209124	2444.959615
450.583412	2545.782692
450.957640	2407.150962
451.331808	2432.356731
451.705917	2535.700385
452.079965	2442.439038
452.453954	2568.467885
452.827883	2513.015192
453.201752	2495.371154
453.575562	2412.192115
453.949311	2455.041923
454.323001	2447.480192
454.696632	2480.247692
455.070202	2467.644808
455.443713	2545.782692
455.817164	2422.274423
456.190556	2518.056346
456.563888	2450.000769
456.937160	2583.591346
457.310373	2447.480192
457.683526	2450.000769
458.056619	2397.068654
458.429653	2414.712692
458.802628	2535.700385
459.175542	2402.109808
459.548398	2470.165385
459.921194	2507.974038
460.293930	2523.097500
460.666607	2523.097500
461.039224	2450.000769
461.411782	2540.741538
461.784280	2442.439038
462.156719	2439.918462
462.529099	2444.959615
462.901419	2495.371154
463.273680	2475.206538
463.645882	2525.618077
464.018024	2465.124231
464.390106	2528.138654
464.762130	2563.426731
465.134094	2437.397885
465.505999	2507.974038
465.877845	2457.562500
466.249631	2472.685962
466.621358	2444.959615
466.993026	2482.768269
467.364634	2513.015192
467.736184	2513.015192
468.107674	2565.947308
468.479105	2568.467885
468.850477	2495.371154
469.221790	2460.083077
469.593043	2424.795000
469.964238	2538.220962
470.335373	2487.809423
470.706449	2462.603654
471.077467	2470.165385
471.448425	2533.179808
471.819324	2487.809423
472.190164	2467.644808
472.560945	2555.865000
472.931667	2540.741538
473.302330	2465.124231
473.672934	2497.891731
474.043479	2472.685962
474.413965	2492.850577
474.784393	2455.041923
475.154761	2472.685962
475.525070	2477.727115
475.895321	2550.823846
476.265513	2399.589231
476.635645	2402.109808
477.005719	2530.659231
477.375734	2543.262115
477.745691	2485.288846
478.115588	2404.630385
478.485427	2581.070769
478.855207	2500.412308
479.224928	2530.659231
479.594591	2513.015192
479.964194	2452.521346
480.333739	2450.000769
480.703226	2530.659231
481.072653	2530.659231
481.442022	2455.041923
481.811333	2485.288846
482.180584	2495.371154
482.549777	2480.247692
482.918912	2485.288846
483.287988	2507.974038
483.657005	2533.179808
484.025964	2442.439038
484.394864	2535.700385
484.763706	2462.603654
485.132489	2578.550192
485.501213	2525.618077
485.869879	2470.165385
486.238487	2583.591346
486.607036	2576.029615
486.975527	2523.097500
487.343959	2452.521346
487.712333	2555.865000
488.080648	2455.041923
488.448905	2608.797115
488.817104	2505.453462
489.185244	2515.535769
489.553326	2502.932885
489.921350	2472.685962
490.289315	2523.097500
490.657222	2432.356731
491.025070	2467.644808
491.392861	2525.618077
491.760593	2525.618077
492.128267	2490.330000
492.495883	2485.288846
492.863440	2447.480192
493.230939	2543.262115
493.598380	2447.480192
493.965763	2515.535769
494.333088	2462.603654
494.700354	2568.467885
495.067563	2455.041923
495.434713	2548.303269
495.801805	2598.714808
496.168839	2611.317692
496.535815	2472.685962
496.902733	2548.303269
497.269593	2467.644808
497.636395	2513.015192
498.003139	2540.741538
498.369825	2510.494615
498.736453	2467.644808
499.103023	2482.768269
499.469535	2510.494615
499.835989	2460.083077
500.202385	2500.412308
500.568723	2477.727115
500.935003	2465.124231
501.301226	2465.124231
501.667390	2515.535769
502.033497	2455.041923
502.399546	2417.233269
502.765537	2417.233269
503.131470	2507.974038
503.497345	2573.509038
503.863163	2477.727115
504.228923	2603.755962
504.594625	2452.521346
504.960269	2457.562500
505.325856	2429.836154
505.691385	2538.220962
506.056856	2500.412308
506.422270	2439.918462
506.787625	2442.439038
507.152924	2535.700385
507.518164	2528.138654
507.883347	2470.165385
508.248472	2555.865000
508.613540	2480.247692
508.978550	2543.262115
509.343503	2502.932885
509.708398	2565.947308
510.073236	2477.727115
510.438016	2525.618077
510.802738	2525.618077
511.167403	2555.865000
511.532010	2523.097500
511.896561	2487.809423
512.261053	2482.768269
512.625488	2477.727115
512.989866	2467.644808
513.354186	2485.288846
513.718449	2553.344423
514.082655	2591.153077
514.446803	2467.644808
514.810894	2492.850577
515.174927	2553.344423
515.538904	2520.576923
515.902822	2495.371154
516.266684	2407.150962
516.630488	2490.330000
516.994235	2515.535769
517.357925	2530.659231
517.721558	2533.179808
518.085133	2492.850577
518.448651	2450.000769
518.812112	2558.385577
519.175516	2535.700385
519.538863	2470.165385
519.902152	2495.371154
520.265385	2439.918462
520.628560	2452.521346
520.991678	2588.632500
521.354739	2500.412308
521.717743	2462.603654
522.080690	2480.247692
522.443580	2465.124231
522.806413	2507.974038
523.169189	2535.700385
523.531908	2490.330000
523.894569	2520.576923
524.257174	2402.109808
524.619722	2538.220962
524.982213	2528.138654
525.344647	2500.412308
525.707025	2515.535769
526.069345	2520.576923
526.431608	2507.974038
526.793815	2472.685962
527.155964	2450.000769
527.518057	2598.714808
527.880093	2505.453462
528.242072	2502.932885
528.603995	2384.465769
528.965860	2515.535769
529.327669	2528.138654
529.689421	2518.056346
530.051117	2439.918462
530.412755	2523.097500
530.774337	2513.015192
531.135862	2502.932885
531.497331	2452.521346
531.858743	2510.494615
532.220098	2439.918462
532.581396	2530.659231
532.942638	2450.000769
533.303824	2455.041923
533.664953	2525.618077
534.026025	2500.412308
534.387040	2429.836154
534.747999	2550.823846
535.108902	2518.056346
535.469748	2548.303269
535.830537	2540.741538
536.191270	2485.288846
536.551947	2565.947308
536.912567	2528.138654
537.273131	2432.356731
537.633638	2505.453462
537.994089	2452.521346
538.354483	2543.262115
538.714821	2603.755962
539.075103	2505.453462
539.435328	2497.891731
539.795497	2485.288846
540.155609	2475.206538
540.515665	2495.371154
540.875665	2518.056346
541.235609	2543.262115
541.595496	2472.685962
541.955328	2528.138654
542.315102	2442.439038
542.674821	2533.179808
543.034483	2550.823846
543.394090	2500.412308
543.753640	2497.891731
544.113134	2455.041923
544.472571	2475.206538
544.831953	2500.412308
545.191278	2550.823846
545.550548	2437.397885
545.909761	2462.603654
546.268918	2528.138654
546.628019	2490.330000
546.987064	2439.918462
547.346053	2492.850577
547.704986	2520.576923
548.063863	2518.056346
548.422684	2465.124231
548.781449	2505.453462
549.140158	2500.412308
549.498811	2500.412308
549.857408	2487.809423
550.215949	2457.562500
550.574434	2427.315577
550.932864	2389.506923
551.291237	2455.041923
551.649555	2462.603654
552.007817	2472.685962
552.366022	2442.439038
552.724173	2510.494615
553.082267	2502.932885
553.440305	2495.371154
553.798288	2505.453462
554.156215	2480.247692
554.514086	2450.000769
554.871902	2545.782692
555.229661	2593.673654
555.587365	2467.644808
555.945014	2429.836154
556.302606	2450.000769
556.660143	2482.768269
557.017625	2490.330000
557.375050	2492.850577
557.732421	2545.782692
558.089735	2530.659231
558.446994	2450.000769
558.804197	2500.412308
559.161345	2465.124231
559.518437	2492.850577
559.875474	2444.959615
560.232455	2450.000769
560.589381	2545.782692
560.946251	2487.809423
561.303065	2429.836154
561.659825	2442.439038
562.016528	2485.288846
562.373177	2523.097500
562.729770	2507.974038
563.086307	2475.206538
563.442789	2601.235385
563.799216	2472.685962
564.155587	2485.288846
564.511904	2513.015192
564.868164	2386.986346
565.224370	2565.947308
565.580520	2409.671538
565.936615	2507.974038
566.292654	2434.877308
566.648638	2492.850577
567.004567	2613.838269
567.360441	2455.041923
567.716260	2563.426731
568.072023	2492.850577
568.427732	2460.083077
568.783385	2525.618077
569.138982	2487.809423
569.494525	2429.836154
569.850013	2576.029615
570.205445	2495.371154
570.560823	2533.179808
570.916145	2457.562500
571.271412	2364.301154
571.626625	2533.179808
571.981782	2467.644808
572.336884	2586.111923
572.691931	2513.015192
573.046923	2558.385577
573.401860	2535.700385
573.756743	2437.397885
574.111570	2538.220962
574.466342	2525.618077
574.821059	2492.850577
575.175722	2467.644808
575.530330	2507.974038
575.884882	2538.220962
576.239380	2492.850577
576.593823	2550.823846
576.948211	2492.850577
577.302544	2487.809423
577.656823	2457.562500
578.011047	2384.465769
578.365216	2475.206538
578.719330	2424.795000
579.073389	2497.891731
579.427394	2487.809423
579.781344	2497.891731
580.135239	2548.303269
580.489080	2507.974038
580.842866	2497.891731
581.196597	2477.727115
581.550273	2442.439038
581.903895	2447.480192
582.257463	2477.727115
582.610975	2513.015192
582.964434	2467.644808
583.317837	2555.865000
583.671186	2563.426731
584.024481	2502.932885
584.377721	2530.659231
584.730906	2462.603654
585.084037	2452.521346
585.437113	2490.330000
585.790135	2540.741538
586.143103	2465.124231
586.496016	2505.453462
586.848874	2444.959615
587.201679	2485.288846
587.554428	2465.124231
587.907124	2558.385577
588.259765	2598.714808
588.612352	2507.974038
588.964884	2467.644808
589.317362	2422.274423
589.669786	2528.138654
590.022155	2507.974038
590.374470	2548.303269
590.726731	2558.385577
591.078937	2424.795000
591.431090	2538.220962
591.783188	2492.850577
592.135232	2442.439038
592.487222	2548.303269
592.839157	2457.562500
593.191038	2507.974038
593.542866	2555.865000
593.894639	2530.659231
594.246358	2492.850577
594.598022	2533.179808
594.949633	2457.562500
595.301190	2507.974038
595.652692	2434.877308
596.004141	2535.700385
596.355535	2465.124231
596.706876	2457.562500
597.058162	2502.932885
597.409395	2518.056346
597.760573	2568.467885
598.111698	2472.685962
598.462768	2477.727115
598.813785	2485.288846
599.164748	2507.974038
599.515657	2432.356731
599.866511	2530.659231
600.217312	2518.056346
600.568060	2432.356731
600.918753	2392.027500
601.269392	2465.124231
601.619978	2500.412308
601.970510	2523.097500
602.320988	2581.070769
602.671412	2500.412308
603.021783	2513.015192
603.372100	2450.000769
603.722363	2525.618077
604.072572	2485.288846
604.422728	2475.206538
604.772830	2510.494615
605.122878	2394.548077
605.472872	2558.385577
605.822813	2497.891731
606.172701	2548.303269
606.522534	2444.959615
606.872314	2442.439038
607.222041	2452.521346
607.571714	2593.673654
607.921333	2518.056346
608.270899	2518.056346
608.620411	2505.453462
608.969870	2444.959615
609.319276	2535.700385
609.668627	2477.727115
610.017926	2543.262115
610.367171	2467.644808
610.716362	2548.303269
611.065500	2568.467885
611.414585	2553.344423
611.763616	2439.918462
612.112594	2502.932885
612.461518	2482.768269
612.810389	2538.220962
613.159207	2455.041923
613.507971	2550.823846
613.856682	2434.877308
614.205340	2505.453462
614.553945	2472.685962
614.902496	2553.344423
615.250994	2480.247692
615.599439	2452.521346
615.947830	2523.097500
616.296169	2480.247692
616.644454	2596.194231
616.992686	2444.959615
617.340864	2545.782692
617.688990	2470.165385
618.037063	2505.453462
618.385082	2588.632500
618.733048	2452.521346
619.080961	2543.262115
619.428821	2550.823846
619.776628	2402.109808
620.124382	2447.480192
620.472083	2510.494615
620.819731	2460.083077
621.167326	2434.877308
621.514868	2414.712692
621.862357	2477.727115
622.209793	2515.535769
622.557176	2500.412308
622.904506	2422.274423
623.251783	2518.056346
623.599007	2518.056346
623.946179	2518.056346
624.293297	2450.000769
624.640363	2560.906154
624.987376	2422.274423
625.334336	2523.097500
625.681243	2497.891731
626.028097	2535.700385
626.374899	2374.383462
626.721647	2530.659231
627.068343	2409.671538
627.414987	2407.150962
627.761577	2422.274423
628.108115	2477.727115
628.454600	2565.947308
628.801032	2485.288846
629.147412	2502.932885
629.493739	2450.000769
629.840014	2528.138654
630.186236	2523.097500
630.532405	2482.768269
630.878521	2475.206538
631.224585	2460.083077
631.570597	2492.850577
631.916556	2520.576923
632.262462	2530.659231
632.608316	2533.179808
632.954117	2555.865000
633.299866	2510.494615
633.645562	2470.165385
633.991206	2470.165385
634.336797	2510.494615
634.682336	2563.426731
635.027823	2515.535769
635.373257	2424.795000
635.718639	2500.412308
636.063968	2434.877308
636.409245	2560.906154
636.754470	2482.768269
637.099642	2533.179808
637.444762	2525.618077
637.789829	2467.644808
638.134845	2515.535769
638.479808	2455.041923
638.824719	2505.453462
639.169577	2497.891731
639.514383	2482.768269
639.859137	2528.138654
640.203839	2578.550192
640.548489	2573.509038
640.893086	2467.644808
641.237632	2565.947308
641.582125	2452.521346
641.926566	2497.891731
642.270955	2414.712692
642.615292	2452.521346
642.959576	2492.850577
643.303809	2414.712692
643.647990	2507.974038
643.992118	2482.768269
644.336195	2505.453462
644.680219	2510.494615
645.024192	2543.262115
645.368112	2482.768269
645.711981	2490.330000
646.055797	2487.809423
646.399562	2455.041923
646.743274	2596.194231
647.086935	2470.165385
647.430544	2535.700385
647.774101	2558.385577
648.117606	2487.809423
648.461059	2578.550192
648.804460	2606.276538
649.147810	2497.891731
649.491108	2518.056346
649.834354	2497.891731
650.177548	2528.138654
650.520690	2523.097500
650.863781	2427.315577
651.206820	2583.591346
651.549807	2568.467885
651.892742	2528.138654
652.235626	2550.823846
652.578458	2447.480192
652.921238	2530.659231
653.263967	2507.974038
653.606644	2442.439038
653.949269	2520.576923
654.291843	2573.509038
654.634365	2490.330000
654.976836	2507.974038
655.319255	2475.206538
655.661622	2480.247692
656.003938	2505.453462
656.346203	2475.206538
656.688416	2457.562500
657.030577	2578.550192
657.372687	2414.712692
657.714746	2427.315577
658.056753	2513.015192
658.398708	2457.562500
658.740612	2523.097500
659.082465	2513.015192
659.424266	2548.303269
659.766016	2586.111923
660.107715	2497.891731
660.449362	2530.659231
660.790958	2510.494615
661.132503	2492.850577
661.473996	2548.303269
661.815438	2452.521346
662.156829	2505.453462
662.498168	2480.247692
662.839456	2550.823846
663.180693	2467.644808
663.521879	2525.618077
663.863013	2457.562500
664.204097	2409.671538
664.545129	2596.194231
664.886110	2528.138654
665.227040	2568.467885
665.567918	2442.439038
665.908746	2434.877308
666.249522	2553.344423
666.590248	2427.315577
666.930922	2528.138654
667.271545	2510.494615
667.612118	2502.932885
667.952639	2530.659231
668.293109	2462.603654
668.633528	2482.768269
668.973896	2510.494615
669.314213	2455.041923
669.654480	2500.412308
669.994695	2500.412308
670.334859	2455.041923
670.674973	2505.453462
671.015035	2482.768269
671.355047	2500.412308
671.695008	2470.165385
672.034918	2497.891731
672.374777	2457.562500
672.714585	2480.247692
673.054342	2550.823846
673.394049	2505.453462
673.733705	2472.685962
674.073310	2543.262115
674.412864	2434.877308
674.752368	2485.288846
675.091820	2482.768269
675.431223	2419.753846
675.770574	2475.206538
676.109875	2507.974038
676.449125	2447.480192
676.788324	2460.083077
677.127473	2525.618077
677.466571	2497.891731
677.805619	2548.303269
678.144616	2472.685962
678.483562	2444.959615
678.822458	2533.179808
679.161303	2553.344423
679.500098	2482.768269
679.838842	2540.741538
680.177535	2497.891731
680.516179	2500.412308
680.854771	2525.618077
681.193314	2565.947308
681.531805	2495.371154
681.870247	2538.220962
682.208638	2530.659231
682.546978	2497.891731
682.885268	2502.932885
683.223508	2548.303269
683.561697	2432.356731
683.899836	2520.576923
684.237925	2412.192115
684.575963	2475.206538
684.913951	2518.056346
685.251889	2550.823846
685.589776	2429.836154
685.927614	2505.453462
686.265401	2563.426731
686.603137	2487.809423
686.940824	2450.000769
687.278460	2475.206538
687.616046	2422.274423
687.953582	2545.782692
688.291068	2482.768269
688.628504	2404.630385
688.965889	2502.932885
689.303224	2505.453462
689.640510	2492.850577
689.977745	2465.124231
690.314930	2543.262115
690.652065	2450.000769
690.989150	2482.768269
691.326185	2606.276538
691.663170	2452.521346
692.000105	2490.330000
692.336990	2530.659231
692.673825	2465.124231
693.010610	2462.603654
693.347345	2555.865000
693.684030	2495.371154
694.020665	2560.906154
694.357251	2482.768269
694.693786	2581.070769
695.030272	2513.015192
695.366707	2502.932885
695.703093	2429.836154
696.039429	2540.741538
696.375716	2530.659231
696.711952	2581.070769
697.048139	2450.000769
697.384276	2510.494615
697.720363	2409.671538
698.056400	2525.618077
698.392388	2520.576923
698.728326	2450.000769
699.064214	2515.535769
699.400053	2495.371154
699.735842	2593.673654
700.071581	2560.906154
700.407270	2505.453462
700.742910	2553.344423
701.078501	2507.974038
701.414042	2515.535769
701.749533	2480.247692
702.084974	2482.768269
702.420366	2545.782692
702.755709	2507.974038
703.091002	2366.821731
703.426246	2545.782692
703.761440	2465.124231
704.096584	2528.138654
704.431679	2467.644808
704.766725	2497.891731
705.101721	2447.480192
705.436668	2533.179808
705.771565	2447.480192
706.106413	2437.397885
706.441212	2397.068654
706.775961	2513.015192
707.110661	2455.041923
707.445311	2502.932885
707.779913	2528.138654
708.114465	2457.562500
708.448967	2490.330000
708.783421	2467.644808
709.117825	2465.124231
709.452180	2533.179808
709.786485	2497.891731
710.120742	2409.671538
710.454949	2442.439038
710.789107	2487.809423
711.123216	2465.124231
711.457275	2507.974038
711.791286	2586.111923
712.125247	2444.959615
712.459159	2457.562500
712.793023	2482.768269
713.126837	2507.974038
713.460602	2467.644808
713.794318	2553.344423
714.127985	2452.521346
714.461602	2495.371154
714.795171	2442.439038
715.128691	2432.356731
715.462162	2586.111923
715.795584	2535.700385
716.128957	2477.727115
716.462281	2505.453462
716.795556	2465.124231
717.128782	2518.056346
717.461960	2432.356731
717.795088	2376.904038
718.128167	2568.467885
718.461198	2462.603654
718.794180	2502.932885
719.127113	2414.712692
719.459997	2447.480192
719.792833	2568.467885
720.125619	2450.000769
720.458357	2495.371154
720.791046	2447.480192
721.123686	2407.150962
721.456278	2583.591346
721.788821	2555.865000
722.121315	2497.891731
722.453761	2528.138654
722.786158	2548.303269
723.118506	2429.836154
723.450805	2533.179808
723.783056	2528.138654
724.115259	2497.891731
724.447412	2487.809423
724.779518	2480.247692
725.111574	2515.535769
725.443582	2447.480192
725.775542	2437.397885
726.107453	2533.179808
726.439315	2535.700385
726.771129	2553.344423
727.102895	2422.274423
727.434612	2492.850577
727.766281	2444.959615
728.097901	2497.891731
728.429473	2490.330000
728.760996	2490.330000
729.092471	2424.795000
729.423897	2518.056346
729.755276	2533.179808
730.086606	2434.877308
730.417887	2530.659231
730.749120	2513.015192
731.080305	2538.220962
731.411442	2470.165385
731.742530	2422.274423
732.073570	2550.823846
732.404562	2525.618077
732.735506	2528.138654
733.066401	2439.918462
733.397249	2490.330000
733.728048	2444.959615
734.058798	2523.097500
734.389501	2477.727115
734.720156	2500.412308
735.050762	2500.412308
735.381320	2523.097500
735.711831	2535.700385
736.042293	2492.850577
736.372707	2525.618077
736.703073	2480.247692
737.033391	2525.618077
737.363661	2518.056346
737.693883	2480.247692
738.024056	2477.727115
738.354182	2424.795000
738.684260	2477.727115
739.014290	2477.727115
739.344272	2530.659231
739.674207	2462.603654
740.004093	2543.262115
740.333931	2528.138654
740.663722	2462.603654
740.993464	2505.453462
741.323159	2444.959615
741.652806	2540.741538
741.982405	2452.521346
742.311956	2515.535769
742.641460	2452.521346
742.970915	2422.274423
743.300323	2505.453462
743.629683	2460.083077
743.958996	2513.015192
744.288260	2490.330000
744.617477	2515.535769
744.946647	2487.809423
745.275768	2515.535769
745.604842	2455.041923
745.933869	2470.165385
746.262847	2477.727115
746.591778	2533.179808
746.920662	2563.426731
747.249498	2502.932885
747.578286	2490.330000
747.907027	2467.644808
748.235720	2550.823846
748.564365	2485.288846
748.892963	2485.288846
749.221514	2480.247692
749.550017	2407.150962
749.878473	2525.618077
750.206881	2477.727115
750.535242	2497.891731
750.863555	2455.041923
751.191821	2518.056346
751.520039	2412.192115
751.848210	2472.685962
752.176334	2563.426731
752.504411	2442.439038
752.832440	2538.220962
753.160421	2550.823846
753.488356	2535.700385
753.816243	2450.000769
754.144082	2535.700385
754.471875	2482.768269
754.799620	2485.288846
755.127318	2533.179808
755.454969	2576.029615
755.782572	2533.179808
756.110129	2475.206538
756.437638	2427.315577
756.765100	2404.630385
757.092515	2528.138654
757.419882	2470.165385
757.747203	2437.397885
758.074477	2548.303269
758.401703	2487.809423
758.728882	2502.932885
759.056014	2460.083077
759.383099	2553.344423
759.710138	2507.974038
760.037129	2452.521346
760.364073	2535.700385
760.690970	2510.494615
761.017820	2560.906154
761.344623	2513.015192
761.671379	2510.494615
761.998088	2513.015192
762.324751	2460.083077
762.651366	2540.741538
762.977935	2460.083077
763.304456	2460.083077
763.630931	2465.124231
763.957359	2500.412308
764.283740	2505.453462
764.610074	2520.576923
764.936362	2495.371154
765.262602	2558.385577
765.588796	2530.659231
765.914943	2422.274423
766.241044	2450.000769
766.567097	2472.685962
766.893104	2462.603654
767.219064	2525.618077
767.544978	2490.330000
767.870845	2500.412308
768.196665	2485.288846
768.522438	2510.494615
768.848165	2477.727115
769.173846	2434.877308
769.499479	2545.782692
769.825066	2538.220962
770.150607	2525.618077
770.476101	2477.727115
770.801548	2593.673654
771.126949	2437.397885
771.452303	2472.685962
771.777611	2502.932885
772.102872	2412.192115
772.428087	2535.700385
772.753256	2397.068654
773.078378	2490.330000
773.403453	2399.589231
773.728482	2535.700385
774.053465	2417.233269
774.378401	2502.932885
774.703291	2424.795000
775.028135	2455.041923
775.352932	2447.480192
775.677683	2497.891731
776.002388	2540.741538
776.327046	2467.644808
776.651658	2452.521346
776.976224	2507.974038
777.300743	2538.220962
777.625216	2505.453462
777.949643	2462.603654
778.274024	2465.124231
778.598359	2432.356731
778.922647	2497.891731
779.246889	2482.768269
779.571086	2460.083077
779.895236	2462.603654
780.219339	2505.453462
780.543397	2513.015192
780.867409	2485.288846
781.191374	2450.000769
781.515294	2485.288846
781.839167	2538.220962
782.162995	2475.206538
782.486776	2462.603654
782.810511	2485.288846
783.134201	2462.603654
783.457844	2518.056346
783.781441	2533.179808
784.104993	2480.247692
784.428498	2447.480192
784.751958	2530.659231
785.075372	2502.932885
785.398739	2424.795000
785.722061	2500.412308
786.045337	2533.179808
786.368568	2520.576923
786.691752	2525.618077
787.014891	2472.685962
787.337983	2510.494615
787.661030	2444.959615
787.984031	2520.576923
788.306987	2472.685962
788.629897	2460.083077
788.952760	2535.700385
789.275579	2502.932885
789.598351	2470.165385
789.921078	2495.371154
790.243759	2550.823846
790.566395	2513.015192
790.888984	2530.659231
791.211529	2465.124231
791.534027	2528.138654
791.856480	2455.041923
792.178888	2515.535769
792.501249	2465.124231
792.823566	2528.138654
793.145836	2497.891731
793.468062	2623.920577
793.790241	2472.685962
794.112375	2538.220962
794.434464	2518.056346
794.756507	2518.056346
795.078505	2505.453462
795.400457	2555.865000
795.722364	2442.439038
796.044226	2523.097500
796.366042	2487.809423
796.687812	2518.056346
797.009538	2518.056346
797.331218	2505.453462
797.652852	2495.371154
797.974442	2392.027500
798.295986	2563.426731
798.617484	2513.015192
798.938938	2543.262115
799.260346	2558.385577
799.581709	2525.618077
799.903026	2505.453462
800.224299	2475.206538
800.545526	2530.659231
800.866708	2523.097500
801.187845	2497.891731
801.508936	2422.274423
801.829983	2472.685962
802.150984	2434.877308
802.471940	2475.206538
802.792851	2392.027500
803.113717	2389.506923
803.434538	2525.618077
803.755314	2472.685962
804.076045	2502.932885
804.396731	2455.041923
804.717372	2444.959615
805.037967	2523.097500
805.358518	2480.247692
805.679024	2520.576923
805.999485	2427.315577
806.319901	2472.685962
806.640272	2560.906154
806.960598	2510.494615
807.280879	2485.288846
807.601115	2523.097500
807.921306	2450.000769
808.241453	2485.288846
808.561554	2586.111923
808.881611	2457.562500
809.201623	2444.959615
809.521590	2460.083077
809.841513	2518.056346
810.161390	2513.015192
810.481223	2497.891731
810.801011	2467.644808
811.120755	2394.548077
811.440453	2497.891731
811.760107	2409.671538
812.079716	2528.138654
812.399281	2452.521346
812.718801	2462.603654
813.038276	2412.192115
813.357707	2485.288846
813.677093	2538.220962
813.996434	2550.823846
814.315731	2439.918462
814.634983	2535.700385
814.954191	2467.644808
815.273354	2507.974038
815.592473	2460.083077
815.911547	2439.918462
816.230577	2538.220962
816.549562	2492.850577
816.868502	2497.891731
817.187399	2581.070769
817.506250	2570.988462
817.825058	2548.303269
818.143821	2540.741538
818.462539	2497.891731
818.781213	2520.576923
819.099843	2495.371154
819.418429	2452.521346
819.736970	2465.124231
820.055466	2462.603654
820.373919	2460.083077
820.692327	2472.685962
821.010691	2535.700385
821.329011	2442.439038
821.647286	2576.029615
821.965517	2470.165385
822.283704	2520.576923
822.601847	2452.521346
822.919945	2530.659231
823.237999	2507.974038
823.556010	2434.877308
823.873976	2570.988462
824.191897	2480.247692
824.509775	2485.288846
824.827609	2507.974038
825.145398	2548.303269
825.463144	2530.659231
825.780845	2510.494615
826.098502	2422.274423
826.416116	2553.344423
826.733685	2482.768269
827.051210	2439.918462
827.368692	2505.453462
827.686129	2520.576923
828.003522	2460.083077
828.320872	2505.453462
828.638177	2570.988462
828.955439	2442.439038
829.272656	2485.288846
829.589830	2510.494615
829.906960	2437.397885
830.224046	2480.247692
830.541088	2409.671538
830.858086	2477.727115
831.175041	2450.000769
831.491952	2548.303269
831.808819	2581.070769
832.125642	2540.741538
832.442421	2543.262115
832.759157	2439.918462
833.075849	2533.179808
833.392497	2475.206538
833.709101	2515.535769
834.025662	2475.206538
834.342179	2480.247692
834.658653	2485.288846
834.975083	2497.891731
835.291469	2447.480192
835.607811	2538.220962
835.924110	2495.371154
836.240366	2457.562500
836.556578	2467.644808
836.872746	2402.109808
837.188871	2513.015192
837.504952	2518.056346
837.820990	2487.809423
838.136984	2457.562500
838.452935	2500.412308
838.768842	2510.494615
839.084706	2528.138654
839.400526	2442.439038
839.716303	2548.303269
840.032037	2555.865000
840.347727	2500.412308
840.663373	2523.097500
840.978977	2530.659231
841.294537	2513.015192
841.610054	2477.727115
841.925527	2475.206538
842.240957	2429.836154
842.556344	2394.548077
842.871687	2515.535769
843.186987	2467.644808
843.502244	2497.891731
843.817458	2520.576923
844.132629	2442.439038
844.447756	2507.974038
844.762840	2452.521346
845.077881	2543.262115
845.392879	2429.836154
845.707833	2399.589231
846.022745	2386.986346
846.337613	2555.865000
846.652438	2510.494615
846.967221	2515.535769
847.281960	2505.453462
847.596656	2502.932885
847.911309	2462.603654
848.225919	2444.959615
848.540485	2432.356731
848.855009	2462.603654
849.169490	2535.700385
849.483928	2525.618077
849.798323	2487.809423
850.112675	2570.988462
850.426984	2495.371154
850.741251	2593.673654
851.055474	2412.192115
851.369654	2397.068654
851.683792	2555.865000
851.997887	2437.397885
852.311938	2510.494615
852.625947	2525.618077
852.939914	2422.274423
853.253837	2442.439038
853.567718	2558.385577
853.881555	2444.959615
854.195350	2528.138654
854.509103	2505.453462
854.822812	2439.918462
855.136479	2467.644808
855.450103	2457.562500
855.763685	2568.467885
856.077224	2467.644808
856.390720	2560.906154
856.704173	2533.179808
857.017584	2432.356731
857.330953	2487.809423
857.644278	2513.015192
857.957561	2444.959615
858.270802	2434.877308
858.584000	2450.000769
858.897155	2482.768269
859.210268	2450.000769
859.523339	2528.138654
859.836367	2523.097500
860.149352	2515.535769
860.462295	2525.618077
860.775195	2540.741538
861.088054	2452.521346
861.400869	2495.371154
861.713642	2432.356731
862.026373	2497.891731
862.339062	2444.959615
862.651708	2470.165385
862.964312	2518.056346
863.276873	2570.988462
863.589392	2472.685962
863.901869	2462.603654
864.214303	2540.741538
864.526696	2528.138654
864.839045	2510.494615
865.151353	2515.535769
865.463619	2455.041923
865.775842	2560.906154
866.088023	2482.768269
866.400162	2399.589231
866.712258	2447.480192
867.024313	2462.603654
867.336325	2475.206538
867.648296	2485.288846
867.960224	2550.823846
868.272110	2497.891731
868.583954	2525.618077
868.895755	2502.932885
869.207515	2528.138654
869.519233	2485.288846
869.830909	2467.644808
870.142542	2553.344423
870.454134	2444.959615
870.765684	2543.262115
871.077191	2538.220962
871.388657	2472.685962
871.700081	2444.959615
872.011463	2533.179808
872.322803	2485.288846
872.634101	2487.809423
872.945357	2419.753846
873.256571	2442.439038
873.567744	2470.165385
873.878874	2407.150962
874.189963	2462.603654
874.501010	2455.041923
874.812015	2434.877308
875.122979	2485.288846
875.433900	2386.986346
875.744780	2465.124231
876.055618	2437.397885
876.366415	2538.220962
876.677169	2482.768269
876.987882	2432.356731
877.298554	2538.220962
877.609183	2603.755962
877.919771	2442.439038
878.230317	2530.659231
878.540822	2470.165385
878.851285	2442.439038
879.161707	2470.165385
879.472087	2505.453462
879.782425	2565.947308
880.092722	2470.165385
880.402977	2389.506923
880.713191	2500.412308
881.023363	2538.220962
881.333494	2502.932885
881.643583	2434.877308
881.953631	2540.741538
882.263637	2535.700385
882.573602	2588.632500
882.883526	2475.206538
883.193408	2457.562500
883.503248	2439.918462
883.813048	2513.015192
884.122806	2477.727115
884.432522	2497.891731
884.742197	2437.397885
885.051831	2480.247692
885.361424	2545.782692
885.670975	2568.467885
885.980485	2477.727115
886.289954	2452.521346
886.599382	2500.412308
886.908768	2507.974038
887.218113	2492.850577
887.527417	2513.015192
887.836680	2450.000769
888.145901	2525.618077
888.455082	2492.850577
888.764221	2470.165385
889.073319	2500.412308
889.382376	2505.453462
889.691392	2442.439038
890.000366	2465.124231
890.309300	2450.000769
890.618193	2439.918462
890.927044	2548.303269
891.235855	2470.165385
891.544625	2492.850577
891.853353	2439.918462
892.162041	2495.371154
892.470687	2487.809423
892.779293	2530.659231
893.087858	2399.589231
893.396381	2439.918462
893.704864	2528.138654
894.013306	2437.397885
894.321707	2475.206538
894.630068	2550.823846
894.938387	2439.918462
895.246665	2528.138654
895.554903	2507.974038
895.863100	2432.356731
896.171256	2581.070769
896.479371	2414.712692
896.787446	2452.521346
897.095480	2452.521346
897.403473	2525.618077
897.711425	2535.700385
898.019336	2487.809423
898.327207	2465.124231
898.635038	2540.741538
898.942827	2442.439038
899.250576	2472.685962
899.558284	2528.138654
899.865952	2432.356731
900.173579	2450.000769
900.481165	2429.836154
900.788711	2490.330000
901.096216	2583.591346
901.403681	2500.412308
901.711105	2540.741538
902.018489	2465.124231
902.325832	2520.576923
902.633135	2485.288846
902.940397	2460.083077
903.247619	2475.206538
903.554800	2578.550192
903.861941	2535.700385
904.169041	2477.727115
904.476101	2520.576923
904.783121	2523.097500
905.090100	2507.974038
905.397039	2492.850577
905.703938	2543.262115
906.010796	2480.247692
906.317614	2470.165385
906.624391	2497.891731
906.931129	2465.124231
907.237826	2460.083077
907.544483	2444.959615
907.851099	2495.371154
908.157675	2507.974038
908.464211	2477.727115
908.770707	2429.836154
909.077163	2518.056346
909.383578	2452.521346
909.689954	2482.768269
909.996289	2442.439038
910.302584	2505.453462
910.608839	2573.509038
910.915054	2515.535769
911.221229	2470.165385
911.527363	2490.330000
911.833458	2447.480192
912.139513	2555.865000
912.445527	2477.727115
912.751502	2560.906154
913.057436	2444.959615
913.363331	2492.850577
913.669186	2442.439038
913.975000	2467.644808
914.280775	2495.371154
914.586510	2497.891731
914.892205	2581.070769
915.197859	2444.959615
915.503475	2543.262115
915.809050	2497.891731
916.114585	2523.097500
916.420081	2576.029615
916.725536	2422.274423
917.030952	2530.659231
917.336328	2467.644808
917.641665	2510.494615
917.946961	2492.850577
918.252218	2525.618077
918.557435	2465.124231
918.862612	2432.356731
919.167750	2550.823846
919.472848	2379.424615
919.777906	2507.974038
920.082925	2482.768269
920.387904	2565.947308
920.692843	2455.041923
920.997743	2490.330000
921.302603	2563.426731
921.607423	2450.000769
921.912204	2427.315577
922.216946	2533.179808
922.521647	2550.823846
922.826310	2500.412308
923.130932	2601.235385
923.435516	2452.521346
923.740059	2515.535769
924.044564	2465.124231
924.349028	2465.124231
924.653454	2525.618077
924.957840	2495.371154
925.262186	2452.521346
925.566493	2487.809423
925.870761	2452.521346
926.174989	2543.262115
926.479178	2402.109808
926.783328	2475.206538
927.087438	2573.509038
927.391509	2495.371154
927.695541	2475.206538
927.999533	2439.918462
928.303486	2462.603654
928.607400	2460.083077
928.911275	2507.974038
929.215110	2487.809423
929.518906	2530.659231
929.822663	2465.124231
930.126381	2495.371154
930.430060	2573.509038
930.733699	2523.097500
931.037299	2490.330000
931.340861	2407.150962
931.644383	2497.891731
931.947866	2470.165385
932.251309	2545.782692
932.554714	2480.247692
932.858080	2447.480192
933.161407	2523.097500
933.464694	2500.412308
933.767943	2518.056346
934.071153	2510.494615
934.374323	2467.644808
934.677455	2545.782692
934.980548	2500.412308
935.283602	2543.262115
935.586617	2581.070769
935.889593	2513.015192
936.192530	2437.397885
936.495428	2535.700385
936.798287	2515.535769
937.101108	2525.618077
937.403890	2591.153077
937.706632	2442.439038
938.009336	2513.015192
938.312002	2462.603654
938.614628	2518.056346
938.917216	2495.371154
939.219765	2470.165385
939.522275	2560.906154
939.824747	2470.165385
940.127179	2558.385577
940.429573	2548.303269
940.731929	2455.041923
941.034246	2570.988462
941.336524	2535.700385
941.638763	2518.056346
941.940964	2502.932885
942.243126	2502.932885
942.545250	2505.453462
942.847335	2452.521346
943.149381	2502.932885
943.451389	2500.412308
943.753359	2444.959615
944.055290	2422.274423
944.357182	2460.083077
944.659036	2470.165385
944.960851	2515.535769
945.262628	2392.027500
945.564367	2419.753846
945.866067	2515.535769
946.167729	2480.247692
946.469352	2412.192115
946.770937	2429.836154
947.072484	2490.330000
947.373992	2452.521346
947.675462	2510.494615
947.976893	2495.371154
948.278286	2555.865000
948.579641	2515.535769
948.880958	2560.906154
949.182236	2535.700385
949.483476	2497.891731
949.784678	2457.562500
950.085841	2422.274423
950.386967	2560.906154
950.688054	2507.974038
950.989103	2497.891731
951.290114	2583.591346
951.591087	2480.247692
951.892021	2475.206538
952.192917	2528.138654
952.493776	2497.891731
952.794596	2475.206538
953.095378	2465.124231
953.396122	2543.262115
953.696828	2548.303269
953.997496	2487.809423
954.298126	2548.303269
954.598718	2523.097500
954.899272	2490.330000
955.199788	2523.097500
955.500266	2472.685962
955.800706	2598.714808
956.101108	2465.124231
956.401472	2510.494615
956.701798	2570.988462
957.002087	2581.070769
957.302337	2497.891731
957.602550	2502.932885
957.902724	2455.041923
958.202861	2510.494615
958.502960	2434.877308
958.803022	2472.685962
959.103045	2429.836154
959.403031	2477.727115
959.702979	2434.877308
960.002889	2482.768269
960.302762	2444.959615
960.602596	2515.535769
960.902393	2513.015192
961.202153	2392.027500
961.501875	2399.589231
961.801559	2502.932885
962.101205	2467.644808
962.400814	2540.741538
962.700385	2490.330000
962.999918	2455.041923
963.299414	2510.494615
963.598873	2482.768269
963.898293	2500.412308
964.197677	2455.041923
964.497022	2452.521346
964.796331	2470.165385
965.095601	2480.247692
965.394835	2429.836154
965.694030	2467.644808
965.993189	2515.535769
966.292309	2480.247692
966.591393	2465.124231
966.890439	2414.712692
967.189447	2528.138654
967.488419	2437.397885
967.787353	2490.330000
968.086249	2482.768269
968.385108	2528.138654
968.683930	2583.591346
968.982714	2467.644808
969.281462	2465.124231
969.580172	2545.782692
969.878844	2407.150962
970.177480	2555.865000
970.476078	2462.603654
970.774639	2543.262115
971.073162	2477.727115
971.371649	2507.974038
971.670098	2462.603654
971.968510	2444.959615
972.266885	2500.412308
972.565223	2502.932885
972.863524	2538.220962
973.161788	2444.959615
973.460014	2417.233269
973.758204	2450.000769
974.056356	2455.041923
974.354471	2593.673654
974.652550	2502.932885
974.950591	2568.467885
975.248595	2475.206538
975.546563	2462.603654
975.844493	2465.124231
976.142386	2510.494615
976.440243	2467.644808
976.738062	2497.891731
977.035845	2530.659231
977.333590	2502.932885
977.631299	2465.124231
977.928971	2502.932885
978.226606	2477.727115
978.524204	2525.618077
978.821765	2429.836154
979.119290	2507.974038
979.416777	2505.453462
979.714228	2432.356731
980.011642	2502.932885
980.309020	2560.906154
980.606360	2477.727115
980.903664	2533.179808
981.200931	2465.124231
981.498162	2525.618077
981.795356	2510.494615
982.092513	2487.809423
982.389633	2475.206538
982.686717	2412.192115
982.983764	2462.603654
983.280775	2444.959615
983.577749	2548.303269
983.874686	2432.356731
984.171587	2394.548077
984.468451	2465.124231
984.765279	2523.097500
985.062070	2507.974038
985.358824	2495.371154
985.655543	2528.138654
985.952224	2528.138654
986.248869	2444.959615
986.545478	2351.698269
986.842050	2543.262115
987.138586	2412.192115
987.435086	2487.809423
987.731549	2351.698269
988.027975	2444.959615
988.324366	2455.041923
988.620719	2505.453462
988.917037	2578.550192
989.213318	2525.618077
989.509563	2422.274423
989.805772	2528.138654
990.101944	2583.591346
990.398080	2528.138654
990.694180	2467.644808
990.990244	2475.206538
991.286271	2477.727115
991.582262	2505.453462
991.878217	2578.550192
992.174136	2523.097500
992.470019	2427.315577
992.765865	2417.233269
993.061676	2543.262115
993.357450	2492.850577
993.653188	2520.576923
993.948890	2492.850577
994.244556	2467.644808
994.540186	2490.330000
994.835780	2455.041923
995.131337	2520.576923
995.426859	2475.206538
995.722345	2518.056346
996.017795	2460.083077
996.313208	2447.480192
996.608586	2460.083077
996.903928	2523.097500
997.199234	2457.562500
997.494504	2520.576923
997.789738	2447.480192
998.084936	2465.124231
998.380099	2495.371154
998.675225	2502.932885
998.970316	2485.288846
999.265371	2497.891731
999.560390	2487.809423
999.855373	2482.768269
1000.150320	2470.165385
1000.445232	2497.891731
1000.740108	2502.932885
1001.034948	2507.974038
1001.329752	2490.330000
1001.624521	2419.753846
1001.919254	2492.850577
1002.213951	2495.371154
1002.508613	2447.480192
1002.803239	2404.630385
1003.097829	2429.836154
1003.392384	2545.782692
1003.686903	2528.138654
1003.981386	2538.220962
1004.275834	2432.356731
1004.570246	2515.535769
1004.864623	2472.685962
1005.158964	2492.850577
1005.453270	2497.891731
1005.747540	2455.041923
1006.041775	2472.685962
1006.335974	2480.247692
1006.630138	2490.330000
1006.924266	2548.303269
1007.218359	2548.303269
1007.512416	2409.671538
1007.806438	2560.906154
1008.100425	2535.700385
1008.394376	2533.179808
1008.688292	2482.768269
1008.982172	2470.165385
1009.276017	2581.070769
1009.569827	2523.097500
1009.863602	2434.877308
1010.157341	2586.111923
1010.451045	2540.741538
1010.744714	2560.906154
1011.038347	2505.453462
1011.331945	2523.097500
1011.625508	2497.891731
1011.919036	2525.618077
1012.212528	2490.330000
1012.505986	2457.562500
1012.799408	2439.918462
1013.092795	2381.945192
1013.386147	2543.262115
1013.679464	2480.247692
1013.972745	2457.562500
1014.265992	2480.247692
1014.559204	2525.618077
1014.852380	2515.535769
1015.145521	2414.712692
1015.438628	2563.426731
1015.731699	2495.371154
1016.024736	2487.809423
1016.317737	2502.932885
1016.610703	2462.603654
1016.903635	2505.453462
1017.196531	2482.768269
1017.489393	2477.727115
1017.782219	2495.371154
1018.075011	2510.494615
1018.367768	2487.809423
1018.660490	2525.618077
1018.953177	2525.618077
1019.245829	2525.618077
