Dividing Wavelength (nm)	Counts (n)	Blue Motor Position (mm): 8.100000	Red Motor Position (mm): 0.000000	
326.493990	2104.681731
326.888308	2104.681731
327.282561	2104.681731
327.676750	2099.640577
328.070874	2046.708462
328.464933	2104.681731
328.858929	2046.708462
329.252859	2081.996538
329.646726	2117.284615
330.040528	2137.449231
330.434265	2094.599423
330.827938	2112.243462
331.221547	2165.175577
331.615091	2177.778462
332.008571	2152.572692
332.401986	2255.916346
332.795338	2271.039808
333.188625	2281.122115
333.581847	2238.272308
333.975006	2240.792885
334.368100	2286.163269
334.761129	2298.766154
335.154095	2329.013077
335.546996	2419.753846
335.939833	2334.054231
336.332606	2351.698269
336.725315	2475.206538
337.117960	2329.013077
337.510540	2364.301154
337.903056	2321.451346
338.295508	2460.083077
338.687896	2417.233269
339.080220	2505.453462
339.472480	2422.274423
339.864676	2460.083077
340.256807	2460.083077
340.648875	2568.467885
341.040879	2497.891731
341.432818	2495.371154
341.824694	2530.659231
342.216506	2439.918462
342.608253	2518.056346
342.999937	2502.932885
343.391557	2507.974038
343.783113	2434.877308
344.174605	2490.330000
344.566033	2472.685962
344.957397	2424.795000
345.348697	2442.439038
345.739934	2492.850577
346.131106	2500.412308
346.522215	2419.753846
346.913260	2477.727115
347.304241	2475.206538
347.695159	2409.671538
348.086012	2505.453462
348.476802	2419.753846
348.867528	2482.768269
349.258191	2422.274423
349.648789	2349.177692
350.039324	2412.192115
350.429796	2490.330000
350.820203	2470.165385
351.210548	2404.630385
351.600828	2404.630385
351.991045	2409.671538
352.381198	2374.383462
352.771288	2444.959615
353.161314	2472.685962
353.551276	2326.492500
353.941175	2485.288846
354.331010	2467.644808
354.720782	2432.356731
355.110490	2394.548077
355.500135	2472.685962
355.889717	2381.945192
356.279235	2417.233269
356.668689	2455.041923
357.058080	2442.439038
357.447408	2404.630385
357.836672	2399.589231
358.225873	2518.056346
358.615010	2447.480192
359.004084	2505.453462
359.393095	2417.233269
359.782043	2419.753846
360.170927	2442.439038
360.559748	2427.315577
360.948505	2487.809423
361.337199	2417.233269
361.725830	2495.371154
362.114398	2444.959615
362.502903	2457.562500
362.891344	2432.356731
363.279722	2523.097500
363.668037	2518.056346
364.056289	2402.109808
364.444478	2487.809423
364.832603	2424.795000
365.220665	2389.506923
365.608665	2417.233269
365.996601	2404.630385
366.384474	2492.850577
366.772284	2492.850577
367.160031	2455.041923
367.547715	2351.698269
367.935336	2467.644808
368.322893	2419.753846
368.710388	2470.165385
369.097820	2467.644808
369.485189	2470.165385
369.872495	2432.356731
370.259738	2364.301154
370.646918	2434.877308
371.034035	2477.727115
371.421090	2460.083077
371.808081	2439.918462
372.195010	2538.220962
372.581875	2407.150962
372.968678	2452.521346
373.355418	2374.383462
373.742096	2444.959615
374.128710	2447.480192
374.515262	2477.727115
374.901751	2525.618077
375.288177	2482.768269
375.674540	2507.974038
376.060841	2457.562500
376.447079	2452.521346
376.833254	2392.027500
377.219367	2424.795000
377.605417	2386.986346
377.991404	2457.562500
378.377329	2434.877308
378.763191	2444.959615
379.148991	2472.685962
379.534727	2472.685962
379.920402	2432.356731
380.306013	2371.862885
380.691563	2407.150962
381.077049	2530.659231
381.462474	2465.124231
381.847835	2515.535769
382.233134	2515.535769
382.618371	2533.179808
383.003545	2404.630385
383.388657	2487.809423
383.773706	2482.768269
384.158693	2386.986346
384.543618	2424.795000
384.928480	2457.562500
385.313280	2482.768269
385.698017	2434.877308
386.082692	2482.768269
386.467305	2422.274423
386.851856	2427.315577
387.236344	2525.618077
387.620770	2523.097500
388.005133	2510.494615
388.389435	2540.741538
388.773674	2467.644808
389.157851	2513.015192
389.541965	2424.795000
389.926018	2389.506923
390.310008	2323.971923
390.693936	2543.262115
391.077802	2480.247692
391.461606	2477.727115
391.845348	2444.959615
392.229027	2558.385577
392.612645	2414.712692
392.996200	2434.877308
393.379694	2442.439038
393.763125	2472.685962
394.146494	2507.974038
394.529801	2492.850577
394.913047	2487.809423
395.296230	2455.041923
395.679351	2581.070769
396.062410	2467.644808
396.445408	2480.247692
396.828343	2412.192115
397.211217	2462.603654
397.594028	2444.959615
397.976778	2462.603654
398.359466	2480.247692
398.742092	2450.000769
399.124656	2429.836154
399.507158	2477.727115
399.889598	2434.877308
400.271977	2540.741538
400.654294	2419.753846
401.036549	2374.383462
401.418742	2467.644808
401.800874	2482.768269
402.182944	2490.330000
402.564952	2555.865000
402.946898	2568.467885
403.328783	2442.439038
403.710606	2465.124231
404.092367	2434.877308
404.474067	2467.644808
404.855705	2371.862885
405.237282	2364.301154
405.618797	2442.439038
406.000250	2412.192115
406.381642	2487.809423
406.762972	2475.206538
407.144240	2402.109808
407.525447	2475.206538
407.906593	2460.083077
408.287677	2523.097500
408.668700	2558.385577
409.049661	2439.918462
409.430560	2487.809423
409.811399	2460.083077
410.192176	2434.877308
410.572891	2402.109808
410.953545	2424.795000
411.334138	2492.850577
411.714669	2424.795000
412.095139	2497.891731
412.475547	2545.782692
412.855894	2462.603654
413.236180	2490.330000
413.616405	2417.233269
413.996568	2442.439038
414.376670	2437.397885
414.756711	2485.288846
415.136691	2510.494615
415.516609	2447.480192
415.896466	2475.206538
416.276262	2422.274423
416.655997	2376.904038
417.035670	2455.041923
417.415283	2447.480192
417.794834	2472.685962
418.174324	2419.753846
418.553753	2502.932885
418.933121	2502.932885
419.312428	2442.439038
419.691674	2460.083077
420.070859	2500.412308
420.449983	2505.453462
420.829045	2520.576923
421.208047	2419.753846
421.586988	2419.753846
421.965867	2424.795000
422.344686	2417.233269
422.723444	2530.659231
423.102141	2434.877308
423.480777	2485.288846
423.859352	2548.303269
424.237866	2538.220962
424.616319	2535.700385
424.994712	2487.809423
425.373044	2548.303269
425.751314	2442.439038
426.129524	2432.356731
426.507673	2472.685962
426.885762	2502.932885
427.263789	2437.397885
427.641756	2555.865000
428.019662	2485.288846
428.397508	2455.041923
428.775292	2470.165385
429.153016	2497.891731
429.530679	2477.727115
429.908282	2492.850577
430.285824	2502.932885
430.663305	2530.659231
431.040726	2457.562500
431.418086	2477.727115
431.795385	2394.548077
432.172624	2470.165385
432.549802	2545.782692
432.926920	2407.150962
433.303977	2507.974038
433.680974	2477.727115
434.057910	2460.083077
434.434786	2482.768269
434.811601	2523.097500
435.188355	2467.644808
435.565050	2452.521346
435.941683	2510.494615
436.318257	2480.247692
436.694770	2475.206538
437.071222	2462.603654
437.447614	2495.371154
437.823946	2555.865000
438.200218	2505.453462
438.576429	2533.179808
438.952580	2490.330000
439.328670	2553.344423
439.704700	2452.521346
440.080670	2472.685962
440.456580	2460.083077
440.832429	2515.535769
441.208218	2515.535769
441.583947	2560.906154
441.959616	2414.712692
442.335224	2530.659231
442.710773	2442.439038
443.086261	2482.768269
443.461689	2419.753846
443.837057	2417.233269
444.212365	2455.041923
444.587612	2429.836154
444.962800	2510.494615
445.337927	2495.371154
445.712995	2452.521346
446.088002	2487.809423
446.462949	2520.576923
446.837837	2510.494615
447.212664	2553.344423
447.587431	2460.083077
447.962139	2467.644808
448.336786	2485.288846
448.711374	2475.206538
449.085901	2520.576923
449.460369	2439.918462
449.834776	2477.727115
450.209124	2457.562500
450.583412	2502.932885
450.957640	2475.206538
451.331808	2520.576923
451.705917	2507.974038
452.079965	2432.356731
452.453954	2480.247692
452.827883	2397.068654
453.201752	2470.165385
453.575562	2528.138654
453.949311	2495.371154
454.323001	2450.000769
454.696632	2452.521346
455.070202	2485.288846
455.443713	2533.179808
455.817164	2417.233269
456.190556	2520.576923
456.563888	2520.576923
456.937160	2533.179808
457.310373	2470.165385
457.683526	2553.344423
458.056619	2414.712692
458.429653	2500.412308
458.802628	2545.782692
459.175542	2455.041923
459.548398	2470.165385
459.921194	2482.768269
460.293930	2500.412308
460.666607	2457.562500
461.039224	2427.315577
461.411782	2434.877308
461.784280	2470.165385
462.156719	2485.288846
462.529099	2538.220962
462.901419	2482.768269
463.273680	2538.220962
463.645882	2555.865000
464.018024	2513.015192
464.390106	2422.274423
464.762130	2495.371154
465.134094	2412.192115
465.505999	2528.138654
465.877845	2485.288846
466.249631	2460.083077
466.621358	2497.891731
466.993026	2490.330000
467.364634	2507.974038
467.736184	2518.056346
468.107674	2530.659231
468.479105	2563.426731
468.850477	2500.412308
469.221790	2422.274423
469.593043	2523.097500
469.964238	2450.000769
470.335373	2485.288846
470.706449	2444.959615
471.077467	2525.618077
471.448425	2434.877308
471.819324	2525.618077
472.190164	2477.727115
472.560945	2492.850577
472.931667	2386.986346
473.302330	2528.138654
473.672934	2563.426731
474.043479	2538.220962
474.413965	2555.865000
474.784393	2477.727115
475.154761	2543.262115
475.525070	2500.412308
475.895321	2427.315577
476.265513	2407.150962
476.635645	2482.768269
477.005719	2490.330000
477.375734	2515.535769
477.745691	2457.562500
478.115588	2518.056346
478.485427	2540.741538
478.855207	2490.330000
479.224928	2462.603654
479.594591	2548.303269
479.964194	2518.056346
480.333739	2505.453462
480.703226	2470.165385
481.072653	2455.041923
481.442022	2457.562500
481.811333	2528.138654
482.180584	2457.562500
482.549777	2555.865000
482.918912	2523.097500
483.287988	2553.344423
483.657005	2553.344423
484.025964	2427.315577
484.394864	2523.097500
484.763706	2414.712692
485.132489	2510.494615
485.501213	2475.206538
485.869879	2533.179808
486.238487	2500.412308
486.607036	2412.192115
486.975527	2530.659231
487.343959	2472.685962
487.712333	2540.741538
488.080648	2450.000769
488.448905	2520.576923
488.817104	2470.165385
489.185244	2505.453462
489.553326	2465.124231
489.921350	2490.330000
490.289315	2444.959615
490.657222	2505.453462
491.025070	2563.426731
491.392861	2533.179808
491.760593	2490.330000
492.128267	2492.850577
492.495883	2568.467885
492.863440	2530.659231
493.230939	2500.412308
493.598380	2429.836154
493.965763	2470.165385
494.333088	2538.220962
494.700354	2520.576923
495.067563	2475.206538
495.434713	2495.371154
495.801805	2525.618077
496.168839	2457.562500
496.535815	2495.371154
496.902733	2507.974038
497.269593	2502.932885
497.636395	2573.509038
498.003139	2487.809423
498.369825	2497.891731
498.736453	2507.974038
499.103023	2515.535769
499.469535	2460.083077
499.835989	2502.932885
500.202385	2447.480192
500.568723	2513.015192
500.935003	2507.974038
501.301226	2434.877308
501.667390	2550.823846
502.033497	2497.891731
502.399546	2490.330000
502.765537	2437.397885
503.131470	2402.109808
503.497345	2515.535769
503.863163	2553.344423
504.228923	2455.041923
504.594625	2507.974038
504.960269	2465.124231
505.325856	2502.932885
505.691385	2429.836154
506.056856	2518.056346
506.422270	2472.685962
506.787625	2523.097500
507.152924	2475.206538
507.518164	2419.753846
507.883347	2482.768269
508.248472	2434.877308
508.613540	2465.124231
508.978550	2543.262115
509.343503	2505.453462
509.708398	2404.630385
510.073236	2538.220962
510.438016	2482.768269
510.802738	2500.412308
511.167403	2482.768269
511.532010	2563.426731
511.896561	2452.521346
512.261053	2500.412308
512.625488	2414.712692
512.989866	2520.576923
513.354186	2450.000769
513.718449	2540.741538
514.082655	2455.041923
514.446803	2507.974038
514.810894	2485.288846
515.174927	2465.124231
515.538904	2535.700385
515.902822	2487.809423
516.266684	2487.809423
516.630488	2462.603654
516.994235	2467.644808
517.357925	2467.644808
517.721558	2497.891731
518.085133	2482.768269
518.448651	2510.494615
518.812112	2472.685962
519.175516	2513.015192
519.538863	2417.233269
519.902152	2485.288846
520.265385	2555.865000
520.628560	2540.741538
520.991678	2495.371154
521.354739	2407.150962
521.717743	2492.850577
522.080690	2452.521346
522.443580	2500.412308
522.806413	2513.015192
523.169189	2457.562500
523.531908	2596.194231
523.894569	2465.124231
524.257174	2465.124231
524.619722	2601.235385
524.982213	2477.727115
525.344647	2487.809423
525.707025	2533.179808
526.069345	2553.344423
526.431608	2560.906154
526.793815	2452.521346
527.155964	2487.809423
527.518057	2570.988462
527.880093	2460.083077
528.242072	2520.576923
528.603995	2470.165385
528.965860	2548.303269
529.327669	2424.795000
529.689421	2424.795000
530.051117	2510.494615
530.412755	2460.083077
530.774337	2507.974038
531.135862	2513.015192
531.497331	2452.521346
531.858743	2500.412308
532.220098	2565.947308
532.581396	2553.344423
532.942638	2535.700385
533.303824	2576.029615
533.664953	2495.371154
534.026025	2392.027500
534.387040	2520.576923
534.747999	2538.220962
535.108902	2513.015192
535.469748	2528.138654
535.830537	2465.124231
536.191270	2510.494615
536.551947	2507.974038
536.912567	2439.918462
537.273131	2492.850577
537.633638	2472.685962
537.994089	2419.753846
538.354483	2492.850577
538.714821	2485.288846
539.075103	2444.959615
539.435328	2545.782692
539.795497	2419.753846
540.155609	2480.247692
540.515665	2487.809423
540.875665	2523.097500
541.235609	2477.727115
541.595496	2530.659231
541.955328	2560.906154
542.315102	2533.179808
542.674821	2535.700385
543.034483	2467.644808
543.394090	2550.823846
543.753640	2515.535769
544.113134	2495.371154
544.472571	2366.821731
544.831953	2502.932885
545.191278	2525.618077
545.550548	2543.262115
545.909761	2407.150962
546.268918	2528.138654
546.628019	2419.753846
546.987064	2563.426731
547.346053	2480.247692
547.704986	2502.932885
548.063863	2432.356731
548.422684	2586.111923
548.781449	2485.288846
549.140158	2470.165385
549.498811	2540.741538
549.857408	2444.959615
550.215949	2462.603654
550.574434	2573.509038
550.932864	2480.247692
551.291237	2424.795000
551.649555	2457.562500
552.007817	2505.453462
552.366022	2550.823846
552.724173	2550.823846
553.082267	2568.467885
553.440305	2432.356731
553.798288	2543.262115
554.156215	2495.371154
554.514086	2465.124231
554.871902	2482.768269
555.229661	2460.083077
555.587365	2565.947308
555.945014	2528.138654
556.302606	2452.521346
556.660143	2460.083077
557.017625	2545.782692
557.375050	2482.768269
557.732421	2497.891731
558.089735	2465.124231
558.446994	2525.618077
558.804197	2563.426731
559.161345	2470.165385
559.518437	2482.768269
559.875474	2492.850577
560.232455	2533.179808
560.589381	2520.576923
560.946251	2444.959615
561.303065	2485.288846
561.659825	2424.795000
562.016528	2455.041923
562.373177	2510.494615
562.729770	2437.397885
563.086307	2492.850577
563.442789	2417.233269
563.799216	2533.179808
564.155587	2535.700385
564.511904	2533.179808
564.868164	2495.371154
565.224370	2467.644808
565.580520	2500.412308
565.936615	2578.550192
566.292654	2480.247692
566.648638	2523.097500
567.004567	2432.356731
567.360441	2460.083077
567.716260	2497.891731
568.072023	2535.700385
568.427732	2515.535769
568.783385	2500.412308
569.138982	2510.494615
569.494525	2563.426731
569.850013	2497.891731
570.205445	2573.509038
570.560823	2596.194231
570.916145	2550.823846
571.271412	2500.412308
571.626625	2523.097500
571.981782	2581.070769
572.336884	2472.685962
572.691931	2540.741538
573.046923	2545.782692
573.401860	2555.865000
573.756743	2434.877308
574.111570	2540.741538
574.466342	2535.700385
574.821059	2472.685962
575.175722	2548.303269
575.530330	2482.768269
575.884882	2581.070769
576.239380	2452.521346
576.593823	2550.823846
576.948211	2492.850577
577.302544	2500.412308
577.656823	2490.330000
578.011047	2485.288846
578.365216	2450.000769
578.719330	2520.576923
579.073389	2505.453462
579.427394	2530.659231
579.781344	2548.303269
580.135239	2525.618077
580.489080	2545.782692
580.842866	2472.685962
581.196597	2490.330000
581.550273	2432.356731
581.903895	2452.521346
582.257463	2477.727115
582.610975	2480.247692
582.964434	2510.494615
583.317837	2480.247692
583.671186	2444.959615
584.024481	2502.932885
584.377721	2565.947308
584.730906	2424.795000
585.084037	2475.206538
585.437113	2518.056346
585.790135	2490.330000
586.143103	2518.056346
586.496016	2507.974038
586.848874	2467.644808
587.201679	2538.220962
587.554428	2399.589231
587.907124	2457.562500
588.259765	2513.015192
588.612352	2533.179808
588.964884	2361.780577
589.317362	2490.330000
589.669786	2497.891731
590.022155	2510.494615
590.374470	2485.288846
590.726731	2465.124231
591.078937	2480.247692
591.431090	2492.850577
591.783188	2545.782692
592.135232	2442.439038
592.487222	2518.056346
592.839157	2581.070769
593.191038	2505.453462
593.542866	2513.015192
593.894639	2485.288846
594.246358	2518.056346
594.598022	2490.330000
594.949633	2497.891731
595.301190	2530.659231
595.652692	2548.303269
596.004141	2492.850577
596.355535	2505.453462
596.706876	2533.179808
597.058162	2455.041923
597.409395	2492.850577
597.760573	2495.371154
598.111698	2533.179808
598.462768	2515.535769
598.813785	2518.056346
599.164748	2530.659231
599.515657	2497.891731
599.866511	2414.712692
600.217312	2563.426731
600.568060	2492.850577
600.918753	2490.330000
601.269392	2543.262115
601.619978	2523.097500
601.970510	2515.535769
602.320988	2505.453462
602.671412	2535.700385
603.021783	2520.576923
603.372100	2439.918462
603.722363	2523.097500
604.072572	2482.768269
604.422728	2482.768269
604.772830	2450.000769
605.122878	2510.494615
605.472872	2379.424615
605.822813	2520.576923
606.172701	2540.741538
606.522534	2545.782692
606.872314	2505.453462
607.222041	2525.618077
607.571714	2465.124231
607.921333	2465.124231
608.270899	2502.932885
608.620411	2492.850577
608.969870	2588.632500
609.319276	2447.480192
609.668627	2583.591346
610.017926	2490.330000
610.367171	2480.247692
610.716362	2513.015192
611.065500	2502.932885
611.414585	2530.659231
611.763616	2525.618077
612.112594	2485.288846
612.461518	2465.124231
612.810389	2555.865000
613.159207	2525.618077
613.507971	2507.974038
613.856682	2507.974038
614.205340	2573.509038
614.553945	2482.768269
614.902496	2543.262115
615.250994	2518.056346
615.599439	2497.891731
615.947830	2570.988462
616.296169	2500.412308
616.644454	2505.453462
616.992686	2442.439038
617.340864	2558.385577
617.688990	2500.412308
618.037063	2500.412308
618.385082	2487.809423
618.733048	2485.288846
619.080961	2467.644808
619.428821	2460.083077
619.776628	2409.671538
620.124382	2482.768269
620.472083	2538.220962
620.819731	2538.220962
621.167326	2525.618077
621.514868	2525.618077
621.862357	2439.918462
622.209793	2563.426731
622.557176	2533.179808
622.904506	2543.262115
623.251783	2482.768269
623.599007	2475.206538
623.946179	2460.083077
624.293297	2505.453462
624.640363	2495.371154
624.987376	2450.000769
625.334336	2492.850577
625.681243	2535.700385
626.028097	2558.385577
626.374899	2502.932885
626.721647	2409.671538
627.068343	2500.412308
627.414987	2422.274423
627.761577	2533.179808
628.108115	2480.247692
628.454600	2540.741538
628.801032	2450.000769
629.147412	2515.535769
629.493739	2520.576923
629.840014	2550.823846
630.186236	2480.247692
630.532405	2485.288846
630.878521	2467.644808
631.224585	2490.330000
631.570597	2505.453462
631.916556	2510.494615
632.262462	2538.220962
632.608316	2507.974038
632.954117	2500.412308
633.299866	2477.727115
633.645562	2490.330000
633.991206	2467.644808
634.336797	2452.521346
634.682336	2460.083077
635.027823	2507.974038
635.373257	2545.782692
635.718639	2346.657115
636.063968	2515.535769
636.409245	2485.288846
636.754470	2523.097500
637.099642	2548.303269
637.444762	2528.138654
637.789829	2563.426731
638.134845	2533.179808
638.479808	2510.494615
638.824719	2487.809423
639.169577	2528.138654
639.514383	2530.659231
639.859137	2419.753846
640.203839	2535.700385
640.548489	2568.467885
640.893086	2457.562500
641.237632	2490.330000
641.582125	2480.247692
641.926566	2492.850577
642.270955	2568.467885
642.615292	2558.385577
642.959576	2439.918462
643.303809	2520.576923
643.647990	2525.618077
643.992118	2356.739423
644.336195	2533.179808
644.680219	2535.700385
645.024192	2444.959615
645.368112	2487.809423
645.711981	2492.850577
646.055797	2429.836154
646.399562	2563.426731
646.743274	2492.850577
647.086935	2467.644808
647.430544	2520.576923
647.774101	2505.453462
648.117606	2520.576923
648.461059	2419.753846
648.804460	2472.685962
649.147810	2520.576923
649.491108	2553.344423
649.834354	2419.753846
650.177548	2510.494615
650.520690	2485.288846
650.863781	2520.576923
651.206820	2515.535769
651.549807	2460.083077
651.892742	2555.865000
652.235626	2497.891731
652.578458	2485.288846
652.921238	2502.932885
653.263967	2510.494615
653.606644	2422.274423
653.949269	2482.768269
654.291843	2518.056346
654.634365	2520.576923
654.976836	2465.124231
655.319255	2460.083077
655.661622	2560.906154
656.003938	2497.891731
656.346203	2439.918462
656.688416	2518.056346
657.030577	2495.371154
657.372687	2434.877308
657.714746	2507.974038
658.056753	2460.083077
658.398708	2507.974038
658.740612	2432.356731
659.082465	2462.603654
659.424266	2492.850577
659.766016	2485.288846
660.107715	2513.015192
660.449362	2460.083077
660.790958	2429.836154
661.132503	2540.741538
661.473996	2548.303269
661.815438	2530.659231
662.156829	2465.124231
662.498168	2560.906154
662.839456	2530.659231
663.180693	2518.056346
663.521879	2404.630385
663.863013	2447.480192
664.204097	2490.330000
664.545129	2525.618077
664.886110	2513.015192
665.227040	2447.480192
665.567918	2462.603654
665.908746	2545.782692
666.249522	2492.850577
666.590248	2384.465769
666.930922	2502.932885
667.271545	2460.083077
667.612118	2447.480192
667.952639	2495.371154
668.293109	2472.685962
668.633528	2515.535769
668.973896	2460.083077
669.314213	2386.986346
669.654480	2392.027500
669.994695	2510.494615
670.334859	2518.056346
670.674973	2525.618077
671.015035	2462.603654
671.355047	2520.576923
671.695008	2460.083077
672.034918	2507.974038
672.374777	2442.439038
672.714585	2520.576923
673.054342	2510.494615
673.394049	2510.494615
673.733705	2442.439038
674.073310	2490.330000
674.412864	2429.836154
674.752368	2424.795000
675.091820	2525.618077
675.431223	2550.823846
675.770574	2535.700385
676.109875	2414.712692
676.449125	2482.768269
676.788324	2553.344423
677.127473	2500.412308
677.466571	2457.562500
677.805619	2497.891731
678.144616	2530.659231
678.483562	2475.206538
678.822458	2591.153077
679.161303	2472.685962
679.500098	2573.509038
679.838842	2424.795000
680.177535	2528.138654
680.516179	2570.988462
680.854771	2455.041923
681.193314	2394.548077
681.531805	2507.974038
681.870247	2497.891731
682.208638	2460.083077
682.546978	2583.591346
682.885268	2507.974038
683.223508	2467.644808
683.561697	2518.056346
683.899836	2465.124231
684.237925	2510.494615
684.575963	2502.932885
684.913951	2452.521346
685.251889	2523.097500
685.589776	2588.632500
685.927614	2465.124231
686.265401	2510.494615
686.603137	2455.041923
686.940824	2490.330000
687.278460	2583.591346
687.616046	2472.685962
687.953582	2455.041923
688.291068	2528.138654
688.628504	2525.618077
688.965889	2439.918462
689.303224	2495.371154
689.640510	2502.932885
689.977745	2563.426731
690.314930	2467.644808
690.652065	2480.247692
690.989150	2432.356731
691.326185	2505.453462
691.663170	2439.918462
692.000105	2452.521346
692.336990	2460.083077
692.673825	2515.535769
693.010610	2392.027500
693.347345	2480.247692
693.684030	2424.795000
694.020665	2455.041923
694.357251	2492.850577
694.693786	2515.535769
695.030272	2550.823846
695.366707	2432.356731
695.703093	2553.344423
696.039429	2560.906154
696.375716	2573.509038
696.711952	2394.548077
697.048139	2540.741538
697.384276	2364.301154
697.720363	2505.453462
698.056400	2525.618077
698.392388	2518.056346
698.728326	2354.218846
699.064214	2528.138654
699.400053	2487.809423
699.735842	2492.850577
700.071581	2502.932885
700.407270	2497.891731
700.742910	2538.220962
701.078501	2507.974038
701.414042	2439.918462
701.749533	2465.124231
702.084974	2548.303269
702.420366	2502.932885
702.755709	2447.480192
703.091002	2470.165385
703.426246	2447.480192
703.761440	2437.397885
704.096584	2470.165385
704.431679	2538.220962
704.766725	2429.836154
705.101721	2538.220962
705.436668	2452.521346
705.771565	2535.700385
706.106413	2447.480192
706.441212	2495.371154
706.775961	2578.550192
707.110661	2540.741538
707.445311	2462.603654
707.779913	2538.220962
708.114465	2442.439038
708.448967	2523.097500
708.783421	2510.494615
709.117825	2495.371154
709.452180	2538.220962
709.786485	2455.041923
710.120742	2475.206538
710.454949	2389.506923
710.789107	2523.097500
711.123216	2427.315577
711.457275	2568.467885
711.791286	2447.480192
712.125247	2530.659231
712.459159	2480.247692
712.793023	2452.521346
713.126837	2472.685962
713.460602	2467.644808
713.794318	2601.235385
714.127985	2535.700385
714.461602	2439.918462
714.795171	2500.412308
715.128691	2457.562500
715.462162	2475.206538
715.795584	2497.891731
716.128957	2490.330000
716.462281	2480.247692
716.795556	2472.685962
717.128782	2482.768269
717.461960	2497.891731
717.795088	2470.165385
718.128167	2520.576923
718.461198	2444.959615
718.794180	2500.412308
719.127113	2533.179808
719.459997	2510.494615
719.792833	2439.918462
720.125619	2442.439038
720.458357	2515.535769
720.791046	2480.247692
721.123686	2525.618077
721.456278	2470.165385
721.788821	2500.412308
722.121315	2528.138654
722.453761	2465.124231
722.786158	2533.179808
723.118506	2540.741538
723.450805	2540.741538
723.783056	2573.509038
724.115259	2442.439038
724.447412	2565.947308
724.779518	2560.906154
725.111574	2505.453462
725.443582	2475.206538
725.775542	2455.041923
726.107453	2528.138654
726.439315	2565.947308
726.771129	2543.262115
727.102895	2437.397885
727.434612	2467.644808
727.766281	2523.097500
728.097901	2538.220962
728.429473	2480.247692
728.760996	2482.768269
729.092471	2528.138654
729.423897	2475.206538
729.755276	2543.262115
730.086606	2485.288846
730.417887	2520.576923
730.749120	2462.603654
731.080305	2518.056346
731.411442	2475.206538
731.742530	2553.344423
732.073570	2525.618077
732.404562	2520.576923
732.735506	2548.303269
733.066401	2513.015192
733.397249	2434.877308
733.728048	2467.644808
734.058798	2429.836154
734.389501	2548.303269
734.720156	2465.124231
735.050762	2558.385577
735.381320	2518.056346
735.711831	2490.330000
736.042293	2578.550192
736.372707	2437.397885
736.703073	2472.685962
737.033391	2427.315577
737.363661	2475.206538
737.693883	2513.015192
738.024056	2447.480192
738.354182	2576.029615
738.684260	2492.850577
739.014290	2467.644808
739.344272	2495.371154
739.674207	2452.521346
740.004093	2533.179808
740.333931	2439.918462
740.663722	2513.015192
740.993464	2487.809423
741.323159	2394.548077
741.652806	2586.111923
741.982405	2475.206538
742.311956	2460.083077
742.641460	2528.138654
742.970915	2472.685962
743.300323	2568.467885
743.629683	2366.821731
743.958996	2485.288846
744.288260	2497.891731
744.617477	2545.782692
744.946647	2518.056346
745.275768	2528.138654
745.604842	2528.138654
745.933869	2487.809423
746.262847	2477.727115
746.591778	2417.233269
746.920662	2538.220962
747.249498	2523.097500
747.578286	2502.932885
747.907027	2497.891731
748.235720	2502.932885
748.564365	2513.015192
748.892963	2399.589231
749.221514	2455.041923
749.550017	2422.274423
749.878473	2555.865000
750.206881	2470.165385
750.535242	2450.000769
750.863555	2467.644808
751.191821	2500.412308
751.520039	2487.809423
751.848210	2525.618077
752.176334	2475.206538
752.504411	2538.220962
752.832440	2565.947308
753.160421	2487.809423
753.488356	2497.891731
753.816243	2447.480192
754.144082	2497.891731
754.471875	2482.768269
754.799620	2442.439038
755.127318	2417.233269
755.454969	2518.056346
755.782572	2437.397885
756.110129	2500.412308
756.437638	2439.918462
756.765100	2507.974038
757.092515	2513.015192
757.419882	2523.097500
757.747203	2465.124231
758.074477	2586.111923
758.401703	2487.809423
758.728882	2540.741538
759.056014	2515.535769
759.383099	2502.932885
759.710138	2487.809423
760.037129	2518.056346
760.364073	2555.865000
760.690970	2437.397885
761.017820	2495.371154
761.344623	2467.644808
761.671379	2502.932885
761.998088	2553.344423
762.324751	2528.138654
762.651366	2553.344423
762.977935	2482.768269
763.304456	2510.494615
763.630931	2520.576923
763.957359	2497.891731
764.283740	2444.959615
764.610074	2576.029615
764.936362	2525.618077
765.262602	2560.906154
765.588796	2583.591346
765.914943	2462.603654
766.241044	2497.891731
766.567097	2472.685962
766.893104	2429.836154
767.219064	2495.371154
767.544978	2540.741538
767.870845	2407.150962
768.196665	2515.535769
768.522438	2434.877308
768.848165	2502.932885
769.173846	2611.317692
769.499479	2518.056346
769.825066	2578.550192
770.150607	2437.397885
770.476101	2510.494615
770.801548	2444.959615
771.126949	2482.768269
771.452303	2402.109808
771.777611	2502.932885
772.102872	2455.041923
772.428087	2492.850577
772.753256	2530.659231
773.078378	2450.000769
773.403453	2550.823846
773.728482	2497.891731
774.053465	2515.535769
774.378401	2515.535769
774.703291	2404.630385
775.028135	2470.165385
775.352932	2477.727115
775.677683	2482.768269
776.002388	2492.850577
776.327046	2482.768269
776.651658	2434.877308
776.976224	2452.521346
777.300743	2480.247692
777.625216	2439.918462
777.949643	2495.371154
778.274024	2573.509038
778.598359	2485.288846
778.922647	2470.165385
779.246889	2480.247692
779.571086	2487.809423
779.895236	2455.041923
780.219339	2593.673654
780.543397	2444.959615
780.867409	2550.823846
781.191374	2492.850577
781.515294	2513.015192
781.839167	2545.782692
782.162995	2432.356731
782.486776	2495.371154
782.810511	2480.247692
783.134201	2505.453462
783.457844	2442.439038
783.781441	2570.988462
784.104993	2497.891731
784.428498	2495.371154
784.751958	2482.768269
785.075372	2460.083077
785.398739	2525.618077
785.722061	2573.509038
786.045337	2533.179808
786.368568	2515.535769
786.691752	2465.124231
787.014891	2432.356731
787.337983	2455.041923
787.661030	2404.630385
787.984031	2543.262115
788.306987	2467.644808
788.629897	2439.918462
788.952760	2523.097500
789.275579	2497.891731
789.598351	2601.235385
789.921078	2502.932885
790.243759	2500.412308
790.566395	2510.494615
790.888984	2507.974038
791.211529	2505.453462
791.534027	2500.412308
791.856480	2596.194231
792.178888	2560.906154
792.501249	2528.138654
792.823566	2578.550192
793.145836	2475.206538
793.468062	2417.233269
793.790241	2500.412308
794.112375	2538.220962
794.434464	2477.727115
794.756507	2507.974038
795.078505	2518.056346
795.400457	2434.877308
795.722364	2492.850577
796.044226	2518.056346
796.366042	2528.138654
796.687812	2558.385577
797.009538	2497.891731
797.331218	2500.412308
797.652852	2417.233269
797.974442	2442.439038
798.295986	2513.015192
798.617484	2507.974038
798.938938	2495.371154
799.260346	2553.344423
799.581709	2490.330000
799.903026	2535.700385
800.224299	2543.262115
800.545526	2417.233269
800.866708	2460.083077
801.187845	2444.959615
801.508936	2477.727115
801.829983	2500.412308
802.150984	2538.220962
802.471940	2444.959615
802.792851	2533.179808
803.113717	2497.891731
803.434538	2485.288846
803.755314	2402.109808
804.076045	2497.891731
804.396731	2470.165385
804.717372	2457.562500
805.037967	2523.097500
805.358518	2465.124231
805.679024	2497.891731
805.999485	2460.083077
806.319901	2507.974038
806.640272	2570.988462
806.960598	2578.550192
807.280879	2487.809423
807.601115	2480.247692
807.921306	2482.768269
808.241453	2480.247692
808.561554	2477.727115
808.881611	2548.303269
809.201623	2424.795000
809.521590	2475.206538
809.841513	2535.700385
810.161390	2518.056346
810.481223	2558.385577
810.801011	2497.891731
811.120755	2457.562500
811.440453	2442.439038
811.760107	2502.932885
812.079716	2432.356731
812.399281	2523.097500
812.718801	2538.220962
813.038276	2515.535769
813.357707	2485.288846
813.677093	2439.918462
813.996434	2490.330000
814.315731	2427.315577
814.634983	2487.809423
814.954191	2392.027500
815.273354	2470.165385
815.592473	2409.671538
815.911547	2543.262115
816.230577	2513.015192
816.549562	2495.371154
816.868502	2515.535769
817.187399	2414.712692
817.506250	2535.700385
817.825058	2475.206538
818.143821	2467.644808
818.462539	2412.192115
818.781213	2543.262115
819.099843	2563.426731
819.418429	2467.644808
819.736970	2502.932885
820.055466	2490.330000
820.373919	2480.247692
820.692327	2560.906154
821.010691	2583.591346
821.329011	2525.618077
821.647286	2520.576923
821.965517	2495.371154
822.283704	2439.918462
822.601847	2540.741538
822.919945	2457.562500
823.237999	2565.947308
823.556010	2513.015192
823.873976	2520.576923
824.191897	2399.589231
824.509775	2487.809423
824.827609	2558.385577
825.145398	2565.947308
825.463144	2500.412308
825.780845	2460.083077
826.098502	2543.262115
826.416116	2513.015192
826.733685	2518.056346
827.051210	2505.453462
827.368692	2450.000769
827.686129	2515.535769
828.003522	2465.124231
828.320872	2402.109808
828.638177	2417.233269
828.955439	2510.494615
829.272656	2452.521346
829.589830	2467.644808
829.906960	2545.782692
830.224046	2492.850577
830.541088	2455.041923
830.858086	2419.753846
831.175041	2472.685962
831.491952	2482.768269
831.808819	2490.330000
832.125642	2422.274423
832.442421	2510.494615
832.759157	2500.412308
833.075849	2550.823846
833.392497	2475.206538
833.709101	2490.330000
834.025662	2560.906154
834.342179	2555.865000
834.658653	2485.288846
834.975083	2507.974038
835.291469	2475.206538
835.607811	2505.453462
835.924110	2482.768269
836.240366	2467.644808
836.556578	2528.138654
836.872746	2422.274423
837.188871	2497.891731
837.504952	2424.795000
837.820990	2502.932885
838.136984	2457.562500
838.452935	2500.412308
838.768842	2477.727115
839.084706	2538.220962
839.400526	2475.206538
839.716303	2568.467885
840.032037	2495.371154
840.347727	2533.179808
840.663373	2407.150962
840.978977	2608.797115
841.294537	2538.220962
841.610054	2442.439038
841.925527	2460.083077
842.240957	2457.562500
842.556344	2507.974038
842.871687	2492.850577
843.186987	2505.453462
843.502244	2505.453462
843.817458	2548.303269
844.132629	2548.303269
844.447756	2404.630385
844.762840	2467.644808
845.077881	2477.727115
845.392879	2502.932885
845.707833	2533.179808
846.022745	2518.056346
846.337613	2543.262115
846.652438	2497.891731
846.967221	2475.206538
847.281960	2510.494615
847.596656	2497.891731
847.911309	2535.700385
848.225919	2452.521346
848.540485	2553.344423
848.855009	2530.659231
849.169490	2528.138654
849.483928	2432.356731
849.798323	2555.865000
850.112675	2475.206538
850.426984	2505.453462
850.741251	2472.685962
851.055474	2485.288846
851.369654	2507.974038
851.683792	2558.385577
851.997887	2397.068654
852.311938	2450.000769
852.625947	2472.685962
852.939914	2558.385577
853.253837	2447.480192
853.567718	2442.439038
853.881555	2404.630385
854.195350	2455.041923
854.509103	2528.138654
854.822812	2467.644808
855.136479	2455.041923
855.450103	2422.274423
855.763685	2502.932885
856.077224	2422.274423
856.390720	2558.385577
856.704173	2553.344423
857.017584	2535.700385
857.330953	2470.165385
857.644278	2490.330000
857.957561	2477.727115
858.270802	2515.535769
858.584000	2452.521346
858.897155	2505.453462
859.210268	2409.671538
859.523339	2502.932885
859.836367	2528.138654
860.149352	2581.070769
860.462295	2507.974038
860.775195	2525.618077
861.088054	2495.371154
861.400869	2492.850577
861.713642	2465.124231
862.026373	2548.303269
862.339062	2432.356731
862.651708	2533.179808
862.964312	2510.494615
863.276873	2513.015192
863.589392	2477.727115
863.901869	2560.906154
864.214303	2450.000769
864.526696	2455.041923
864.839045	2535.700385
865.151353	2452.521346
865.463619	2475.206538
865.775842	2606.276538
866.088023	2472.685962
866.400162	2447.480192
866.712258	2525.618077
867.024313	2518.056346
867.336325	2462.603654
867.648296	2525.618077
867.960224	2452.521346
868.272110	2482.768269
868.583954	2447.480192
868.895755	2424.795000
869.207515	2477.727115
869.519233	2500.412308
869.830909	2510.494615
870.142542	2507.974038
870.454134	2533.179808
870.765684	2447.480192
871.077191	2505.453462
871.388657	2455.041923
871.700081	2492.850577
872.011463	2475.206538
872.322803	2397.068654
872.634101	2507.974038
872.945357	2538.220962
873.256571	2465.124231
873.567744	2507.974038
873.878874	2432.356731
874.189963	2492.850577
874.501010	2447.480192
874.812015	2593.673654
875.122979	2417.233269
875.433900	2455.041923
875.744780	2550.823846
876.055618	2502.932885
876.366415	2530.659231
876.677169	2482.768269
876.987882	2447.480192
877.298554	2576.029615
877.609183	2490.330000
877.919771	2535.700385
878.230317	2540.741538
878.540822	2613.838269
878.851285	2487.809423
879.161707	2485.288846
879.472087	2462.603654
879.782425	2444.959615
880.092722	2545.782692
880.402977	2548.303269
880.713191	2462.603654
881.023363	2429.836154
881.333494	2447.480192
881.643583	2507.974038
881.953631	2361.780577
882.263637	2555.865000
882.573602	2455.041923
882.883526	2502.932885
883.193408	2513.015192
883.503248	2465.124231
883.813048	2472.685962
884.122806	2432.356731
884.432522	2485.288846
884.742197	2505.453462
885.051831	2523.097500
885.361424	2475.206538
885.670975	2475.206538
885.980485	2513.015192
886.289954	2528.138654
886.599382	2505.453462
886.908768	2467.644808
887.218113	2513.015192
887.527417	2460.083077
887.836680	2482.768269
888.145901	2427.315577
888.455082	2392.027500
888.764221	2475.206538
889.073319	2505.453462
889.382376	2545.782692
889.691392	2548.303269
890.000366	2490.330000
890.309300	2497.891731
890.618193	2497.891731
890.927044	2407.150962
891.235855	2548.303269
891.544625	2480.247692
891.853353	2538.220962
892.162041	2447.480192
892.470687	2518.056346
892.779293	2497.891731
893.087858	2444.959615
893.396381	2447.480192
893.704864	2492.850577
894.013306	2452.521346
894.321707	2472.685962
894.630068	2462.603654
894.938387	2472.685962
895.246665	2535.700385
895.554903	2419.753846
895.863100	2505.453462
896.171256	2480.247692
896.479371	2525.618077
896.787446	2432.356731
897.095480	2434.877308
897.403473	2467.644808
897.711425	2520.576923
898.019336	2477.727115
898.327207	2460.083077
898.635038	2487.809423
898.942827	2497.891731
899.250576	2530.659231
899.558284	2417.233269
899.865952	2444.959615
900.173579	2507.974038
900.481165	2452.521346
900.788711	2520.576923
901.096216	2462.603654
901.403681	2467.644808
901.711105	2447.480192
902.018489	2450.000769
902.325832	2495.371154
902.633135	2510.494615
902.940397	2492.850577
903.247619	2482.768269
903.554800	2429.836154
903.861941	2472.685962
904.169041	2475.206538
904.476101	2555.865000
904.783121	2475.206538
905.090100	2439.918462
905.397039	2439.918462
905.703938	2497.891731
906.010796	2397.068654
906.317614	2437.397885
906.624391	2525.618077
906.931129	2500.412308
907.237826	2523.097500
907.544483	2452.521346
907.851099	2482.768269
908.157675	2553.344423
908.464211	2520.576923
908.770707	2465.124231
909.077163	2434.877308
909.383578	2510.494615
909.689954	2414.712692
909.996289	2490.330000
910.302584	2487.809423
910.608839	2487.809423
910.915054	2450.000769
911.221229	2472.685962
911.527363	2460.083077
911.833458	2543.262115
912.139513	2563.426731
912.445527	2505.453462
912.751502	2530.659231
913.057436	2369.342308
913.363331	2424.795000
913.669186	2480.247692
913.975000	2543.262115
914.280775	2419.753846
914.586510	2505.453462
914.892205	2487.809423
915.197859	2505.453462
915.503475	2480.247692
915.809050	2419.753846
916.114585	2538.220962
916.420081	2467.644808
916.725536	2472.685962
917.030952	2470.165385
917.336328	2455.041923
917.641665	2507.974038
917.946961	2432.356731
918.252218	2490.330000
918.557435	2475.206538
918.862612	2568.467885
919.167750	2533.179808
919.472848	2444.959615
919.777906	2404.630385
920.082925	2457.562500
920.387904	2427.315577
920.692843	2525.618077
920.997743	2422.274423
921.302603	2482.768269
921.607423	2432.356731
921.912204	2472.685962
922.216946	2492.850577
922.521647	2500.412308
922.826310	2414.712692
923.130932	2470.165385
923.435516	2455.041923
923.740059	2429.836154
924.044564	2394.548077
924.349028	2432.356731
924.653454	2495.371154
924.957840	2573.509038
925.262186	2465.124231
925.566493	2513.015192
925.870761	2535.700385
926.174989	2427.315577
926.479178	2444.959615
926.783328	2432.356731
927.087438	2475.206538
927.391509	2528.138654
927.695541	2502.932885
927.999533	2462.603654
928.303486	2490.330000
928.607400	2608.797115
928.911275	2507.974038
929.215110	2495.371154
929.518906	2470.165385
929.822663	2525.618077
930.126381	2452.521346
930.430060	2442.439038
930.733699	2492.850577
931.037299	2460.083077
931.340861	2573.509038
931.644383	2490.330000
931.947866	2439.918462
932.251309	2460.083077
932.554714	2450.000769
932.858080	2444.959615
933.161407	2540.741538
933.464694	2480.247692
933.767943	2444.959615
934.071153	2505.453462
934.374323	2477.727115
934.677455	2450.000769
934.980548	2560.906154
935.283602	2472.685962
935.586617	2533.179808
935.889593	2513.015192
936.192530	2510.494615
936.495428	2545.782692
936.798287	2581.070769
937.101108	2424.795000
937.403890	2500.412308
937.706632	2475.206538
938.009336	2437.397885
938.312002	2576.029615
938.614628	2467.644808
938.917216	2505.453462
939.219765	2457.562500
939.522275	2482.768269
939.824747	2467.644808
940.127179	2548.303269
940.429573	2457.562500
940.731929	2502.932885
941.034246	2490.330000
941.336524	2523.097500
941.638763	2402.109808
941.940964	2472.685962
942.243126	2404.630385
942.545250	2495.371154
942.847335	2475.206538
943.149381	2490.330000
943.451389	2434.877308
943.753359	2432.356731
944.055290	2482.768269
944.357182	2462.603654
944.659036	2545.782692
944.960851	2513.015192
945.262628	2525.618077
945.564367	2515.535769
945.866067	2495.371154
946.167729	2492.850577
946.469352	2515.535769
946.770937	2558.385577
947.072484	2513.015192
947.373992	2472.685962
947.675462	2550.823846
947.976893	2432.356731
948.278286	2538.220962
948.579641	2495.371154
948.880958	2480.247692
949.182236	2490.330000
949.483476	2540.741538
949.784678	2482.768269
950.085841	2487.809423
950.386967	2510.494615
950.688054	2414.712692
950.989103	2540.741538
951.290114	2490.330000
951.591087	2427.315577
951.892021	2460.083077
952.192917	2457.562500
952.493776	2470.165385
952.794596	2450.000769
953.095378	2497.891731
953.396122	2444.959615
953.696828	2477.727115
953.997496	2460.083077
954.298126	2429.836154
954.598718	2467.644808
954.899272	2482.768269
955.199788	2583.591346
955.500266	2535.700385
955.800706	2439.918462
956.101108	2462.603654
956.401472	2555.865000
956.701798	2500.412308
957.002087	2518.056346
957.302337	2399.589231
957.602550	2490.330000
957.902724	2407.150962
958.202861	2434.877308
958.502960	2538.220962
958.803022	2510.494615
959.103045	2530.659231
959.403031	2487.809423
959.702979	2457.562500
960.002889	2392.027500
960.302762	2439.918462
960.602596	2510.494615
960.902393	2513.015192
961.202153	2487.809423
961.501875	2505.453462
961.801559	2485.288846
962.101205	2444.959615
962.400814	2455.041923
962.700385	2467.644808
962.999918	2447.480192
963.299414	2477.727115
963.598873	2502.932885
963.898293	2472.685962
964.197677	2437.397885
964.497022	2487.809423
964.796331	2442.439038
965.095601	2560.906154
965.394835	2460.083077
965.694030	2452.521346
965.993189	2467.644808
966.292309	2439.918462
966.591393	2525.618077
966.890439	2540.741538
967.189447	2500.412308
967.488419	2467.644808
967.787353	2460.083077
968.086249	2472.685962
968.385108	2510.494615
968.683930	2475.206538
968.982714	2528.138654
969.281462	2495.371154
969.580172	2505.453462
969.878844	2455.041923
970.177480	2462.603654
970.476078	2432.356731
970.774639	2457.562500
971.073162	2513.015192
971.371649	2558.385577
971.670098	2470.165385
971.968510	2500.412308
972.266885	2457.562500
972.565223	2439.918462
972.863524	2437.397885
973.161788	2490.330000
973.460014	2439.918462
973.758204	2407.150962
974.056356	2586.111923
974.354471	2477.727115
974.652550	2485.288846
974.950591	2450.000769
975.248595	2543.262115
975.546563	2523.097500
975.844493	2513.015192
976.142386	2548.303269
976.440243	2525.618077
976.738062	2490.330000
977.035845	2480.247692
977.333590	2414.712692
977.631299	2457.562500
977.928971	2462.603654
978.226606	2429.836154
978.524204	2485.288846
978.821765	2487.809423
979.119290	2386.986346
979.416777	2530.659231
979.714228	2520.576923
980.011642	2427.315577
980.309020	2427.315577
980.606360	2462.603654
980.903664	2450.000769
981.200931	2525.618077
981.498162	2482.768269
981.795356	2462.603654
982.092513	2460.083077
982.389633	2465.124231
982.686717	2442.439038
982.983764	2460.083077
983.280775	2485.288846
983.577749	2510.494615
983.874686	2507.974038
984.171587	2520.576923
984.468451	2515.535769
984.765279	2492.850577
985.062070	2515.535769
985.358824	2482.768269
985.655543	2500.412308
985.952224	2543.262115
986.248869	2450.000769
986.545478	2437.397885
986.842050	2389.506923
987.138586	2475.206538
987.435086	2500.412308
987.731549	2455.041923
988.027975	2467.644808
988.324366	2465.124231
988.620719	2533.179808
988.917037	2419.753846
989.213318	2437.397885
989.509563	2417.233269
989.805772	2467.644808
990.101944	2525.618077
990.398080	2450.000769
990.694180	2502.932885
990.990244	2402.109808
991.286271	2472.685962
991.582262	2432.356731
991.878217	2510.494615
992.174136	2485.288846
992.470019	2540.741538
992.765865	2485.288846
993.061676	2581.070769
993.357450	2434.877308
993.653188	2533.179808
993.948890	2470.165385
994.244556	2442.439038
994.540186	2495.371154
994.835780	2462.603654
995.131337	2439.918462
995.426859	2439.918462
995.722345	2414.712692
996.017795	2432.356731
996.313208	2560.906154
996.608586	2434.877308
996.903928	2470.165385
997.199234	2442.439038
997.494504	2399.589231
997.789738	2525.618077
998.084936	2427.315577
998.380099	2455.041923
998.675225	2520.576923
998.970316	2455.041923
999.265371	2472.685962
999.560390	2553.344423
999.855373	2472.685962
1000.150320	2520.576923
1000.445232	2437.397885
1000.740108	2500.412308
1001.034948	2460.083077
1001.329752	2515.535769
1001.624521	2455.041923
1001.919254	2502.932885
1002.213951	2480.247692
1002.508613	2525.618077
1002.803239	2528.138654
1003.097829	2467.644808
1003.392384	2444.959615
1003.686903	2555.865000
1003.981386	2412.192115
1004.275834	2492.850577
1004.570246	2533.179808
1004.864623	2432.356731
1005.158964	2402.109808
1005.453270	2515.535769
1005.747540	2429.836154
1006.041775	2475.206538
1006.335974	2470.165385
1006.630138	2465.124231
1006.924266	2513.015192
1007.218359	2475.206538
1007.512416	2457.562500
1007.806438	2576.029615
1008.100425	2543.262115
1008.394376	2444.959615
1008.688292	2502.932885
1008.982172	2437.397885
1009.276017	2472.685962
1009.569827	2470.165385
1009.863602	2437.397885
1010.157341	2485.288846
1010.451045	2472.685962
1010.744714	2439.918462
1011.038347	2520.576923
1011.331945	2457.562500
1011.625508	2457.562500
1011.919036	2480.247692
1012.212528	2545.782692
1012.505986	2389.506923
1012.799408	2482.768269
1013.092795	2482.768269
1013.386147	2480.247692
1013.679464	2502.932885
1013.972745	2465.124231
1014.265992	2480.247692
1014.559204	2490.330000
1014.852380	2414.712692
1015.145521	2490.330000
1015.438628	2462.603654
1015.731699	2510.494615
1016.024736	2475.206538
1016.317737	2518.056346
1016.610703	2470.165385
1016.903635	2495.371154
1017.196531	2520.576923
1017.489393	2543.262115
1017.782219	2492.850577
1018.075011	2510.494615
1018.367768	2518.056346
1018.660490	2495.371154
1018.953177	2495.371154
1019.245829	2495.371154
