Dividing Wavelength (nm)	Counts (n)	Blue Motor Position (mm): 9.800000	Red Motor Position (mm): 0.000000	
326.493990	2157.613846
326.888308	2157.613846
327.282561	2157.613846
327.676750	2069.393654
328.070874	2150.052115
328.464933	2006.379231
328.858929	2036.626154
329.252859	2094.599423
329.646726	2122.325769
330.040528	2102.161154
330.434265	2117.284615
330.827938	2162.655000
331.221547	2124.846346
331.615091	2119.805192
332.008571	2180.299038
332.401986	2208.025385
332.795338	2215.587115
333.188625	2271.039808
333.581847	2278.601538
333.975006	2268.519231
334.368100	2318.930769
334.761129	2321.451346
335.154095	2288.683846
335.546996	2429.836154
335.939833	2323.971923
336.332606	2374.383462
336.725315	2354.218846
337.117960	2419.753846
337.510540	2434.877308
337.903056	2412.192115
338.295508	2472.685962
338.687896	2422.274423
339.080220	2450.000769
339.472480	2397.068654
339.864676	2404.630385
340.256807	2434.877308
340.648875	2480.247692
341.040879	2470.165385
341.432818	2502.932885
341.824694	2477.727115
342.216506	2487.809423
342.608253	2510.494615
342.999937	2465.124231
343.391557	2495.371154
343.783113	2518.056346
344.174605	2497.891731
344.566033	2480.247692
344.957397	2452.521346
345.348697	2533.179808
345.739934	2442.439038
346.131106	2558.385577
346.522215	2480.247692
346.913260	2364.301154
347.304241	2480.247692
347.695159	2394.548077
348.086012	2442.439038
348.476802	2379.424615
348.867528	2442.439038
349.258191	2460.083077
349.648789	2563.426731
350.039324	2369.342308
350.429796	2530.659231
350.820203	2439.918462
351.210548	2404.630385
351.600828	2344.136538
351.991045	2455.041923
352.381198	2540.741538
352.771288	2404.630385
353.161314	2402.109808
353.551276	2361.780577
353.941175	2392.027500
354.331010	2455.041923
354.720782	2422.274423
355.110490	2444.959615
355.500135	2439.918462
355.889717	2389.506923
356.279235	2432.356731
356.668689	2450.000769
357.058080	2386.986346
357.447408	2429.836154
357.836672	2404.630385
358.225873	2414.712692
358.615010	2414.712692
359.004084	2457.562500
359.393095	2434.877308
359.782043	2462.603654
360.170927	2452.521346
360.559748	2513.015192
360.948505	2392.027500
361.337199	2467.644808
361.725830	2460.083077
362.114398	2485.288846
362.502903	2460.083077
362.891344	2470.165385
363.279722	2467.644808
363.668037	2490.330000
364.056289	2492.850577
364.444478	2394.548077
364.832603	2419.753846
365.220665	2477.727115
365.608665	2480.247692
365.996601	2455.041923
366.384474	2442.439038
366.772284	2384.465769
367.160031	2492.850577
367.547715	2434.877308
367.935336	2477.727115
368.322893	2520.576923
368.710388	2442.439038
369.097820	2419.753846
369.485189	2497.891731
369.872495	2462.603654
370.259738	2465.124231
370.646918	2470.165385
371.034035	2500.412308
371.421090	2417.233269
371.808081	2404.630385
372.195010	2447.480192
372.581875	2465.124231
372.968678	2515.535769
373.355418	2427.315577
373.742096	2492.850577
374.128710	2462.603654
374.515262	2442.439038
374.901751	2442.439038
375.288177	2361.780577
375.674540	2460.083077
376.060841	2480.247692
376.447079	2505.453462
376.833254	2434.877308
377.219367	2460.083077
377.605417	2450.000769
377.991404	2460.083077
378.377329	2477.727115
378.763191	2492.850577
379.148991	2419.753846
379.534727	2485.288846
379.920402	2394.548077
380.306013	2482.768269
380.691563	2389.506923
381.077049	2394.548077
381.462474	2507.974038
381.847835	2528.138654
382.233134	2409.671538
382.618371	2460.083077
383.003545	2412.192115
383.388657	2487.809423
383.773706	2417.233269
384.158693	2505.453462
384.543618	2414.712692
384.928480	2510.494615
385.313280	2523.097500
385.698017	2497.891731
386.082692	2472.685962
386.467305	2472.685962
386.851856	2399.589231
387.236344	2505.453462
387.620770	2427.315577
388.005133	2455.041923
388.389435	2429.836154
388.773674	2586.111923
389.157851	2482.768269
389.541965	2407.150962
389.926018	2432.356731
390.310008	2419.753846
390.693936	2402.109808
391.077802	2500.412308
391.461606	2412.192115
391.845348	2500.412308
392.229027	2500.412308
392.612645	2490.330000
392.996200	2545.782692
393.379694	2490.330000
393.763125	2460.083077
394.146494	2475.206538
394.529801	2465.124231
394.913047	2487.809423
395.296230	2460.083077
395.679351	2460.083077
396.062410	2472.685962
396.445408	2442.439038
396.828343	2472.685962
397.211217	2444.959615
397.594028	2510.494615
397.976778	2460.083077
398.359466	2460.083077
398.742092	2414.712692
399.124656	2472.685962
399.507158	2505.453462
399.889598	2495.371154
400.271977	2434.877308
400.654294	2457.562500
401.036549	2505.453462
401.418742	2462.603654
401.800874	2457.562500
402.182944	2457.562500
402.564952	2507.974038
402.946898	2402.109808
403.328783	2460.083077
403.710606	2553.344423
404.092367	2361.780577
404.474067	2523.097500
404.855705	2525.618077
405.237282	2555.865000
405.618797	2500.412308
406.000250	2535.700385
406.381642	2434.877308
406.762972	2492.850577
407.144240	2452.521346
407.525447	2444.959615
407.906593	2492.850577
408.287677	2457.562500
408.668700	2520.576923
409.049661	2505.453462
409.430560	2507.974038
409.811399	2470.165385
410.192176	2518.056346
410.572891	2535.700385
410.953545	2472.685962
411.334138	2492.850577
411.714669	2480.247692
412.095139	2513.015192
412.475547	2417.233269
412.855894	2515.535769
413.236180	2450.000769
413.616405	2500.412308
413.996568	2515.535769
414.376670	2376.904038
414.756711	2518.056346
415.136691	2434.877308
415.516609	2490.330000
415.896466	2457.562500
416.276262	2467.644808
416.655997	2533.179808
417.035670	2482.768269
417.415283	2460.083077
417.794834	2447.480192
418.174324	2457.562500
418.553753	2404.630385
418.933121	2424.795000
419.312428	2505.453462
419.691674	2482.768269
420.070859	2452.521346
420.449983	2477.727115
420.829045	2402.109808
421.208047	2513.015192
421.586988	2576.029615
421.965867	2409.671538
422.344686	2548.303269
422.723444	2450.000769
423.102141	2500.412308
423.480777	2558.385577
423.859352	2510.494615
424.237866	2497.891731
424.616319	2414.712692
424.994712	2424.795000
425.373044	2482.768269
425.751314	2429.836154
426.129524	2513.015192
426.507673	2462.603654
426.885762	2543.262115
427.263789	2455.041923
427.641756	2444.959615
428.019662	2560.906154
428.397508	2480.247692
428.775292	2465.124231
429.153016	2507.974038
429.530679	2548.303269
429.908282	2465.124231
430.285824	2525.618077
430.663305	2442.439038
431.040726	2412.192115
431.418086	2497.891731
431.795385	2507.974038
432.172624	2497.891731
432.549802	2500.412308
432.926920	2465.124231
433.303977	2523.097500
433.680974	2452.521346
434.057910	2462.603654
434.434786	2500.412308
434.811601	2518.056346
435.188355	2485.288846
435.565050	2480.247692
435.941683	2540.741538
436.318257	2485.288846
436.694770	2452.521346
437.071222	2548.303269
437.447614	2520.576923
437.823946	2510.494615
438.200218	2397.068654
438.576429	2475.206538
438.952580	2432.356731
439.328670	2470.165385
439.704700	2475.206538
440.080670	2513.015192
440.456580	2442.439038
440.832429	2490.330000
441.208218	2465.124231
441.583947	2462.603654
441.959616	2485.288846
442.335224	2540.741538
442.710773	2495.371154
443.086261	2452.521346
443.461689	2510.494615
443.837057	2457.562500
444.212365	2500.412308
444.587612	2487.809423
444.962800	2424.795000
445.337927	2540.741538
445.712995	2543.262115
446.088002	2505.453462
446.462949	2427.315577
446.837837	2482.768269
447.212664	2485.288846
447.587431	2540.741538
447.962139	2487.809423
448.336786	2437.397885
448.711374	2434.877308
449.085901	2502.932885
449.460369	2480.247692
449.834776	2608.797115
450.209124	2492.850577
450.583412	2492.850577
450.957640	2460.083077
451.331808	2490.330000
451.705917	2397.068654
452.079965	2545.782692
452.453954	2465.124231
452.827883	2490.330000
453.201752	2525.618077
453.575562	2407.150962
453.949311	2442.439038
454.323001	2407.150962
454.696632	2540.741538
455.070202	2497.891731
455.443713	2437.397885
455.817164	2530.659231
456.190556	2482.768269
456.563888	2444.959615
456.937160	2533.179808
457.310373	2442.439038
457.683526	2490.330000
458.056619	2444.959615
458.429653	2477.727115
458.802628	2525.618077
459.175542	2480.247692
459.548398	2495.371154
459.921194	2553.344423
460.293930	2502.932885
460.666607	2492.850577
461.039224	2581.070769
461.411782	2497.891731
461.784280	2434.877308
462.156719	2485.288846
462.529099	2465.124231
462.901419	2500.412308
463.273680	2462.603654
463.645882	2568.467885
464.018024	2497.891731
464.390106	2482.768269
464.762130	2545.782692
465.134094	2475.206538
465.505999	2507.974038
465.877845	2482.768269
466.249631	2530.659231
466.621358	2583.591346
466.993026	2442.439038
467.364634	2553.344423
467.736184	2505.453462
468.107674	2530.659231
468.479105	2424.795000
468.850477	2480.247692
469.221790	2525.618077
469.593043	2523.097500
469.964238	2480.247692
470.335373	2523.097500
470.706449	2505.453462
471.077467	2603.755962
471.448425	2429.836154
471.819324	2545.782692
472.190164	2470.165385
472.560945	2528.138654
472.931667	2424.795000
473.302330	2525.618077
473.672934	2513.015192
474.043479	2460.083077
474.413965	2412.192115
474.784393	2462.603654
475.154761	2417.233269
475.525070	2535.700385
475.895321	2460.083077
476.265513	2515.535769
476.635645	2460.083077
477.005719	2492.850577
477.375734	2452.521346
477.745691	2520.576923
478.115588	2538.220962
478.485427	2550.823846
478.855207	2490.330000
479.224928	2545.782692
479.594591	2444.959615
479.964194	2467.644808
480.333739	2495.371154
480.703226	2570.988462
481.072653	2457.562500
481.442022	2533.179808
481.811333	2482.768269
482.180584	2472.685962
482.549777	2429.836154
482.918912	2437.397885
483.287988	2409.671538
483.657005	2460.083077
484.025964	2495.371154
484.394864	2465.124231
484.763706	2361.780577
485.132489	2535.700385
485.501213	2450.000769
485.869879	2467.644808
486.238487	2432.356731
486.607036	2444.959615
486.975527	2528.138654
487.343959	2525.618077
487.712333	2412.192115
488.080648	2530.659231
488.448905	2437.397885
488.817104	2492.850577
489.185244	2538.220962
489.553326	2450.000769
489.921350	2505.453462
490.289315	2533.179808
490.657222	2434.877308
491.025070	2472.685962
491.392861	2434.877308
491.760593	2507.974038
492.128267	2596.194231
492.495883	2513.015192
492.863440	2535.700385
493.230939	2447.480192
493.598380	2513.015192
493.965763	2563.426731
494.333088	2520.576923
494.700354	2462.603654
495.067563	2477.727115
495.434713	2510.494615
495.801805	2439.918462
496.168839	2419.753846
496.535815	2495.371154
496.902733	2528.138654
497.269593	2520.576923
497.636395	2429.836154
498.003139	2510.494615
498.369825	2492.850577
498.736453	2513.015192
499.103023	2450.000769
499.469535	2540.741538
499.835989	2455.041923
500.202385	2500.412308
500.568723	2470.165385
500.935003	2455.041923
501.301226	2404.630385
501.667390	2427.315577
502.033497	2550.823846
502.399546	2550.823846
502.765537	2427.315577
503.131470	2533.179808
503.497345	2558.385577
503.863163	2596.194231
504.228923	2490.330000
504.594625	2523.097500
504.960269	2470.165385
505.325856	2528.138654
505.691385	2422.274423
506.056856	2470.165385
506.422270	2505.453462
506.787625	2505.453462
507.152924	2417.233269
507.518164	2586.111923
507.883347	2480.247692
508.248472	2528.138654
508.613540	2528.138654
508.978550	2417.233269
509.343503	2543.262115
509.708398	2480.247692
510.073236	2543.262115
510.438016	2371.862885
510.802738	2507.974038
511.167403	2475.206538
511.532010	2480.247692
511.896561	2465.124231
512.261053	2455.041923
512.625488	2492.850577
512.989866	2502.932885
513.354186	2510.494615
513.718449	2507.974038
514.082655	2447.480192
514.446803	2586.111923
514.810894	2500.412308
515.174927	2419.753846
515.538904	2467.644808
515.902822	2543.262115
516.266684	2507.974038
516.630488	2475.206538
516.994235	2450.000769
517.357925	2513.015192
517.721558	2490.330000
518.085133	2442.439038
518.448651	2507.974038
518.812112	2500.412308
519.175516	2460.083077
519.538863	2495.371154
519.902152	2495.371154
520.265385	2487.809423
520.628560	2565.947308
520.991678	2570.988462
521.354739	2492.850577
521.717743	2533.179808
522.080690	2502.932885
522.443580	2482.768269
522.806413	2450.000769
523.169189	2601.235385
523.531908	2465.124231
523.894569	2495.371154
524.257174	2490.330000
524.619722	2444.959615
524.982213	2545.782692
525.344647	2462.603654
525.707025	2533.179808
526.069345	2505.453462
526.431608	2513.015192
526.793815	2467.644808
527.155964	2495.371154
527.518057	2515.535769
527.880093	2533.179808
528.242072	2550.823846
528.603995	2558.385577
528.965860	2502.932885
529.327669	2513.015192
529.689421	2500.412308
530.051117	2434.877308
530.412755	2447.480192
530.774337	2444.959615
531.135862	2515.535769
531.497331	2389.506923
531.858743	2432.356731
532.220098	2477.727115
532.581396	2477.727115
532.942638	2528.138654
533.303824	2505.453462
533.664953	2429.836154
534.026025	2497.891731
534.387040	2497.891731
534.747999	2523.097500
535.108902	2497.891731
535.469748	2560.906154
535.830537	2543.262115
536.191270	2563.426731
536.551947	2475.206538
536.912567	2518.056346
537.273131	2535.700385
537.633638	2460.083077
537.994089	2510.494615
538.354483	2492.850577
538.714821	2492.850577
539.075103	2518.056346
539.435328	2490.330000
539.795497	2550.823846
540.155609	2455.041923
540.515665	2490.330000
540.875665	2452.521346
541.235609	2475.206538
541.595496	2621.400000
541.955328	2467.644808
542.315102	2444.959615
542.674821	2455.041923
543.034483	2538.220962
543.394090	2450.000769
543.753640	2518.056346
544.113134	2533.179808
544.472571	2543.262115
544.831953	2442.439038
545.191278	2560.906154
545.550548	2482.768269
545.909761	2480.247692
546.268918	2550.823846
546.628019	2535.700385
546.987064	2460.083077
547.346053	2495.371154
547.704986	2455.041923
548.063863	2505.453462
548.422684	2487.809423
548.781449	2485.288846
549.140158	2417.233269
549.498811	2518.056346
549.857408	2472.685962
550.215949	2507.974038
550.574434	2482.768269
550.932864	2467.644808
551.291237	2533.179808
551.649555	2475.206538
552.007817	2533.179808
552.366022	2485.288846
552.724173	2502.932885
553.082267	2505.453462
553.440305	2467.644808
553.798288	2485.288846
554.156215	2538.220962
554.514086	2581.070769
554.871902	2457.562500
555.229661	2472.685962
555.587365	2457.562500
555.945014	2573.509038
556.302606	2374.383462
556.660143	2568.467885
557.017625	2485.288846
557.375050	2548.303269
557.732421	2560.906154
558.089735	2467.644808
558.446994	2492.850577
558.804197	2543.262115
559.161345	2553.344423
559.518437	2540.741538
559.875474	2482.768269
560.232455	2540.741538
560.589381	2399.589231
560.946251	2450.000769
561.303065	2545.782692
561.659825	2560.906154
562.016528	2475.206538
562.373177	2500.412308
562.729770	2576.029615
563.086307	2402.109808
563.442789	2510.494615
563.799216	2472.685962
564.155587	2490.330000
564.511904	2477.727115
564.868164	2470.165385
565.224370	2465.124231
565.580520	2470.165385
565.936615	2586.111923
566.292654	2513.015192
566.648638	2495.371154
567.004567	2523.097500
567.360441	2535.700385
567.716260	2507.974038
568.072023	2505.453462
568.427732	2497.891731
568.783385	2515.535769
569.138982	2452.521346
569.494525	2507.974038
569.850013	2502.932885
570.205445	2553.344423
570.560823	2432.356731
570.916145	2480.247692
571.271412	2618.879423
571.626625	2510.494615
571.981782	2465.124231
572.336884	2550.823846
572.691931	2495.371154
573.046923	2492.850577
573.401860	2530.659231
573.756743	2502.932885
574.111570	2550.823846
574.466342	2482.768269
574.821059	2419.753846
575.175722	2570.988462
575.530330	2424.795000
575.884882	2510.494615
576.239380	2444.959615
576.593823	2455.041923
576.948211	2490.330000
577.302544	2497.891731
577.656823	2520.576923
578.011047	2427.315577
578.365216	2472.685962
578.719330	2495.371154
579.073389	2432.356731
579.427394	2555.865000
579.781344	2482.768269
580.135239	2490.330000
580.489080	2452.521346
580.842866	2520.576923
581.196597	2518.056346
581.550273	2480.247692
581.903895	2515.535769
582.257463	2444.959615
582.610975	2535.700385
582.964434	2578.550192
583.317837	2490.330000
583.671186	2497.891731
584.024481	2442.439038
584.377721	2538.220962
584.730906	2477.727115
585.084037	2465.124231
585.437113	2553.344423
585.790135	2480.247692
586.143103	2492.850577
586.496016	2543.262115
586.848874	2452.521346
587.201679	2490.330000
587.554428	2470.165385
587.907124	2394.548077
588.259765	2540.741538
588.612352	2475.206538
588.964884	2480.247692
589.317362	2495.371154
589.669786	2533.179808
590.022155	2485.288846
590.374470	2492.850577
590.726731	2495.371154
591.078937	2502.932885
591.431090	2455.041923
591.783188	2492.850577
592.135232	2500.412308
592.487222	2538.220962
592.839157	2530.659231
593.191038	2593.673654
593.542866	2520.576923
593.894639	2550.823846
594.246358	2497.891731
594.598022	2515.535769
594.949633	2475.206538
595.301190	2485.288846
595.652692	2490.330000
596.004141	2518.056346
596.355535	2452.521346
596.706876	2553.344423
597.058162	2432.356731
597.409395	2570.988462
597.760573	2472.685962
598.111698	2540.741538
598.462768	2560.906154
598.813785	2419.753846
599.164748	2500.412308
599.515657	2490.330000
599.866511	2525.618077
600.217312	2475.206538
600.568060	2555.865000
600.918753	2444.959615
601.269392	2591.153077
601.619978	2507.974038
601.970510	2543.262115
602.320988	2563.426731
602.671412	2462.603654
603.021783	2525.618077
603.372100	2472.685962
603.722363	2525.618077
604.072572	2560.906154
604.422728	2455.041923
604.772830	2502.932885
605.122878	2475.206538
605.472872	2457.562500
605.822813	2444.959615
606.172701	2447.480192
606.522534	2485.288846
606.872314	2417.233269
607.222041	2518.056346
607.571714	2523.097500
607.921333	2513.015192
608.270899	2452.521346
608.620411	2497.891731
608.969870	2523.097500
609.319276	2475.206538
609.668627	2480.247692
610.017926	2424.795000
610.367171	2422.274423
610.716362	2480.247692
611.065500	2558.385577
611.414585	2460.083077
611.763616	2553.344423
612.112594	2480.247692
612.461518	2450.000769
612.810389	2472.685962
613.159207	2485.288846
613.507971	2429.836154
613.856682	2525.618077
614.205340	2515.535769
614.553945	2485.288846
614.902496	2447.480192
615.250994	2389.506923
615.599439	2502.932885
615.947830	2502.932885
616.296169	2432.356731
616.644454	2507.974038
616.992686	2450.000769
617.340864	2490.330000
617.688990	2550.823846
618.037063	2389.506923
618.385082	2497.891731
618.733048	2525.618077
619.080961	2424.795000
619.428821	2535.700385
619.776628	2480.247692
620.124382	2528.138654
620.472083	2467.644808
620.819731	2482.768269
621.167326	2447.480192
621.514868	2500.412308
621.862357	2578.550192
622.209793	2452.521346
622.557176	2535.700385
622.904506	2432.356731
623.251783	2470.165385
623.599007	2442.439038
623.946179	2535.700385
624.293297	2462.603654
624.640363	2525.618077
624.987376	2485.288846
625.334336	2510.494615
625.681243	2417.233269
626.028097	2530.659231
626.374899	2513.015192
626.721647	2462.603654
627.068343	2475.206538
627.414987	2513.015192
627.761577	2374.383462
628.108115	2565.947308
628.454600	2515.535769
628.801032	2538.220962
629.147412	2460.083077
629.493739	2603.755962
629.840014	2573.509038
630.186236	2553.344423
630.532405	2462.603654
630.878521	2444.959615
631.224585	2520.576923
631.570597	2460.083077
631.916556	2586.111923
632.262462	2490.330000
632.608316	2497.891731
632.954117	2465.124231
633.299866	2434.877308
633.645562	2472.685962
633.991206	2485.288846
634.336797	2502.932885
634.682336	2452.521346
635.027823	2507.974038
635.373257	2520.576923
635.718639	2497.891731
636.063968	2450.000769
636.409245	2505.453462
636.754470	2502.932885
637.099642	2520.576923
637.444762	2553.344423
637.789829	2525.618077
638.134845	2487.809423
638.479808	2540.741538
638.824719	2495.371154
639.169577	2495.371154
639.514383	2548.303269
639.859137	2477.727115
640.203839	2470.165385
640.548489	2497.891731
640.893086	2472.685962
641.237632	2422.274423
641.582125	2477.727115
641.926566	2530.659231
642.270955	2477.727115
642.615292	2525.618077
642.959576	2525.618077
643.303809	2523.097500
643.647990	2480.247692
643.992118	2492.850577
644.336195	2452.521346
644.680219	2518.056346
645.024192	2480.247692
645.368112	2500.412308
645.711981	2429.836154
646.055797	2434.877308
646.399562	2487.809423
646.743274	2545.782692
647.086935	2460.083077
647.430544	2515.535769
647.774101	2412.192115
648.117606	2507.974038
648.461059	2492.850577
648.804460	2485.288846
649.147810	2487.809423
649.491108	2444.959615
649.834354	2492.850577
650.177548	2535.700385
650.520690	2523.097500
650.863781	2462.603654
651.206820	2523.097500
651.549807	2389.506923
651.892742	2487.809423
652.235626	2450.000769
652.578458	2505.453462
652.921238	2404.630385
653.263967	2550.823846
653.606644	2482.768269
653.949269	2540.741538
654.291843	2371.862885
654.634365	2482.768269
654.976836	2444.959615
655.319255	2500.412308
655.661622	2460.083077
656.003938	2480.247692
656.346203	2510.494615
656.688416	2608.797115
657.030577	2470.165385
657.372687	2591.153077
657.714746	2444.959615
658.056753	2520.576923
658.398708	2578.550192
658.740612	2510.494615
659.082465	2485.288846
659.424266	2502.932885
659.766016	2515.535769
660.107715	2452.521346
660.449362	2455.041923
660.790958	2457.562500
661.132503	2540.741538
661.473996	2432.356731
661.815438	2565.947308
662.156829	2487.809423
662.498168	2563.426731
662.839456	2505.453462
663.180693	2455.041923
663.521879	2573.509038
663.863013	2477.727115
664.204097	2560.906154
664.545129	2477.727115
664.886110	2467.644808
665.227040	2444.959615
665.567918	2558.385577
665.908746	2520.576923
666.249522	2452.521346
666.590248	2432.356731
666.930922	2472.685962
667.271545	2513.015192
667.612118	2470.165385
667.952639	2500.412308
668.293109	2576.029615
668.633528	2555.865000
668.973896	2460.083077
669.314213	2505.453462
669.654480	2530.659231
669.994695	2437.397885
670.334859	2548.303269
670.674973	2475.206538
671.015035	2548.303269
671.355047	2555.865000
671.695008	2513.015192
672.034918	2422.274423
672.374777	2457.562500
672.714585	2442.439038
673.054342	2558.385577
673.394049	2581.070769
673.733705	2560.906154
674.073310	2482.768269
674.412864	2565.947308
674.752368	2507.974038
675.091820	2495.371154
675.431223	2505.453462
675.770574	2450.000769
676.109875	2462.603654
676.449125	2467.644808
676.788324	2457.562500
677.127473	2533.179808
677.466571	2480.247692
677.805619	2475.206538
678.144616	2482.768269
678.483562	2518.056346
678.822458	2596.194231
679.161303	2570.988462
679.500098	2492.850577
679.838842	2515.535769
680.177535	2548.303269
680.516179	2492.850577
680.854771	2550.823846
681.193314	2444.959615
681.531805	2462.603654
681.870247	2472.685962
682.208638	2570.988462
682.546978	2520.576923
682.885268	2548.303269
683.223508	2530.659231
683.561697	2530.659231
683.899836	2525.618077
684.237925	2510.494615
684.575963	2457.562500
684.913951	2470.165385
685.251889	2525.618077
685.589776	2497.891731
685.927614	2510.494615
686.265401	2447.480192
686.603137	2505.453462
686.940824	2482.768269
687.278460	2507.974038
687.616046	2490.330000
687.953582	2548.303269
688.291068	2523.097500
688.628504	2495.371154
688.965889	2538.220962
689.303224	2475.206538
689.640510	2523.097500
689.977745	2495.371154
690.314930	2452.521346
690.652065	2487.809423
690.989150	2528.138654
691.326185	2475.206538
691.663170	2538.220962
692.000105	2520.576923
692.336990	2523.097500
692.673825	2492.850577
693.010610	2477.727115
693.347345	2558.385577
693.684030	2616.358846
694.020665	2495.371154
694.357251	2515.535769
694.693786	2477.727115
695.030272	2553.344423
695.366707	2482.768269
695.703093	2482.768269
696.039429	2482.768269
696.375716	2397.068654
696.711952	2520.576923
697.048139	2399.589231
697.384276	2545.782692
697.720363	2480.247692
698.056400	2462.603654
698.392388	2505.453462
698.728326	2530.659231
699.064214	2477.727115
699.400053	2409.671538
699.735842	2480.247692
700.071581	2513.015192
700.407270	2550.823846
700.742910	2553.344423
701.078501	2520.576923
701.414042	2555.865000
701.749533	2576.029615
702.084974	2485.288846
702.420366	2550.823846
702.755709	2460.083077
703.091002	2563.426731
703.426246	2417.233269
703.761440	2472.685962
704.096584	2505.453462
704.431679	2475.206538
704.766725	2444.959615
705.101721	2528.138654
705.436668	2434.877308
705.771565	2548.303269
706.106413	2518.056346
706.441212	2472.685962
706.775961	2523.097500
707.110661	2467.644808
707.445311	2523.097500
707.779913	2487.809423
708.114465	2485.288846
708.448967	2525.618077
708.783421	2523.097500
709.117825	2450.000769
709.452180	2553.344423
709.786485	2482.768269
710.120742	2513.015192
710.454949	2500.412308
710.789107	2480.247692
711.123216	2414.712692
711.457275	2470.165385
711.791286	2495.371154
712.125247	2419.753846
712.459159	2555.865000
712.793023	2497.891731
713.126837	2505.453462
713.460602	2538.220962
713.794318	2439.918462
714.127985	2523.097500
714.461602	2487.809423
714.795171	2467.644808
715.128691	2513.015192
715.462162	2515.535769
715.795584	2480.247692
716.128957	2492.850577
716.462281	2563.426731
716.795556	2520.576923
717.128782	2427.315577
717.461960	2465.124231
717.795088	2485.288846
718.128167	2565.947308
718.461198	2419.753846
718.794180	2487.809423
719.127113	2523.097500
719.459997	2523.097500
719.792833	2502.932885
720.125619	2535.700385
720.458357	2482.768269
720.791046	2505.453462
721.123686	2500.412308
721.456278	2490.330000
721.788821	2447.480192
722.121315	2520.576923
722.453761	2457.562500
722.786158	2475.206538
723.118506	2399.589231
723.450805	2558.385577
723.783056	2399.589231
724.115259	2477.727115
724.447412	2452.521346
724.779518	2450.000769
725.111574	2422.274423
725.443582	2434.877308
725.775542	2462.603654
726.107453	2555.865000
726.439315	2510.494615
726.771129	2475.206538
727.102895	2553.344423
727.434612	2560.906154
727.766281	2507.974038
728.097901	2470.165385
728.429473	2442.439038
728.760996	2505.453462
729.092471	2495.371154
729.423897	2437.397885
729.755276	2480.247692
730.086606	2555.865000
730.417887	2507.974038
730.749120	2477.727115
731.080305	2492.850577
731.411442	2550.823846
731.742530	2492.850577
732.073570	2417.233269
732.404562	2543.262115
732.735506	2520.576923
733.066401	2525.618077
733.397249	2500.412308
733.728048	2502.932885
734.058798	2409.671538
734.389501	2470.165385
734.720156	2447.480192
735.050762	2505.453462
735.381320	2485.288846
735.711831	2525.618077
736.042293	2535.700385
736.372707	2553.344423
736.703073	2513.015192
737.033391	2452.521346
737.363661	2507.974038
737.693883	2477.727115
738.024056	2520.576923
738.354182	2419.753846
738.684260	2439.918462
739.014290	2513.015192
739.344272	2462.603654
739.674207	2515.535769
740.004093	2475.206538
740.333931	2545.782692
740.663722	2535.700385
740.993464	2424.795000
741.323159	2513.015192
741.652806	2447.480192
741.982405	2523.097500
742.311956	2513.015192
742.641460	2482.768269
742.970915	2555.865000
743.300323	2497.891731
743.629683	2490.330000
743.958996	2570.988462
744.288260	2520.576923
744.617477	2573.509038
744.946647	2462.603654
745.275768	2606.276538
745.604842	2409.671538
745.933869	2540.741538
746.262847	2465.124231
746.591778	2525.618077
746.920662	2502.932885
747.249498	2460.083077
747.578286	2419.753846
747.907027	2487.809423
748.235720	2457.562500
748.564365	2570.988462
748.892963	2485.288846
749.221514	2480.247692
749.550017	2457.562500
749.878473	2502.932885
750.206881	2560.906154
750.535242	2432.356731
750.863555	2525.618077
751.191821	2583.591346
751.520039	2460.083077
751.848210	2525.618077
752.176334	2465.124231
752.504411	2513.015192
752.832440	2515.535769
753.160421	2485.288846
753.488356	2507.974038
753.816243	2482.768269
754.144082	2414.712692
754.471875	2492.850577
754.799620	2432.356731
755.127318	2533.179808
755.454969	2510.494615
755.782572	2518.056346
756.110129	2485.288846
756.437638	2500.412308
756.765100	2460.083077
757.092515	2450.000769
757.419882	2497.891731
757.747203	2462.603654
758.074477	2379.424615
758.401703	2535.700385
758.728882	2505.453462
759.056014	2528.138654
759.383099	2520.576923
759.710138	2515.535769
760.037129	2457.562500
760.364073	2487.809423
760.690970	2533.179808
761.017820	2510.494615
761.344623	2477.727115
761.671379	2553.344423
761.998088	2437.397885
762.324751	2520.576923
762.651366	2475.206538
762.977935	2422.274423
763.304456	2450.000769
763.630931	2558.385577
763.957359	2439.918462
764.283740	2523.097500
764.610074	2500.412308
764.936362	2596.194231
765.262602	2376.904038
765.588796	2535.700385
765.914943	2480.247692
766.241044	2480.247692
766.567097	2432.356731
766.893104	2528.138654
767.219064	2447.480192
767.544978	2581.070769
767.870845	2490.330000
768.196665	2450.000769
768.522438	2487.809423
768.848165	2477.727115
769.173846	2510.494615
769.499479	2429.836154
769.825066	2429.836154
770.150607	2533.179808
770.476101	2477.727115
770.801548	2535.700385
771.126949	2495.371154
771.452303	2434.877308
771.777611	2480.247692
772.102872	2502.932885
772.428087	2492.850577
772.753256	2492.850577
773.078378	2492.850577
773.403453	2480.247692
773.728482	2530.659231
774.053465	2439.918462
774.378401	2460.083077
774.703291	2465.124231
775.028135	2550.823846
775.352932	2550.823846
775.677683	2540.741538
776.002388	2530.659231
776.327046	2417.233269
776.651658	2530.659231
776.976224	2520.576923
777.300743	2515.535769
777.625216	2530.659231
777.949643	2563.426731
778.274024	2470.165385
778.598359	2505.453462
778.922647	2482.768269
779.246889	2490.330000
779.571086	2429.836154
779.895236	2525.618077
780.219339	2477.727115
780.543397	2495.371154
780.867409	2515.535769
781.191374	2475.206538
781.515294	2487.809423
781.839167	2482.768269
782.162995	2538.220962
782.486776	2437.397885
782.810511	2482.768269
783.134201	2447.480192
783.457844	2389.506923
783.781441	2487.809423
784.104993	2437.397885
784.428498	2465.124231
784.751958	2467.644808
785.075372	2495.371154
785.398739	2482.768269
785.722061	2513.015192
786.045337	2518.056346
786.368568	2568.467885
786.691752	2422.274423
787.014891	2419.753846
787.337983	2500.412308
787.661030	2371.862885
787.984031	2507.974038
788.306987	2535.700385
788.629897	2465.124231
788.952760	2500.412308
789.275579	2475.206538
789.598351	2457.562500
789.921078	2528.138654
790.243759	2457.562500
790.566395	2480.247692
790.888984	2563.426731
791.211529	2467.644808
791.534027	2442.439038
791.856480	2548.303269
792.178888	2535.700385
792.501249	2399.589231
792.823566	2543.262115
793.145836	2475.206538
793.468062	2432.356731
793.790241	2518.056346
794.112375	2480.247692
794.434464	2570.988462
794.756507	2376.904038
795.078505	2530.659231
795.400457	2482.768269
795.722364	2520.576923
796.044226	2480.247692
796.366042	2447.480192
796.687812	2455.041923
797.009538	2480.247692
797.331218	2545.782692
797.652852	2389.506923
797.974442	2482.768269
798.295986	2407.150962
798.617484	2535.700385
798.938938	2482.768269
799.260346	2545.782692
799.581709	2586.111923
799.903026	2422.274423
800.224299	2558.385577
800.545526	2515.535769
800.866708	2523.097500
801.187845	2432.356731
801.508936	2434.877308
801.829983	2427.315577
802.150984	2528.138654
802.471940	2535.700385
802.792851	2490.330000
803.113717	2487.809423
803.434538	2462.603654
803.755314	2492.850577
804.076045	2548.303269
804.396731	2586.111923
804.717372	2513.015192
805.037967	2545.782692
805.358518	2495.371154
805.679024	2583.591346
805.999485	2507.974038
806.319901	2455.041923
806.640272	2538.220962
806.960598	2588.632500
807.280879	2525.618077
807.601115	2447.480192
807.921306	2397.068654
808.241453	2482.768269
808.561554	2558.385577
808.881611	2462.603654
809.201623	2452.521346
809.521590	2507.974038
809.841513	2480.247692
810.161390	2477.727115
810.481223	2520.576923
810.801011	2444.959615
811.120755	2397.068654
811.440453	2500.412308
811.760107	2528.138654
812.079716	2485.288846
812.399281	2568.467885
812.718801	2386.986346
813.038276	2475.206538
813.357707	2477.727115
813.677093	2462.603654
813.996434	2497.891731
814.315731	2477.727115
814.634983	2437.397885
814.954191	2518.056346
815.273354	2500.412308
815.592473	2578.550192
815.911547	2513.015192
816.230577	2467.644808
816.549562	2558.385577
816.868502	2434.877308
817.187399	2523.097500
817.506250	2510.494615
817.825058	2513.015192
818.143821	2528.138654
818.462539	2538.220962
818.781213	2485.288846
819.099843	2455.041923
819.418429	2470.165385
819.736970	2467.644808
820.055466	2447.480192
820.373919	2427.315577
820.692327	2593.673654
821.010691	2455.041923
821.329011	2548.303269
821.647286	2422.274423
821.965517	2518.056346
822.283704	2510.494615
822.601847	2477.727115
822.919945	2513.015192
823.237999	2470.165385
823.556010	2487.809423
823.873976	2500.412308
824.191897	2502.932885
824.509775	2550.823846
824.827609	2480.247692
825.145398	2513.015192
825.463144	2530.659231
825.780845	2540.741538
826.098502	2545.782692
826.416116	2530.659231
826.733685	2495.371154
827.051210	2515.535769
827.368692	2480.247692
827.686129	2502.932885
828.003522	2596.194231
828.320872	2487.809423
828.638177	2457.562500
828.955439	2525.618077
829.272656	2520.576923
829.589830	2432.356731
829.906960	2533.179808
830.224046	2497.891731
830.541088	2477.727115
830.858086	2485.288846
831.175041	2475.206538
831.491952	2470.165385
831.808819	2477.727115
832.125642	2528.138654
832.442421	2518.056346
832.759157	2447.480192
833.075849	2570.988462
833.392497	2477.727115
833.709101	2492.850577
834.025662	2548.303269
834.342179	2568.467885
834.658653	2470.165385
834.975083	2397.068654
835.291469	2460.083077
835.607811	2502.932885
835.924110	2497.891731
836.240366	2429.836154
836.556578	2533.179808
836.872746	2550.823846
837.188871	2480.247692
837.504952	2392.027500
837.820990	2530.659231
838.136984	2495.371154
838.452935	2510.494615
838.768842	2525.618077
839.084706	2515.535769
839.400526	2510.494615
839.716303	2528.138654
840.032037	2470.165385
840.347727	2528.138654
840.663373	2462.603654
840.978977	2439.918462
841.294537	2507.974038
841.610054	2505.453462
841.925527	2477.727115
842.240957	2581.070769
842.556344	2576.029615
842.871687	2477.727115
843.186987	2528.138654
843.502244	2457.562500
843.817458	2510.494615
844.132629	2477.727115
844.447756	2457.562500
844.762840	2487.809423
845.077881	2432.356731
845.392879	2565.947308
845.707833	2573.509038
846.022745	2346.657115
846.337613	2457.562500
846.652438	2495.371154
846.967221	2523.097500
847.281960	2490.330000
847.596656	2462.603654
847.911309	2618.879423
848.225919	2538.220962
848.540485	2540.741538
848.855009	2500.412308
849.169490	2530.659231
849.483928	2457.562500
849.798323	2477.727115
850.112675	2500.412308
850.426984	2596.194231
850.741251	2520.576923
851.055474	2568.467885
851.369654	2487.809423
851.683792	2480.247692
851.997887	2442.439038
852.311938	2525.618077
852.625947	2482.768269
852.939914	2603.755962
853.253837	2545.782692
853.567718	2500.412308
853.881555	2533.179808
854.195350	2460.083077
854.509103	2450.000769
854.822812	2502.932885
855.136479	2470.165385
855.450103	2465.124231
855.763685	2510.494615
856.077224	2450.000769
856.390720	2460.083077
856.704173	2470.165385
857.017584	2477.727115
857.330953	2515.535769
857.644278	2480.247692
857.957561	2500.412308
858.270802	2444.959615
858.584000	2548.303269
858.897155	2482.768269
859.210268	2455.041923
859.523339	2465.124231
859.836367	2397.068654
860.149352	2507.974038
860.462295	2555.865000
860.775195	2487.809423
861.088054	2462.603654
861.400869	2427.315577
861.713642	2538.220962
862.026373	2507.974038
862.339062	2553.344423
862.651708	2434.877308
862.964312	2457.562500
863.276873	2533.179808
863.589392	2507.974038
863.901869	2480.247692
864.214303	2482.768269
864.526696	2528.138654
864.839045	2470.165385
865.151353	2437.397885
865.463619	2510.494615
865.775842	2515.535769
866.088023	2477.727115
866.400162	2424.795000
866.712258	2462.603654
867.024313	2535.700385
867.336325	2447.480192
867.648296	2477.727115
867.960224	2442.439038
868.272110	2434.877308
868.583954	2477.727115
868.895755	2452.521346
869.207515	2492.850577
869.519233	2495.371154
869.830909	2487.809423
870.142542	2507.974038
870.454134	2434.877308
870.765684	2490.330000
871.077191	2417.233269
871.388657	2437.397885
871.700081	2507.974038
872.011463	2412.192115
872.322803	2510.494615
872.634101	2513.015192
872.945357	2437.397885
873.256571	2573.509038
873.567744	2439.918462
873.878874	2475.206538
874.189963	2485.288846
874.501010	2482.768269
874.812015	2470.165385
875.122979	2444.959615
875.433900	2487.809423
875.744780	2477.727115
876.055618	2429.836154
876.366415	2465.124231
876.677169	2523.097500
876.987882	2442.439038
877.298554	2497.891731
877.609183	2480.247692
877.919771	2487.809423
878.230317	2485.288846
878.540822	2399.589231
878.851285	2523.097500
879.161707	2550.823846
879.472087	2543.262115
879.782425	2513.015192
880.092722	2455.041923
880.402977	2485.288846
880.713191	2485.288846
881.023363	2439.918462
881.333494	2495.371154
881.643583	2543.262115
881.953631	2427.315577
882.263637	2442.439038
882.573602	2530.659231
882.883526	2593.673654
883.193408	2475.206538
883.503248	2462.603654
883.813048	2404.630385
884.122806	2485.288846
884.432522	2515.535769
884.742197	2472.685962
885.051831	2465.124231
885.361424	2477.727115
885.670975	2533.179808
885.980485	2523.097500
886.289954	2505.453462
886.599382	2457.562500
886.908768	2502.932885
887.218113	2520.576923
887.527417	2510.494615
887.836680	2482.768269
888.145901	2538.220962
888.455082	2419.753846
888.764221	2500.412308
889.073319	2409.671538
889.382376	2555.865000
889.691392	2442.439038
890.000366	2470.165385
890.309300	2505.453462
890.618193	2399.589231
890.927044	2507.974038
891.235855	2480.247692
891.544625	2409.671538
891.853353	2477.727115
892.162041	2465.124231
892.470687	2528.138654
892.779293	2369.342308
893.087858	2414.712692
893.396381	2422.274423
893.704864	2507.974038
894.013306	2543.262115
894.321707	2470.165385
894.630068	2518.056346
894.938387	2530.659231
895.246665	2477.727115
895.554903	2576.029615
895.863100	2429.836154
896.171256	2492.850577
896.479371	2555.865000
896.787446	2548.303269
897.095480	2558.385577
897.403473	2414.712692
897.711425	2550.823846
898.019336	2432.356731
898.327207	2477.727115
898.635038	2518.056346
898.942827	2442.439038
899.250576	2450.000769
899.558284	2419.753846
899.865952	2467.644808
900.173579	2432.356731
900.481165	2470.165385
900.788711	2500.412308
901.096216	2485.288846
901.403681	2518.056346
901.711105	2434.877308
902.018489	2540.741538
902.325832	2394.548077
902.633135	2538.220962
902.940397	2452.521346
903.247619	2477.727115
903.554800	2470.165385
903.861941	2502.932885
904.169041	2548.303269
904.476101	2450.000769
904.783121	2492.850577
905.090100	2444.959615
905.397039	2490.330000
905.703938	2487.809423
906.010796	2450.000769
906.317614	2359.260000
906.624391	2523.097500
906.931129	2475.206538
907.237826	2538.220962
907.544483	2470.165385
907.851099	2520.576923
908.157675	2540.741538
908.464211	2573.509038
908.770707	2462.603654
909.077163	2485.288846
909.383578	2495.371154
909.689954	2424.795000
909.996289	2495.371154
910.302584	2450.000769
910.608839	2518.056346
910.915054	2397.068654
911.221229	2518.056346
911.527363	2427.315577
911.833458	2525.618077
912.139513	2487.809423
912.445527	2513.015192
912.751502	2412.192115
913.057436	2437.397885
913.363331	2502.932885
913.669186	2492.850577
913.975000	2530.659231
914.280775	2505.453462
914.586510	2472.685962
914.892205	2510.494615
915.197859	2424.795000
915.503475	2465.124231
915.809050	2553.344423
916.114585	2419.753846
916.420081	2490.330000
916.725536	2558.385577
917.030952	2412.192115
917.336328	2505.453462
917.641665	2535.700385
917.946961	2409.671538
918.252218	2346.657115
918.557435	2525.618077
918.862612	2477.727115
919.167750	2553.344423
919.472848	2500.412308
919.777906	2467.644808
920.082925	2487.809423
920.387904	2487.809423
920.692843	2560.906154
920.997743	2530.659231
921.302603	2417.233269
921.607423	2487.809423
921.912204	2437.397885
922.216946	2470.165385
922.521647	2505.453462
922.826310	2472.685962
923.130932	2462.603654
923.435516	2492.850577
923.740059	2525.618077
924.044564	2533.179808
924.349028	2505.453462
924.653454	2475.206538
924.957840	2495.371154
925.262186	2548.303269
925.566493	2570.988462
925.870761	2583.591346
926.174989	2523.097500
926.479178	2376.904038
926.783328	2543.262115
927.087438	2490.330000
927.391509	2470.165385
927.695541	2530.659231
927.999533	2427.315577
928.303486	2490.330000
928.607400	2419.753846
928.911275	2560.906154
929.215110	2485.288846
929.518906	2502.932885
929.822663	2434.877308
930.126381	2450.000769
930.430060	2510.494615
930.733699	2467.644808
931.037299	2550.823846
931.340861	2558.385577
931.644383	2490.330000
931.947866	2505.453462
932.251309	2533.179808
932.554714	2470.165385
932.858080	2482.768269
933.161407	2480.247692
933.464694	2447.480192
933.767943	2455.041923
934.071153	2540.741538
934.374323	2465.124231
934.677455	2429.836154
934.980548	2386.986346
935.283602	2477.727115
935.586617	2439.918462
935.889593	2492.850577
936.192530	2455.041923
936.495428	2402.109808
936.798287	2482.768269
937.101108	2475.206538
937.403890	2555.865000
937.706632	2487.809423
938.009336	2450.000769
938.312002	2450.000769
938.614628	2502.932885
938.917216	2422.274423
939.219765	2538.220962
939.522275	2419.753846
939.824747	2485.288846
940.127179	2540.741538
940.429573	2480.247692
940.731929	2528.138654
941.034246	2434.877308
941.336524	2502.932885
941.638763	2429.836154
941.940964	2455.041923
942.243126	2487.809423
942.545250	2492.850577
942.847335	2565.947308
943.149381	2465.124231
943.451389	2548.303269
943.753359	2528.138654
944.055290	2389.506923
944.357182	2482.768269
944.659036	2432.356731
944.960851	2513.015192
945.262628	2432.356731
945.564367	2505.453462
945.866067	2530.659231
946.167729	2444.959615
946.469352	2409.671538
946.770937	2550.823846
947.072484	2528.138654
947.373992	2404.630385
947.675462	2502.932885
947.976893	2495.371154
948.278286	2510.494615
948.579641	2477.727115
948.880958	2513.015192
949.182236	2565.947308
949.483476	2447.480192
949.784678	2374.383462
950.085841	2513.015192
950.386967	2475.206538
950.688054	2523.097500
950.989103	2533.179808
951.290114	2392.027500
951.591087	2606.276538
951.892021	2447.480192
952.192917	2540.741538
952.493776	2404.630385
952.794596	2470.165385
953.095378	2452.521346
953.396122	2457.562500
953.696828	2505.453462
953.997496	2472.685962
954.298126	2475.206538
954.598718	2525.618077
954.899272	2482.768269
955.199788	2533.179808
955.500266	2470.165385
955.800706	2472.685962
956.101108	2467.644808
956.401472	2530.659231
956.701798	2480.247692
957.002087	2465.124231
957.302337	2439.918462
957.602550	2507.974038
957.902724	2540.741538
958.202861	2520.576923
958.502960	2502.932885
958.803022	2535.700385
959.103045	2467.644808
959.403031	2520.576923
959.702979	2414.712692
960.002889	2535.700385
960.302762	2523.097500
960.602596	2457.562500
960.902393	2424.795000
961.202153	2497.891731
961.501875	2477.727115
961.801559	2540.741538
962.101205	2381.945192
962.400814	2497.891731
962.700385	2442.439038
962.999918	2457.562500
963.299414	2475.206538
963.598873	2535.700385
963.898293	2447.480192
964.197677	2560.906154
964.497022	2553.344423
964.796331	2487.809423
965.095601	2462.603654
965.394835	2402.109808
965.694030	2450.000769
965.993189	2555.865000
966.292309	2457.562500
966.591393	2545.782692
966.890439	2485.288846
967.189447	2485.288846
967.488419	2487.809423
967.787353	2442.439038
968.086249	2397.068654
968.385108	2533.179808
968.683930	2462.603654
968.982714	2588.632500
969.281462	2444.959615
969.580172	2472.685962
969.878844	2535.700385
970.177480	2500.412308
970.476078	2528.138654
970.774639	2492.850577
971.073162	2450.000769
971.371649	2497.891731
971.670098	2475.206538
971.968510	2457.562500
972.266885	2409.671538
972.565223	2500.412308
972.863524	2452.521346
973.161788	2502.932885
973.460014	2568.467885
973.758204	2424.795000
974.056356	2576.029615
974.354471	2520.576923
974.652550	2414.712692
974.950591	2482.768269
975.248595	2447.480192
975.546563	2477.727115
975.844493	2581.070769
976.142386	2397.068654
976.440243	2485.288846
976.738062	2533.179808
977.035845	2392.027500
977.333590	2470.165385
977.631299	2518.056346
977.928971	2487.809423
978.226606	2490.330000
978.524204	2560.906154
978.821765	2500.412308
979.119290	2533.179808
979.416777	2462.603654
979.714228	2465.124231
980.011642	2460.083077
980.309020	2450.000769
980.606360	2520.576923
980.903664	2500.412308
981.200931	2437.397885
981.498162	2450.000769
981.795356	2480.247692
982.092513	2465.124231
982.389633	2444.959615
982.686717	2497.891731
982.983764	2495.371154
983.280775	2414.712692
983.577749	2412.192115
983.874686	2603.755962
984.171587	2543.262115
984.468451	2472.685962
984.765279	2507.974038
985.062070	2450.000769
985.358824	2490.330000
985.655543	2434.877308
985.952224	2515.535769
986.248869	2472.685962
986.545478	2495.371154
986.842050	2555.865000
987.138586	2462.603654
987.435086	2507.974038
987.731549	2530.659231
988.027975	2467.644808
988.324366	2397.068654
988.620719	2394.548077
988.917037	2533.179808
989.213318	2450.000769
989.509563	2477.727115
989.805772	2477.727115
990.101944	2502.932885
990.398080	2439.918462
990.694180	2470.165385
990.990244	2447.480192
991.286271	2432.356731
991.582262	2465.124231
991.878217	2465.124231
992.174136	2424.795000
992.470019	2502.932885
992.765865	2424.795000
993.061676	2538.220962
993.357450	2507.974038
993.653188	2427.315577
993.948890	2525.618077
994.244556	2452.521346
994.540186	2553.344423
994.835780	2437.397885
995.131337	2492.850577
995.426859	2543.262115
995.722345	2419.753846
996.017795	2495.371154
996.313208	2513.015192
996.608586	2535.700385
996.903928	2520.576923
997.199234	2540.741538
997.494504	2523.097500
997.789738	2525.618077
998.084936	2502.932885
998.380099	2505.453462
998.675225	2439.918462
998.970316	2460.083077
999.265371	2407.150962
999.560390	2424.795000
999.855373	2392.027500
1000.150320	2515.535769
1000.445232	2525.618077
1000.740108	2492.850577
1001.034948	2482.768269
1001.329752	2545.782692
1001.624521	2487.809423
1001.919254	2507.974038
1002.213951	2419.753846
1002.508613	2480.247692
1002.803239	2467.644808
1003.097829	2472.685962
1003.392384	2462.603654
1003.686903	2495.371154
1003.981386	2460.083077
1004.275834	2392.027500
1004.570246	2565.947308
1004.864623	2450.000769
1005.158964	2553.344423
1005.453270	2586.111923
1005.747540	2455.041923
1006.041775	2432.356731
1006.335974	2505.453462
1006.630138	2465.124231
1006.924266	2477.727115
1007.218359	2376.904038
1007.512416	2490.330000
1007.806438	2477.727115
1008.100425	2523.097500
1008.394376	2422.274423
1008.688292	2502.932885
1008.982172	2520.576923
1009.276017	2487.809423
1009.569827	2465.124231
1009.863602	2475.206538
1010.157341	2444.959615
1010.451045	2515.535769
1010.744714	2507.974038
1011.038347	2507.974038
1011.331945	2417.233269
1011.625508	2518.056346
1011.919036	2497.891731
1012.212528	2462.603654
1012.505986	2588.632500
1012.799408	2437.397885
1013.092795	2518.056346
1013.386147	2381.945192
1013.679464	2535.700385
1013.972745	2533.179808
1014.265992	2507.974038
1014.559204	2502.932885
1014.852380	2515.535769
1015.145521	2432.356731
1015.438628	2515.535769
1015.731699	2513.015192
1016.024736	2439.918462
1016.317737	2523.097500
1016.610703	2525.618077
1016.903635	2457.562500
1017.196531	2495.371154
1017.489393	2495.371154
1017.782219	2465.124231
1018.075011	2467.644808
1018.367768	2497.891731
1018.660490	2543.262115
1018.953177	2543.262115
1019.245829	2543.262115
