Dividing Wavelength (nm)	Counts (n)	Blue Motor Position (mm): 1.400000	Red Motor Position (mm): 0.000000	
326.493990	2107.202308
326.888308	2107.202308
327.282561	2107.202308
327.676750	2092.078846
328.070874	2003.858654
328.464933	2097.120000
328.858929	2112.243462
329.252859	2089.558269
329.646726	2104.681731
330.040528	2175.257885
330.434265	2051.749615
330.827938	2170.216731
331.221547	2127.366923
331.615091	2195.422500
332.008571	2170.216731
332.401986	2155.093269
332.795338	2213.066538
333.188625	2197.943077
333.581847	2276.080962
333.975006	2273.560385
334.368100	2296.245577
334.761129	2386.986346
335.154095	2394.548077
335.546996	2346.657115
335.939833	2326.492500
336.332606	2472.685962
336.725315	2260.957500
337.117960	2402.109808
337.510540	2447.480192
337.903056	2381.945192
338.295508	2490.330000
338.687896	2505.453462
339.080220	2470.165385
339.472480	2412.192115
339.864676	2470.165385
340.256807	2414.712692
340.648875	2417.233269
341.040879	2439.918462
341.432818	2394.548077
341.824694	2495.371154
342.216506	2507.974038
342.608253	2417.233269
342.999937	2520.576923
343.391557	2477.727115
343.783113	2376.904038
344.174605	2487.809423
344.566033	2487.809423
344.957397	2500.412308
345.348697	2432.356731
345.739934	2553.344423
346.131106	2482.768269
346.522215	2487.809423
346.913260	2535.700385
347.304241	2465.124231
347.695159	2424.795000
348.086012	2515.535769
348.476802	2442.439038
348.867528	2432.356731
349.258191	2502.932885
349.648789	2437.397885
350.039324	2447.480192
350.429796	2455.041923
350.820203	2389.506923
351.210548	2485.288846
351.600828	2381.945192
351.991045	2437.397885
352.381198	2457.562500
352.771288	2429.836154
353.161314	2467.644808
353.551276	2490.330000
353.941175	2462.603654
354.331010	2392.027500
354.720782	2434.877308
355.110490	2432.356731
355.500135	2500.412308
355.889717	2409.671538
356.279235	2444.959615
356.668689	2427.315577
357.058080	2450.000769
357.447408	2439.918462
357.836672	2470.165385
358.225873	2351.698269
358.615010	2412.192115
359.004084	2419.753846
359.393095	2460.083077
359.782043	2404.630385
360.170927	2409.671538
360.559748	2470.165385
360.948505	2404.630385
361.337199	2455.041923
361.725830	2457.562500
362.114398	2439.918462
362.502903	2455.041923
362.891344	2452.521346
363.279722	2472.685962
363.668037	2497.891731
364.056289	2424.795000
364.444478	2412.192115
364.832603	2389.506923
365.220665	2450.000769
365.608665	2397.068654
365.996601	2381.945192
366.384474	2409.671538
366.772284	2485.288846
367.160031	2465.124231
367.547715	2346.657115
367.935336	2465.124231
368.322893	2379.424615
368.710388	2427.315577
369.097820	2457.562500
369.485189	2447.480192
369.872495	2462.603654
370.259738	2470.165385
370.646918	2381.945192
371.034035	2417.233269
371.421090	2462.603654
371.808081	2525.618077
372.195010	2404.630385
372.581875	2490.330000
372.968678	2407.150962
373.355418	2439.918462
373.742096	2422.274423
374.128710	2502.932885
374.515262	2465.124231
374.901751	2397.068654
375.288177	2505.453462
375.674540	2409.671538
376.060841	2500.412308
376.447079	2457.562500
376.833254	2392.027500
377.219367	2497.891731
377.605417	2444.959615
377.991404	2399.589231
378.377329	2442.439038
378.763191	2530.659231
379.148991	2381.945192
379.534727	2381.945192
379.920402	2455.041923
380.306013	2470.165385
380.691563	2495.371154
381.077049	2565.947308
381.462474	2485.288846
381.847835	2422.274423
382.233134	2535.700385
382.618371	2452.521346
383.003545	2553.344423
383.388657	2513.015192
383.773706	2530.659231
384.158693	2462.603654
384.543618	2429.836154
384.928480	2495.371154
385.313280	2505.453462
385.698017	2379.424615
386.082692	2434.877308
386.467305	2455.041923
386.851856	2502.932885
387.236344	2492.850577
387.620770	2485.288846
388.005133	2518.056346
388.389435	2462.603654
388.773674	2394.548077
389.157851	2429.836154
389.541965	2407.150962
389.926018	2513.015192
390.310008	2500.412308
390.693936	2507.974038
391.077802	2429.836154
391.461606	2507.974038
391.845348	2450.000769
392.229027	2465.124231
392.612645	2467.644808
392.996200	2455.041923
393.379694	2452.521346
393.763125	2399.589231
394.146494	2397.068654
394.529801	2497.891731
394.913047	2457.562500
395.296230	2475.206538
395.679351	2490.330000
396.062410	2417.233269
396.445408	2381.945192
396.828343	2497.891731
397.211217	2457.562500
397.594028	2490.330000
397.976778	2533.179808
398.359466	2480.247692
398.742092	2487.809423
399.124656	2487.809423
399.507158	2434.877308
399.889598	2480.247692
400.271977	2389.506923
400.654294	2523.097500
401.036549	2427.315577
401.418742	2482.768269
401.800874	2470.165385
402.182944	2510.494615
402.564952	2505.453462
402.946898	2452.521346
403.328783	2480.247692
403.710606	2535.700385
404.092367	2480.247692
404.474067	2518.056346
404.855705	2460.083077
405.237282	2419.753846
405.618797	2447.480192
406.000250	2525.618077
406.381642	2533.179808
406.762972	2470.165385
407.144240	2490.330000
407.525447	2533.179808
407.906593	2472.685962
408.287677	2419.753846
408.668700	2339.095385
409.049661	2470.165385
409.430560	2470.165385
409.811399	2535.700385
410.192176	2465.124231
410.572891	2450.000769
410.953545	2429.836154
411.334138	2434.877308
411.714669	2487.809423
412.095139	2548.303269
412.475547	2485.288846
412.855894	2470.165385
413.236180	2513.015192
413.616405	2487.809423
413.996568	2397.068654
414.376670	2452.521346
414.756711	2485.288846
415.136691	2429.836154
415.516609	2412.192115
415.896466	2507.974038
416.276262	2535.700385
416.655997	2497.891731
417.035670	2465.124231
417.415283	2525.618077
417.794834	2437.397885
418.174324	2533.179808
418.553753	2472.685962
418.933121	2568.467885
419.312428	2513.015192
419.691674	2467.644808
420.070859	2540.741538
420.449983	2460.083077
420.829045	2487.809423
421.208047	2419.753846
421.586988	2502.932885
421.965867	2505.453462
422.344686	2429.836154
422.723444	2507.974038
423.102141	2485.288846
423.480777	2419.753846
423.859352	2457.562500
424.237866	2525.618077
424.616319	2462.603654
424.994712	2543.262115
425.373044	2455.041923
425.751314	2497.891731
426.129524	2507.974038
426.507673	2520.576923
426.885762	2379.424615
427.263789	2497.891731
427.641756	2386.986346
428.019662	2381.945192
428.397508	2470.165385
428.775292	2485.288846
429.153016	2477.727115
429.530679	2497.891731
429.908282	2485.288846
430.285824	2465.124231
430.663305	2497.891731
431.040726	2482.768269
431.418086	2467.644808
431.795385	2497.891731
432.172624	2487.809423
432.549802	2437.397885
432.926920	2505.453462
433.303977	2482.768269
433.680974	2548.303269
434.057910	2462.603654
434.434786	2502.932885
434.811601	2452.521346
435.188355	2500.412308
435.565050	2467.644808
435.941683	2439.918462
436.318257	2465.124231
436.694770	2490.330000
437.071222	2505.453462
437.447614	2452.521346
437.823946	2450.000769
438.200218	2427.315577
438.576429	2424.795000
438.952580	2447.480192
439.328670	2570.988462
439.704700	2444.959615
440.080670	2427.315577
440.456580	2442.439038
440.832429	2487.809423
441.208218	2565.947308
441.583947	2472.685962
441.959616	2548.303269
442.335224	2560.906154
442.710773	2467.644808
443.086261	2482.768269
443.461689	2495.371154
443.837057	2452.521346
444.212365	2475.206538
444.587612	2492.850577
444.962800	2450.000769
445.337927	2492.850577
445.712995	2510.494615
446.088002	2457.562500
446.462949	2485.288846
446.837837	2460.083077
447.212664	2470.165385
447.587431	2439.918462
447.962139	2507.974038
448.336786	2528.138654
448.711374	2616.358846
449.085901	2475.206538
449.460369	2576.029615
449.834776	2467.644808
450.209124	2528.138654
450.583412	2492.850577
450.957640	2533.179808
451.331808	2462.603654
451.705917	2412.192115
452.079965	2462.603654
452.453954	2419.753846
452.827883	2470.165385
453.201752	2455.041923
453.575562	2439.918462
453.949311	2434.877308
454.323001	2520.576923
454.696632	2439.918462
455.070202	2507.974038
455.443713	2490.330000
455.817164	2513.015192
456.190556	2409.671538
456.563888	2490.330000
456.937160	2543.262115
457.310373	2495.371154
457.683526	2505.453462
458.056619	2555.865000
458.429653	2414.712692
458.802628	2460.083077
459.175542	2452.521346
459.548398	2442.439038
459.921194	2548.303269
460.293930	2477.727115
460.666607	2505.453462
461.039224	2505.453462
461.411782	2540.741538
461.784280	2457.562500
462.156719	2472.685962
462.529099	2523.097500
462.901419	2376.904038
463.273680	2455.041923
463.645882	2507.974038
464.018024	2565.947308
464.390106	2520.576923
464.762130	2427.315577
465.134094	2528.138654
465.505999	2452.521346
465.877845	2502.932885
466.249631	2500.412308
466.621358	2528.138654
466.993026	2482.768269
467.364634	2550.823846
467.736184	2530.659231
468.107674	2429.836154
468.479105	2513.015192
468.850477	2470.165385
469.221790	2475.206538
469.593043	2439.918462
469.964238	2434.877308
470.335373	2510.494615
470.706449	2475.206538
471.077467	2487.809423
471.448425	2560.906154
471.819324	2462.603654
472.190164	2444.959615
472.560945	2523.097500
472.931667	2568.467885
473.302330	2535.700385
473.672934	2505.453462
474.043479	2513.015192
474.413965	2480.247692
474.784393	2553.344423
475.154761	2487.809423
475.525070	2467.644808
475.895321	2450.000769
476.265513	2576.029615
476.635645	2444.959615
477.005719	2518.056346
477.375734	2573.509038
477.745691	2424.795000
478.115588	2502.932885
478.485427	2482.768269
478.855207	2502.932885
479.224928	2424.795000
479.594591	2457.562500
479.964194	2470.165385
480.333739	2455.041923
480.703226	2444.959615
481.072653	2402.109808
481.442022	2507.974038
481.811333	2460.083077
482.180584	2573.509038
482.549777	2492.850577
482.918912	2419.753846
483.287988	2432.356731
483.657005	2530.659231
484.025964	2545.782692
484.394864	2535.700385
484.763706	2515.535769
485.132489	2560.906154
485.501213	2429.836154
485.869879	2447.480192
486.238487	2482.768269
486.607036	2497.891731
486.975527	2500.412308
487.343959	2560.906154
487.712333	2492.850577
488.080648	2485.288846
488.448905	2457.562500
488.817104	2475.206538
489.185244	2465.124231
489.553326	2465.124231
489.921350	2573.509038
490.289315	2497.891731
490.657222	2482.768269
491.025070	2507.974038
491.392861	2477.727115
491.760593	2495.371154
492.128267	2422.274423
492.495883	2470.165385
492.863440	2533.179808
493.230939	2623.920577
493.598380	2432.356731
493.965763	2515.535769
494.333088	2495.371154
494.700354	2540.741538
495.067563	2439.918462
495.434713	2535.700385
495.801805	2513.015192
496.168839	2513.015192
496.535815	2510.494615
496.902733	2500.412308
497.269593	2407.150962
497.636395	2495.371154
498.003139	2570.988462
498.369825	2465.124231
498.736453	2500.412308
499.103023	2523.097500
499.469535	2528.138654
499.835989	2409.671538
500.202385	2563.426731
500.568723	2510.494615
500.935003	2419.753846
501.301226	2528.138654
501.667390	2495.371154
502.033497	2409.671538
502.399546	2560.906154
502.765537	2535.700385
503.131470	2402.109808
503.497345	2538.220962
503.863163	2455.041923
504.228923	2596.194231
504.594625	2452.521346
504.960269	2434.877308
505.325856	2502.932885
505.691385	2432.356731
506.056856	2487.809423
506.422270	2515.535769
506.787625	2492.850577
507.152924	2505.453462
507.518164	2444.959615
507.883347	2497.891731
508.248472	2457.562500
508.613540	2560.906154
508.978550	2497.891731
509.343503	2502.932885
509.708398	2502.932885
510.073236	2487.809423
510.438016	2510.494615
510.802738	2568.467885
511.167403	2525.618077
511.532010	2490.330000
511.896561	2407.150962
512.261053	2520.576923
512.625488	2523.097500
512.989866	2467.644808
513.354186	2429.836154
513.718449	2447.480192
514.082655	2576.029615
514.446803	2540.741538
514.810894	2417.233269
515.174927	2485.288846
515.538904	2568.467885
515.902822	2482.768269
516.266684	2525.618077
516.630488	2492.850577
516.994235	2477.727115
517.357925	2553.344423
517.721558	2515.535769
518.085133	2528.138654
518.448651	2555.865000
518.812112	2543.262115
519.175516	2515.535769
519.538863	2427.315577
519.902152	2518.056346
520.265385	2573.509038
520.628560	2495.371154
520.991678	2548.303269
521.354739	2477.727115
521.717743	2543.262115
522.080690	2576.029615
522.443580	2497.891731
522.806413	2538.220962
523.169189	2477.727115
523.531908	2450.000769
523.894569	2452.521346
524.257174	2497.891731
524.619722	2462.603654
524.982213	2533.179808
525.344647	2540.741538
525.707025	2470.165385
526.069345	2528.138654
526.431608	2460.083077
526.793815	2480.247692
527.155964	2495.371154
527.518057	2495.371154
527.880093	2492.850577
528.242072	2500.412308
528.603995	2475.206538
528.965860	2467.644808
529.327669	2523.097500
529.689421	2480.247692
530.051117	2475.206538
530.412755	2437.397885
530.774337	2492.850577
531.135862	2525.618077
531.497331	2520.576923
531.858743	2462.603654
532.220098	2467.644808
532.581396	2555.865000
532.942638	2417.233269
533.303824	2550.823846
533.664953	2505.453462
534.026025	2472.685962
534.387040	2457.562500
534.747999	2487.809423
535.108902	2515.535769
535.469748	2482.768269
535.830537	2495.371154
536.191270	2502.932885
536.551947	2487.809423
536.912567	2502.932885
537.273131	2495.371154
537.633638	2462.603654
537.994089	2525.618077
538.354483	2482.768269
538.714821	2465.124231
539.075103	2487.809423
539.435328	2490.330000
539.795497	2427.315577
540.155609	2455.041923
540.515665	2412.192115
540.875665	2543.262115
541.235609	2429.836154
541.595496	2497.891731
541.955328	2482.768269
542.315102	2550.823846
542.674821	2485.288846
543.034483	2490.330000
543.394090	2472.685962
543.753640	2525.618077
544.113134	2480.247692
544.472571	2523.097500
544.831953	2510.494615
545.191278	2510.494615
545.550548	2492.850577
545.909761	2399.589231
546.268918	2450.000769
546.628019	2530.659231
546.987064	2495.371154
547.346053	2505.453462
547.704986	2525.618077
548.063863	2455.041923
548.422684	2495.371154
548.781449	2462.603654
549.140158	2502.932885
549.498811	2573.509038
549.857408	2528.138654
550.215949	2548.303269
550.574434	2475.206538
550.932864	2535.700385
551.291237	2545.782692
551.649555	2518.056346
552.007817	2548.303269
552.366022	2437.397885
552.724173	2492.850577
553.082267	2497.891731
553.440305	2477.727115
553.798288	2437.397885
554.156215	2477.727115
554.514086	2495.371154
554.871902	2492.850577
555.229661	2502.932885
555.587365	2432.356731
555.945014	2558.385577
556.302606	2507.974038
556.660143	2560.906154
557.017625	2490.330000
557.375050	2520.576923
557.732421	2462.603654
558.089735	2482.768269
558.446994	2429.836154
558.804197	2455.041923
559.161345	2455.041923
559.518437	2525.618077
559.875474	2565.947308
560.232455	2495.371154
560.589381	2432.356731
560.946251	2528.138654
561.303065	2507.974038
561.659825	2523.097500
562.016528	2497.891731
562.373177	2485.288846
562.729770	2472.685962
563.086307	2523.097500
563.442789	2470.165385
563.799216	2513.015192
564.155587	2412.192115
564.511904	2505.453462
564.868164	2510.494615
565.224370	2500.412308
565.580520	2535.700385
565.936615	2535.700385
566.292654	2507.974038
566.648638	2581.070769
567.004567	2450.000769
567.360441	2472.685962
567.716260	2467.644808
568.072023	2497.891731
568.427732	2520.576923
568.783385	2485.288846
569.138982	2444.959615
569.494525	2487.809423
569.850013	2548.303269
570.205445	2505.453462
570.560823	2487.809423
570.916145	2442.439038
571.271412	2553.344423
571.626625	2487.809423
571.981782	2538.220962
572.336884	2502.932885
572.691931	2525.618077
573.046923	2485.288846
573.401860	2427.315577
573.756743	2583.591346
574.111570	2530.659231
574.466342	2553.344423
574.821059	2523.097500
575.175722	2502.932885
575.530330	2591.153077
575.884882	2460.083077
576.239380	2465.124231
576.593823	2424.795000
576.948211	2505.453462
577.302544	2490.330000
577.656823	2525.618077
578.011047	2457.562500
578.365216	2427.315577
578.719330	2523.097500
579.073389	2500.412308
579.427394	2437.397885
579.781344	2452.521346
580.135239	2497.891731
580.489080	2444.959615
580.842866	2455.041923
581.196597	2523.097500
581.550273	2450.000769
581.903895	2452.521346
582.257463	2523.097500
582.610975	2457.562500
582.964434	2475.206538
583.317837	2495.371154
583.671186	2434.877308
584.024481	2540.741538
584.377721	2462.603654
584.730906	2502.932885
585.084037	2442.439038
585.437113	2568.467885
585.790135	2414.712692
586.143103	2439.918462
586.496016	2550.823846
586.848874	2460.083077
587.201679	2437.397885
587.554428	2548.303269
587.907124	2520.576923
588.259765	2424.795000
588.612352	2510.494615
588.964884	2432.356731
589.317362	2543.262115
589.669786	2510.494615
590.022155	2457.562500
590.374470	2540.741538
590.726731	2450.000769
591.078937	2520.576923
591.431090	2525.618077
591.783188	2482.768269
592.135232	2419.753846
592.487222	2510.494615
592.839157	2465.124231
593.191038	2412.192115
593.542866	2500.412308
593.894639	2495.371154
594.246358	2520.576923
594.598022	2462.603654
594.949633	2500.412308
595.301190	2500.412308
595.652692	2548.303269
596.004141	2475.206538
596.355535	2510.494615
596.706876	2505.453462
597.058162	2490.330000
597.409395	2457.562500
597.760573	2563.426731
598.111698	2545.782692
598.462768	2507.974038
598.813785	2470.165385
599.164748	2513.015192
599.515657	2535.700385
599.866511	2447.480192
600.217312	2533.179808
600.568060	2500.412308
600.918753	2505.453462
601.269392	2457.562500
601.619978	2477.727115
601.970510	2424.795000
602.320988	2555.865000
602.671412	2432.356731
603.021783	2528.138654
603.372100	2402.109808
603.722363	2523.097500
604.072572	2427.315577
604.422728	2545.782692
604.772830	2513.015192
605.122878	2530.659231
605.472872	2520.576923
605.822813	2492.850577
606.172701	2518.056346
606.522534	2505.453462
606.872314	2570.988462
607.222041	2485.288846
607.571714	2490.330000
607.921333	2497.891731
608.270899	2543.262115
608.620411	2515.535769
608.969870	2553.344423
609.319276	2540.741538
609.668627	2457.562500
610.017926	2424.795000
610.367171	2533.179808
610.716362	2535.700385
611.065500	2480.247692
611.414585	2568.467885
611.763616	2477.727115
612.112594	2510.494615
612.461518	2528.138654
612.810389	2450.000769
613.159207	2523.097500
613.507971	2497.891731
613.856682	2581.070769
614.205340	2563.426731
614.553945	2475.206538
614.902496	2565.947308
615.250994	2472.685962
615.599439	2480.247692
615.947830	2570.988462
616.296169	2523.097500
616.644454	2432.356731
616.992686	2495.371154
617.340864	2505.453462
617.688990	2409.671538
618.037063	2444.959615
618.385082	2545.782692
618.733048	2543.262115
619.080961	2482.768269
619.428821	2485.288846
619.776628	2477.727115
620.124382	2518.056346
620.472083	2530.659231
620.819731	2434.877308
621.167326	2558.385577
621.514868	2497.891731
621.862357	2518.056346
622.209793	2495.371154
622.557176	2492.850577
622.904506	2437.397885
623.251783	2513.015192
623.599007	2533.179808
623.946179	2507.974038
624.293297	2565.947308
624.640363	2462.603654
624.987376	2500.412308
625.334336	2455.041923
625.681243	2507.974038
626.028097	2507.974038
626.374899	2555.865000
626.721647	2480.247692
627.068343	2457.562500
627.414987	2523.097500
627.761577	2432.356731
628.108115	2513.015192
628.454600	2576.029615
628.801032	2467.644808
629.147412	2570.988462
629.493739	2515.535769
629.840014	2495.371154
630.186236	2573.509038
630.532405	2497.891731
630.878521	2520.576923
631.224585	2578.550192
631.570597	2578.550192
631.916556	2429.836154
632.262462	2518.056346
632.608316	2470.165385
632.954117	2518.056346
633.299866	2513.015192
633.645562	2520.576923
633.991206	2588.632500
634.336797	2470.165385
634.682336	2538.220962
635.027823	2480.247692
635.373257	2414.712692
635.718639	2523.097500
636.063968	2510.494615
636.409245	2492.850577
636.754470	2505.453462
637.099642	2417.233269
637.444762	2475.206538
637.789829	2434.877308
638.134845	2505.453462
638.479808	2432.356731
638.824719	2543.262115
639.169577	2528.138654
639.514383	2528.138654
639.859137	2507.974038
640.203839	2570.988462
640.548489	2450.000769
640.893086	2523.097500
641.237632	2457.562500
641.582125	2427.315577
641.926566	2525.618077
642.270955	2450.000769
642.615292	2591.153077
642.959576	2502.932885
643.303809	2472.685962
643.647990	2528.138654
643.992118	2490.330000
644.336195	2540.741538
644.680219	2570.988462
645.024192	2460.083077
645.368112	2568.467885
645.711981	2515.535769
646.055797	2560.906154
646.399562	2510.494615
646.743274	2525.618077
647.086935	2452.521346
647.430544	2502.932885
647.774101	2500.412308
648.117606	2460.083077
648.461059	2523.097500
648.804460	2480.247692
649.147810	2510.494615
649.491108	2510.494615
649.834354	2530.659231
650.177548	2450.000769
650.520690	2520.576923
650.863781	2475.206538
651.206820	2520.576923
651.549807	2576.029615
651.892742	2495.371154
652.235626	2510.494615
652.578458	2467.644808
652.921238	2621.400000
653.263967	2492.850577
653.606644	2467.644808
653.949269	2439.918462
654.291843	2497.891731
654.634365	2455.041923
654.976836	2485.288846
655.319255	2452.521346
655.661622	2525.618077
656.003938	2578.550192
656.346203	2457.562500
656.688416	2497.891731
657.030577	2455.041923
657.372687	2497.891731
657.714746	2437.397885
658.056753	2457.562500
658.398708	2593.673654
658.740612	2427.315577
659.082465	2472.685962
659.424266	2487.809423
659.766016	2548.303269
660.107715	2495.371154
660.449362	2502.932885
660.790958	2505.453462
661.132503	2457.562500
661.473996	2427.315577
661.815438	2502.932885
662.156829	2525.618077
662.498168	2502.932885
662.839456	2452.521346
663.180693	2477.727115
663.521879	2515.535769
663.863013	2432.356731
664.204097	2515.535769
664.545129	2434.877308
664.886110	2457.562500
665.227040	2487.809423
665.567918	2525.618077
665.908746	2442.439038
666.249522	2528.138654
666.590248	2482.768269
666.930922	2482.768269
667.271545	2568.467885
667.612118	2510.494615
667.952639	2462.603654
668.293109	2515.535769
668.633528	2485.288846
668.973896	2543.262115
669.314213	2470.165385
669.654480	2515.535769
669.994695	2452.521346
670.334859	2538.220962
670.674973	2485.288846
671.015035	2631.482308
671.355047	2568.467885
671.695008	2545.782692
672.034918	2548.303269
672.374777	2513.015192
672.714585	2545.782692
673.054342	2427.315577
673.394049	2412.192115
673.733705	2487.809423
674.073310	2500.412308
674.412864	2558.385577
674.752368	2497.891731
675.091820	2485.288846
675.431223	2538.220962
675.770574	2515.535769
676.109875	2492.850577
676.449125	2497.891731
676.788324	2533.179808
677.127473	2548.303269
677.466571	2417.233269
677.805619	2510.494615
678.144616	2457.562500
678.483562	2455.041923
678.822458	2497.891731
679.161303	2538.220962
679.500098	2439.918462
679.838842	2513.015192
680.177535	2497.891731
680.516179	2528.138654
680.854771	2558.385577
681.193314	2545.782692
681.531805	2470.165385
681.870247	2513.015192
682.208638	2528.138654
682.546978	2472.685962
682.885268	2507.974038
683.223508	2414.712692
683.561697	2480.247692
683.899836	2477.727115
684.237925	2500.412308
684.575963	2543.262115
684.913951	2598.714808
685.251889	2475.206538
685.589776	2467.644808
685.927614	2485.288846
686.265401	2480.247692
686.603137	2487.809423
686.940824	2502.932885
687.278460	2502.932885
687.616046	2457.562500
687.953582	2460.083077
688.291068	2533.179808
688.628504	2424.795000
688.965889	2510.494615
689.303224	2513.015192
689.640510	2394.548077
689.977745	2535.700385
690.314930	2462.603654
690.652065	2535.700385
690.989150	2424.795000
691.326185	2538.220962
691.663170	2502.932885
692.000105	2525.618077
692.336990	2457.562500
692.673825	2462.603654
693.010610	2502.932885
693.347345	2505.453462
693.684030	2533.179808
694.020665	2457.562500
694.357251	2500.412308
694.693786	2455.041923
695.030272	2568.467885
695.366707	2475.206538
695.703093	2518.056346
696.039429	2455.041923
696.375716	2447.480192
696.711952	2497.891731
697.048139	2467.644808
697.384276	2563.426731
697.720363	2467.644808
698.056400	2538.220962
698.392388	2497.891731
698.728326	2513.015192
699.064214	2399.589231
699.400053	2447.480192
699.735842	2518.056346
700.071581	2487.809423
700.407270	2490.330000
700.742910	2515.535769
701.078501	2497.891731
701.414042	2482.768269
701.749533	2442.439038
702.084974	2550.823846
702.420366	2487.809423
702.755709	2482.768269
703.091002	2515.535769
703.426246	2525.618077
703.761440	2475.206538
704.096584	2457.562500
704.431679	2475.206538
704.766725	2472.685962
705.101721	2538.220962
705.436668	2447.480192
705.771565	2492.850577
706.106413	2472.685962
706.441212	2581.070769
706.775961	2457.562500
707.110661	2482.768269
707.445311	2480.247692
707.779913	2560.906154
708.114465	2606.276538
708.448967	2497.891731
708.783421	2444.959615
709.117825	2520.576923
709.452180	2520.576923
709.786485	2523.097500
710.120742	2477.727115
710.454949	2492.850577
710.789107	2525.618077
711.123216	2419.753846
711.457275	2495.371154
711.791286	2548.303269
712.125247	2540.741538
712.459159	2487.809423
712.793023	2505.453462
713.126837	2497.891731
713.460602	2452.521346
713.794318	2510.494615
714.127985	2492.850577
714.461602	2568.467885
714.795171	2487.809423
715.128691	2460.083077
715.462162	2510.494615
715.795584	2490.330000
716.128957	2513.015192
716.462281	2452.521346
716.795556	2500.412308
717.128782	2490.330000
717.461960	2460.083077
717.795088	2404.630385
718.128167	2570.988462
718.461198	2480.247692
718.794180	2530.659231
719.127113	2565.947308
719.459997	2417.233269
719.792833	2485.288846
720.125619	2414.712692
720.458357	2470.165385
720.791046	2533.179808
721.123686	2523.097500
721.456278	2513.015192
721.788821	2422.274423
722.121315	2560.906154
722.453761	2434.877308
722.786158	2560.906154
723.118506	2510.494615
723.450805	2455.041923
723.783056	2525.618077
724.115259	2457.562500
724.447412	2434.877308
724.779518	2505.453462
725.111574	2462.603654
725.443582	2538.220962
725.775542	2437.397885
726.107453	2523.097500
726.439315	2513.015192
726.771129	2470.165385
727.102895	2472.685962
727.434612	2628.961731
727.766281	2480.247692
728.097901	2480.247692
728.429473	2560.906154
728.760996	2485.288846
729.092471	2427.315577
729.423897	2455.041923
729.755276	2490.330000
730.086606	2455.041923
730.417887	2568.467885
730.749120	2518.056346
731.080305	2412.192115
731.411442	2520.576923
731.742530	2467.644808
732.073570	2487.809423
732.404562	2442.439038
732.735506	2555.865000
733.066401	2505.453462
733.397249	2487.809423
733.728048	2523.097500
734.058798	2460.083077
734.389501	2457.562500
734.720156	2502.932885
735.050762	2467.644808
735.381320	2495.371154
735.711831	2530.659231
736.042293	2442.439038
736.372707	2510.494615
736.703073	2492.850577
737.033391	2492.850577
737.363661	2475.206538
737.693883	2535.700385
738.024056	2429.836154
738.354182	2510.494615
738.684260	2500.412308
739.014290	2528.138654
739.344272	2432.356731
739.674207	2465.124231
740.004093	2475.206538
740.333931	2596.194231
740.663722	2452.521346
740.993464	2490.330000
741.323159	2462.603654
741.652806	2528.138654
741.982405	2497.891731
742.311956	2470.165385
742.641460	2505.453462
742.970915	2525.618077
743.300323	2392.027500
743.629683	2482.768269
743.958996	2555.865000
744.288260	2558.385577
744.617477	2462.603654
744.946647	2480.247692
745.275768	2505.453462
745.604842	2523.097500
745.933869	2462.603654
746.262847	2480.247692
746.591778	2515.535769
746.920662	2583.591346
747.249498	2495.371154
747.578286	2480.247692
747.907027	2460.083077
748.235720	2472.685962
748.564365	2510.494615
748.892963	2462.603654
749.221514	2490.330000
749.550017	2475.206538
749.878473	2455.041923
750.206881	2455.041923
750.535242	2535.700385
750.863555	2439.918462
751.191821	2507.974038
751.520039	2442.439038
751.848210	2487.809423
752.176334	2472.685962
752.504411	2495.371154
752.832440	2548.303269
753.160421	2565.947308
753.488356	2583.591346
753.816243	2490.330000
754.144082	2457.562500
754.471875	2523.097500
754.799620	2523.097500
755.127318	2515.535769
755.454969	2490.330000
755.782572	2568.467885
756.110129	2555.865000
756.437638	2485.288846
756.765100	2533.179808
757.092515	2550.823846
757.419882	2472.685962
757.747203	2518.056346
758.074477	2492.850577
758.401703	2505.453462
758.728882	2530.659231
759.056014	2510.494615
759.383099	2462.603654
759.710138	2460.083077
760.037129	2548.303269
760.364073	2480.247692
760.690970	2480.247692
761.017820	2470.165385
761.344623	2444.959615
761.671379	2457.562500
761.998088	2455.041923
762.324751	2515.535769
762.651366	2485.288846
762.977935	2371.862885
763.304456	2457.562500
763.630931	2462.603654
763.957359	2502.932885
764.283740	2492.850577
764.610074	2490.330000
764.936362	2573.509038
765.262602	2586.111923
765.588796	2480.247692
765.914943	2510.494615
766.241044	2455.041923
766.567097	2560.906154
766.893104	2538.220962
767.219064	2480.247692
767.544978	2495.371154
767.870845	2457.562500
768.196665	2520.576923
768.522438	2472.685962
768.848165	2490.330000
769.173846	2502.932885
769.499479	2447.480192
769.825066	2455.041923
770.150607	2470.165385
770.476101	2485.288846
770.801548	2540.741538
771.126949	2497.891731
771.452303	2523.097500
771.777611	2455.041923
772.102872	2487.809423
772.428087	2439.918462
772.753256	2538.220962
773.078378	2485.288846
773.403453	2477.727115
773.728482	2477.727115
774.053465	2520.576923
774.378401	2523.097500
774.703291	2442.439038
775.028135	2457.562500
775.352932	2518.056346
775.677683	2500.412308
776.002388	2510.494615
776.327046	2444.959615
776.651658	2422.274423
776.976224	2563.426731
777.300743	2465.124231
777.625216	2555.865000
777.949643	2381.945192
778.274024	2540.741538
778.598359	2389.506923
778.922647	2553.344423
779.246889	2397.068654
779.571086	2465.124231
779.895236	2525.618077
780.219339	2434.877308
780.543397	2429.836154
780.867409	2507.974038
781.191374	2533.179808
781.515294	2442.439038
781.839167	2502.932885
782.162995	2500.412308
782.486776	2533.179808
782.810511	2455.041923
783.134201	2550.823846
783.457844	2434.877308
783.781441	2475.206538
784.104993	2465.124231
784.428498	2507.974038
784.751958	2560.906154
785.075372	2447.480192
785.398739	2513.015192
785.722061	2472.685962
786.045337	2477.727115
786.368568	2439.918462
786.691752	2523.097500
787.014891	2490.330000
787.337983	2545.782692
787.661030	2422.274423
787.984031	2565.947308
788.306987	2510.494615
788.629897	2485.288846
788.952760	2533.179808
789.275579	2404.630385
789.598351	2437.397885
789.921078	2510.494615
790.243759	2528.138654
790.566395	2550.823846
790.888984	2528.138654
791.211529	2553.344423
791.534027	2475.206538
791.856480	2523.097500
792.178888	2444.959615
792.501249	2543.262115
792.823566	2455.041923
793.145836	2497.891731
793.468062	2455.041923
793.790241	2507.974038
794.112375	2450.000769
794.434464	2543.262115
794.756507	2487.809423
795.078505	2472.685962
795.400457	2412.192115
795.722364	2480.247692
796.044226	2480.247692
796.366042	2573.509038
796.687812	2424.795000
797.009538	2475.206538
797.331218	2525.618077
797.652852	2450.000769
797.974442	2480.247692
798.295986	2442.439038
798.617484	2482.768269
798.938938	2392.027500
799.260346	2490.330000
799.581709	2530.659231
799.903026	2439.918462
800.224299	2424.795000
800.545526	2460.083077
800.866708	2414.712692
801.187845	2500.412308
801.508936	2560.906154
801.829983	2518.056346
802.150984	2515.535769
802.471940	2457.562500
802.792851	2460.083077
803.113717	2495.371154
803.434538	2477.727115
803.755314	2553.344423
804.076045	2502.932885
804.396731	2500.412308
804.717372	2482.768269
805.037967	2482.768269
805.358518	2460.083077
805.679024	2515.535769
805.999485	2465.124231
806.319901	2545.782692
806.640272	2444.959615
806.960598	2444.959615
807.280879	2482.768269
807.601115	2548.303269
807.921306	2482.768269
808.241453	2422.274423
808.561554	2518.056346
808.881611	2394.548077
809.201623	2392.027500
809.521590	2530.659231
809.841513	2540.741538
810.161390	2457.562500
810.481223	2447.480192
810.801011	2596.194231
811.120755	2500.412308
811.440453	2550.823846
811.760107	2417.233269
812.079716	2528.138654
812.399281	2487.809423
812.718801	2540.741538
813.038276	2510.494615
813.357707	2583.591346
813.677093	2497.891731
813.996434	2518.056346
814.315731	2611.317692
814.634983	2576.029615
814.954191	2560.906154
815.273354	2477.727115
815.592473	2518.056346
815.911547	2530.659231
816.230577	2507.974038
816.549562	2490.330000
816.868502	2513.015192
817.187399	2392.027500
817.506250	2540.741538
817.825058	2533.179808
818.143821	2500.412308
818.462539	2540.741538
818.781213	2565.947308
819.099843	2470.165385
819.418429	2439.918462
819.736970	2591.153077
820.055466	2450.000769
820.373919	2533.179808
820.692327	2530.659231
821.010691	2480.247692
821.329011	2555.865000
821.647286	2434.877308
821.965517	2510.494615
822.283704	2490.330000
822.601847	2515.535769
822.919945	2457.562500
823.237999	2507.974038
823.556010	2581.070769
823.873976	2586.111923
824.191897	2381.945192
824.509775	2548.303269
824.827609	2497.891731
825.145398	2525.618077
825.463144	2467.644808
825.780845	2520.576923
826.098502	2497.891731
826.416116	2538.220962
826.733685	2482.768269
827.051210	2507.974038
827.368692	2455.041923
827.686129	2497.891731
828.003522	2518.056346
828.320872	2480.247692
828.638177	2523.097500
828.955439	2477.727115
829.272656	2412.192115
829.589830	2427.315577
829.906960	2510.494615
830.224046	2520.576923
830.541088	2502.932885
830.858086	2485.288846
831.175041	2553.344423
831.491952	2399.589231
831.808819	2414.712692
832.125642	2530.659231
832.442421	2528.138654
832.759157	2470.165385
833.075849	2555.865000
833.392497	2457.562500
833.709101	2545.782692
834.025662	2507.974038
834.342179	2485.288846
834.658653	2563.426731
834.975083	2497.891731
835.291469	2502.932885
835.607811	2502.932885
835.924110	2548.303269
836.240366	2444.959615
836.556578	2482.768269
836.872746	2530.659231
837.188871	2465.124231
837.504952	2533.179808
837.820990	2523.097500
838.136984	2545.782692
838.452935	2576.029615
838.768842	2487.809423
839.084706	2505.453462
839.400526	2460.083077
839.716303	2472.685962
840.032037	2543.262115
840.347727	2558.385577
840.663373	2462.603654
840.978977	2495.371154
841.294537	2495.371154
841.610054	2530.659231
841.925527	2497.891731
842.240957	2429.836154
842.556344	2507.974038
842.871687	2437.397885
843.186987	2500.412308
843.502244	2427.315577
843.817458	2510.494615
844.132629	2477.727115
844.447756	2457.562500
844.762840	2434.877308
845.077881	2558.385577
845.392879	2480.247692
845.707833	2432.356731
846.022745	2558.385577
846.337613	2553.344423
846.652438	2543.262115
846.967221	2429.836154
847.281960	2359.260000
847.596656	2487.809423
847.911309	2429.836154
848.225919	2505.453462
848.540485	2495.371154
848.855009	2495.371154
849.169490	2502.932885
849.483928	2540.741538
849.798323	2528.138654
850.112675	2558.385577
850.426984	2397.068654
850.741251	2530.659231
851.055474	2480.247692
851.369654	2548.303269
851.683792	2543.262115
851.997887	2568.467885
852.311938	2540.741538
852.625947	2480.247692
852.939914	2558.385577
853.253837	2475.206538
853.567718	2487.809423
853.881555	2510.494615
854.195350	2465.124231
854.509103	2513.015192
854.822812	2447.480192
855.136479	2513.015192
855.450103	2465.124231
855.763685	2543.262115
856.077224	2480.247692
856.390720	2502.932885
856.704173	2505.453462
857.017584	2392.027500
857.330953	2470.165385
857.644278	2570.988462
857.957561	2429.836154
858.270802	2588.632500
858.584000	2565.947308
858.897155	2450.000769
859.210268	2500.412308
859.523339	2414.712692
859.836367	2447.480192
860.149352	2452.521346
860.462295	2490.330000
860.775195	2439.918462
861.088054	2538.220962
861.400869	2513.015192
861.713642	2419.753846
862.026373	2500.412308
862.339062	2490.330000
862.651708	2482.768269
862.964312	2555.865000
863.276873	2570.988462
863.589392	2480.247692
863.901869	2565.947308
864.214303	2525.618077
864.526696	2502.932885
864.839045	2444.959615
865.151353	2490.330000
865.463619	2472.685962
865.775842	2487.809423
866.088023	2470.165385
866.400162	2467.644808
866.712258	2480.247692
867.024313	2515.535769
867.336325	2523.097500
867.648296	2429.836154
867.960224	2523.097500
868.272110	2455.041923
868.583954	2467.644808
868.895755	2510.494615
869.207515	2555.865000
869.519233	2404.630385
869.830909	2482.768269
870.142542	2578.550192
870.454134	2444.959615
870.765684	2538.220962
871.077191	2472.685962
871.388657	2555.865000
871.700081	2467.644808
872.011463	2543.262115
872.322803	2497.891731
872.634101	2485.288846
872.945357	2497.891731
873.256571	2502.932885
873.567744	2470.165385
873.878874	2502.932885
874.189963	2442.439038
874.501010	2467.644808
874.812015	2490.330000
875.122979	2429.836154
875.433900	2450.000769
875.744780	2545.782692
876.055618	2528.138654
876.366415	2475.206538
876.677169	2545.782692
876.987882	2495.371154
877.298554	2477.727115
877.609183	2492.850577
877.919771	2462.603654
878.230317	2578.550192
878.540822	2437.397885
878.851285	2528.138654
879.161707	2424.795000
879.472087	2475.206538
879.782425	2432.356731
880.092722	2492.850577
880.402977	2523.097500
880.713191	2452.521346
881.023363	2487.809423
881.333494	2450.000769
881.643583	2444.959615
881.953631	2485.288846
882.263637	2439.918462
882.573602	2533.179808
882.883526	2450.000769
883.193408	2492.850577
883.503248	2497.891731
883.813048	2535.700385
884.122806	2424.795000
884.432522	2470.165385
884.742197	2460.083077
885.051831	2497.891731
885.361424	2462.603654
885.670975	2513.015192
885.980485	2444.959615
886.289954	2515.535769
886.599382	2563.426731
886.908768	2439.918462
887.218113	2520.576923
887.527417	2407.150962
887.836680	2482.768269
888.145901	2475.206538
888.455082	2480.247692
888.764221	2455.041923
889.073319	2467.644808
889.382376	2510.494615
889.691392	2422.274423
890.000366	2505.453462
890.309300	2513.015192
890.618193	2472.685962
890.927044	2500.412308
891.235855	2520.576923
891.544625	2472.685962
891.853353	2465.124231
892.162041	2505.453462
892.470687	2444.959615
892.779293	2545.782692
893.087858	2520.576923
893.396381	2477.727115
893.704864	2502.932885
894.013306	2563.426731
894.321707	2442.439038
894.630068	2495.371154
894.938387	2472.685962
895.246665	2480.247692
895.554903	2530.659231
895.863100	2444.959615
896.171256	2497.891731
896.479371	2450.000769
896.787446	2505.453462
897.095480	2535.700385
897.403473	2497.891731
897.711425	2492.850577
898.019336	2515.535769
898.327207	2518.056346
898.635038	2513.015192
898.942827	2442.439038
899.250576	2490.330000
899.558284	2528.138654
899.865952	2553.344423
900.173579	2485.288846
900.481165	2439.918462
900.788711	2515.535769
901.096216	2533.179808
901.403681	2480.247692
901.711105	2427.315577
902.018489	2525.618077
902.325832	2442.439038
902.633135	2510.494615
902.940397	2530.659231
903.247619	2477.727115
903.554800	2477.727115
903.861941	2515.535769
904.169041	2450.000769
904.476101	2611.317692
904.783121	2518.056346
905.090100	2538.220962
905.397039	2477.727115
905.703938	2591.153077
906.010796	2550.823846
906.317614	2502.932885
906.624391	2487.809423
906.931129	2392.027500
907.237826	2540.741538
907.544483	2429.836154
907.851099	2520.576923
908.157675	2497.891731
908.464211	2434.877308
908.770707	2470.165385
909.077163	2495.371154
909.383578	2460.083077
909.689954	2442.439038
909.996289	2523.097500
910.302584	2490.330000
910.608839	2513.015192
910.915054	2409.671538
911.221229	2460.083077
911.527363	2515.535769
911.833458	2480.247692
912.139513	2470.165385
912.445527	2530.659231
912.751502	2530.659231
913.057436	2513.015192
913.363331	2560.906154
913.669186	2505.453462
913.975000	2495.371154
914.280775	2409.671538
914.586510	2465.124231
914.892205	2530.659231
915.197859	2543.262115
915.503475	2477.727115
915.809050	2404.630385
916.114585	2492.850577
916.420081	2485.288846
916.725536	2480.247692
917.030952	2497.891731
917.336328	2417.233269
917.641665	2505.453462
917.946961	2417.233269
918.252218	2500.412308
918.557435	2437.397885
918.862612	2497.891731
919.167750	2472.685962
919.472848	2538.220962
919.777906	2555.865000
920.082925	2457.562500
920.387904	2543.262115
920.692843	2450.000769
920.997743	2437.397885
921.302603	2497.891731
921.607423	2533.179808
921.912204	2525.618077
922.216946	2455.041923
922.521647	2482.768269
922.826310	2477.727115
923.130932	2515.535769
923.435516	2482.768269
923.740059	2513.015192
924.044564	2485.288846
924.349028	2523.097500
924.653454	2467.644808
924.957840	2480.247692
925.262186	2475.206538
925.566493	2497.891731
925.870761	2444.959615
926.174989	2528.138654
926.479178	2495.371154
926.783328	2513.015192
927.087438	2533.179808
927.391509	2553.344423
927.695541	2427.315577
927.999533	2543.262115
928.303486	2485.288846
928.607400	2414.712692
928.911275	2505.453462
929.215110	2427.315577
929.518906	2535.700385
929.822663	2538.220962
930.126381	2507.974038
930.430060	2361.780577
930.733699	2507.974038
931.037299	2477.727115
931.340861	2513.015192
931.644383	2472.685962
931.947866	2530.659231
932.251309	2497.891731
932.554714	2523.097500
932.858080	2515.535769
933.161407	2515.535769
933.464694	2500.412308
933.767943	2543.262115
934.071153	2450.000769
934.374323	2452.521346
934.677455	2417.233269
934.980548	2530.659231
935.283602	2505.453462
935.586617	2460.083077
935.889593	2404.630385
936.192530	2518.056346
936.495428	2525.618077
936.798287	2467.644808
937.101108	2540.741538
937.403890	2447.480192
937.706632	2477.727115
938.009336	2518.056346
938.312002	2492.850577
938.614628	2510.494615
938.917216	2482.768269
939.219765	2507.974038
939.522275	2472.685962
939.824747	2475.206538
940.127179	2434.877308
940.429573	2480.247692
940.731929	2502.932885
941.034246	2505.453462
941.336524	2502.932885
941.638763	2477.727115
941.940964	2490.330000
942.243126	2520.576923
942.545250	2452.521346
942.847335	2485.288846
943.149381	2422.274423
943.451389	2485.288846
943.753359	2450.000769
944.055290	2434.877308
944.357182	2487.809423
944.659036	2500.412308
944.960851	2432.356731
945.262628	2510.494615
945.564367	2513.015192
945.866067	2442.439038
946.167729	2525.618077
946.469352	2500.412308
946.770937	2404.630385
947.072484	2535.700385
947.373992	2450.000769
947.675462	2518.056346
947.976893	2465.124231
948.278286	2502.932885
948.579641	2462.603654
948.880958	2596.194231
949.182236	2452.521346
949.483476	2543.262115
949.784678	2495.371154
950.085841	2439.918462
950.386967	2492.850577
950.688054	2439.918462
950.989103	2515.535769
951.290114	2437.397885
951.591087	2530.659231
951.892021	2490.330000
952.192917	2414.712692
952.493776	2608.797115
952.794596	2381.945192
953.095378	2555.865000
953.396122	2490.330000
953.696828	2467.644808
953.997496	2507.974038
954.298126	2475.206538
954.598718	2507.974038
954.899272	2465.124231
955.199788	2523.097500
955.500266	2437.397885
955.800706	2497.891731
956.101108	2437.397885
956.401472	2467.644808
956.701798	2465.124231
957.002087	2497.891731
957.302337	2492.850577
957.602550	2492.850577
957.902724	2432.356731
958.202861	2487.809423
958.502960	2412.192115
958.803022	2525.618077
959.103045	2470.165385
959.403031	2465.124231
959.702979	2437.397885
960.002889	2399.589231
960.302762	2492.850577
960.602596	2485.288846
960.902393	2523.097500
961.202153	2437.397885
961.501875	2555.865000
961.801559	2470.165385
962.101205	2548.303269
962.400814	2444.959615
962.700385	2492.850577
962.999918	2467.644808
963.299414	2465.124231
963.598873	2467.644808
963.898293	2412.192115
964.197677	2500.412308
964.497022	2432.356731
964.796331	2452.521346
965.095601	2477.727115
965.394835	2439.918462
965.694030	2500.412308
965.993189	2409.671538
966.292309	2485.288846
966.591393	2437.397885
966.890439	2500.412308
967.189447	2465.124231
967.488419	2505.453462
967.787353	2502.932885
968.086249	2447.480192
968.385108	2505.453462
968.683930	2457.562500
968.982714	2487.809423
969.281462	2515.535769
969.580172	2477.727115
969.878844	2538.220962
970.177480	2523.097500
970.476078	2502.932885
970.774639	2442.439038
971.073162	2462.603654
971.371649	2528.138654
971.670098	2439.918462
971.968510	2525.618077
972.266885	2485.288846
972.565223	2490.330000
972.863524	2392.027500
973.161788	2389.506923
973.460014	2477.727115
973.758204	2507.974038
974.056356	2475.206538
974.354471	2465.124231
974.652550	2505.453462
974.950591	2447.480192
975.248595	2462.603654
975.546563	2467.644808
975.844493	2467.644808
976.142386	2457.562500
976.440243	2487.809423
976.738062	2429.836154
977.035845	2502.932885
977.333590	2502.932885
977.631299	2427.315577
977.928971	2523.097500
978.226606	2495.371154
978.524204	2510.494615
978.821765	2565.947308
979.119290	2497.891731
979.416777	2530.659231
979.714228	2422.274423
980.011642	2399.589231
980.309020	2492.850577
980.606360	2513.015192
980.903664	2424.795000
981.200931	2505.453462
981.498162	2505.453462
981.795356	2550.823846
982.092513	2434.877308
982.389633	2507.974038
982.686717	2402.109808
982.983764	2578.550192
983.280775	2490.330000
983.577749	2462.603654
983.874686	2533.179808
984.171587	2460.083077
984.468451	2518.056346
984.765279	2470.165385
985.062070	2480.247692
985.358824	2550.823846
985.655543	2525.618077
985.952224	2538.220962
986.248869	2560.906154
986.545478	2490.330000
986.842050	2505.453462
987.138586	2487.809423
987.435086	2442.439038
987.731549	2439.918462
988.027975	2460.083077
988.324366	2482.768269
988.620719	2538.220962
988.917037	2565.947308
989.213318	2475.206538
989.509563	2535.700385
989.805772	2500.412308
990.101944	2538.220962
990.398080	2623.920577
990.694180	2528.138654
990.990244	2492.850577
991.286271	2434.877308
991.582262	2507.974038
991.878217	2389.506923
992.174136	2432.356731
992.470019	2530.659231
992.765865	2548.303269
993.061676	2472.685962
993.357450	2555.865000
993.653188	2550.823846
993.948890	2455.041923
994.244556	2523.097500
994.540186	2500.412308
994.835780	2467.644808
995.131337	2470.165385
995.426859	2452.521346
995.722345	2560.906154
996.017795	2485.288846
996.313208	2442.439038
996.608586	2424.795000
996.903928	2510.494615
997.199234	2379.424615
997.494504	2422.274423
997.789738	2429.836154
998.084936	2497.891731
998.380099	2485.288846
998.675225	2470.165385
998.970316	2500.412308
999.265371	2490.330000
999.560390	2497.891731
999.855373	2462.603654
1000.150320	2570.988462
1000.445232	2510.494615
1000.740108	2470.165385
1001.034948	2427.315577
1001.329752	2485.288846
1001.624521	2434.877308
1001.919254	2535.700385
1002.213951	2419.753846
1002.508613	2452.521346
1002.803239	2507.974038
1003.097829	2502.932885
1003.392384	2502.932885
1003.686903	2465.124231
1003.981386	2490.330000
1004.275834	2487.809423
1004.570246	2510.494615
1004.864623	2439.918462
1005.158964	2477.727115
1005.453270	2470.165385
1005.747540	2472.685962
1006.041775	2490.330000
1006.335974	2444.959615
1006.630138	2467.644808
1006.924266	2470.165385
1007.218359	2465.124231
1007.512416	2621.400000
1007.806438	2472.685962
1008.100425	2462.603654
1008.394376	2475.206538
1008.688292	2482.768269
1008.982172	2520.576923
1009.276017	2596.194231
1009.569827	2485.288846
1009.863602	2578.550192
1010.157341	2485.288846
1010.451045	2505.453462
1010.744714	2462.603654
1011.038347	2482.768269
1011.331945	2477.727115
1011.625508	2487.809423
1011.919036	2538.220962
1012.212528	2586.111923
1012.505986	2460.083077
1012.799408	2472.685962
1013.092795	2523.097500
1013.386147	2487.809423
1013.679464	2417.233269
1013.972745	2429.836154
1014.265992	2576.029615
1014.559204	2470.165385
1014.852380	2412.192115
1015.145521	2477.727115
1015.438628	2535.700385
1015.731699	2427.315577
1016.024736	2500.412308
1016.317737	2480.247692
1016.610703	2518.056346
1016.903635	2477.727115
1017.196531	2543.262115
1017.489393	2460.083077
1017.782219	2596.194231
1018.075011	2502.932885
1018.367768	2472.685962
1018.660490	2455.041923
1018.953177	2455.041923
1019.245829	2455.041923
