Dividing Wavelength (nm)	Counts (n)	Blue Motor Position (mm): 8.200000	Red Motor Position (mm): 0.000000	
326.493990	2129.887500
326.888308	2129.887500
327.282561	2129.887500
327.676750	2114.764038
328.070874	2069.393654
328.464933	2046.708462
328.858929	2031.585000
329.252859	2109.722885
329.646726	2119.805192
330.040528	2076.955385
330.434265	2117.284615
330.827938	2074.434808
331.221547	2162.655000
331.615091	2127.366923
332.008571	2167.696154
332.401986	2157.613846
332.795338	2205.504808
333.188625	2245.834038
333.581847	2313.889615
333.975006	2278.601538
334.368100	2273.560385
334.761129	2311.369038
335.154095	2321.451346
335.546996	2331.533654
335.939833	2323.971923
336.332606	2321.451346
336.725315	2374.383462
337.117960	2429.836154
337.510540	2374.383462
337.903056	2366.821731
338.295508	2384.465769
338.687896	2422.274423
339.080220	2455.041923
339.472480	2412.192115
339.864676	2442.439038
340.256807	2467.644808
340.648875	2399.589231
341.040879	2492.850577
341.432818	2460.083077
341.824694	2500.412308
342.216506	2452.521346
342.608253	2409.671538
342.999937	2485.288846
343.391557	2419.753846
343.783113	2475.206538
344.174605	2581.070769
344.566033	2520.576923
344.957397	2467.644808
345.348697	2439.918462
345.739934	2472.685962
346.131106	2490.330000
346.522215	2424.795000
346.913260	2482.768269
347.304241	2439.918462
347.695159	2505.453462
348.086012	2490.330000
348.476802	2487.809423
348.867528	2434.877308
349.258191	2344.136538
349.648789	2457.562500
350.039324	2439.918462
350.429796	2467.644808
350.820203	2326.492500
351.210548	2518.056346
351.600828	2543.262115
351.991045	2465.124231
352.381198	2442.439038
352.771288	2432.356731
353.161314	2487.809423
353.551276	2414.712692
353.941175	2507.974038
354.331010	2444.959615
354.720782	2530.659231
355.110490	2422.274423
355.500135	2427.315577
355.889717	2447.480192
356.279235	2427.315577
356.668689	2444.959615
357.058080	2480.247692
357.447408	2427.315577
357.836672	2452.521346
358.225873	2366.821731
358.615010	2452.521346
359.004084	2394.548077
359.393095	2487.809423
359.782043	2460.083077
360.170927	2472.685962
360.559748	2414.712692
360.948505	2472.685962
361.337199	2336.574808
361.725830	2424.795000
362.114398	2460.083077
362.502903	2452.521346
362.891344	2505.453462
363.279722	2502.932885
363.668037	2533.179808
364.056289	2465.124231
364.444478	2510.494615
364.832603	2371.862885
365.220665	2485.288846
365.608665	2460.083077
365.996601	2437.397885
366.384474	2409.671538
366.772284	2359.260000
367.160031	2513.015192
367.547715	2379.424615
367.935336	2487.809423
368.322893	2515.535769
368.710388	2470.165385
369.097820	2444.959615
369.485189	2384.465769
369.872495	2482.768269
370.259738	2447.480192
370.646918	2485.288846
371.034035	2482.768269
371.421090	2538.220962
371.808081	2475.206538
372.195010	2497.891731
372.581875	2417.233269
372.968678	2465.124231
373.355418	2437.397885
373.742096	2487.809423
374.128710	2417.233269
374.515262	2412.192115
374.901751	2422.274423
375.288177	2427.315577
375.674540	2452.521346
376.060841	2417.233269
376.447079	2450.000769
376.833254	2490.330000
377.219367	2427.315577
377.605417	2505.453462
377.991404	2467.644808
378.377329	2364.301154
378.763191	2485.288846
379.148991	2497.891731
379.534727	2457.562500
379.920402	2467.644808
380.306013	2487.809423
380.691563	2462.603654
381.077049	2497.891731
381.462474	2538.220962
381.847835	2538.220962
382.233134	2518.056346
382.618371	2354.218846
383.003545	2513.015192
383.388657	2452.521346
383.773706	2437.397885
384.158693	2447.480192
384.543618	2442.439038
384.928480	2470.165385
385.313280	2414.712692
385.698017	2407.150962
386.082692	2452.521346
386.467305	2460.083077
386.851856	2444.959615
387.236344	2417.233269
387.620770	2447.480192
388.005133	2414.712692
388.389435	2434.877308
388.773674	2487.809423
389.157851	2472.685962
389.541965	2487.809423
389.926018	2507.974038
390.310008	2432.356731
390.693936	2507.974038
391.077802	2455.041923
391.461606	2492.850577
391.845348	2462.603654
392.229027	2576.029615
392.612645	2492.850577
392.996200	2447.480192
393.379694	2510.494615
393.763125	2424.795000
394.146494	2452.521346
394.529801	2485.288846
394.913047	2432.356731
395.296230	2434.877308
395.679351	2462.603654
396.062410	2490.330000
396.445408	2427.315577
396.828343	2444.959615
397.211217	2427.315577
397.594028	2429.836154
397.976778	2444.959615
398.359466	2528.138654
398.742092	2437.397885
399.124656	2477.727115
399.507158	2414.712692
399.889598	2507.974038
400.271977	2432.356731
400.654294	2417.233269
401.036549	2497.891731
401.418742	2442.439038
401.800874	2422.274423
402.182944	2389.506923
402.564952	2513.015192
402.946898	2462.603654
403.328783	2379.424615
403.710606	2429.836154
404.092367	2409.671538
404.474067	2475.206538
404.855705	2394.548077
405.237282	2470.165385
405.618797	2450.000769
406.000250	2520.576923
406.381642	2538.220962
406.762972	2477.727115
407.144240	2379.424615
407.525447	2485.288846
407.906593	2444.959615
408.287677	2427.315577
408.668700	2513.015192
409.049661	2404.630385
409.430560	2497.891731
409.811399	2477.727115
410.192176	2371.862885
410.572891	2500.412308
410.953545	2507.974038
411.334138	2538.220962
411.714669	2477.727115
412.095139	2465.124231
412.475547	2424.795000
412.855894	2593.673654
413.236180	2553.344423
413.616405	2467.644808
413.996568	2523.097500
414.376670	2482.768269
414.756711	2510.494615
415.136691	2429.836154
415.516609	2528.138654
415.896466	2505.453462
416.276262	2525.618077
416.655997	2500.412308
417.035670	2530.659231
417.415283	2467.644808
417.794834	2477.727115
418.174324	2482.768269
418.553753	2409.671538
418.933121	2510.494615
419.312428	2497.891731
419.691674	2523.097500
420.070859	2399.589231
420.449983	2455.041923
420.829045	2535.700385
421.208047	2462.603654
421.586988	2460.083077
421.965867	2465.124231
422.344686	2528.138654
422.723444	2467.644808
423.102141	2490.330000
423.480777	2495.371154
423.859352	2472.685962
424.237866	2553.344423
424.616319	2523.097500
424.994712	2450.000769
425.373044	2472.685962
425.751314	2485.288846
426.129524	2490.330000
426.507673	2495.371154
426.885762	2460.083077
427.263789	2419.753846
427.641756	2553.344423
428.019662	2515.535769
428.397508	2427.315577
428.775292	2535.700385
429.153016	2500.412308
429.530679	2515.535769
429.908282	2533.179808
430.285824	2487.809423
430.663305	2402.109808
431.040726	2520.576923
431.418086	2523.097500
431.795385	2495.371154
432.172624	2442.439038
432.549802	2404.630385
432.926920	2429.836154
433.303977	2495.371154
433.680974	2477.727115
434.057910	2560.906154
434.434786	2447.480192
434.811601	2460.083077
435.188355	2472.685962
435.565050	2457.562500
435.941683	2429.836154
436.318257	2452.521346
436.694770	2409.671538
437.071222	2480.247692
437.447614	2442.439038
437.823946	2525.618077
438.200218	2510.494615
438.576429	2460.083077
438.952580	2520.576923
439.328670	2414.712692
439.704700	2452.521346
440.080670	2570.988462
440.456580	2495.371154
440.832429	2450.000769
441.208218	2523.097500
441.583947	2560.906154
441.959616	2495.371154
442.335224	2477.727115
442.710773	2505.453462
443.086261	2470.165385
443.461689	2495.371154
443.837057	2417.233269
444.212365	2366.821731
444.587612	2528.138654
444.962800	2490.330000
445.337927	2507.974038
445.712995	2528.138654
446.088002	2472.685962
446.462949	2487.809423
446.837837	2465.124231
447.212664	2482.768269
447.587431	2482.768269
447.962139	2505.453462
448.336786	2497.891731
448.711374	2558.385577
449.085901	2515.535769
449.460369	2525.618077
449.834776	2513.015192
450.209124	2462.603654
450.583412	2412.192115
450.957640	2523.097500
451.331808	2402.109808
451.705917	2525.618077
452.079965	2475.206538
452.453954	2470.165385
452.827883	2475.206538
453.201752	2500.412308
453.575562	2528.138654
453.949311	2457.562500
454.323001	2525.618077
454.696632	2467.644808
455.070202	2434.877308
455.443713	2487.809423
455.817164	2523.097500
456.190556	2457.562500
456.563888	2462.603654
456.937160	2442.439038
457.310373	2437.397885
457.683526	2485.288846
458.056619	2533.179808
458.429653	2480.247692
458.802628	2460.083077
459.175542	2507.974038
459.548398	2528.138654
459.921194	2470.165385
460.293930	2510.494615
460.666607	2424.795000
461.039224	2497.891731
461.411782	2513.015192
461.784280	2470.165385
462.156719	2495.371154
462.529099	2543.262115
462.901419	2467.644808
463.273680	2525.618077
463.645882	2495.371154
464.018024	2462.603654
464.390106	2565.947308
464.762130	2502.932885
465.134094	2437.397885
465.505999	2437.397885
465.877845	2510.494615
466.249631	2497.891731
466.621358	2530.659231
466.993026	2543.262115
467.364634	2492.850577
467.736184	2460.083077
468.107674	2376.904038
468.479105	2530.659231
468.850477	2455.041923
469.221790	2480.247692
469.593043	2475.206538
469.964238	2523.097500
470.335373	2505.453462
470.706449	2437.397885
471.077467	2379.424615
471.448425	2447.480192
471.819324	2500.412308
472.190164	2523.097500
472.560945	2518.056346
472.931667	2500.412308
473.302330	2573.509038
473.672934	2485.288846
474.043479	2465.124231
474.413965	2528.138654
474.784393	2450.000769
475.154761	2525.618077
475.525070	2462.603654
475.895321	2467.644808
476.265513	2502.932885
476.635645	2505.453462
477.005719	2482.768269
477.375734	2550.823846
477.745691	2452.521346
478.115588	2460.083077
478.485427	2452.521346
478.855207	2545.782692
479.224928	2535.700385
479.594591	2515.535769
479.964194	2450.000769
480.333739	2525.618077
480.703226	2417.233269
481.072653	2528.138654
481.442022	2487.809423
481.811333	2444.959615
482.180584	2472.685962
482.549777	2502.932885
482.918912	2482.768269
483.287988	2507.974038
483.657005	2432.356731
484.025964	2581.070769
484.394864	2409.671538
484.763706	2520.576923
485.132489	2482.768269
485.501213	2394.548077
485.869879	2470.165385
486.238487	2616.358846
486.607036	2495.371154
486.975527	2510.494615
487.343959	2462.603654
487.712333	2500.412308
488.080648	2502.932885
488.448905	2497.891731
488.817104	2525.618077
489.185244	2490.330000
489.553326	2525.618077
489.921350	2475.206538
490.289315	2492.850577
490.657222	2502.932885
491.025070	2429.836154
491.392861	2533.179808
491.760593	2518.056346
492.128267	2444.959615
492.495883	2460.083077
492.863440	2515.535769
493.230939	2475.206538
493.598380	2462.603654
493.965763	2518.056346
494.333088	2550.823846
494.700354	2477.727115
495.067563	2477.727115
495.434713	2460.083077
495.801805	2523.097500
496.168839	2465.124231
496.535815	2523.097500
496.902733	2523.097500
497.269593	2606.276538
497.636395	2505.453462
498.003139	2528.138654
498.369825	2515.535769
498.736453	2419.753846
499.103023	2462.603654
499.469535	2427.315577
499.835989	2381.945192
500.202385	2472.685962
500.568723	2555.865000
500.935003	2555.865000
501.301226	2497.891731
501.667390	2555.865000
502.033497	2485.288846
502.399546	2492.850577
502.765537	2432.356731
503.131470	2497.891731
503.497345	2407.150962
503.863163	2432.356731
504.228923	2535.700385
504.594625	2444.959615
504.960269	2487.809423
505.325856	2497.891731
505.691385	2500.412308
506.056856	2482.768269
506.422270	2528.138654
506.787625	2452.521346
507.152924	2472.685962
507.518164	2545.782692
507.883347	2555.865000
508.248472	2487.809423
508.613540	2565.947308
508.978550	2470.165385
509.343503	2543.262115
509.708398	2518.056346
510.073236	2477.727115
510.438016	2452.521346
510.802738	2550.823846
511.167403	2495.371154
511.532010	2533.179808
511.896561	2467.644808
512.261053	2475.206538
512.625488	2535.700385
512.989866	2482.768269
513.354186	2455.041923
513.718449	2523.097500
514.082655	2513.015192
514.446803	2467.644808
514.810894	2475.206538
515.174927	2507.974038
515.538904	2495.371154
515.902822	2470.165385
516.266684	2422.274423
516.630488	2497.891731
516.994235	2442.439038
517.357925	2482.768269
517.721558	2424.795000
518.085133	2550.823846
518.448651	2437.397885
518.812112	2500.412308
519.175516	2475.206538
519.538863	2487.809423
519.902152	2500.412308
520.265385	2548.303269
520.628560	2480.247692
520.991678	2543.262115
521.354739	2407.150962
521.717743	2429.836154
522.080690	2467.644808
522.443580	2576.029615
522.806413	2520.576923
523.169189	2402.109808
523.531908	2545.782692
523.894569	2432.356731
524.257174	2563.426731
524.619722	2535.700385
524.982213	2364.301154
525.344647	2437.397885
525.707025	2485.288846
526.069345	2495.371154
526.431608	2452.521346
526.793815	2492.850577
527.155964	2553.344423
527.518057	2558.385577
527.880093	2437.397885
528.242072	2444.959615
528.603995	2530.659231
528.965860	2444.959615
529.327669	2477.727115
529.689421	2467.644808
530.051117	2563.426731
530.412755	2565.947308
530.774337	2497.891731
531.135862	2533.179808
531.497331	2397.068654
531.858743	2545.782692
532.220098	2487.809423
532.581396	2558.385577
532.942638	2510.494615
533.303824	2462.603654
533.664953	2528.138654
534.026025	2467.644808
534.387040	2553.344423
534.747999	2510.494615
535.108902	2510.494615
535.469748	2593.673654
535.830537	2392.027500
536.191270	2540.741538
536.551947	2520.576923
536.912567	2505.453462
537.273131	2424.795000
537.633638	2560.906154
537.994089	2490.330000
538.354483	2475.206538
538.714821	2538.220962
539.075103	2407.150962
539.435328	2434.877308
539.795497	2485.288846
540.155609	2442.439038
540.515665	2548.303269
540.875665	2543.262115
541.235609	2513.015192
541.595496	2427.315577
541.955328	2510.494615
542.315102	2548.303269
542.674821	2460.083077
543.034483	2490.330000
543.394090	2447.480192
543.753640	2495.371154
544.113134	2477.727115
544.472571	2434.877308
544.831953	2591.153077
545.191278	2492.850577
545.550548	2507.974038
545.909761	2523.097500
546.268918	2467.644808
546.628019	2570.988462
546.987064	2510.494615
547.346053	2457.562500
547.704986	2475.206538
548.063863	2482.768269
548.422684	2505.453462
548.781449	2530.659231
549.140158	2467.644808
549.498811	2538.220962
549.857408	2444.959615
550.215949	2563.426731
550.574434	2520.576923
550.932864	2528.138654
551.291237	2457.562500
551.649555	2533.179808
552.007817	2500.412308
552.366022	2555.865000
552.724173	2472.685962
553.082267	2442.439038
553.440305	2505.453462
553.798288	2444.959615
554.156215	2563.426731
554.514086	2500.412308
554.871902	2505.453462
555.229661	2507.974038
555.587365	2442.439038
555.945014	2444.959615
556.302606	2505.453462
556.660143	2563.426731
557.017625	2462.603654
557.375050	2545.782692
557.732421	2472.685962
558.089735	2513.015192
558.446994	2520.576923
558.804197	2576.029615
559.161345	2513.015192
559.518437	2465.124231
559.875474	2419.753846
560.232455	2515.535769
560.589381	2447.480192
560.946251	2455.041923
561.303065	2427.315577
561.659825	2560.906154
562.016528	2558.385577
562.373177	2472.685962
562.729770	2457.562500
563.086307	2412.192115
563.442789	2525.618077
563.799216	2437.397885
564.155587	2475.206538
564.511904	2487.809423
564.868164	2460.083077
565.224370	2568.467885
565.580520	2487.809423
565.936615	2467.644808
566.292654	2593.673654
566.648638	2389.506923
567.004567	2548.303269
567.360441	2442.439038
567.716260	2502.932885
568.072023	2490.330000
568.427732	2505.453462
568.783385	2492.850577
569.138982	2505.453462
569.494525	2540.741538
569.850013	2424.795000
570.205445	2462.603654
570.560823	2500.412308
570.916145	2523.097500
571.271412	2470.165385
571.626625	2497.891731
571.981782	2379.424615
572.336884	2565.947308
572.691931	2520.576923
573.046923	2586.111923
573.401860	2518.056346
573.756743	2480.247692
574.111570	2533.179808
574.466342	2500.412308
574.821059	2467.644808
575.175722	2518.056346
575.530330	2485.288846
575.884882	2550.823846
576.239380	2460.083077
576.593823	2427.315577
576.948211	2492.850577
577.302544	2492.850577
577.656823	2510.494615
578.011047	2540.741538
578.365216	2528.138654
578.719330	2480.247692
579.073389	2545.782692
579.427394	2550.823846
579.781344	2535.700385
580.135239	2502.932885
580.489080	2520.576923
580.842866	2513.015192
581.196597	2525.618077
581.550273	2427.315577
581.903895	2480.247692
582.257463	2450.000769
582.610975	2419.753846
582.964434	2462.603654
583.317837	2502.932885
583.671186	2510.494615
584.024481	2399.589231
584.377721	2505.453462
584.730906	2505.453462
585.084037	2495.371154
585.437113	2490.330000
585.790135	2485.288846
586.143103	2412.192115
586.496016	2467.644808
586.848874	2371.862885
587.201679	2530.659231
587.554428	2543.262115
587.907124	2399.589231
588.259765	2487.809423
588.612352	2540.741538
588.964884	2429.836154
589.317362	2419.753846
589.669786	2505.453462
590.022155	2472.685962
590.374470	2530.659231
590.726731	2465.124231
591.078937	2535.700385
591.431090	2447.480192
591.783188	2576.029615
592.135232	2470.165385
592.487222	2523.097500
592.839157	2513.015192
593.191038	2502.932885
593.542866	2538.220962
593.894639	2470.165385
594.246358	2500.412308
594.598022	2500.412308
594.949633	2434.877308
595.301190	2583.591346
595.652692	2444.959615
596.004141	2500.412308
596.355535	2485.288846
596.706876	2538.220962
597.058162	2520.576923
597.409395	2523.097500
597.760573	2576.029615
598.111698	2477.727115
598.462768	2528.138654
598.813785	2520.576923
599.164748	2550.823846
599.515657	2497.891731
599.866511	2502.932885
600.217312	2573.509038
600.568060	2540.741538
600.918753	2515.535769
601.269392	2583.591346
601.619978	2515.535769
601.970510	2606.276538
602.320988	2510.494615
602.671412	2563.426731
603.021783	2515.535769
603.372100	2533.179808
603.722363	2543.262115
604.072572	2470.165385
604.422728	2525.618077
604.772830	2467.644808
605.122878	2500.412308
605.472872	2444.959615
605.822813	2550.823846
606.172701	2492.850577
606.522534	2583.591346
606.872314	2480.247692
607.222041	2477.727115
607.571714	2515.535769
607.921333	2545.782692
608.270899	2480.247692
608.620411	2510.494615
608.969870	2568.467885
609.319276	2482.768269
609.668627	2477.727115
610.017926	2495.371154
610.367171	2480.247692
610.716362	2528.138654
611.065500	2586.111923
611.414585	2447.480192
611.763616	2482.768269
612.112594	2490.330000
612.461518	2513.015192
612.810389	2487.809423
613.159207	2417.233269
613.507971	2439.918462
613.856682	2444.959615
614.205340	2480.247692
614.553945	2538.220962
614.902496	2462.603654
615.250994	2460.083077
615.599439	2492.850577
615.947830	2540.741538
616.296169	2533.179808
616.644454	2525.618077
616.992686	2515.535769
617.340864	2480.247692
617.688990	2565.947308
618.037063	2455.041923
618.385082	2487.809423
618.733048	2447.480192
619.080961	2520.576923
619.428821	2523.097500
619.776628	2452.521346
620.124382	2472.685962
620.472083	2543.262115
620.819731	2470.165385
621.167326	2565.947308
621.514868	2485.288846
621.862357	2389.506923
622.209793	2470.165385
622.557176	2520.576923
622.904506	2487.809423
623.251783	2513.015192
623.599007	2535.700385
623.946179	2424.795000
624.293297	2520.576923
624.640363	2533.179808
624.987376	2535.700385
625.334336	2558.385577
625.681243	2407.150962
626.028097	2429.836154
626.374899	2515.535769
626.721647	2472.685962
627.068343	2452.521346
627.414987	2533.179808
627.761577	2545.782692
628.108115	2376.904038
628.454600	2444.959615
628.801032	2520.576923
629.147412	2510.494615
629.493739	2487.809423
629.840014	2553.344423
630.186236	2533.179808
630.532405	2500.412308
630.878521	2515.535769
631.224585	2482.768269
631.570597	2434.877308
631.916556	2515.535769
632.262462	2500.412308
632.608316	2497.891731
632.954117	2560.906154
633.299866	2533.179808
633.645562	2492.850577
633.991206	2525.618077
634.336797	2513.015192
634.682336	2515.535769
635.027823	2439.918462
635.373257	2530.659231
635.718639	2472.685962
636.063968	2470.165385
636.409245	2442.439038
636.754470	2500.412308
637.099642	2525.618077
637.444762	2525.618077
637.789829	2485.288846
638.134845	2450.000769
638.479808	2530.659231
638.824719	2427.315577
639.169577	2513.015192
639.514383	2518.056346
639.859137	2485.288846
640.203839	2495.371154
640.548489	2492.850577
640.893086	2444.959615
641.237632	2492.850577
641.582125	2543.262115
641.926566	2407.150962
642.270955	2460.083077
642.615292	2553.344423
642.959576	2576.029615
643.303809	2520.576923
643.647990	2467.644808
643.992118	2444.959615
644.336195	2505.453462
644.680219	2523.097500
645.024192	2510.494615
645.368112	2392.027500
645.711981	2523.097500
646.055797	2412.192115
646.399562	2394.548077
646.743274	2525.618077
647.086935	2480.247692
647.430544	2565.947308
647.774101	2520.576923
648.117606	2513.015192
648.461059	2568.467885
648.804460	2450.000769
649.147810	2518.056346
649.491108	2505.453462
649.834354	2475.206538
650.177548	2548.303269
650.520690	2495.371154
650.863781	2558.385577
651.206820	2462.603654
651.549807	2497.891731
651.892742	2462.603654
652.235626	2472.685962
652.578458	2563.426731
652.921238	2419.753846
653.263967	2528.138654
653.606644	2485.288846
653.949269	2530.659231
654.291843	2560.906154
654.634365	2505.453462
654.976836	2528.138654
655.319255	2543.262115
655.661622	2465.124231
656.003938	2555.865000
656.346203	2558.385577
656.688416	2513.015192
657.030577	2475.206538
657.372687	2482.768269
657.714746	2548.303269
658.056753	2507.974038
658.398708	2495.371154
658.740612	2553.344423
659.082465	2475.206538
659.424266	2472.685962
659.766016	2487.809423
660.107715	2523.097500
660.449362	2475.206538
660.790958	2523.097500
661.132503	2490.330000
661.473996	2487.809423
661.815438	2510.494615
662.156829	2467.644808
662.498168	2540.741538
662.839456	2455.041923
663.180693	2487.809423
663.521879	2565.947308
663.863013	2533.179808
664.204097	2490.330000
664.545129	2477.727115
664.886110	2563.426731
665.227040	2573.509038
665.567918	2535.700385
665.908746	2500.412308
666.249522	2563.426731
666.590248	2465.124231
666.930922	2510.494615
667.271545	2381.945192
667.612118	2450.000769
667.952639	2470.165385
668.293109	2442.439038
668.633528	2475.206538
668.973896	2495.371154
669.314213	2505.453462
669.654480	2470.165385
669.994695	2439.918462
670.334859	2492.850577
670.674973	2528.138654
671.015035	2502.932885
671.355047	2500.412308
671.695008	2570.988462
672.034918	2444.959615
672.374777	2518.056346
672.714585	2434.877308
673.054342	2444.959615
673.394049	2455.041923
673.733705	2548.303269
674.073310	2497.891731
674.412864	2558.385577
674.752368	2497.891731
675.091820	2482.768269
675.431223	2487.809423
675.770574	2457.562500
676.109875	2482.768269
676.449125	2492.850577
676.788324	2429.836154
677.127473	2412.192115
677.466571	2543.262115
677.805619	2520.576923
678.144616	2439.918462
678.483562	2505.453462
678.822458	2465.124231
679.161303	2460.083077
679.500098	2510.494615
679.838842	2379.424615
680.177535	2513.015192
680.516179	2437.397885
680.854771	2404.630385
681.193314	2455.041923
681.531805	2485.288846
681.870247	2525.618077
682.208638	2487.809423
682.546978	2492.850577
682.885268	2437.397885
683.223508	2578.550192
683.561697	2467.644808
683.899836	2482.768269
684.237925	2480.247692
684.575963	2477.727115
684.913951	2477.727115
685.251889	2538.220962
685.589776	2465.124231
685.927614	2510.494615
686.265401	2543.262115
686.603137	2538.220962
686.940824	2482.768269
687.278460	2482.768269
687.616046	2525.618077
687.953582	2439.918462
688.291068	2513.015192
688.628504	2510.494615
688.965889	2565.947308
689.303224	2568.467885
689.640510	2424.795000
689.977745	2419.753846
690.314930	2475.206538
690.652065	2437.397885
690.989150	2442.439038
691.326185	2502.932885
691.663170	2581.070769
692.000105	2558.385577
692.336990	2402.109808
692.673825	2540.741538
693.010610	2495.371154
693.347345	2520.576923
693.684030	2482.768269
694.020665	2475.206538
694.357251	2424.795000
694.693786	2477.727115
695.030272	2495.371154
695.366707	2535.700385
695.703093	2507.974038
696.039429	2543.262115
696.375716	2482.768269
696.711952	2523.097500
697.048139	2452.521346
697.384276	2472.685962
697.720363	2495.371154
698.056400	2455.041923
698.392388	2565.947308
698.728326	2419.753846
699.064214	2510.494615
699.400053	2452.521346
699.735842	2518.056346
700.071581	2477.727115
700.407270	2434.877308
700.742910	2475.206538
701.078501	2455.041923
701.414042	2477.727115
701.749533	2513.015192
702.084974	2432.356731
702.420366	2417.233269
702.755709	2497.891731
703.091002	2507.974038
703.426246	2460.083077
703.761440	2550.823846
704.096584	2563.426731
704.431679	2477.727115
704.766725	2497.891731
705.101721	2591.153077
705.436668	2450.000769
705.771565	2409.671538
706.106413	2553.344423
706.441212	2553.344423
706.775961	2450.000769
707.110661	2530.659231
707.445311	2460.083077
707.779913	2419.753846
708.114465	2515.535769
708.448967	2505.453462
708.783421	2555.865000
709.117825	2439.918462
709.452180	2439.918462
709.786485	2447.480192
710.120742	2543.262115
710.454949	2563.426731
710.789107	2520.576923
711.123216	2490.330000
711.457275	2543.262115
711.791286	2409.671538
712.125247	2550.823846
712.459159	2455.041923
712.793023	2470.165385
713.126837	2490.330000
713.460602	2515.535769
713.794318	2475.206538
714.127985	2386.986346
714.461602	2505.453462
714.795171	2535.700385
715.128691	2558.385577
715.462162	2452.521346
715.795584	2523.097500
716.128957	2523.097500
716.462281	2543.262115
716.795556	2492.850577
717.128782	2555.865000
717.461960	2495.371154
717.795088	2515.535769
718.128167	2480.247692
718.461198	2414.712692
718.794180	2467.644808
719.127113	2497.891731
719.459997	2467.644808
719.792833	2530.659231
720.125619	2407.150962
720.458357	2457.562500
720.791046	2538.220962
721.123686	2513.015192
721.456278	2480.247692
721.788821	2558.385577
722.121315	2467.644808
722.453761	2558.385577
722.786158	2439.918462
723.118506	2520.576923
723.450805	2472.685962
723.783056	2437.397885
724.115259	2467.644808
724.447412	2510.494615
724.779518	2470.165385
725.111574	2470.165385
725.443582	2502.932885
725.775542	2558.385577
726.107453	2505.453462
726.439315	2480.247692
726.771129	2565.947308
727.102895	2550.823846
727.434612	2548.303269
727.766281	2518.056346
728.097901	2520.576923
728.429473	2583.591346
728.760996	2429.836154
729.092471	2497.891731
729.423897	2412.192115
729.755276	2530.659231
730.086606	2439.918462
730.417887	2520.576923
730.749120	2482.768269
731.080305	2450.000769
731.411442	2510.494615
731.742530	2576.029615
732.073570	2500.412308
732.404562	2530.659231
732.735506	2535.700385
733.066401	2510.494615
733.397249	2442.439038
733.728048	2455.041923
734.058798	2545.782692
734.389501	2452.521346
734.720156	2570.988462
735.050762	2465.124231
735.381320	2528.138654
735.711831	2381.945192
736.042293	2621.400000
736.372707	2520.576923
736.703073	2528.138654
737.033391	2467.644808
737.363661	2500.412308
737.693883	2535.700385
738.024056	2515.535769
738.354182	2518.056346
738.684260	2437.397885
739.014290	2409.671538
739.344272	2518.056346
739.674207	2518.056346
740.004093	2507.974038
740.333931	2477.727115
740.663722	2505.453462
740.993464	2447.480192
741.323159	2513.015192
741.652806	2467.644808
741.982405	2402.109808
742.311956	2507.974038
742.641460	2482.768269
742.970915	2485.288846
743.300323	2462.603654
743.629683	2480.247692
743.958996	2523.097500
744.288260	2510.494615
744.617477	2497.891731
744.946647	2515.535769
745.275768	2545.782692
745.604842	2591.153077
745.933869	2444.959615
746.262847	2442.439038
746.591778	2447.480192
746.920662	2507.974038
747.249498	2439.918462
747.578286	2366.821731
747.907027	2505.453462
748.235720	2487.809423
748.564365	2422.274423
748.892963	2576.029615
749.221514	2492.850577
749.550017	2513.015192
749.878473	2462.603654
750.206881	2520.576923
750.535242	2543.262115
750.863555	2535.700385
751.191821	2409.671538
751.520039	2525.618077
751.848210	2470.165385
752.176334	2450.000769
752.504411	2452.521346
752.832440	2470.165385
753.160421	2417.233269
753.488356	2520.576923
753.816243	2439.918462
754.144082	2455.041923
754.471875	2455.041923
754.799620	2407.150962
755.127318	2515.535769
755.454969	2550.823846
755.782572	2563.426731
756.110129	2507.974038
756.437638	2432.356731
756.765100	2477.727115
757.092515	2409.671538
757.419882	2495.371154
757.747203	2507.974038
758.074477	2570.988462
758.401703	2487.809423
758.728882	2470.165385
759.056014	2482.768269
759.383099	2397.068654
759.710138	2520.576923
760.037129	2407.150962
760.364073	2510.494615
760.690970	2515.535769
761.017820	2437.397885
761.344623	2455.041923
761.671379	2412.192115
761.998088	2500.412308
762.324751	2497.891731
762.651366	2452.521346
762.977935	2533.179808
763.304456	2586.111923
763.630931	2475.206538
763.957359	2523.097500
764.283740	2550.823846
764.610074	2490.330000
764.936362	2518.056346
765.262602	2548.303269
765.588796	2444.959615
765.914943	2450.000769
766.241044	2535.700385
766.567097	2538.220962
766.893104	2457.562500
767.219064	2533.179808
767.544978	2429.836154
767.870845	2482.768269
768.196665	2538.220962
768.522438	2523.097500
768.848165	2550.823846
769.173846	2490.330000
769.499479	2465.124231
769.825066	2447.480192
770.150607	2485.288846
770.476101	2596.194231
770.801548	2480.247692
771.126949	2467.644808
771.452303	2482.768269
771.777611	2543.262115
772.102872	2543.262115
772.428087	2429.836154
772.753256	2462.603654
773.078378	2480.247692
773.403453	2465.124231
773.728482	2525.618077
774.053465	2480.247692
774.378401	2439.918462
774.703291	2480.247692
775.028135	2513.015192
775.352932	2502.932885
775.677683	2505.453462
776.002388	2586.111923
776.327046	2460.083077
776.651658	2419.753846
776.976224	2520.576923
777.300743	2573.509038
777.625216	2487.809423
777.949643	2530.659231
778.274024	2465.124231
778.598359	2520.576923
778.922647	2555.865000
779.246889	2523.097500
779.571086	2535.700385
779.895236	2497.891731
780.219339	2545.782692
780.543397	2482.768269
780.867409	2540.741538
781.191374	2518.056346
781.515294	2482.768269
781.839167	2472.685962
782.162995	2475.206538
782.486776	2424.795000
782.810511	2533.179808
783.134201	2460.083077
783.457844	2444.959615
783.781441	2482.768269
784.104993	2523.097500
784.428498	2535.700385
784.751958	2560.906154
785.075372	2538.220962
785.398739	2480.247692
785.722061	2450.000769
786.045337	2543.262115
786.368568	2510.494615
786.691752	2482.768269
787.014891	2515.535769
787.337983	2520.576923
787.661030	2570.988462
787.984031	2439.918462
788.306987	2444.959615
788.629897	2518.056346
788.952760	2495.371154
789.275579	2455.041923
789.598351	2540.741538
789.921078	2507.974038
790.243759	2523.097500
790.566395	2487.809423
790.888984	2538.220962
791.211529	2495.371154
791.534027	2618.879423
791.856480	2515.535769
792.178888	2472.685962
792.501249	2482.768269
792.823566	2437.397885
793.145836	2533.179808
793.468062	2528.138654
793.790241	2414.712692
794.112375	2540.741538
794.434464	2397.068654
794.756507	2444.959615
795.078505	2472.685962
795.400457	2482.768269
795.722364	2429.836154
796.044226	2492.850577
796.366042	2507.974038
796.687812	2500.412308
797.009538	2495.371154
797.331218	2500.412308
797.652852	2470.165385
797.974442	2538.220962
798.295986	2560.906154
798.617484	2487.809423
798.938938	2545.782692
799.260346	2439.918462
799.581709	2492.850577
799.903026	2465.124231
800.224299	2477.727115
800.545526	2533.179808
800.866708	2505.453462
801.187845	2434.877308
801.508936	2437.397885
801.829983	2487.809423
802.150984	2515.535769
802.471940	2412.192115
802.792851	2462.603654
803.113717	2477.727115
803.434538	2492.850577
803.755314	2487.809423
804.076045	2500.412308
804.396731	2439.918462
804.717372	2487.809423
805.037967	2465.124231
805.358518	2507.974038
805.679024	2490.330000
805.999485	2444.959615
806.319901	2518.056346
806.640272	2492.850577
806.960598	2538.220962
807.280879	2530.659231
807.601115	2427.315577
807.921306	2518.056346
808.241453	2475.206538
808.561554	2533.179808
808.881611	2455.041923
809.201623	2528.138654
809.521590	2462.603654
809.841513	2513.015192
810.161390	2535.700385
810.481223	2507.974038
810.801011	2502.932885
811.120755	2500.412308
811.440453	2404.630385
811.760107	2457.562500
812.079716	2502.932885
812.399281	2550.823846
812.718801	2409.671538
813.038276	2487.809423
813.357707	2497.891731
813.677093	2586.111923
813.996434	2505.453462
814.315731	2530.659231
814.634983	2472.685962
814.954191	2447.480192
815.273354	2422.274423
815.592473	2553.344423
815.911547	2525.618077
816.230577	2606.276538
816.549562	2497.891731
816.868502	2480.247692
817.187399	2495.371154
817.506250	2432.356731
817.825058	2568.467885
818.143821	2492.850577
818.462539	2535.700385
818.781213	2492.850577
819.099843	2545.782692
819.418429	2492.850577
819.736970	2490.330000
820.055466	2442.439038
820.373919	2510.494615
820.692327	2442.439038
821.010691	2495.371154
821.329011	2530.659231
821.647286	2490.330000
821.965517	2465.124231
822.283704	2535.700385
822.601847	2487.809423
822.919945	2505.453462
823.237999	2480.247692
823.556010	2583.591346
823.873976	2482.768269
824.191897	2558.385577
824.509775	2513.015192
824.827609	2460.083077
825.145398	2530.659231
825.463144	2570.988462
825.780845	2563.426731
826.098502	2439.918462
826.416116	2520.576923
826.733685	2455.041923
827.051210	2480.247692
827.368692	2475.206538
827.686129	2535.700385
828.003522	2490.330000
828.320872	2477.727115
828.638177	2545.782692
828.955439	2538.220962
829.272656	2432.356731
829.589830	2480.247692
829.906960	2447.480192
830.224046	2482.768269
830.541088	2472.685962
830.858086	2540.741538
831.175041	2530.659231
831.491952	2447.480192
831.808819	2515.535769
832.125642	2450.000769
832.442421	2505.453462
832.759157	2485.288846
833.075849	2457.562500
833.392497	2507.974038
833.709101	2470.165385
834.025662	2477.727115
834.342179	2533.179808
834.658653	2447.480192
834.975083	2497.891731
835.291469	2455.041923
835.607811	2518.056346
835.924110	2510.494615
836.240366	2422.274423
836.556578	2462.603654
836.872746	2568.467885
837.188871	2538.220962
837.504952	2576.029615
837.820990	2460.083077
838.136984	2485.288846
838.452935	2543.262115
838.768842	2482.768269
839.084706	2487.809423
839.400526	2434.877308
839.716303	2507.974038
840.032037	2470.165385
840.347727	2475.206538
840.663373	2442.439038
840.978977	2487.809423
841.294537	2502.932885
841.610054	2510.494615
841.925527	2548.303269
842.240957	2530.659231
842.556344	2487.809423
842.871687	2520.576923
843.186987	2510.494615
843.502244	2462.603654
843.817458	2520.576923
844.132629	2492.850577
844.447756	2530.659231
844.762840	2470.165385
845.077881	2525.618077
845.392879	2520.576923
845.707833	2555.865000
846.022745	2424.795000
846.337613	2520.576923
846.652438	2462.603654
846.967221	2460.083077
847.281960	2487.809423
847.596656	2523.097500
847.911309	2490.330000
848.225919	2500.412308
848.540485	2485.288846
848.855009	2568.467885
849.169490	2495.371154
849.483928	2450.000769
849.798323	2439.918462
850.112675	2548.303269
850.426984	2543.262115
850.741251	2417.233269
851.055474	2545.782692
851.369654	2525.618077
851.683792	2568.467885
851.997887	2530.659231
852.311938	2397.068654
852.625947	2563.426731
852.939914	2548.303269
853.253837	2457.562500
853.567718	2480.247692
853.881555	2513.015192
854.195350	2419.753846
854.509103	2437.397885
854.822812	2497.891731
855.136479	2429.836154
855.450103	2490.330000
855.763685	2450.000769
856.077224	2452.521346
856.390720	2452.521346
856.704173	2510.494615
857.017584	2455.041923
857.330953	2485.288846
857.644278	2470.165385
857.957561	2565.947308
858.270802	2429.836154
858.584000	2497.891731
858.897155	2472.685962
859.210268	2384.465769
859.523339	2513.015192
859.836367	2480.247692
860.149352	2477.727115
860.462295	2505.453462
860.775195	2513.015192
861.088054	2490.330000
861.400869	2500.412308
861.713642	2513.015192
862.026373	2507.974038
862.339062	2450.000769
862.651708	2419.753846
862.964312	2475.206538
863.276873	2505.453462
863.589392	2467.644808
863.901869	2460.083077
864.214303	2581.070769
864.526696	2397.068654
864.839045	2518.056346
865.151353	2462.603654
865.463619	2490.330000
865.775842	2520.576923
866.088023	2502.932885
866.400162	2452.521346
866.712258	2596.194231
867.024313	2515.535769
867.336325	2480.247692
867.648296	2495.371154
867.960224	2560.906154
868.272110	2573.509038
868.583954	2477.727115
868.895755	2520.576923
869.207515	2487.809423
869.519233	2505.453462
869.830909	2515.535769
870.142542	2523.097500
870.454134	2419.753846
870.765684	2553.344423
871.077191	2623.920577
871.388657	2538.220962
871.700081	2500.412308
872.011463	2485.288846
872.322803	2500.412308
872.634101	2520.576923
872.945357	2568.467885
873.256571	2475.206538
873.567744	2462.603654
873.878874	2450.000769
874.189963	2455.041923
874.501010	2447.480192
874.812015	2452.521346
875.122979	2414.712692
875.433900	2535.700385
875.744780	2507.974038
876.055618	2573.509038
876.366415	2485.288846
876.677169	2502.932885
876.987882	2452.521346
877.298554	2422.274423
877.609183	2480.247692
877.919771	2497.891731
878.230317	2540.741538
878.540822	2505.453462
878.851285	2530.659231
879.161707	2490.330000
879.472087	2457.562500
879.782425	2505.453462
880.092722	2583.591346
880.402977	2565.947308
880.713191	2500.412308
881.023363	2507.974038
881.333494	2513.015192
881.643583	2525.618077
881.953631	2568.467885
882.263637	2465.124231
882.573602	2432.356731
882.883526	2540.741538
883.193408	2407.150962
883.503248	2502.932885
883.813048	2417.233269
884.122806	2540.741538
884.432522	2515.535769
884.742197	2442.439038
885.051831	2525.618077
885.361424	2553.344423
885.670975	2409.671538
885.980485	2437.397885
886.289954	2525.618077
886.599382	2492.850577
886.908768	2444.959615
887.218113	2576.029615
887.527417	2492.850577
887.836680	2573.509038
888.145901	2480.247692
888.455082	2502.932885
888.764221	2518.056346
889.073319	2480.247692
889.382376	2490.330000
889.691392	2510.494615
890.000366	2465.124231
890.309300	2518.056346
890.618193	2530.659231
890.927044	2510.494615
891.235855	2439.918462
891.544625	2472.685962
891.853353	2573.509038
892.162041	2500.412308
892.470687	2535.700385
892.779293	2525.618077
893.087858	2560.906154
893.396381	2565.947308
893.704864	2414.712692
894.013306	2528.138654
894.321707	2447.480192
894.630068	2550.823846
894.938387	2513.015192
895.246665	2457.562500
895.554903	2472.685962
895.863100	2497.891731
896.171256	2465.124231
896.479371	2490.330000
896.787446	2482.768269
897.095480	2510.494615
897.403473	2518.056346
897.711425	2432.356731
898.019336	2419.753846
898.327207	2565.947308
898.635038	2525.618077
898.942827	2548.303269
899.250576	2500.412308
899.558284	2530.659231
899.865952	2568.467885
900.173579	2447.480192
900.481165	2538.220962
900.788711	2450.000769
901.096216	2384.465769
901.403681	2432.356731
901.711105	2472.685962
902.018489	2558.385577
902.325832	2414.712692
902.633135	2533.179808
902.940397	2485.288846
903.247619	2555.865000
903.554800	2462.603654
903.861941	2462.603654
904.169041	2470.165385
904.476101	2467.644808
904.783121	2507.974038
905.090100	2545.782692
905.397039	2480.247692
905.703938	2480.247692
906.010796	2432.356731
906.317614	2513.015192
906.624391	2538.220962
906.931129	2419.753846
907.237826	2530.659231
907.544483	2520.576923
907.851099	2465.124231
908.157675	2513.015192
908.464211	2505.453462
908.770707	2495.371154
909.077163	2500.412308
909.383578	2568.467885
909.689954	2404.630385
909.996289	2507.974038
910.302584	2477.727115
910.608839	2480.247692
910.915054	2412.192115
911.221229	2432.356731
911.527363	2462.603654
911.833458	2492.850577
912.139513	2439.918462
912.445527	2429.836154
912.751502	2550.823846
913.057436	2586.111923
913.363331	2500.412308
913.669186	2495.371154
913.975000	2586.111923
914.280775	2500.412308
914.586510	2502.932885
914.892205	2485.288846
915.197859	2482.768269
915.503475	2518.056346
915.809050	2505.453462
916.114585	2485.288846
916.420081	2417.233269
916.725536	2560.906154
917.030952	2467.644808
917.336328	2502.932885
917.641665	2462.603654
917.946961	2533.179808
918.252218	2475.206538
918.557435	2518.056346
918.862612	2444.959615
919.167750	2525.618077
919.472848	2515.535769
919.777906	2482.768269
920.082925	2427.315577
920.387904	2462.603654
920.692843	2487.809423
920.997743	2487.809423
921.302603	2439.918462
921.607423	2457.562500
921.912204	2495.371154
922.216946	2573.509038
922.521647	2477.727115
922.826310	2470.165385
923.130932	2497.891731
923.435516	2432.356731
923.740059	2485.288846
924.044564	2502.932885
924.349028	2455.041923
924.653454	2502.932885
924.957840	2450.000769
925.262186	2462.603654
925.566493	2490.330000
925.870761	2497.891731
926.174989	2495.371154
926.479178	2409.671538
926.783328	2505.453462
927.087438	2560.906154
927.391509	2533.179808
927.695541	2528.138654
927.999533	2444.959615
928.303486	2578.550192
928.607400	2495.371154
928.911275	2475.206538
929.215110	2447.480192
929.518906	2502.932885
929.822663	2492.850577
930.126381	2432.356731
930.430060	2442.439038
930.733699	2502.932885
931.037299	2490.330000
931.340861	2439.918462
931.644383	2465.124231
931.947866	2500.412308
932.251309	2444.959615
932.554714	2540.741538
932.858080	2429.836154
933.161407	2467.644808
933.464694	2444.959615
933.767943	2513.015192
934.071153	2434.877308
934.374323	2515.535769
934.677455	2502.932885
934.980548	2462.603654
935.283602	2515.535769
935.586617	2528.138654
935.889593	2487.809423
936.192530	2480.247692
936.495428	2480.247692
936.798287	2502.932885
937.101108	2518.056346
937.403890	2407.150962
937.706632	2485.288846
938.009336	2505.453462
938.312002	2480.247692
938.614628	2487.809423
938.917216	2472.685962
939.219765	2543.262115
939.522275	2457.562500
939.824747	2555.865000
940.127179	2553.344423
940.429573	2495.371154
940.731929	2475.206538
941.034246	2397.068654
941.336524	2467.644808
941.638763	2450.000769
941.940964	2467.644808
942.243126	2462.603654
942.545250	2523.097500
942.847335	2533.179808
943.149381	2520.576923
943.451389	2573.509038
943.753359	2399.589231
944.055290	2570.988462
944.357182	2460.083077
944.659036	2444.959615
944.960851	2560.906154
945.262628	2434.877308
945.564367	2530.659231
945.866067	2475.206538
946.167729	2497.891731
946.469352	2429.836154
946.770937	2477.727115
947.072484	2485.288846
947.373992	2427.315577
947.675462	2553.344423
947.976893	2495.371154
948.278286	2583.591346
948.579641	2477.727115
948.880958	2462.603654
949.182236	2515.535769
949.483476	2573.509038
949.784678	2434.877308
950.085841	2487.809423
950.386967	2545.782692
950.688054	2507.974038
950.989103	2525.618077
951.290114	2492.850577
951.591087	2518.056346
951.892021	2422.274423
952.192917	2412.192115
952.493776	2533.179808
952.794596	2475.206538
953.095378	2447.480192
953.396122	2555.865000
953.696828	2495.371154
953.997496	2490.330000
954.298126	2472.685962
954.598718	2407.150962
954.899272	2543.262115
955.199788	2533.179808
955.500266	2490.330000
955.800706	2550.823846
956.101108	2533.179808
956.401472	2520.576923
956.701798	2424.795000
957.002087	2439.918462
957.302337	2495.371154
957.602550	2434.877308
957.902724	2490.330000
958.202861	2487.809423
958.502960	2409.671538
958.803022	2457.562500
959.103045	2432.356731
959.403031	2500.412308
959.702979	2472.685962
960.002889	2470.165385
960.302762	2507.974038
960.602596	2450.000769
960.902393	2560.906154
961.202153	2465.124231
961.501875	2475.206538
961.801559	2487.809423
962.101205	2510.494615
962.400814	2596.194231
962.700385	2497.891731
962.999918	2447.480192
963.299414	2412.192115
963.598873	2495.371154
963.898293	2482.768269
964.197677	2518.056346
964.497022	2477.727115
964.796331	2465.124231
965.095601	2492.850577
965.394835	2429.836154
965.694030	2422.274423
965.993189	2467.644808
966.292309	2442.439038
966.591393	2535.700385
966.890439	2480.247692
967.189447	2505.453462
967.488419	2487.809423
967.787353	2414.712692
968.086249	2492.850577
968.385108	2520.576923
968.683930	2442.439038
968.982714	2467.644808
969.281462	2477.727115
969.580172	2530.659231
969.878844	2490.330000
970.177480	2555.865000
970.476078	2513.015192
970.774639	2442.439038
971.073162	2535.700385
971.371649	2510.494615
971.670098	2513.015192
971.968510	2470.165385
972.266885	2510.494615
972.565223	2442.439038
972.863524	2475.206538
973.161788	2429.836154
973.460014	2399.589231
973.758204	2470.165385
974.056356	2515.535769
974.354471	2583.591346
974.652550	2470.165385
974.950591	2500.412308
975.248595	2470.165385
975.546563	2513.015192
975.844493	2591.153077
976.142386	2434.877308
976.440243	2530.659231
976.738062	2434.877308
977.035845	2485.288846
977.333590	2424.795000
977.631299	2417.233269
977.928971	2465.124231
978.226606	2497.891731
978.524204	2412.192115
978.821765	2497.891731
979.119290	2507.974038
979.416777	2432.356731
979.714228	2528.138654
980.011642	2505.453462
980.309020	2482.768269
980.606360	2442.439038
980.903664	2485.288846
981.200931	2477.727115
981.498162	2472.685962
981.795356	2455.041923
982.092513	2515.535769
982.389633	2538.220962
982.686717	2502.932885
982.983764	2565.947308
983.280775	2472.685962
983.577749	2447.480192
983.874686	2502.932885
984.171587	2555.865000
984.468451	2568.467885
984.765279	2525.618077
985.062070	2533.179808
985.358824	2424.795000
985.655543	2568.467885
985.952224	2548.303269
986.248869	2457.562500
986.545478	2444.959615
986.842050	2538.220962
987.138586	2492.850577
987.435086	2497.891731
987.731549	2502.932885
988.027975	2477.727115
988.324366	2457.562500
988.620719	2485.288846
988.917037	2472.685962
989.213318	2439.918462
989.509563	2477.727115
989.805772	2492.850577
990.101944	2573.509038
990.398080	2570.988462
990.694180	2460.083077
990.990244	2538.220962
991.286271	2500.412308
991.582262	2439.918462
991.878217	2465.124231
992.174136	2444.959615
992.470019	2513.015192
992.765865	2475.206538
993.061676	2475.206538
993.357450	2568.467885
993.653188	2523.097500
993.948890	2555.865000
994.244556	2573.509038
994.540186	2482.768269
994.835780	2487.809423
995.131337	2429.836154
995.426859	2392.027500
995.722345	2450.000769
996.017795	2495.371154
996.313208	2548.303269
996.608586	2444.959615
996.903928	2591.153077
997.199234	2535.700385
997.494504	2422.274423
997.789738	2397.068654
998.084936	2457.562500
998.380099	2434.877308
998.675225	2533.179808
998.970316	2525.618077
999.265371	2528.138654
999.560390	2457.562500
999.855373	2442.439038
1000.150320	2520.576923
1000.445232	2518.056346
1000.740108	2442.439038
1001.034948	2477.727115
1001.329752	2495.371154
1001.624521	2455.041923
1001.919254	2467.644808
1002.213951	2450.000769
1002.508613	2533.179808
1002.803239	2502.932885
1003.097829	2523.097500
1003.392384	2502.932885
1003.686903	2434.877308
1003.981386	2550.823846
1004.275834	2450.000769
1004.570246	2616.358846
1004.864623	2470.165385
1005.158964	2482.768269
1005.453270	2434.877308
1005.747540	2565.947308
1006.041775	2472.685962
1006.335974	2520.576923
1006.630138	2439.918462
1006.924266	2528.138654
1007.218359	2518.056346
1007.512416	2480.247692
1007.806438	2444.959615
1008.100425	2470.165385
1008.394376	2477.727115
1008.688292	2422.274423
1008.982172	2560.906154
1009.276017	2422.274423
1009.569827	2485.288846
1009.863602	2467.644808
1010.157341	2540.741538
1010.451045	2384.465769
1010.744714	2475.206538
1011.038347	2518.056346
1011.331945	2417.233269
1011.625508	2455.041923
1011.919036	2457.562500
1012.212528	2442.439038
1012.505986	2538.220962
1012.799408	2553.344423
1013.092795	2482.768269
1013.386147	2502.932885
1013.679464	2520.576923
1013.972745	2447.480192
1014.265992	2505.453462
1014.559204	2429.836154
1014.852380	2460.083077
1015.145521	2470.165385
1015.438628	2437.397885
1015.731699	2513.015192
1016.024736	2490.330000
1016.317737	2419.753846
1016.610703	2535.700385
1016.903635	2427.315577
1017.196531	2525.618077
1017.489393	2439.918462
1017.782219	2555.865000
1018.075011	2477.727115
1018.367768	2477.727115
1018.660490	2472.685962
1018.953177	2472.685962
1019.245829	2472.685962
