Dividing Wavelength (nm)	Counts (n)	Blue Motor Position (mm): 0.000000	Red Motor Position (mm): 0.000000	
326.493990	2107.202308
326.888308	2107.202308
327.282561	2107.202308
327.676750	2177.778462
328.070874	2155.093269
328.464933	2122.325769
328.858929	2213.066538
329.252859	2157.613846
329.646726	2223.148846
330.040528	2155.093269
330.434265	2235.751731
330.827938	2230.710577
331.221547	2268.519231
331.615091	2210.545962
332.008571	2306.327885
332.401986	2250.875192
332.795338	2318.930769
333.188625	2344.136538
333.581847	2364.301154
333.975006	2472.685962
334.368100	2434.877308
334.761129	2354.218846
335.154095	2477.727115
335.546996	2467.644808
335.939833	2490.330000
336.332606	2467.644808
336.725315	2412.192115
337.117960	2533.179808
337.510540	2543.262115
337.903056	2520.576923
338.295508	2518.056346
338.687896	2535.700385
339.080220	2530.659231
339.472480	2490.330000
339.864676	2560.906154
340.256807	2623.920577
340.648875	2573.509038
341.040879	2505.453462
341.432818	2576.029615
341.824694	2586.111923
342.216506	2570.988462
342.608253	2616.358846
342.999937	2578.550192
343.391557	2528.138654
343.783113	2502.932885
344.174605	2636.523462
344.566033	2502.932885
344.957397	2608.797115
345.348697	2573.509038
345.739934	2616.358846
346.131106	2623.920577
346.522215	2555.865000
346.913260	2563.426731
347.304241	2591.153077
347.695159	2568.467885
348.086012	2601.235385
348.476802	2593.673654
348.867528	2576.029615
349.258191	2576.029615
349.648789	2513.015192
350.039324	2601.235385
350.429796	2550.823846
350.820203	2563.426731
351.210548	2528.138654
351.600828	2606.276538
351.991045	2550.823846
352.381198	2500.412308
352.771288	2555.865000
353.161314	2583.591346
353.551276	2573.509038
353.941175	2520.576923
354.331010	2550.823846
354.720782	2563.426731
355.110490	2530.659231
355.500135	2550.823846
355.889717	2535.700385
356.279235	2545.782692
356.668689	2545.782692
357.058080	2606.276538
357.447408	2525.618077
357.836672	2593.673654
358.225873	2528.138654
358.615010	2543.262115
359.004084	2583.591346
359.393095	2467.644808
359.782043	2540.741538
360.170927	2623.920577
360.559748	2616.358846
360.948505	2470.165385
361.337199	2548.303269
361.725830	2535.700385
362.114398	2555.865000
362.502903	2452.521346
362.891344	2535.700385
363.279722	2507.974038
363.668037	2487.809423
364.056289	2457.562500
364.444478	2641.564615
364.832603	2543.262115
365.220665	2553.344423
365.608665	2558.385577
365.996601	2628.961731
366.384474	2560.906154
366.772284	2565.947308
367.160031	2470.165385
367.547715	2518.056346
367.935336	2628.961731
368.322893	2515.535769
368.710388	2538.220962
369.097820	2576.029615
369.485189	2568.467885
369.872495	2613.838269
370.259738	2588.632500
370.646918	2543.262115
371.034035	2553.344423
371.421090	2538.220962
371.808081	2576.029615
372.195010	2533.179808
372.581875	2626.441154
372.968678	2480.247692
373.355418	2634.002885
373.742096	2623.920577
374.128710	2530.659231
374.515262	2553.344423
374.901751	2586.111923
375.288177	2495.371154
375.674540	2570.988462
376.060841	2581.070769
376.447079	2576.029615
376.833254	2462.603654
377.219367	2608.797115
377.605417	2495.371154
377.991404	2525.618077
378.377329	2553.344423
378.763191	2576.029615
379.148991	2492.850577
379.534727	2528.138654
379.920402	2568.467885
380.306013	2560.906154
380.691563	2558.385577
381.077049	2545.782692
381.462474	2563.426731
381.847835	2649.126346
382.233134	2570.988462
382.618371	2608.797115
383.003545	2608.797115
383.388657	2611.317692
383.773706	2654.167500
384.158693	2555.865000
384.543618	2593.673654
384.928480	2507.974038
385.313280	2586.111923
385.698017	2560.906154
386.082692	2558.385577
386.467305	2591.153077
386.851856	2583.591346
387.236344	2497.891731
387.620770	2611.317692
388.005133	2543.262115
388.389435	2545.782692
388.773674	2586.111923
389.157851	2548.303269
389.541965	2586.111923
389.926018	2606.276538
390.310008	2598.714808
390.693936	2613.838269
391.077802	2583.591346
391.461606	2548.303269
391.845348	2558.385577
392.229027	2603.755962
392.612645	2505.453462
392.996200	2596.194231
393.379694	2603.755962
393.763125	2558.385577
394.146494	2646.605769
394.529801	2588.632500
394.913047	2482.768269
395.296230	2525.618077
395.679351	2588.632500
396.062410	2578.550192
396.445408	2618.879423
396.828343	2616.358846
397.211217	2583.591346
397.594028	2533.179808
397.976778	2568.467885
398.359466	2588.632500
398.742092	2578.550192
399.124656	2581.070769
399.507158	2611.317692
399.889598	2628.961731
400.271977	2533.179808
400.654294	2628.961731
401.036549	2636.523462
401.418742	2565.947308
401.800874	2618.879423
402.182944	2555.865000
402.564952	2628.961731
402.946898	2593.673654
403.328783	2654.167500
403.710606	2608.797115
404.092367	2578.550192
404.474067	2563.426731
404.855705	2555.865000
405.237282	2616.358846
405.618797	2623.920577
406.000250	2573.509038
406.381642	2626.441154
406.762972	2573.509038
407.144240	2553.344423
407.525447	2671.811538
407.906593	2510.494615
408.287677	2639.044038
408.668700	2576.029615
409.049661	2611.317692
409.430560	2565.947308
409.811399	2581.070769
410.192176	2588.632500
410.572891	2568.467885
410.953545	2525.618077
411.334138	2684.414423
411.714669	2651.646923
412.095139	2528.138654
412.475547	2573.509038
412.855894	2618.879423
413.236180	2626.441154
413.616405	2555.865000
413.996568	2538.220962
414.376670	2591.153077
414.756711	2608.797115
415.136691	2639.044038
415.516609	2608.797115
415.896466	2613.838269
416.276262	2555.865000
416.655997	2543.262115
417.035670	2603.755962
417.415283	2598.714808
417.794834	2626.441154
418.174324	2603.755962
418.553753	2530.659231
418.933121	2636.523462
419.312428	2583.591346
419.691674	2573.509038
420.070859	2611.317692
420.449983	2555.865000
420.829045	2578.550192
421.208047	2550.823846
421.586988	2515.535769
421.965867	2560.906154
422.344686	2628.961731
422.723444	2603.755962
423.102141	2515.535769
423.480777	2598.714808
423.859352	2641.564615
424.237866	2573.509038
424.616319	2596.194231
424.994712	2533.179808
425.373044	2598.714808
425.751314	2616.358846
426.129524	2621.400000
426.507673	2548.303269
426.885762	2661.729231
427.263789	2659.208654
427.641756	2588.632500
428.019662	2505.453462
428.397508	2613.838269
428.775292	2530.659231
429.153016	2543.262115
429.530679	2608.797115
429.908282	2497.891731
430.285824	2631.482308
430.663305	2550.823846
431.040726	2651.646923
431.418086	2644.085192
431.795385	2538.220962
432.172624	2545.782692
432.549802	2591.153077
432.926920	2535.700385
433.303977	2616.358846
433.680974	2563.426731
434.057910	2598.714808
434.434786	2616.358846
434.811601	2679.373269
435.188355	2684.414423
435.565050	2550.823846
435.941683	2578.550192
436.318257	2583.591346
436.694770	2644.085192
437.071222	2621.400000
437.447614	2661.729231
437.823946	2694.496731
438.200218	2611.317692
438.576429	2686.935000
438.952580	2742.387692
439.328670	2671.811538
439.704700	2656.688077
440.080670	2661.729231
440.456580	2654.167500
440.832429	2586.111923
441.208218	2686.935000
441.583947	2729.784808
441.959616	2727.264231
442.335224	2707.099615
442.710773	2749.949423
443.086261	2825.566731
443.461689	2815.484423
443.837057	2724.743654
444.212365	2850.772500
444.587612	2891.101731
444.962800	2928.910385
445.337927	2823.046154
445.712995	2928.910385
446.088002	3002.007115
446.462949	3062.500962
446.837837	3097.789038
447.212664	3160.803462
447.587431	3092.747885
447.962139	3304.476346
448.336786	3506.122500
448.711374	3574.178077
449.085901	3385.134808
449.460369	3460.752115
449.834776	3440.587500
450.209124	3717.850962
450.583412	3818.674038
450.957640	4010.237885
451.331808	3952.264615
451.705917	3851.441538
452.079965	3995.114423
452.453954	4095.937500
452.827883	4196.760577
453.201752	4174.075385
453.575562	4254.733846
453.949311	4411.009615
454.323001	4441.256538
454.696632	4617.696923
455.070202	4970.577692
455.443713	4915.125000
455.817164	5179.785577
456.190556	5376.390577
456.563888	5499.898846
456.937160	5751.956538
457.310373	5572.995577
457.683526	5890.588269
458.056619	5787.244615
458.429653	6006.534808
458.802628	5900.670577
459.175542	6283.798269
459.548398	6664.405385
459.921194	6997.121538
460.293930	7261.782115
460.666607	7838.994231
461.039224	8675.825769
461.411782	8796.813462
461.784280	8776.648846
462.156719	9033.747692
462.529099	8945.527500
462.901419	8819.498654
463.273680	8854.786731
463.645882	8940.486346
464.018024	9285.805385
464.390106	9532.821923
464.762130	9968.881731
465.134094	10893.933462
465.505999	12504.582115
465.877845	14700.004615
466.249631	16275.365192
466.621358	15947.690192
466.993026	15423.410192
467.364634	15108.338077
467.736184	14901.650769
468.107674	14140.436538
468.479105	14465.590962
468.850477	14369.809038
469.221790	14631.949038
469.593043	14084.983846
469.964238	13941.310962
470.335373	14097.586731
470.706449	14538.687692
471.077467	14674.798846
471.448425	16943.318077
471.819324	20197.382885
472.190164	20870.376923
472.560945	18067.495385
472.931667	16582.875577
473.302330	16527.422885
473.672934	16595.478462
474.043479	16787.042308
474.413965	16776.960000
474.784393	16547.587500
475.154761	17694.450000
475.525070	17190.334615
475.895321	17250.828462
476.265513	18314.511923
476.635645	18667.392692
477.005719	18576.651923
477.375734	18753.092308
477.745691	19398.360000
478.115588	19824.337500
478.485427	20867.856346
478.855207	22188.638654
479.224928	23900.110385
479.594591	26284.576154
479.964194	25281.386538
480.333739	25833.392885
480.703226	25712.405192
481.072653	25329.277500
481.442022	26702.991923
481.811333	27502.014808
482.180584	27111.325385
482.549777	26370.275769
482.918912	26037.559615
483.287988	26292.137885
483.657005	25888.845577
484.025964	25583.855769
484.394864	25218.372115
484.763706	24714.256731
485.132489	24442.034423
485.501213	24623.515962
485.869879	24593.269038
486.238487	24167.291538
486.607036	24348.773077
486.975527	24056.386154
487.343959	24207.620769
487.712333	24056.386154
488.080648	23385.912692
488.448905	24358.855385
488.817104	23839.616538
489.185244	24217.703077
489.553326	24439.513846
489.921350	25601.499808
490.289315	27519.658846
490.657222	28762.303269
491.025070	28739.618077
491.392861	28331.284615
491.760593	27207.107308
492.128267	25808.187115
492.495883	24996.561346
492.863440	24008.495192
493.230939	23310.295385
493.598380	22793.577115
493.965763	22279.379423
494.333088	21571.097308
494.700354	21470.274231
495.067563	20865.335769
495.434713	20686.374808
495.801805	20605.716346
496.168839	20096.559808
496.535815	19819.296346
496.902733	19773.925962
497.269593	19632.773654
497.636395	19133.699423
498.003139	18914.409231
498.369825	18382.567500
498.736453	18349.800000
499.103023	18269.141538
499.469535	18029.686731
499.835989	17820.478846
500.202385	17649.079615
500.568723	17265.951923
500.935003	16897.947692
501.301226	16565.231538
501.667390	17051.702885
502.033497	16507.258269
502.399546	16245.118269
502.765537	15763.688077
503.131470	15693.111923
503.497345	15410.807308
503.863163	15007.515000
504.228923	14911.733077
504.594625	14959.624038
504.960269	14349.644423
505.325856	14384.932500
505.691385	13850.570192
506.056856	13757.308846
506.422270	13850.570192
506.787625	13036.423846
507.152924	13114.561731
507.518164	12983.491731
507.883347	12363.429808
508.248472	12030.713654
508.613540	12139.098462
508.978550	11718.162115
509.343503	11818.985192
509.708398	11685.394615
510.073236	11398.048846
510.438016	11256.896538
510.802738	10767.904615
511.167403	10828.398462
511.532010	10586.423077
511.896561	10392.338654
512.261053	10256.227500
512.625488	10218.418846
512.989866	9850.414615
513.354186	9477.369231
513.718449	9273.202500
514.082655	9447.122308
514.446803	8990.897885
514.810894	8781.690000
515.174927	8534.673462
515.538904	8547.276346
515.902822	8353.191923
516.266684	8239.765962
516.630488	8136.422308
516.994235	7770.938654
517.357925	7871.761731
517.721558	7649.950962
518.085133	7370.166923
518.448651	7309.673077
518.812112	7045.012500
519.175516	7019.806731
519.538863	6979.477500
519.902152	6755.146154
520.265385	6699.693462
520.628560	6465.279808
520.991678	6321.606923
521.354739	6205.660385
521.717743	6034.261154
522.080690	5956.123269
522.443580	5918.314615
522.806413	5777.162308
523.169189	5598.201346
523.531908	5583.077885
523.894569	5346.143654
524.257174	5262.964615
524.619722	5162.141538
524.982213	5036.112692
525.344647	4963.015962
525.707025	4829.425385
526.069345	4758.849231
526.431608	4698.355385
526.793815	4756.328654
527.155964	4592.491154
527.518057	4421.091923
527.880093	4426.133077
528.242072	4224.486923
528.603995	4201.801731
528.965860	4171.554808
529.327669	4070.731731
529.689421	4022.840769
530.051117	3942.182308
530.412755	3874.126731
530.774337	3853.962115
531.135862	3813.632885
531.497331	3720.371538
531.858743	3715.330385
532.220098	3614.507308
532.581396	3589.301538
532.942638	3589.301538
533.303824	3493.519615
533.664953	3435.546346
534.026025	3420.422885
534.387040	3402.778846
534.747999	3357.408462
535.108902	3390.175962
535.469748	3279.270577
535.830537	3296.914615
536.191270	3188.529808
536.551947	3291.873462
536.912567	3145.680000
537.273131	3165.844615
537.633638	3175.926923
537.994089	3115.433077
538.354483	3067.542115
538.714821	3049.898077
539.075103	3059.980385
539.435328	3049.898077
539.795497	2903.704615
540.155609	2964.198462
540.515665	2901.184038
540.875665	2986.883654
541.235609	2941.513269
541.595496	2883.540000
541.955328	2908.745769
542.315102	2881.019423
542.674821	2863.375385
543.034483	2901.184038
543.394090	2812.963846
543.753640	2891.101731
544.113134	2830.607885
544.472571	2772.634615
544.831953	2820.525577
545.191278	2777.675769
545.550548	2795.319808
545.909761	2830.607885
546.268918	2727.264231
546.628019	2845.731346
546.987064	2855.813654
547.346053	2792.799231
547.704986	2795.319808
548.063863	2785.237500
548.422684	2676.852692
548.781449	2787.758077
549.140158	2772.634615
549.498811	2762.552308
549.857408	2722.223077
550.215949	2649.126346
550.574434	2709.620192
550.932864	2727.264231
551.291237	2712.140769
551.649555	2752.470000
552.007817	2709.620192
552.366022	2669.290962
552.724173	2699.537885
553.082267	2686.935000
553.440305	2707.099615
553.798288	2790.278654
554.156215	2739.867115
554.514086	2719.702500
554.871902	2583.591346
555.229661	2644.085192
555.587365	2689.455577
555.945014	2659.208654
556.302606	2684.414423
556.660143	2681.893846
557.017625	2676.852692
557.375050	2744.908269
557.732421	2714.661346
558.089735	2601.235385
558.446994	2702.058462
558.804197	2754.990577
559.161345	2651.646923
559.518437	2651.646923
559.875474	2777.675769
560.232455	2671.811538
560.589381	2661.729231
560.946251	2707.099615
561.303065	2707.099615
561.659825	2628.961731
562.016528	2636.523462
562.373177	2636.523462
562.729770	2704.579038
563.086307	2623.920577
563.442789	2669.290962
563.799216	2744.908269
564.155587	2659.208654
564.511904	2591.153077
564.868164	2717.181923
565.224370	2548.303269
565.580520	2656.688077
565.936615	2644.085192
566.292654	2646.605769
566.648638	2659.208654
567.004567	2649.126346
567.360441	2709.620192
567.716260	2671.811538
568.072023	2659.208654
568.427732	2558.385577
568.783385	2689.455577
569.138982	2634.002885
569.494525	2681.893846
569.850013	2669.290962
570.205445	2659.208654
570.560823	2704.579038
570.916145	2681.893846
571.271412	2686.935000
571.626625	2709.620192
571.981782	2684.414423
572.336884	2651.646923
572.691931	2702.058462
573.046923	2659.208654
573.401860	2654.167500
573.756743	2621.400000
574.111570	2636.523462
574.466342	2616.358846
574.821059	2674.332115
575.175722	2697.017308
575.530330	2671.811538
575.884882	2699.537885
576.239380	2628.961731
576.593823	2530.659231
576.948211	2593.673654
577.302544	2601.235385
577.656823	2669.290962
578.011047	2573.509038
578.365216	2646.605769
578.719330	2651.646923
579.073389	2636.523462
579.427394	2684.414423
579.781344	2636.523462
580.135239	2593.673654
580.489080	2550.823846
580.842866	2583.591346
581.196597	2626.441154
581.550273	2639.044038
581.903895	2686.935000
582.257463	2550.823846
582.610975	2606.276538
582.964434	2679.373269
583.317837	2603.755962
583.671186	2644.085192
584.024481	2686.935000
584.377721	2639.044038
584.730906	2674.332115
585.084037	2681.893846
585.437113	2641.564615
585.790135	2558.385577
586.143103	2634.002885
586.496016	2702.058462
586.848874	2560.906154
587.201679	2621.400000
587.554428	2634.002885
587.907124	2671.811538
588.259765	2626.441154
588.612352	2611.317692
588.964884	2671.811538
589.317362	2641.564615
589.669786	2621.400000
590.022155	2654.167500
590.374470	2646.605769
590.726731	2596.194231
591.078937	2646.605769
591.431090	2681.893846
591.783188	2697.017308
592.135232	2674.332115
592.487222	2538.220962
592.839157	2684.414423
593.191038	2631.482308
593.542866	2634.002885
593.894639	2596.194231
594.246358	2669.290962
594.598022	2621.400000
594.949633	2646.605769
595.301190	2697.017308
595.652692	2608.797115
596.004141	2654.167500
596.355535	2636.523462
596.706876	2669.290962
597.058162	2634.002885
597.409395	2558.385577
597.760573	2626.441154
598.111698	2724.743654
598.462768	2623.920577
598.813785	2631.482308
599.164748	2684.414423
599.515657	2618.879423
599.866511	2651.646923
600.217312	2611.317692
600.568060	2651.646923
600.918753	2606.276538
601.269392	2533.179808
601.619978	2611.317692
601.970510	2671.811538
602.320988	2606.276538
602.671412	2669.290962
603.021783	2636.523462
603.372100	2631.482308
603.722363	2641.564615
604.072572	2598.714808
604.422728	2639.044038
604.772830	2608.797115
605.122878	2616.358846
605.472872	2656.688077
605.822813	2679.373269
606.172701	2654.167500
606.522534	2583.591346
606.872314	2649.126346
607.222041	2694.496731
607.571714	2639.044038
607.921333	2606.276538
608.270899	2601.235385
608.620411	2674.332115
608.969870	2676.852692
609.319276	2618.879423
609.668627	2694.496731
610.017926	2671.811538
610.367171	2661.729231
610.716362	2563.426731
611.065500	2684.414423
611.414585	2591.153077
611.763616	2676.852692
612.112594	2702.058462
612.461518	2621.400000
612.810389	2666.770385
613.159207	2616.358846
613.507971	2639.044038
613.856682	2621.400000
614.205340	2550.823846
614.553945	2659.208654
614.902496	2568.467885
615.250994	2664.249808
615.599439	2555.865000
615.947830	2636.523462
616.296169	2613.838269
616.644454	2628.961731
616.992686	2702.058462
617.340864	2639.044038
617.688990	2583.591346
618.037063	2621.400000
618.385082	2608.797115
618.733048	2656.688077
619.080961	2649.126346
619.428821	2722.223077
619.776628	2626.441154
620.124382	2659.208654
620.472083	2649.126346
620.819731	2724.743654
621.167326	2641.564615
621.514868	2684.414423
621.862357	2644.085192
622.209793	2709.620192
622.557176	2722.223077
622.904506	2616.358846
623.251783	2616.358846
623.599007	2727.264231
623.946179	2628.961731
624.293297	2606.276538
624.640363	2634.002885
624.987376	2623.920577
625.334336	2583.591346
625.681243	2618.879423
626.028097	2659.208654
626.374899	2641.564615
626.721647	2641.564615
627.068343	2601.235385
627.414987	2628.961731
627.761577	2608.797115
628.108115	2601.235385
628.454600	2581.070769
628.801032	2631.482308
629.147412	2664.249808
629.493739	2608.797115
629.840014	2621.400000
630.186236	2697.017308
630.532405	2591.153077
630.878521	2586.111923
631.224585	2684.414423
631.570597	2626.441154
631.916556	2628.961731
632.262462	2591.153077
632.608316	2623.920577
632.954117	2651.646923
633.299866	2623.920577
633.645562	2603.755962
633.991206	2626.441154
634.336797	2651.646923
634.682336	2581.070769
635.027823	2611.317692
635.373257	2641.564615
635.718639	2628.961731
636.063968	2621.400000
636.409245	2691.976154
636.754470	2636.523462
637.099642	2621.400000
637.444762	2639.044038
637.789829	2601.235385
638.134845	2530.659231
638.479808	2533.179808
638.824719	2581.070769
639.169577	2462.603654
639.514383	2586.111923
639.859137	2686.935000
640.203839	2621.400000
640.548489	2631.482308
640.893086	2565.947308
641.237632	2639.044038
641.582125	2543.262115
641.926566	2616.358846
642.270955	2697.017308
642.615292	2593.673654
642.959576	2578.550192
643.303809	2611.317692
643.647990	2639.044038
643.992118	2639.044038
644.336195	2565.947308
644.680219	2528.138654
645.024192	2641.564615
645.368112	2603.755962
645.711981	2628.961731
646.055797	2583.591346
646.399562	2649.126346
646.743274	2676.852692
647.086935	2641.564615
647.430544	2593.673654
647.774101	2525.618077
648.117606	2674.332115
648.461059	2649.126346
648.804460	2601.235385
649.147810	2646.605769
649.491108	2568.467885
649.834354	2576.029615
650.177548	2568.467885
650.520690	2596.194231
650.863781	2583.591346
651.206820	2603.755962
651.549807	2679.373269
651.892742	2644.085192
652.235626	2568.467885
652.578458	2550.823846
652.921238	2681.893846
653.263967	2588.632500
653.606644	2535.700385
653.949269	2593.673654
654.291843	2636.523462
654.634365	2656.688077
654.976836	2634.002885
655.319255	2659.208654
655.661622	2626.441154
656.003938	2623.920577
656.346203	2623.920577
656.688416	2591.153077
657.030577	2669.290962
657.372687	2634.002885
657.714746	2596.194231
658.056753	2626.441154
658.398708	2681.893846
658.740612	2704.579038
659.082465	2555.865000
659.424266	2608.797115
659.766016	2654.167500
660.107715	2601.235385
660.449362	2656.688077
660.790958	2578.550192
661.132503	2724.743654
661.473996	2626.441154
661.815438	2596.194231
662.156829	2628.961731
662.498168	2608.797115
662.839456	2586.111923
663.180693	2628.961731
663.521879	2578.550192
663.863013	2563.426731
664.204097	2603.755962
664.545129	2644.085192
664.886110	2689.455577
665.227040	2613.838269
665.567918	2656.688077
665.908746	2686.935000
666.249522	2581.070769
666.590248	2649.126346
666.930922	2631.482308
667.271545	2659.208654
667.612118	2714.661346
667.952639	2646.605769
668.293109	2654.167500
668.633528	2565.947308
668.973896	2679.373269
669.314213	2535.700385
669.654480	2553.344423
669.994695	2626.441154
670.334859	2628.961731
670.674973	2578.550192
671.015035	2659.208654
671.355047	2702.058462
671.695008	2634.002885
672.034918	2563.426731
672.374777	2583.591346
672.714585	2699.537885
673.054342	2641.564615
673.394049	2606.276538
673.733705	2555.865000
674.073310	2646.605769
674.412864	2613.838269
674.752368	2621.400000
675.091820	2593.673654
675.431223	2603.755962
675.770574	2583.591346
676.109875	2631.482308
676.449125	2555.865000
676.788324	2611.317692
677.127473	2621.400000
677.466571	2676.852692
677.805619	2636.523462
678.144616	2593.673654
678.483562	2616.358846
678.822458	2732.305385
679.161303	2674.332115
679.500098	2644.085192
679.838842	2576.029615
680.177535	2543.262115
680.516179	2676.852692
680.854771	2651.646923
681.193314	2636.523462
681.531805	2634.002885
681.870247	2631.482308
682.208638	2603.755962
682.546978	2581.070769
682.885268	2649.126346
683.223508	2636.523462
683.561697	2656.688077
683.899836	2671.811538
684.237925	2596.194231
684.575963	2649.126346
684.913951	2689.455577
685.251889	2704.579038
685.589776	2656.688077
685.927614	2628.961731
686.265401	2533.179808
686.603137	2659.208654
686.940824	2611.317692
687.278460	2593.673654
687.616046	2639.044038
687.953582	2641.564615
688.291068	2644.085192
688.628504	2611.317692
688.965889	2661.729231
689.303224	2538.220962
689.640510	2581.070769
689.977745	2676.852692
690.314930	2651.646923
690.652065	2581.070769
690.989150	2513.015192
691.326185	2641.564615
691.663170	2659.208654
692.000105	2636.523462
692.336990	2671.811538
692.673825	2601.235385
693.010610	2656.688077
693.347345	2608.797115
693.684030	2689.455577
694.020665	2626.441154
694.357251	2591.153077
694.693786	2689.455577
695.030272	2669.290962
695.366707	2528.138654
695.703093	2608.797115
696.039429	2651.646923
696.375716	2618.879423
696.711952	2623.920577
697.048139	2628.961731
697.384276	2553.344423
697.720363	2591.153077
698.056400	2628.961731
698.392388	2621.400000
698.728326	2618.879423
699.064214	2611.317692
699.400053	2611.317692
699.735842	2608.797115
700.071581	2661.729231
700.407270	2628.961731
700.742910	2641.564615
701.078501	2581.070769
701.414042	2649.126346
701.749533	2601.235385
702.084974	2639.044038
702.420366	2666.770385
702.755709	2581.070769
703.091002	2679.373269
703.426246	2641.564615
703.761440	2598.714808
704.096584	2593.673654
704.431679	2581.070769
704.766725	2674.332115
705.101721	2646.605769
705.436668	2588.632500
705.771565	2646.605769
706.106413	2641.564615
706.441212	2661.729231
706.775961	2639.044038
707.110661	2578.550192
707.445311	2618.879423
707.779913	2621.400000
708.114465	2581.070769
708.448967	2588.632500
708.783421	2649.126346
709.117825	2628.961731
709.452180	2631.482308
709.786485	2656.688077
710.120742	2628.961731
710.454949	2659.208654
710.789107	2603.755962
711.123216	2601.235385
711.457275	2613.838269
711.791286	2618.879423
712.125247	2674.332115
712.459159	2631.482308
712.793023	2631.482308
713.126837	2681.893846
713.460602	2654.167500
713.794318	2591.153077
714.127985	2596.194231
714.461602	2681.893846
714.795171	2631.482308
715.128691	2621.400000
715.462162	2601.235385
715.795584	2618.879423
716.128957	2550.823846
716.462281	2651.646923
716.795556	2550.823846
717.128782	2576.029615
717.461960	2679.373269
717.795088	2621.400000
718.128167	2651.646923
718.461198	2520.576923
718.794180	2714.661346
719.127113	2603.755962
719.459997	2666.770385
719.792833	2576.029615
720.125619	2631.482308
720.458357	2606.276538
720.791046	2565.947308
721.123686	2639.044038
721.456278	2573.509038
721.788821	2666.770385
722.121315	2669.290962
722.453761	2664.249808
722.786158	2578.550192
723.118506	2671.811538
723.450805	2639.044038
723.783056	2639.044038
724.115259	2611.317692
724.447412	2583.591346
724.779518	2581.070769
725.111574	2669.290962
725.443582	2623.920577
725.775542	2591.153077
726.107453	2586.111923
726.439315	2576.029615
726.771129	2613.838269
727.102895	2631.482308
727.434612	2646.605769
727.766281	2679.373269
728.097901	2628.961731
728.429473	2671.811538
728.760996	2681.893846
729.092471	2659.208654
729.423897	2608.797115
729.755276	2618.879423
730.086606	2555.865000
730.417887	2641.564615
730.749120	2654.167500
731.080305	2639.044038
731.411442	2608.797115
731.742530	2573.509038
732.073570	2530.659231
732.404562	2601.235385
732.735506	2608.797115
733.066401	2639.044038
733.397249	2636.523462
733.728048	2641.564615
734.058798	2586.111923
734.389501	2523.097500
734.720156	2628.961731
735.050762	2583.591346
735.381320	2611.317692
735.711831	2634.002885
736.042293	2530.659231
736.372707	2659.208654
736.703073	2581.070769
737.033391	2530.659231
737.363661	2535.700385
737.693883	2631.482308
738.024056	2623.920577
738.354182	2565.947308
738.684260	2591.153077
739.014290	2709.620192
739.344272	2691.976154
739.674207	2691.976154
740.004093	2654.167500
740.333931	2661.729231
740.663722	2573.509038
740.993464	2641.564615
741.323159	2545.782692
741.652806	2671.811538
741.982405	2702.058462
742.311956	2591.153077
742.641460	2636.523462
742.970915	2634.002885
743.300323	2626.441154
743.629683	2540.741538
743.958996	2606.276538
744.288260	2689.455577
744.617477	2686.935000
744.946647	2507.974038
745.275768	2565.947308
745.604842	2628.961731
745.933869	2568.467885
746.262847	2603.755962
746.591778	2664.249808
746.920662	2598.714808
747.249498	2583.591346
747.578286	2608.797115
747.907027	2576.029615
748.235720	2535.700385
748.564365	2613.838269
748.892963	2606.276538
749.221514	2578.550192
749.550017	2513.015192
749.878473	2603.755962
750.206881	2707.099615
750.535242	2634.002885
750.863555	2573.509038
751.191821	2641.564615
751.520039	2646.605769
751.848210	2634.002885
752.176334	2515.535769
752.504411	2586.111923
752.832440	2606.276538
753.160421	2679.373269
753.488356	2611.317692
753.816243	2644.085192
754.144082	2639.044038
754.471875	2608.797115
754.799620	2654.167500
755.127318	2576.029615
755.454969	2631.482308
755.782572	2603.755962
756.110129	2568.467885
756.437638	2606.276538
756.765100	2578.550192
757.092515	2611.317692
757.419882	2636.523462
757.747203	2588.632500
758.074477	2659.208654
758.401703	2623.920577
758.728882	2641.564615
759.056014	2608.797115
759.383099	2593.673654
759.710138	2578.550192
760.037129	2621.400000
760.364073	2656.688077
760.690970	2634.002885
761.017820	2601.235385
761.344623	2568.467885
761.671379	2671.811538
761.998088	2588.632500
762.324751	2616.358846
762.651366	2570.988462
762.977935	2699.537885
763.304456	2626.441154
763.630931	2644.085192
763.957359	2654.167500
764.283740	2570.988462
764.610074	2598.714808
764.936362	2558.385577
765.262602	2591.153077
765.588796	2621.400000
765.914943	2641.564615
766.241044	2618.879423
766.567097	2618.879423
766.893104	2611.317692
767.219064	2611.317692
767.544978	2540.741538
767.870845	2623.920577
768.196665	2618.879423
768.522438	2656.688077
768.848165	2606.276538
769.173846	2631.482308
769.499479	2565.947308
769.825066	2628.961731
770.150607	2487.809423
770.476101	2518.056346
770.801548	2586.111923
771.126949	2583.591346
771.452303	2533.179808
771.777611	2603.755962
772.102872	2603.755962
772.428087	2628.961731
772.753256	2611.317692
773.078378	2570.988462
773.403453	2591.153077
773.728482	2621.400000
774.053465	2518.056346
774.378401	2631.482308
774.703291	2520.576923
775.028135	2565.947308
775.352932	2631.482308
775.677683	2634.002885
776.002388	2560.906154
776.327046	2611.317692
776.651658	2608.797115
776.976224	2555.865000
777.300743	2560.906154
777.625216	2606.276538
777.949643	2616.358846
778.274024	2563.426731
778.598359	2613.838269
778.922647	2631.482308
779.246889	2608.797115
779.571086	2583.591346
779.895236	2656.688077
780.219339	2636.523462
780.543397	2550.823846
780.867409	2598.714808
781.191374	2540.741538
781.515294	2659.208654
781.839167	2497.891731
782.162995	2646.605769
782.486776	2558.385577
782.810511	2606.276538
783.134201	2623.920577
783.457844	2578.550192
783.781441	2634.002885
784.104993	2603.755962
784.428498	2578.550192
784.751958	2636.523462
785.075372	2639.044038
785.398739	2636.523462
785.722061	2621.400000
786.045337	2664.249808
786.368568	2613.838269
786.691752	2639.044038
787.014891	2553.344423
787.337983	2636.523462
787.661030	2565.947308
787.984031	2545.782692
788.306987	2603.755962
788.629897	2581.070769
788.952760	2659.208654
789.275579	2613.838269
789.598351	2598.714808
789.921078	2535.700385
790.243759	2691.976154
790.566395	2548.303269
790.888984	2591.153077
791.211529	2598.714808
791.534027	2598.714808
791.856480	2621.400000
792.178888	2623.920577
792.501249	2616.358846
792.823566	2543.262115
793.145836	2623.920577
793.468062	2570.988462
793.790241	2591.153077
794.112375	2649.126346
794.434464	2550.823846
794.756507	2626.441154
795.078505	2641.564615
795.400457	2631.482308
795.722364	2543.262115
796.044226	2616.358846
796.366042	2548.303269
796.687812	2560.906154
797.009538	2606.276538
797.331218	2565.947308
797.652852	2568.467885
797.974442	2613.838269
798.295986	2550.823846
798.617484	2649.126346
798.938938	2548.303269
799.260346	2573.509038
799.581709	2636.523462
799.903026	2646.605769
800.224299	2578.550192
800.545526	2583.591346
800.866708	2586.111923
801.187845	2583.591346
801.508936	2588.632500
801.829983	2623.920577
802.150984	2611.317692
802.471940	2598.714808
802.792851	2591.153077
803.113717	2523.097500
803.434538	2591.153077
803.755314	2646.605769
804.076045	2578.550192
804.396731	2545.782692
804.717372	2581.070769
805.037967	2490.330000
805.358518	2583.591346
805.679024	2659.208654
805.999485	2583.591346
806.319901	2505.453462
806.640272	2576.029615
806.960598	2606.276538
807.280879	2583.591346
807.601115	2601.235385
807.921306	2608.797115
808.241453	2664.249808
808.561554	2593.673654
808.881611	2631.482308
809.201623	2606.276538
809.521590	2628.961731
809.841513	2636.523462
810.161390	2676.852692
810.481223	2530.659231
810.801011	2654.167500
811.120755	2573.509038
811.440453	2583.591346
811.760107	2583.591346
812.079716	2550.823846
812.399281	2550.823846
812.718801	2641.564615
813.038276	2656.688077
813.357707	2530.659231
813.677093	2596.194231
813.996434	2601.235385
814.315731	2601.235385
814.634983	2644.085192
814.954191	2656.688077
815.273354	2679.373269
815.592473	2596.194231
815.911547	2591.153077
816.230577	2681.893846
816.549562	2513.015192
816.868502	2573.509038
817.187399	2628.961731
817.506250	2581.070769
817.825058	2661.729231
818.143821	2631.482308
818.462539	2636.523462
818.781213	2608.797115
819.099843	2616.358846
819.418429	2616.358846
819.736970	2666.770385
820.055466	2583.591346
820.373919	2548.303269
820.692327	2573.509038
821.010691	2694.496731
821.329011	2578.550192
821.647286	2681.893846
821.965517	2724.743654
822.283704	2742.387692
822.601847	2702.058462
822.919945	2754.990577
823.237999	2631.482308
823.556010	2570.988462
823.873976	2686.935000
824.191897	2601.235385
824.509775	2656.688077
824.827609	2666.770385
825.145398	2601.235385
825.463144	2523.097500
825.780845	2671.811538
826.098502	2644.085192
826.416116	2669.290962
826.733685	2707.099615
827.051210	2681.893846
827.368692	2646.605769
827.686129	2671.811538
828.003522	2588.632500
828.320872	2669.290962
828.638177	2646.605769
828.955439	2507.974038
829.272656	2641.564615
829.589830	2608.797115
829.906960	2608.797115
830.224046	2628.961731
830.541088	2649.126346
830.858086	2651.646923
831.175041	2679.373269
831.491952	2603.755962
831.808819	2548.303269
832.125642	2528.138654
832.442421	2611.317692
832.759157	2613.838269
833.075849	2626.441154
833.392497	2593.673654
833.709101	2623.920577
834.025662	2606.276538
834.342179	2686.935000
834.658653	2623.920577
834.975083	2601.235385
835.291469	2636.523462
835.607811	2674.332115
835.924110	2578.550192
836.240366	2671.811538
836.556578	2606.276538
836.872746	2598.714808
837.188871	2641.564615
837.504952	2578.550192
837.820990	2570.988462
838.136984	2639.044038
838.452935	2593.673654
838.768842	2671.811538
839.084706	2578.550192
839.400526	2626.441154
839.716303	2613.838269
840.032037	2576.029615
840.347727	2676.852692
840.663373	2659.208654
840.978977	2568.467885
841.294537	2661.729231
841.610054	2598.714808
841.925527	2593.673654
842.240957	2588.632500
842.556344	2669.290962
842.871687	2570.988462
843.186987	2583.591346
843.502244	2560.906154
843.817458	2578.550192
844.132629	2558.385577
844.447756	2636.523462
844.762840	2520.576923
845.077881	2570.988462
845.392879	2563.426731
845.707833	2659.208654
846.022745	2578.550192
846.337613	2611.317692
846.652438	2606.276538
846.967221	2596.194231
847.281960	2578.550192
847.596656	2533.179808
847.911309	2616.358846
848.225919	2644.085192
848.540485	2608.797115
848.855009	2523.097500
849.169490	2581.070769
849.483928	2528.138654
849.798323	2606.276538
850.112675	2634.002885
850.426984	2601.235385
850.741251	2601.235385
851.055474	2613.838269
851.369654	2623.920577
851.683792	2601.235385
851.997887	2601.235385
852.311938	2631.482308
852.625947	2550.823846
852.939914	2631.482308
853.253837	2616.358846
853.567718	2626.441154
853.881555	2626.441154
854.195350	2601.235385
854.509103	2591.153077
854.822812	2618.879423
855.136479	2563.426731
855.450103	2553.344423
855.763685	2581.070769
856.077224	2565.947308
856.390720	2548.303269
856.704173	2540.741538
857.017584	2515.535769
857.330953	2591.153077
857.644278	2573.509038
857.957561	2548.303269
858.270802	2616.358846
858.584000	2598.714808
858.897155	2535.700385
859.210268	2586.111923
859.523339	2578.550192
859.836367	2528.138654
860.149352	2513.015192
860.462295	2593.673654
860.775195	2623.920577
861.088054	2603.755962
861.400869	2593.673654
861.713642	2576.029615
862.026373	2606.276538
862.339062	2666.770385
862.651708	2601.235385
862.964312	2621.400000
863.276873	2573.509038
863.589392	2558.385577
863.901869	2598.714808
864.214303	2621.400000
864.526696	2576.029615
864.839045	2606.276538
865.151353	2583.591346
865.463619	2563.426731
865.775842	2616.358846
866.088023	2598.714808
866.400162	2548.303269
866.712258	2606.276538
867.024313	2581.070769
867.336325	2513.015192
867.648296	2654.167500
867.960224	2618.879423
868.272110	2548.303269
868.583954	2570.988462
868.895755	2581.070769
869.207515	2631.482308
869.519233	2583.591346
869.830909	2603.755962
870.142542	2651.646923
870.454134	2621.400000
870.765684	2560.906154
871.077191	2646.605769
871.388657	2676.852692
871.700081	2596.194231
872.011463	2656.688077
872.322803	2601.235385
872.634101	2598.714808
872.945357	2573.509038
873.256571	2623.920577
873.567744	2497.891731
873.878874	2641.564615
874.189963	2583.591346
874.501010	2631.482308
874.812015	2621.400000
875.122979	2553.344423
875.433900	2646.605769
875.744780	2591.153077
876.055618	2641.564615
876.366415	2555.865000
876.677169	2636.523462
876.987882	2538.220962
877.298554	2565.947308
877.609183	2626.441154
877.919771	2573.509038
878.230317	2573.509038
878.540822	2583.591346
878.851285	2618.879423
879.161707	2634.002885
879.472087	2656.688077
879.782425	2581.070769
880.092722	2596.194231
880.402977	2528.138654
880.713191	2606.276538
881.023363	2628.961731
881.333494	2601.235385
881.643583	2598.714808
881.953631	2649.126346
882.263637	2603.755962
882.573602	2568.467885
882.883526	2646.605769
883.193408	2608.797115
883.503248	2603.755962
883.813048	2540.741538
884.122806	2608.797115
884.432522	2618.879423
884.742197	2623.920577
885.051831	2601.235385
885.361424	2661.729231
885.670975	2513.015192
885.980485	2598.714808
886.289954	2621.400000
886.599382	2631.482308
886.908768	2702.058462
887.218113	2565.947308
887.527417	2634.002885
887.836680	2636.523462
888.145901	2581.070769
888.455082	2606.276538
888.764221	2568.467885
889.073319	2616.358846
889.382376	2558.385577
889.691392	2596.194231
890.000366	2644.085192
890.309300	2533.179808
890.618193	2583.591346
890.927044	2558.385577
891.235855	2603.755962
891.544625	2666.770385
891.853353	2591.153077
892.162041	2611.317692
892.470687	2507.974038
892.779293	2641.564615
893.087858	2558.385577
893.396381	2565.947308
893.704864	2540.741538
894.013306	2553.344423
894.321707	2596.194231
894.630068	2593.673654
894.938387	2603.755962
895.246665	2641.564615
895.554903	2606.276538
895.863100	2573.509038
896.171256	2636.523462
896.479371	2505.453462
896.787446	2560.906154
897.095480	2533.179808
897.403473	2621.400000
897.711425	2634.002885
898.019336	2578.550192
898.327207	2611.317692
898.635038	2591.153077
898.942827	2616.358846
899.250576	2606.276538
899.558284	2608.797115
899.865952	2601.235385
900.173579	2545.782692
900.481165	2639.044038
900.788711	2482.768269
901.096216	2528.138654
901.403681	2697.017308
901.711105	2568.467885
902.018489	2553.344423
902.325832	2641.564615
902.633135	2598.714808
902.940397	2583.591346
903.247619	2568.467885
903.554800	2646.605769
903.861941	2601.235385
904.169041	2623.920577
904.476101	2626.441154
904.783121	2634.002885
905.090100	2588.632500
905.397039	2606.276538
905.703938	2596.194231
906.010796	2553.344423
906.317614	2611.317692
906.624391	2613.838269
906.931129	2628.961731
907.237826	2628.961731
907.544483	2596.194231
907.851099	2576.029615
908.157675	2646.605769
908.464211	2573.509038
908.770707	2543.262115
909.077163	2664.249808
909.383578	2608.797115
909.689954	2628.961731
909.996289	2732.305385
910.302584	2555.865000
910.608839	2626.441154
910.915054	2654.167500
911.221229	2548.303269
911.527363	2596.194231
911.833458	2523.097500
912.139513	2618.879423
912.445527	2510.494615
912.751502	2573.509038
913.057436	2613.838269
913.363331	2500.412308
913.669186	2563.426731
913.975000	2611.317692
914.280775	2621.400000
914.586510	2555.865000
914.892205	2586.111923
915.197859	2651.646923
915.503475	2651.646923
915.809050	2601.235385
916.114585	2593.673654
916.420081	2563.426731
916.725536	2535.700385
917.030952	2576.029615
917.336328	2576.029615
917.641665	2646.605769
917.946961	2576.029615
918.252218	2518.056346
918.557435	2608.797115
918.862612	2568.467885
919.167750	2623.920577
919.472848	2639.044038
919.777906	2623.920577
920.082925	2477.727115
920.387904	2628.961731
920.692843	2626.441154
920.997743	2659.208654
921.302603	2601.235385
921.607423	2674.332115
921.912204	2618.879423
922.216946	2492.850577
922.521647	2654.167500
922.826310	2586.111923
923.130932	2686.935000
923.435516	2634.002885
923.740059	2611.317692
924.044564	2530.659231
924.349028	2578.550192
924.653454	2578.550192
924.957840	2606.276538
925.262186	2606.276538
925.566493	2596.194231
925.870761	2623.920577
926.174989	2618.879423
926.479178	2593.673654
926.783328	2573.509038
927.087438	2548.303269
927.391509	2631.482308
927.695541	2558.385577
927.999533	2611.317692
928.303486	2550.823846
928.607400	2588.632500
928.911275	2606.276538
929.215110	2568.467885
929.518906	2545.782692
929.822663	2611.317692
930.126381	2558.385577
930.430060	2674.332115
930.733699	2543.262115
931.037299	2603.755962
931.340861	2581.070769
931.644383	2603.755962
931.947866	2646.605769
932.251309	2586.111923
932.554714	2581.070769
932.858080	2586.111923
933.161407	2581.070769
933.464694	2578.550192
933.767943	2669.290962
934.071153	2586.111923
934.374323	2583.591346
934.677455	2540.741538
934.980548	2578.550192
935.283602	2558.385577
935.586617	2533.179808
935.889593	2591.153077
936.192530	2646.605769
936.495428	2613.838269
936.798287	2628.961731
937.101108	2621.400000
937.403890	2646.605769
937.706632	2623.920577
938.009336	2616.358846
938.312002	2558.385577
938.614628	2560.906154
938.917216	2654.167500
939.219765	2606.276538
939.522275	2659.208654
939.824747	2583.591346
940.127179	2702.058462
940.429573	2636.523462
940.731929	2583.591346
941.034246	2644.085192
941.336524	2490.330000
941.638763	2565.947308
941.940964	2553.344423
942.243126	2545.782692
942.545250	2560.906154
942.847335	2656.688077
943.149381	2538.220962
943.451389	2651.646923
943.753359	2613.838269
944.055290	2550.823846
944.357182	2492.850577
944.659036	2664.249808
944.960851	2636.523462
945.262628	2576.029615
945.564367	2631.482308
945.866067	2555.865000
946.167729	2631.482308
946.469352	2608.797115
946.770937	2543.262115
947.072484	2586.111923
947.373992	2588.632500
947.675462	2576.029615
947.976893	2634.002885
948.278286	2591.153077
948.579641	2618.879423
948.880958	2583.591346
949.182236	2533.179808
949.483476	2601.235385
949.784678	2626.441154
950.085841	2528.138654
950.386967	2550.823846
950.688054	2601.235385
950.989103	2606.276538
951.290114	2558.385577
951.591087	2634.002885
951.892021	2581.070769
952.192917	2495.371154
952.493776	2568.467885
952.794596	2704.579038
953.095378	2570.988462
953.396122	2581.070769
953.696828	2583.591346
953.997496	2518.056346
954.298126	2631.482308
954.598718	2601.235385
954.899272	2560.906154
955.199788	2606.276538
955.500266	2548.303269
955.800706	2586.111923
956.101108	2661.729231
956.401472	2540.741538
956.701798	2593.673654
957.002087	2578.550192
957.302337	2634.002885
957.602550	2596.194231
957.902724	2611.317692
958.202861	2596.194231
958.502960	2634.002885
958.803022	2656.688077
959.103045	2654.167500
959.403031	2545.782692
959.702979	2603.755962
960.002889	2570.988462
960.302762	2568.467885
960.602596	2581.070769
960.902393	2618.879423
961.202153	2525.618077
961.501875	2591.153077
961.801559	2593.673654
962.101205	2621.400000
962.400814	2623.920577
962.700385	2543.262115
962.999918	2570.988462
963.299414	2560.906154
963.598873	2621.400000
963.898293	2565.947308
964.197677	2560.906154
964.497022	2570.988462
964.796331	2560.906154
965.095601	2611.317692
965.394835	2593.673654
965.694030	2611.317692
965.993189	2591.153077
966.292309	2601.235385
966.591393	2636.523462
966.890439	2626.441154
967.189447	2545.782692
967.488419	2681.893846
967.787353	2576.029615
968.086249	2568.467885
968.385108	2674.332115
968.683930	2593.673654
968.982714	2676.852692
969.281462	2548.303269
969.580172	2528.138654
969.878844	2545.782692
970.177480	2646.605769
970.476078	2533.179808
970.774639	2538.220962
971.073162	2588.632500
971.371649	2583.591346
971.670098	2487.809423
971.968510	2465.124231
972.266885	2588.632500
972.565223	2578.550192
972.863524	2656.688077
973.161788	2543.262115
973.460014	2603.755962
973.758204	2603.755962
974.056356	2563.426731
974.354471	2618.879423
974.652550	2646.605769
974.950591	2586.111923
975.248595	2560.906154
975.546563	2515.535769
975.844493	2603.755962
976.142386	2593.673654
976.440243	2477.727115
976.738062	2555.865000
977.035845	2533.179808
977.333590	2596.194231
977.631299	2616.358846
977.928971	2558.385577
978.226606	2538.220962
978.524204	2545.782692
978.821765	2573.509038
979.119290	2618.879423
979.416777	2528.138654
979.714228	2563.426731
980.011642	2593.673654
980.309020	2591.153077
980.606360	2649.126346
980.903664	2603.755962
981.200931	2601.235385
981.498162	2601.235385
981.795356	2591.153077
982.092513	2639.044038
982.389633	2651.646923
982.686717	2565.947308
982.983764	2565.947308
983.280775	2530.659231
983.577749	2578.550192
983.874686	2545.782692
984.171587	2598.714808
984.468451	2543.262115
984.765279	2576.029615
985.062070	2598.714808
985.358824	2613.838269
985.655543	2558.385577
985.952224	2576.029615
986.248869	2598.714808
986.545478	2654.167500
986.842050	2550.823846
987.138586	2523.097500
987.435086	2558.385577
987.731549	2598.714808
988.027975	2601.235385
988.324366	2535.700385
988.620719	2641.564615
988.917037	2639.044038
989.213318	2634.002885
989.509563	2535.700385
989.805772	2578.550192
990.101944	2576.029615
990.398080	2628.961731
990.694180	2601.235385
990.990244	2654.167500
991.286271	2568.467885
991.582262	2639.044038
991.878217	2689.455577
992.174136	2535.700385
992.470019	2535.700385
992.765865	2644.085192
993.061676	2593.673654
993.357450	2674.332115
993.653188	2593.673654
993.948890	2613.838269
994.244556	2520.576923
994.540186	2515.535769
994.835780	2656.688077
995.131337	2601.235385
995.426859	2540.741538
995.722345	2570.988462
996.017795	2654.167500
996.313208	2659.208654
996.608586	2702.058462
996.903928	2515.535769
997.199234	2570.988462
997.494504	2520.576923
997.789738	2528.138654
998.084936	2560.906154
998.380099	2654.167500
998.675225	2596.194231
998.970316	2576.029615
999.265371	2482.768269
999.560390	2550.823846
999.855373	2560.906154
1000.150320	2578.550192
1000.445232	2639.044038
1000.740108	2555.865000
1001.034948	2581.070769
1001.329752	2550.823846
1001.624521	2518.056346
1001.919254	2664.249808
1002.213951	2523.097500
1002.508613	2596.194231
1002.803239	2581.070769
1003.097829	2578.550192
1003.392384	2550.823846
1003.686903	2591.153077
1003.981386	2568.467885
1004.275834	2606.276538
1004.570246	2568.467885
1004.864623	2555.865000
1005.158964	2565.947308
1005.453270	2563.426731
1005.747540	2568.467885
1006.041775	2583.591346
1006.335974	2613.838269
1006.630138	2553.344423
1006.924266	2490.330000
1007.218359	2603.755962
1007.512416	2631.482308
1007.806438	2581.070769
1008.100425	2525.618077
1008.394376	2545.782692
1008.688292	2676.852692
1008.982172	2636.523462
1009.276017	2596.194231
1009.569827	2553.344423
1009.863602	2623.920577
1010.157341	2689.455577
1010.451045	2588.632500
1010.744714	2563.426731
1011.038347	2591.153077
1011.331945	2646.605769
1011.625508	2578.550192
1011.919036	2452.521346
1012.212528	2596.194231
1012.505986	2601.235385
1012.799408	2639.044038
1013.092795	2583.591346
1013.386147	2565.947308
1013.679464	2628.961731
1013.972745	2606.276538
1014.265992	2628.961731
1014.559204	2520.576923
1014.852380	2603.755962
1015.145521	2603.755962
1015.438628	2608.797115
1015.731699	2467.644808
1016.024736	2520.576923
1016.317737	2570.988462
1016.610703	2666.770385
1016.903635	2482.768269
1017.196531	2628.961731
1017.489393	2490.330000
1017.782219	2555.865000
1018.075011	2603.755962
1018.367768	2586.111923
1018.660490	2487.809423
1018.953177	2487.809423
1019.245829	2487.809423
