Dividing Wavelength (nm)	Counts (n)	Blue Motor Position (mm): 6.000000	Red Motor Position (mm): 0.000000	
326.493990	2197.943077
326.888308	2197.943077
327.282561	2197.943077
327.676750	2167.696154
328.070874	2145.010962
328.464933	2142.490385
328.858929	2233.231154
329.252859	2230.710577
329.646726	2147.531538
330.040528	2145.010962
330.434265	2119.805192
330.827938	2245.834038
331.221547	2258.436923
331.615091	2273.560385
332.008571	2371.862885
332.401986	2303.807308
332.795338	2381.945192
333.188625	2334.054231
333.581847	2376.904038
333.975006	2450.000769
334.368100	2376.904038
334.761129	2359.260000
335.154095	2442.439038
335.546996	2467.644808
335.939833	2414.712692
336.332606	2487.809423
336.725315	2581.070769
337.117960	2535.700385
337.510540	2573.509038
337.903056	2502.932885
338.295508	2533.179808
338.687896	2565.947308
339.080220	2558.385577
339.472480	2621.400000
339.864676	2641.564615
340.256807	2510.494615
340.648875	2543.262115
341.040879	2623.920577
341.432818	2540.741538
341.824694	2570.988462
342.216506	2606.276538
342.608253	2555.865000
342.999937	2586.111923
343.391557	2601.235385
343.783113	2606.276538
344.174605	2598.714808
344.566033	2543.262115
344.957397	2583.591346
345.348697	2621.400000
345.739934	2558.385577
346.131106	2553.344423
346.522215	2616.358846
346.913260	2520.576923
347.304241	2570.988462
347.695159	2553.344423
348.086012	2525.618077
348.476802	2593.673654
348.867528	2581.070769
349.258191	2606.276538
349.648789	2525.618077
350.039324	2578.550192
350.429796	2555.865000
350.820203	2550.823846
351.210548	2472.685962
351.600828	2583.591346
351.991045	2563.426731
352.381198	2518.056346
352.771288	2576.029615
353.161314	2535.700385
353.551276	2530.659231
353.941175	2540.741538
354.331010	2573.509038
354.720782	2487.809423
355.110490	2603.755962
355.500135	2520.576923
355.889717	2586.111923
356.279235	2611.317692
356.668689	2482.768269
357.058080	2525.618077
357.447408	2555.865000
357.836672	2568.467885
358.225873	2540.741538
358.615010	2520.576923
359.004084	2518.056346
359.393095	2533.179808
359.782043	2583.591346
360.170927	2550.823846
360.559748	2525.618077
360.948505	2492.850577
361.337199	2581.070769
361.725830	2641.564615
362.114398	2591.153077
362.502903	2573.509038
362.891344	2591.153077
363.279722	2581.070769
363.668037	2525.618077
364.056289	2606.276538
364.444478	2596.194231
364.832603	2576.029615
365.220665	2535.700385
365.608665	2538.220962
365.996601	2644.085192
366.384474	2573.509038
366.772284	2523.097500
367.160031	2513.015192
367.547715	2548.303269
367.935336	2616.358846
368.322893	2565.947308
368.710388	2510.494615
369.097820	2570.988462
369.485189	2598.714808
369.872495	2649.126346
370.259738	2482.768269
370.646918	2596.194231
371.034035	2626.441154
371.421090	2618.879423
371.808081	2608.797115
372.195010	2540.741538
372.581875	2482.768269
372.968678	2553.344423
373.355418	2578.550192
373.742096	2588.632500
374.128710	2545.782692
374.515262	2530.659231
374.901751	2520.576923
375.288177	2603.755962
375.674540	2528.138654
376.060841	2563.426731
376.447079	2601.235385
376.833254	2550.823846
377.219367	2641.564615
377.605417	2553.344423
377.991404	2545.782692
378.377329	2550.823846
378.763191	2576.029615
379.148991	2475.206538
379.534727	2576.029615
379.920402	2613.838269
380.306013	2576.029615
380.691563	2513.015192
381.077049	2563.426731
381.462474	2492.850577
381.847835	2540.741538
382.233134	2573.509038
382.618371	2611.317692
383.003545	2631.482308
383.388657	2611.317692
383.773706	2520.576923
384.158693	2581.070769
384.543618	2646.605769
384.928480	2545.782692
385.313280	2591.153077
385.698017	2606.276538
386.082692	2596.194231
386.467305	2623.920577
386.851856	2528.138654
387.236344	2540.741538
387.620770	2608.797115
388.005133	2623.920577
388.389435	2581.070769
388.773674	2528.138654
389.157851	2601.235385
389.541965	2558.385577
389.926018	2540.741538
390.310008	2586.111923
390.693936	2548.303269
391.077802	2525.618077
391.461606	2618.879423
391.845348	2636.523462
392.229027	2588.632500
392.612645	2598.714808
392.996200	2664.249808
393.379694	2573.509038
393.763125	2588.632500
394.146494	2538.220962
394.529801	2578.550192
394.913047	2586.111923
395.296230	2565.947308
395.679351	2583.591346
396.062410	2573.509038
396.445408	2623.920577
396.828343	2518.056346
397.211217	2618.879423
397.594028	2505.453462
397.976778	2530.659231
398.359466	2581.070769
398.742092	2533.179808
399.124656	2608.797115
399.507158	2603.755962
399.889598	2576.029615
400.271977	2596.194231
400.654294	2576.029615
401.036549	2548.303269
401.418742	2490.330000
401.800874	2533.179808
402.182944	2487.809423
402.564952	2654.167500
402.946898	2654.167500
403.328783	2586.111923
403.710606	2596.194231
404.092367	2644.085192
404.474067	2540.741538
404.855705	2581.070769
405.237282	2573.509038
405.618797	2644.085192
406.000250	2641.564615
406.381642	2651.646923
406.762972	2560.906154
407.144240	2500.412308
407.525447	2581.070769
407.906593	2606.276538
408.287677	2641.564615
408.668700	2626.441154
409.049661	2540.741538
409.430560	2616.358846
409.811399	2563.426731
410.192176	2470.165385
410.572891	2588.632500
410.953545	2586.111923
411.334138	2649.126346
411.714669	2586.111923
412.095139	2500.412308
412.475547	2558.385577
412.855894	2634.002885
413.236180	2623.920577
413.616405	2568.467885
413.996568	2525.618077
414.376670	2578.550192
414.756711	2555.865000
415.136691	2596.194231
415.516609	2608.797115
415.896466	2558.385577
416.276262	2603.755962
416.655997	2649.126346
417.035670	2613.838269
417.415283	2573.509038
417.794834	2603.755962
418.174324	2621.400000
418.553753	2558.385577
418.933121	2565.947308
419.312428	2621.400000
419.691674	2540.741538
420.070859	2485.288846
420.449983	2543.262115
420.829045	2578.550192
421.208047	2591.153077
421.586988	2656.688077
421.965867	2618.879423
422.344686	2651.646923
422.723444	2583.591346
423.102141	2586.111923
423.480777	2618.879423
423.859352	2689.455577
424.237866	2656.688077
424.616319	2581.070769
424.994712	2538.220962
425.373044	2573.509038
425.751314	2618.879423
426.129524	2634.002885
426.507673	2626.441154
426.885762	2664.249808
427.263789	2631.482308
427.641756	2608.797115
428.019662	2631.482308
428.397508	2628.961731
428.775292	2596.194231
429.153016	2591.153077
429.530679	2644.085192
429.908282	2621.400000
430.285824	2729.784808
430.663305	2608.797115
431.040726	2611.317692
431.418086	2616.358846
431.795385	2631.482308
432.172624	2543.262115
432.549802	2558.385577
432.926920	2641.564615
433.303977	2689.455577
433.680974	2591.153077
434.057910	2581.070769
434.434786	2583.591346
434.811601	2611.317692
435.188355	2603.755962
435.565050	2586.111923
435.941683	2626.441154
436.318257	2616.358846
436.694770	2611.317692
437.071222	2747.428846
437.447614	2689.455577
437.823946	2674.332115
438.200218	2644.085192
438.576429	2651.646923
438.952580	2664.249808
439.328670	2679.373269
439.704700	2707.099615
440.080670	2621.400000
440.456580	2767.593462
440.832429	2818.005000
441.208218	2739.867115
441.583947	2744.908269
441.959616	2691.976154
442.335224	2729.784808
442.710773	2835.649038
443.086261	2749.949423
443.461689	2767.593462
443.837057	2792.799231
444.212365	2865.895962
444.587612	2853.293077
444.962800	2916.307500
445.337927	2840.690192
445.712995	2949.075000
446.088002	3049.898077
446.462949	3024.692308
446.837837	2933.951538
447.212664	3082.665577
447.587431	3238.941346
447.962139	3309.517500
448.336786	3503.601923
448.711374	3705.248077
449.085901	3546.451731
449.460369	3387.655385
449.834776	3438.066923
450.209124	3712.809808
450.583412	3828.756346
450.957640	4000.155577
451.331808	3922.017692
451.705917	3916.976538
452.079965	3856.482692
452.453954	4136.266731
452.827883	4176.595962
453.201752	4310.186538
453.575562	4347.995192
453.949311	4378.242115
454.323001	4587.450000
454.696632	4799.178462
455.070202	4821.863654
455.443713	5126.853462
455.817164	5298.252692
456.190556	5530.145769
456.563888	5590.639615
456.937160	5817.491538
457.310373	5971.246731
457.683526	5900.670577
458.056619	5900.670577
458.429653	6172.892885
458.802628	6099.796154
459.175542	6372.018462
459.548398	6931.586538
459.921194	7234.055769
460.293930	7526.442692
460.666607	7919.652692
461.039224	8721.196154
461.411782	9121.967885
461.784280	8970.733269
462.156719	9293.367115
462.529099	9379.066731
462.901419	9099.282692
463.273680	9152.214808
463.645882	9237.914423
464.018024	9278.243654
464.390106	9729.426923
464.762130	10503.244038
465.134094	11183.799808
465.505999	12955.765385
465.877845	15183.955385
466.249631	17013.894231
466.621358	16461.887885
466.993026	16177.062692
467.364634	15743.523462
467.736184	15183.955385
468.107674	15015.076731
468.479105	15509.109808
468.850477	15201.599423
469.221790	15327.628269
469.593043	14846.198077
469.964238	14694.963462
470.335373	14820.992308
470.706449	15468.780577
471.077467	15683.029615
471.448425	18044.810192
471.819324	21361.889423
472.190164	22039.924615
472.560945	18611.940000
472.931667	17384.419038
473.302330	17510.447885
473.672934	17278.554808
474.043479	17613.791538
474.413965	17795.273077
474.784393	17180.252308
475.154761	18493.472885
475.525070	18044.810192
475.895321	18248.976923
476.265513	18934.573846
476.635645	19932.722308
477.005719	19549.594615
477.375734	19849.543269
477.745691	20487.249231
478.115588	20996.405769
478.485427	22377.681923
478.855207	23310.295385
479.224928	25364.565577
479.594591	27554.946923
479.964194	27043.269808
480.333739	27436.479808
480.703226	26970.173077
481.072653	26952.529038
481.442022	27504.535385
481.811333	28744.659231
482.180584	28114.515000
482.549777	27312.971538
482.918912	27081.078462
483.287988	27519.658846
483.657005	27171.819231
484.025964	26705.512500
484.394864	26813.897308
484.763706	26123.259231
485.132489	25939.257115
485.501213	25659.473077
485.869879	25888.845577
486.238487	25843.475192
486.607036	25714.925769
486.975527	25314.154038
487.343959	25150.316538
487.712333	25611.582115
488.080648	24837.765000
488.448905	25571.252885
488.817104	24638.639423
489.185244	25656.952500
489.553326	25351.962692
489.921350	26090.491731
490.289315	28825.317692
490.657222	29478.147115
491.025070	29982.262500
491.392861	29226.089423
491.760593	28217.858654
492.128267	27050.831538
492.495883	26282.055577
492.863440	25041.931731
493.230939	24447.075577
493.598380	23695.943654
493.965763	23431.283077
494.333088	22425.572885
494.700354	22163.432885
495.067563	21613.947115
495.434713	21243.422308
495.801805	21193.010769
496.168839	20875.418077
496.535815	20547.743077
496.902733	20348.617500
497.269593	19947.845769
497.636395	19922.640000
498.003139	19668.061731
498.369825	19237.043077
498.736453	19070.685000
499.103023	18790.900962
499.469535	18541.363846
499.835989	18347.279423
500.202385	18299.388462
500.568723	17691.929423
500.935003	17591.106346
501.301226	16918.112308
501.667390	17394.501346
502.033497	17270.993077
502.399546	16708.904423
502.765537	16250.159423
503.131470	16272.844615
503.497345	16126.651154
503.863163	15168.831923
504.228923	15551.959615
504.594625	15493.986346
504.960269	14483.235000
505.325856	14818.471731
505.691385	14153.039423
506.056856	14430.302885
506.422270	13885.858269
506.787625	13502.730577
507.152924	13215.384808
507.518164	13185.137885
507.883347	13041.465000
508.248472	12441.567692
508.613540	12401.238462
508.978550	12338.224038
509.343503	11955.096346
509.708398	11748.409038
510.073236	11685.394615
510.438016	11519.036538
510.802738	11042.647500
511.167403	11088.017885
511.532010	10858.645385
511.896561	10561.217308
512.261053	10447.791346
512.625488	10107.513462
512.989866	9928.552500
513.354186	9613.480385
513.718449	9434.519423
514.082655	9376.546154
514.446803	9096.762115
514.810894	9116.926731
515.174927	8653.140577
515.538904	8481.741346
515.902822	8459.056154
516.266684	8136.422308
516.630488	8015.434615
516.994235	7526.442692
517.357925	7783.541538
517.721558	7455.866538
518.085133	7390.331538
518.448651	7344.961154
518.812112	7125.670962
519.175516	6916.463077
519.538863	6838.325192
519.902152	6624.076154
520.265385	6535.855962
520.628560	6374.539038
520.991678	6205.660385
521.354739	6210.701538
521.717743	6094.755000
522.080690	5736.833077
522.443580	5756.997692
522.806413	5578.036731
523.169189	5298.252692
523.531908	5351.184808
523.894569	5187.347308
524.257174	5278.088077
524.619722	5197.429615
524.982213	5053.756731
525.344647	4786.575577
525.707025	4721.040577
526.069345	4660.546731
526.431608	4700.875962
526.793815	4602.573462
527.155964	4433.694808
527.518057	4426.133077
527.880093	4274.898462
528.242072	4239.610385
528.603995	4181.637115
528.965860	3954.785192
529.327669	3997.635000
529.689421	4053.087692
530.051117	3944.702885
530.412755	3738.015577
530.774337	3760.700769
531.135862	3732.974423
531.497331	3770.783077
531.858743	3559.054615
532.220098	3596.863269
532.581396	3644.754231
532.942638	3468.313846
533.303824	3372.531923
533.664953	3347.326154
534.026025	3284.311731
534.387040	3289.352885
534.747999	3347.326154
535.108902	3259.105962
535.469748	3191.050385
535.830537	3208.694423
536.191270	3281.791154
536.551947	3175.926923
536.912567	3080.145000
537.273131	3163.324038
537.633638	3085.186154
537.994089	3122.994808
538.354483	3019.651154
538.714821	2991.924808
539.075103	3052.418654
539.435328	2984.363077
539.795497	3022.171731
540.155609	2976.801346
540.515665	2976.801346
540.875665	2860.854808
541.235609	2898.663462
541.595496	2896.142885
541.955328	2883.540000
542.315102	2873.457692
542.674821	2739.867115
543.034483	2875.978269
543.394090	2792.799231
543.753640	2908.745769
544.113134	2873.457692
544.472571	2835.649038
544.831953	2843.210769
545.191278	2747.428846
545.550548	2820.525577
545.909761	2737.346538
546.268918	2787.758077
546.628019	2762.552308
546.987064	2770.114038
547.346053	2734.825962
547.704986	2729.784808
548.063863	2795.319808
548.422684	2757.511154
548.781449	2689.455577
549.140158	2752.470000
549.498811	2749.949423
549.857408	2681.893846
550.215949	2704.579038
550.574434	2704.579038
550.932864	2697.017308
551.291237	2618.879423
551.649555	2626.441154
552.007817	2697.017308
552.366022	2727.264231
552.724173	2805.402115
553.082267	2684.414423
553.440305	2684.414423
553.798288	2583.591346
554.156215	2659.208654
554.514086	2702.058462
554.871902	2656.688077
555.229661	2722.223077
555.587365	2601.235385
555.945014	2654.167500
556.302606	2621.400000
556.660143	2578.550192
557.017625	2676.852692
557.375050	2656.688077
557.732421	2681.893846
558.089735	2717.181923
558.446994	2694.496731
558.804197	2664.249808
559.161345	2724.743654
559.518437	2651.646923
559.875474	2659.208654
560.232455	2586.111923
560.589381	2691.976154
560.946251	2651.646923
561.303065	2691.976154
561.659825	2639.044038
562.016528	2533.179808
562.373177	2697.017308
562.729770	2681.893846
563.086307	2641.564615
563.442789	2598.714808
563.799216	2691.976154
564.155587	2639.044038
564.511904	2631.482308
564.868164	2681.893846
565.224370	2634.002885
565.580520	2702.058462
565.936615	2679.373269
566.292654	2651.646923
566.648638	2606.276538
567.004567	2712.140769
567.360441	2646.605769
567.716260	2644.085192
568.072023	2661.729231
568.427732	2749.949423
568.783385	2722.223077
569.138982	2573.509038
569.494525	2661.729231
569.850013	2707.099615
570.205445	2613.838269
570.560823	2641.564615
570.916145	2646.605769
571.271412	2646.605769
571.626625	2709.620192
571.981782	2641.564615
572.336884	2611.317692
572.691931	2709.620192
573.046923	2674.332115
573.401860	2608.797115
573.756743	2742.387692
574.111570	2616.358846
574.466342	2553.344423
574.821059	2691.976154
575.175722	2674.332115
575.530330	2732.305385
575.884882	2679.373269
576.239380	2636.523462
576.593823	2656.688077
576.948211	2616.358846
577.302544	2631.482308
577.656823	2684.414423
578.011047	2699.537885
578.365216	2588.632500
578.719330	2649.126346
579.073389	2611.317692
579.427394	2722.223077
579.781344	2694.496731
580.135239	2583.591346
580.489080	2659.208654
580.842866	2666.770385
581.196597	2631.482308
581.550273	2601.235385
581.903895	2651.646923
582.257463	2654.167500
582.610975	2679.373269
582.964434	2691.976154
583.317837	2616.358846
583.671186	2661.729231
584.024481	2671.811538
584.377721	2674.332115
584.730906	2697.017308
585.084037	2684.414423
585.437113	2591.153077
585.790135	2666.770385
586.143103	2611.317692
586.496016	2714.661346
586.848874	2722.223077
587.201679	2631.482308
587.554428	2613.838269
587.907124	2636.523462
588.259765	2500.412308
588.612352	2661.729231
588.964884	2586.111923
589.317362	2621.400000
589.669786	2684.414423
590.022155	2646.605769
590.374470	2671.811538
590.726731	2588.632500
591.078937	2722.223077
591.431090	2621.400000
591.783188	2618.879423
592.135232	2631.482308
592.487222	2623.920577
592.839157	2606.276538
593.191038	2676.852692
593.542866	2699.537885
593.894639	2586.111923
594.246358	2666.770385
594.598022	2654.167500
594.949633	2608.797115
595.301190	2618.879423
595.652692	2583.591346
596.004141	2548.303269
596.355535	2616.358846
596.706876	2649.126346
597.058162	2618.879423
597.409395	2565.947308
597.760573	2679.373269
598.111698	2699.537885
598.462768	2613.838269
598.813785	2734.825962
599.164748	2568.467885
599.515657	2598.714808
599.866511	2588.632500
600.217312	2646.605769
600.568060	2666.770385
600.918753	2563.426731
601.269392	2704.579038
601.619978	2598.714808
601.970510	2659.208654
602.320988	2634.002885
602.671412	2636.523462
603.021783	2586.111923
603.372100	2568.467885
603.722363	2639.044038
604.072572	2707.099615
604.422728	2674.332115
604.772830	2639.044038
605.122878	2639.044038
605.472872	2618.879423
605.822813	2679.373269
606.172701	2621.400000
606.522534	2603.755962
606.872314	2608.797115
607.222041	2654.167500
607.571714	2583.591346
607.921333	2717.181923
608.270899	2525.618077
608.620411	2623.920577
608.969870	2651.646923
609.319276	2656.688077
609.668627	2704.579038
610.017926	2578.550192
610.367171	2656.688077
610.716362	2707.099615
611.065500	2634.002885
611.414585	2686.935000
611.763616	2588.632500
612.112594	2664.249808
612.461518	2639.044038
612.810389	2596.194231
613.159207	2654.167500
613.507971	2628.961731
613.856682	2691.976154
614.205340	2583.591346
614.553945	2628.961731
614.902496	2626.441154
615.250994	2628.961731
615.599439	2606.276538
615.947830	2641.564615
616.296169	2639.044038
616.644454	2583.591346
616.992686	2669.290962
617.340864	2618.879423
617.688990	2621.400000
618.037063	2588.632500
618.385082	2570.988462
618.733048	2623.920577
619.080961	2729.784808
619.428821	2636.523462
619.776628	2719.702500
620.124382	2656.688077
620.472083	2666.770385
620.819731	2649.126346
621.167326	2639.044038
621.514868	2613.838269
621.862357	2679.373269
622.209793	2669.290962
622.557176	2654.167500
622.904506	2563.426731
623.251783	2626.441154
623.599007	2543.262115
623.946179	2639.044038
624.293297	2651.646923
624.640363	2621.400000
624.987376	2639.044038
625.334336	2636.523462
625.681243	2659.208654
626.028097	2621.400000
626.374899	2707.099615
626.721647	2548.303269
627.068343	2573.509038
627.414987	2623.920577
627.761577	2616.358846
628.108115	2538.220962
628.454600	2598.714808
628.801032	2636.523462
629.147412	2570.988462
629.493739	2649.126346
629.840014	2608.797115
630.186236	2659.208654
630.532405	2654.167500
630.878521	2525.618077
631.224585	2598.714808
631.570597	2573.509038
631.916556	2593.673654
632.262462	2676.852692
632.608316	2639.044038
632.954117	2654.167500
633.299866	2671.811538
633.645562	2520.576923
633.991206	2578.550192
634.336797	2568.467885
634.682336	2565.947308
635.027823	2601.235385
635.373257	2636.523462
635.718639	2593.673654
636.063968	2583.591346
636.409245	2608.797115
636.754470	2621.400000
637.099642	2608.797115
637.444762	2646.605769
637.789829	2691.976154
638.134845	2613.838269
638.479808	2666.770385
638.824719	2689.455577
639.169577	2598.714808
639.514383	2601.235385
639.859137	2586.111923
640.203839	2623.920577
640.548489	2679.373269
640.893086	2523.097500
641.237632	2560.906154
641.582125	2684.414423
641.926566	2570.988462
642.270955	2623.920577
642.615292	2641.564615
642.959576	2676.852692
643.303809	2651.646923
643.647990	2565.947308
643.992118	2666.770385
644.336195	2636.523462
644.680219	2613.838269
645.024192	2626.441154
645.368112	2628.961731
645.711981	2674.332115
646.055797	2639.044038
646.399562	2550.823846
646.743274	2674.332115
647.086935	2654.167500
647.430544	2586.111923
647.774101	2603.755962
648.117606	2621.400000
648.461059	2570.988462
648.804460	2646.605769
649.147810	2623.920577
649.491108	2646.605769
649.834354	2606.276538
650.177548	2606.276538
650.520690	2603.755962
650.863781	2545.782692
651.206820	2654.167500
651.549807	2659.208654
651.892742	2613.838269
652.235626	2570.988462
652.578458	2598.714808
652.921238	2606.276538
653.263967	2649.126346
653.606644	2586.111923
653.949269	2570.988462
654.291843	2568.467885
654.634365	2603.755962
654.976836	2553.344423
655.319255	2679.373269
655.661622	2676.852692
656.003938	2603.755962
656.346203	2641.564615
656.688416	2626.441154
657.030577	2513.015192
657.372687	2608.797115
657.714746	2651.646923
658.056753	2641.564615
658.398708	2618.879423
658.740612	2530.659231
659.082465	2613.838269
659.424266	2691.976154
659.766016	2686.935000
660.107715	2709.620192
660.449362	2651.646923
660.790958	2591.153077
661.132503	2656.688077
661.473996	2674.332115
661.815438	2649.126346
662.156829	2500.412308
662.498168	2646.605769
662.839456	2588.632500
663.180693	2540.741538
663.521879	2588.632500
663.863013	2631.482308
664.204097	2639.044038
664.545129	2548.303269
664.886110	2611.317692
665.227040	2644.085192
665.567918	2606.276538
665.908746	2669.290962
666.249522	2608.797115
666.590248	2626.441154
666.930922	2661.729231
667.271545	2623.920577
667.612118	2664.249808
667.952639	2639.044038
668.293109	2593.673654
668.633528	2616.358846
668.973896	2596.194231
669.314213	2621.400000
669.654480	2613.838269
669.994695	2611.317692
670.334859	2618.879423
670.674973	2588.632500
671.015035	2606.276538
671.355047	2681.893846
671.695008	2661.729231
672.034918	2618.879423
672.374777	2618.879423
672.714585	2684.414423
673.054342	2656.688077
673.394049	2651.646923
673.733705	2674.332115
674.073310	2568.467885
674.412864	2591.153077
674.752368	2654.167500
675.091820	2651.646923
675.431223	2752.470000
675.770574	2598.714808
676.109875	2621.400000
676.449125	2606.276538
676.788324	2586.111923
677.127473	2681.893846
677.466571	2704.579038
677.805619	2591.153077
678.144616	2533.179808
678.483562	2644.085192
678.822458	2661.729231
679.161303	2671.811538
679.500098	2616.358846
679.838842	2470.165385
680.177535	2616.358846
680.516179	2565.947308
680.854771	2581.070769
681.193314	2628.961731
681.531805	2636.523462
681.870247	2659.208654
682.208638	2669.290962
682.546978	2581.070769
682.885268	2568.467885
683.223508	2603.755962
683.561697	2578.550192
683.899836	2623.920577
684.237925	2656.688077
684.575963	2618.879423
684.913951	2641.564615
685.251889	2724.743654
685.589776	2666.770385
685.927614	2669.290962
686.265401	2649.126346
686.603137	2576.029615
686.940824	2621.400000
687.278460	2649.126346
687.616046	2573.509038
687.953582	2679.373269
688.291068	2598.714808
688.628504	2626.441154
688.965889	2628.961731
689.303224	2702.058462
689.640510	2679.373269
689.977745	2654.167500
690.314930	2628.961731
690.652065	2654.167500
690.989150	2681.893846
691.326185	2623.920577
691.663170	2722.223077
692.000105	2588.632500
692.336990	2636.523462
692.673825	2611.317692
693.010610	2656.688077
693.347345	2591.153077
693.684030	2553.344423
694.020665	2649.126346
694.357251	2611.317692
694.693786	2608.797115
695.030272	2641.564615
695.366707	2581.070769
695.703093	2709.620192
696.039429	2621.400000
696.375716	2528.138654
696.711952	2581.070769
697.048139	2646.605769
697.384276	2654.167500
697.720363	2540.741538
698.056400	2613.838269
698.392388	2646.605769
698.728326	2603.755962
699.064214	2636.523462
699.400053	2651.646923
699.735842	2651.646923
700.071581	2679.373269
700.407270	2616.358846
700.742910	2623.920577
701.078501	2586.111923
701.414042	2576.029615
701.749533	2659.208654
702.084974	2654.167500
702.420366	2500.412308
702.755709	2568.467885
703.091002	2639.044038
703.426246	2578.550192
703.761440	2540.741538
704.096584	2621.400000
704.431679	2613.838269
704.766725	2563.426731
705.101721	2618.879423
705.436668	2601.235385
705.771565	2631.482308
706.106413	2606.276538
706.441212	2591.153077
706.775961	2593.673654
707.110661	2646.605769
707.445311	2636.523462
707.779913	2603.755962
708.114465	2646.605769
708.448967	2555.865000
708.783421	2618.879423
709.117825	2613.838269
709.452180	2621.400000
709.786485	2603.755962
710.120742	2548.303269
710.454949	2603.755962
710.789107	2550.823846
711.123216	2581.070769
711.457275	2631.482308
711.791286	2623.920577
712.125247	2686.935000
712.459159	2671.811538
712.793023	2616.358846
713.126837	2676.852692
713.460602	2676.852692
713.794318	2608.797115
714.127985	2666.770385
714.461602	2649.126346
714.795171	2623.920577
715.128691	2608.797115
715.462162	2578.550192
715.795584	2618.879423
716.128957	2613.838269
716.462281	2661.729231
716.795556	2644.085192
717.128782	2654.167500
717.461960	2664.249808
717.795088	2656.688077
718.128167	2576.029615
718.461198	2570.988462
718.794180	2686.935000
719.127113	2586.111923
719.459997	2623.920577
719.792833	2639.044038
720.125619	2611.317692
720.458357	2628.961731
720.791046	2613.838269
721.123686	2636.523462
721.456278	2608.797115
721.788821	2606.276538
722.121315	2583.591346
722.453761	2586.111923
722.786158	2568.467885
723.118506	2563.426731
723.450805	2563.426731
723.783056	2520.576923
724.115259	2694.496731
724.447412	2598.714808
724.779518	2717.181923
725.111574	2601.235385
725.443582	2621.400000
725.775542	2576.029615
726.107453	2618.879423
726.439315	2568.467885
726.771129	2697.017308
727.102895	2626.441154
727.434612	2623.920577
727.766281	2634.002885
728.097901	2543.262115
728.429473	2603.755962
728.760996	2598.714808
729.092471	2641.564615
729.423897	2651.646923
729.755276	2656.688077
730.086606	2656.688077
730.417887	2588.632500
730.749120	2601.235385
731.080305	2570.988462
731.411442	2649.126346
731.742530	2634.002885
732.073570	2664.249808
732.404562	2636.523462
732.735506	2581.070769
733.066401	2608.797115
733.397249	2671.811538
733.728048	2641.564615
734.058798	2649.126346
734.389501	2616.358846
734.720156	2644.085192
735.050762	2570.988462
735.381320	2681.893846
735.711831	2649.126346
736.042293	2644.085192
736.372707	2555.865000
736.703073	2606.276538
737.033391	2636.523462
737.363661	2644.085192
737.693883	2530.659231
738.024056	2623.920577
738.354182	2613.838269
738.684260	2669.290962
739.014290	2626.441154
739.344272	2646.605769
739.674207	2545.782692
740.004093	2656.688077
740.333931	2563.426731
740.663722	2553.344423
740.993464	2618.879423
741.323159	2608.797115
741.652806	2583.591346
741.982405	2545.782692
742.311956	2560.906154
742.641460	2674.332115
742.970915	2583.591346
743.300323	2616.358846
743.629683	2613.838269
743.958996	2576.029615
744.288260	2661.729231
744.617477	2641.564615
744.946647	2644.085192
745.275768	2651.646923
745.604842	2618.879423
745.933869	2540.741538
746.262847	2581.070769
746.591778	2651.646923
746.920662	2646.605769
747.249498	2628.961731
747.578286	2570.988462
747.907027	2671.811538
748.235720	2656.688077
748.564365	2654.167500
748.892963	2729.784808
749.221514	2626.441154
749.550017	2621.400000
749.878473	2588.632500
750.206881	2621.400000
750.535242	2583.591346
750.863555	2628.961731
751.191821	2591.153077
751.520039	2684.414423
751.848210	2636.523462
752.176334	2570.988462
752.504411	2719.702500
752.832440	2651.646923
753.160421	2596.194231
753.488356	2659.208654
753.816243	2641.564615
754.144082	2623.920577
754.471875	2621.400000
754.799620	2649.126346
755.127318	2593.673654
755.454969	2646.605769
755.782572	2656.688077
756.110129	2611.317692
756.437638	2649.126346
756.765100	2535.700385
757.092515	2538.220962
757.419882	2634.002885
757.747203	2626.441154
758.074477	2528.138654
758.401703	2639.044038
758.728882	2538.220962
759.056014	2565.947308
759.383099	2649.126346
759.710138	2634.002885
760.037129	2513.015192
760.364073	2593.673654
760.690970	2659.208654
761.017820	2729.784808
761.344623	2671.811538
761.671379	2510.494615
761.998088	2631.482308
762.324751	2628.961731
762.651366	2603.755962
762.977935	2626.441154
763.304456	2646.605769
763.630931	2545.782692
763.957359	2649.126346
764.283740	2651.646923
764.610074	2674.332115
764.936362	2588.632500
765.262602	2669.290962
765.588796	2684.414423
765.914943	2576.029615
766.241044	2576.029615
766.567097	2568.467885
766.893104	2644.085192
767.219064	2570.988462
767.544978	2593.673654
767.870845	2674.332115
768.196665	2613.838269
768.522438	2565.947308
768.848165	2560.906154
769.173846	2651.646923
769.499479	2570.988462
769.825066	2596.194231
770.150607	2694.496731
770.476101	2545.782692
770.801548	2601.235385
771.126949	2636.523462
771.452303	2593.673654
771.777611	2611.317692
772.102872	2598.714808
772.428087	2631.482308
772.753256	2548.303269
773.078378	2626.441154
773.403453	2616.358846
773.728482	2603.755962
774.053465	2601.235385
774.378401	2674.332115
774.703291	2523.097500
775.028135	2558.385577
775.352932	2555.865000
775.677683	2651.646923
776.002388	2586.111923
776.327046	2596.194231
776.651658	2634.002885
776.976224	2623.920577
777.300743	2616.358846
777.625216	2724.743654
777.949643	2613.838269
778.274024	2570.988462
778.598359	2550.823846
778.922647	2588.632500
779.246889	2606.276538
779.571086	2586.111923
779.895236	2611.317692
780.219339	2555.865000
780.543397	2623.920577
780.867409	2583.591346
781.191374	2563.426731
781.515294	2631.482308
781.839167	2588.632500
782.162995	2530.659231
782.486776	2621.400000
782.810511	2616.358846
783.134201	2576.029615
783.457844	2649.126346
783.781441	2596.194231
784.104993	2631.482308
784.428498	2578.550192
784.751958	2538.220962
785.075372	2608.797115
785.398739	2613.838269
785.722061	2545.782692
786.045337	2644.085192
786.368568	2654.167500
786.691752	2634.002885
787.014891	2560.906154
787.337983	2649.126346
787.661030	2651.646923
787.984031	2626.441154
788.306987	2601.235385
788.629897	2636.523462
788.952760	2543.262115
789.275579	2606.276538
789.598351	2618.879423
789.921078	2586.111923
790.243759	2593.673654
790.566395	2671.811538
790.888984	2659.208654
791.211529	2634.002885
791.534027	2518.056346
791.856480	2626.441154
792.178888	2621.400000
792.501249	2654.167500
792.823566	2596.194231
793.145836	2613.838269
793.468062	2628.961731
793.790241	2601.235385
794.112375	2586.111923
794.434464	2593.673654
794.756507	2686.935000
795.078505	2583.591346
795.400457	2641.564615
795.722364	2644.085192
796.044226	2570.988462
796.366042	2593.673654
796.687812	2636.523462
797.009538	2641.564615
797.331218	2611.317692
797.652852	2621.400000
797.974442	2616.358846
798.295986	2659.208654
798.617484	2671.811538
798.938938	2616.358846
799.260346	2586.111923
799.581709	2613.838269
799.903026	2628.961731
800.224299	2636.523462
800.545526	2623.920577
800.866708	2603.755962
801.187845	2611.317692
801.508936	2593.673654
801.829983	2502.932885
802.150984	2631.482308
802.471940	2606.276538
802.792851	2591.153077
803.113717	2596.194231
803.434538	2606.276538
803.755314	2500.412308
804.076045	2618.879423
804.396731	2455.041923
804.717372	2674.332115
805.037967	2543.262115
805.358518	2570.988462
805.679024	2679.373269
805.999485	2649.126346
806.319901	2646.605769
806.640272	2616.358846
806.960598	2596.194231
807.280879	2598.714808
807.601115	2568.467885
807.921306	2623.920577
808.241453	2664.249808
808.561554	2628.961731
808.881611	2618.879423
809.201623	2578.550192
809.521590	2581.070769
809.841513	2606.276538
810.161390	2603.755962
810.481223	2639.044038
810.801011	2608.797115
811.120755	2616.358846
811.440453	2588.632500
811.760107	2616.358846
812.079716	2623.920577
812.399281	2543.262115
812.718801	2674.332115
813.038276	2644.085192
813.357707	2563.426731
813.677093	2626.441154
813.996434	2656.688077
814.315731	2576.029615
814.634983	2626.441154
814.954191	2591.153077
815.273354	2623.920577
815.592473	2487.809423
815.911547	2593.673654
816.230577	2634.002885
816.549562	2651.646923
816.868502	2576.029615
817.187399	2634.002885
817.506250	2560.906154
817.825058	2616.358846
818.143821	2631.482308
818.462539	2679.373269
818.781213	2666.770385
819.099843	2581.070769
819.418429	2573.509038
819.736970	2570.988462
820.055466	2548.303269
820.373919	2679.373269
820.692327	2661.729231
821.010691	2631.482308
821.329011	2621.400000
821.647286	2679.373269
821.965517	2634.002885
822.283704	2641.564615
822.601847	2787.758077
822.919945	2717.181923
823.237999	2649.126346
823.556010	2712.140769
823.873976	2631.482308
824.191897	2679.373269
824.509775	2649.126346
824.827609	2669.290962
825.145398	2666.770385
825.463144	2621.400000
825.780845	2538.220962
826.098502	2659.208654
826.416116	2634.002885
826.733685	2593.673654
827.051210	2621.400000
827.368692	2593.673654
827.686129	2618.879423
828.003522	2671.811538
828.320872	2681.893846
828.638177	2631.482308
828.955439	2596.194231
829.272656	2618.879423
829.589830	2586.111923
829.906960	2621.400000
830.224046	2581.070769
830.541088	2513.015192
830.858086	2563.426731
831.175041	2598.714808
831.491952	2681.893846
831.808819	2550.823846
832.125642	2626.441154
832.442421	2591.153077
832.759157	2578.550192
833.075849	2707.099615
833.392497	2666.770385
833.709101	2674.332115
834.025662	2570.988462
834.342179	2628.961731
834.658653	2654.167500
834.975083	2518.056346
835.291469	2646.605769
835.607811	2601.235385
835.924110	2543.262115
836.240366	2651.646923
836.556578	2593.673654
836.872746	2613.838269
837.188871	2520.576923
837.504952	2621.400000
837.820990	2586.111923
838.136984	2611.317692
838.452935	2616.358846
838.768842	2586.111923
839.084706	2596.194231
839.400526	2538.220962
839.716303	2601.235385
840.032037	2618.879423
840.347727	2634.002885
840.663373	2634.002885
840.978977	2623.920577
841.294537	2636.523462
841.610054	2669.290962
841.925527	2570.988462
842.240957	2616.358846
842.556344	2596.194231
842.871687	2523.097500
843.186987	2553.344423
843.502244	2586.111923
843.817458	2538.220962
844.132629	2578.550192
844.447756	2525.618077
844.762840	2560.906154
845.077881	2598.714808
845.392879	2593.673654
845.707833	2507.974038
846.022745	2573.509038
846.337613	2616.358846
846.652438	2664.249808
846.967221	2565.947308
847.281960	2603.755962
847.596656	2495.371154
847.911309	2593.673654
848.225919	2651.646923
848.540485	2613.838269
848.855009	2596.194231
849.169490	2618.879423
849.483928	2626.441154
849.798323	2606.276538
850.112675	2570.988462
850.426984	2618.879423
850.741251	2573.509038
851.055474	2563.426731
851.369654	2507.974038
851.683792	2601.235385
851.997887	2558.385577
852.311938	2560.906154
852.625947	2510.494615
852.939914	2553.344423
853.253837	2661.729231
853.567718	2543.262115
853.881555	2641.564615
854.195350	2581.070769
854.509103	2591.153077
854.822812	2540.741538
855.136479	2475.206538
855.450103	2712.140769
855.763685	2560.906154
856.077224	2651.646923
856.390720	2570.988462
856.704173	2578.550192
857.017584	2621.400000
857.330953	2606.276538
857.644278	2621.400000
857.957561	2596.194231
858.270802	2538.220962
858.584000	2656.688077
858.897155	2583.591346
859.210268	2661.729231
859.523339	2709.620192
859.836367	2583.591346
860.149352	2578.550192
860.462295	2606.276538
860.775195	2596.194231
861.088054	2628.961731
861.400869	2646.605769
861.713642	2669.290962
862.026373	2623.920577
862.339062	2628.961731
862.651708	2669.290962
862.964312	2583.591346
863.276873	2608.797115
863.589392	2601.235385
863.901869	2659.208654
864.214303	2593.673654
864.526696	2550.823846
864.839045	2583.591346
865.151353	2616.358846
865.463619	2573.509038
865.775842	2550.823846
866.088023	2611.317692
866.400162	2626.441154
866.712258	2618.879423
867.024313	2621.400000
867.336325	2555.865000
867.648296	2641.564615
867.960224	2649.126346
868.272110	2608.797115
868.583954	2525.618077
868.895755	2543.262115
869.207515	2626.441154
869.519233	2628.961731
869.830909	2659.208654
870.142542	2628.961731
870.454134	2550.823846
870.765684	2634.002885
871.077191	2583.591346
871.388657	2628.961731
871.700081	2644.085192
872.011463	2591.153077
872.322803	2616.358846
872.634101	2606.276538
872.945357	2623.920577
873.256571	2581.070769
873.567744	2611.317692
873.878874	2659.208654
874.189963	2598.714808
874.501010	2611.317692
874.812015	2631.482308
875.122979	2606.276538
875.433900	2623.920577
875.744780	2603.755962
876.055618	2565.947308
876.366415	2586.111923
876.677169	2533.179808
876.987882	2636.523462
877.298554	2581.070769
877.609183	2482.768269
877.919771	2593.673654
878.230317	2651.646923
878.540822	2598.714808
878.851285	2606.276538
879.161707	2606.276538
879.472087	2570.988462
879.782425	2606.276538
880.092722	2593.673654
880.402977	2593.673654
880.713191	2593.673654
881.023363	2651.646923
881.333494	2628.961731
881.643583	2641.564615
881.953631	2596.194231
882.263637	2636.523462
882.573602	2586.111923
882.883526	2598.714808
883.193408	2671.811538
883.503248	2649.126346
883.813048	2618.879423
884.122806	2563.426731
884.432522	2588.632500
884.742197	2581.070769
885.051831	2598.714808
885.361424	2603.755962
885.670975	2611.317692
885.980485	2573.509038
886.289954	2661.729231
886.599382	2639.044038
886.908768	2560.906154
887.218113	2646.605769
887.527417	2510.494615
887.836680	2565.947308
888.145901	2502.932885
888.455082	2576.029615
888.764221	2563.426731
889.073319	2697.017308
889.382376	2543.262115
889.691392	2576.029615
890.000366	2603.755962
890.309300	2586.111923
890.618193	2639.044038
890.927044	2636.523462
891.235855	2518.056346
891.544625	2651.646923
891.853353	2583.591346
892.162041	2513.015192
892.470687	2578.550192
892.779293	2583.591346
893.087858	2565.947308
893.396381	2581.070769
893.704864	2626.441154
894.013306	2664.249808
894.321707	2611.317692
894.630068	2644.085192
894.938387	2641.564615
895.246665	2664.249808
895.554903	2651.646923
895.863100	2591.153077
896.171256	2621.400000
896.479371	2581.070769
896.787446	2661.729231
897.095480	2651.646923
897.403473	2626.441154
897.711425	2611.317692
898.019336	2535.700385
898.327207	2641.564615
898.635038	2621.400000
898.942827	2553.344423
899.250576	2560.906154
899.558284	2598.714808
899.865952	2621.400000
900.173579	2611.317692
900.481165	2601.235385
900.788711	2651.646923
901.096216	2608.797115
901.403681	2540.741538
901.711105	2626.441154
902.018489	2606.276538
902.325832	2616.358846
902.633135	2628.961731
902.940397	2535.700385
903.247619	2639.044038
903.554800	2628.961731
903.861941	2578.550192
904.169041	2654.167500
904.476101	2608.797115
904.783121	2573.509038
905.090100	2664.249808
905.397039	2598.714808
905.703938	2601.235385
906.010796	2598.714808
906.317614	2540.741538
906.624391	2576.029615
906.931129	2608.797115
907.237826	2550.823846
907.544483	2598.714808
907.851099	2641.564615
908.157675	2618.879423
908.464211	2623.920577
908.770707	2535.700385
909.077163	2613.838269
909.383578	2586.111923
909.689954	2628.961731
909.996289	2626.441154
910.302584	2558.385577
910.608839	2555.865000
910.915054	2583.591346
911.221229	2598.714808
911.527363	2613.838269
911.833458	2487.809423
912.139513	2568.467885
912.445527	2636.523462
912.751502	2593.673654
913.057436	2570.988462
913.363331	2583.591346
913.669186	2568.467885
913.975000	2628.961731
914.280775	2636.523462
914.586510	2641.564615
914.892205	2581.070769
915.197859	2553.344423
915.503475	2543.262115
915.809050	2583.591346
916.114585	2651.646923
916.420081	2606.276538
916.725536	2621.400000
917.030952	2646.605769
917.336328	2626.441154
917.641665	2631.482308
917.946961	2628.961731
918.252218	2671.811538
918.557435	2623.920577
918.862612	2588.632500
919.167750	2560.906154
919.472848	2553.344423
919.777906	2591.153077
920.082925	2560.906154
920.387904	2593.673654
920.692843	2661.729231
920.997743	2641.564615
921.302603	2591.153077
921.607423	2621.400000
921.912204	2490.330000
922.216946	2626.441154
922.521647	2656.688077
922.826310	2576.029615
923.130932	2631.482308
923.435516	2586.111923
923.740059	2502.932885
924.044564	2568.467885
924.349028	2578.550192
924.653454	2676.852692
924.957840	2644.085192
925.262186	2616.358846
925.566493	2649.126346
925.870761	2608.797115
926.174989	2639.044038
926.479178	2641.564615
926.783328	2598.714808
927.087438	2588.632500
927.391509	2568.467885
927.695541	2608.797115
927.999533	2626.441154
928.303486	2578.550192
928.607400	2568.467885
928.911275	2674.332115
929.215110	2502.932885
929.518906	2654.167500
929.822663	2482.768269
930.126381	2709.620192
930.430060	2601.235385
930.733699	2591.153077
931.037299	2606.276538
931.340861	2641.564615
931.644383	2573.509038
931.947866	2475.206538
932.251309	2686.935000
932.554714	2563.426731
932.858080	2596.194231
933.161407	2601.235385
933.464694	2608.797115
933.767943	2618.879423
934.071153	2520.576923
934.374323	2518.056346
934.677455	2535.700385
934.980548	2538.220962
935.283602	2618.879423
935.586617	2581.070769
935.889593	2573.509038
936.192530	2543.262115
936.495428	2608.797115
936.798287	2603.755962
937.101108	2616.358846
937.403890	2596.194231
937.706632	2576.029615
938.009336	2639.044038
938.312002	2666.770385
938.614628	2649.126346
938.917216	2623.920577
939.219765	2578.550192
939.522275	2628.961731
939.824747	2613.838269
940.127179	2573.509038
940.429573	2606.276538
940.731929	2548.303269
941.034246	2639.044038
941.336524	2656.688077
941.638763	2601.235385
941.940964	2608.797115
942.243126	2674.332115
942.545250	2583.591346
942.847335	2543.262115
943.149381	2510.494615
943.451389	2588.632500
943.753359	2611.317692
944.055290	2626.441154
944.357182	2550.823846
944.659036	2545.782692
944.960851	2598.714808
945.262628	2495.371154
945.564367	2533.179808
945.866067	2656.688077
946.167729	2528.138654
946.469352	2649.126346
946.770937	2533.179808
947.072484	2505.453462
947.373992	2603.755962
947.675462	2543.262115
947.976893	2548.303269
948.278286	2591.153077
948.579641	2578.550192
948.880958	2570.988462
949.182236	2565.947308
949.483476	2613.838269
949.784678	2626.441154
950.085841	2664.249808
950.386967	2596.194231
950.688054	2593.673654
950.989103	2560.906154
951.290114	2563.426731
951.591087	2586.111923
951.892021	2674.332115
952.192917	2601.235385
952.493776	2545.782692
952.794596	2525.618077
953.095378	2583.591346
953.396122	2661.729231
953.696828	2606.276538
953.997496	2583.591346
954.298126	2528.138654
954.598718	2555.865000
954.899272	2576.029615
955.199788	2563.426731
955.500266	2621.400000
955.800706	2533.179808
956.101108	2623.920577
956.401472	2583.591346
956.701798	2560.906154
957.002087	2671.811538
957.302337	2651.646923
957.602550	2586.111923
957.902724	2510.494615
958.202861	2661.729231
958.502960	2576.029615
958.803022	2576.029615
959.103045	2618.879423
959.403031	2621.400000
959.702979	2565.947308
960.002889	2603.755962
960.302762	2639.044038
960.602596	2618.879423
960.902393	2550.823846
961.202153	2578.550192
961.501875	2570.988462
961.801559	2613.838269
962.101205	2523.097500
962.400814	2681.893846
962.700385	2447.480192
962.999918	2686.935000
963.299414	2606.276538
963.598873	2616.358846
963.898293	2606.276538
964.197677	2583.591346
964.497022	2628.961731
964.796331	2608.797115
965.095601	2598.714808
965.394835	2583.591346
965.694030	2530.659231
965.993189	2593.673654
966.292309	2588.632500
966.591393	2603.755962
966.890439	2611.317692
967.189447	2636.523462
967.488419	2676.852692
967.787353	2518.056346
968.086249	2611.317692
968.385108	2555.865000
968.683930	2583.591346
968.982714	2578.550192
969.281462	2583.591346
969.580172	2581.070769
969.878844	2593.673654
970.177480	2565.947308
970.476078	2608.797115
970.774639	2651.646923
971.073162	2626.441154
971.371649	2656.688077
971.670098	2563.426731
971.968510	2553.344423
972.266885	2560.906154
972.565223	2593.673654
972.863524	2644.085192
973.161788	2525.618077
973.460014	2586.111923
973.758204	2606.276538
974.056356	2591.153077
974.354471	2581.070769
974.652550	2593.673654
974.950591	2618.879423
975.248595	2573.509038
975.546563	2601.235385
975.844493	2601.235385
976.142386	2586.111923
976.440243	2553.344423
976.738062	2631.482308
977.035845	2641.564615
977.333590	2586.111923
977.631299	2618.879423
977.928971	2565.947308
978.226606	2555.865000
978.524204	2641.564615
978.821765	2603.755962
979.119290	2538.220962
979.416777	2649.126346
979.714228	2583.591346
980.011642	2581.070769
980.309020	2611.317692
980.606360	2603.755962
980.903664	2583.591346
981.200931	2621.400000
981.498162	2641.564615
981.795356	2515.535769
982.092513	2586.111923
982.389633	2671.811538
982.686717	2601.235385
982.983764	2646.605769
983.280775	2608.797115
983.577749	2623.920577
983.874686	2611.317692
984.171587	2581.070769
984.468451	2583.591346
984.765279	2568.467885
985.062070	2581.070769
985.358824	2490.330000
985.655543	2606.276538
985.952224	2681.893846
986.248869	2528.138654
986.545478	2621.400000
986.842050	2591.153077
987.138586	2608.797115
987.435086	2565.947308
987.731549	2588.632500
988.027975	2586.111923
988.324366	2621.400000
988.620719	2603.755962
988.917037	2618.879423
989.213318	2502.932885
989.509563	2558.385577
989.805772	2671.811538
990.101944	2555.865000
990.398080	2593.673654
990.694180	2570.988462
990.990244	2639.044038
991.286271	2570.988462
991.582262	2548.303269
991.878217	2555.865000
992.174136	2576.029615
992.470019	2598.714808
992.765865	2520.576923
993.061676	2563.426731
993.357450	2538.220962
993.653188	2558.385577
993.948890	2654.167500
994.244556	2591.153077
994.540186	2606.276538
994.835780	2634.002885
995.131337	2533.179808
995.426859	2576.029615
995.722345	2565.947308
996.017795	2533.179808
996.313208	2591.153077
996.608586	2611.317692
996.903928	2513.015192
997.199234	2578.550192
997.494504	2565.947308
997.789738	2606.276538
998.084936	2621.400000
998.380099	2616.358846
998.675225	2502.932885
998.970316	2487.809423
999.265371	2563.426731
999.560390	2581.070769
999.855373	2618.879423
1000.150320	2560.906154
1000.445232	2659.208654
1000.740108	2641.564615
1001.034948	2596.194231
1001.329752	2507.974038
1001.624521	2626.441154
1001.919254	2538.220962
1002.213951	2581.070769
1002.508613	2618.879423
1002.803239	2563.426731
1003.097829	2634.002885
1003.392384	2628.961731
1003.686903	2591.153077
1003.981386	2603.755962
1004.275834	2601.235385
1004.570246	2712.140769
1004.864623	2578.550192
1005.158964	2641.564615
1005.453270	2439.918462
1005.747540	2591.153077
1006.041775	2515.535769
1006.335974	2588.632500
1006.630138	2545.782692
1006.924266	2550.823846
1007.218359	2681.893846
1007.512416	2513.015192
1007.806438	2467.644808
1008.100425	2553.344423
1008.394376	2565.947308
1008.688292	2591.153077
1008.982172	2646.605769
1009.276017	2613.838269
1009.569827	2596.194231
1009.863602	2659.208654
1010.157341	2616.358846
1010.451045	2679.373269
1010.744714	2631.482308
1011.038347	2598.714808
1011.331945	2583.591346
1011.625508	2528.138654
1011.919036	2639.044038
1012.212528	2470.165385
1012.505986	2603.755962
1012.799408	2570.988462
1013.092795	2563.426731
1013.386147	2553.344423
1013.679464	2581.070769
1013.972745	2560.906154
1014.265992	2641.564615
1014.559204	2586.111923
1014.852380	2621.400000
1015.145521	2581.070769
1015.438628	2550.823846
1015.731699	2570.988462
1016.024736	2523.097500
1016.317737	2596.194231
1016.610703	2570.988462
1016.903635	2596.194231
1017.196531	2530.659231
1017.489393	2555.865000
1017.782219	2543.262115
1018.075011	2591.153077
1018.367768	2628.961731
1018.660490	2626.441154
1018.953177	2626.441154
1019.245829	2626.441154
