Dividing Wavelength (nm)	Counts (n)	Blue Motor Position (mm): 6.800000	Red Motor Position (mm): 0.000000	
326.493990	2051.749615
326.888308	2051.749615
327.282561	2051.749615
327.676750	2097.120000
328.070874	2089.558269
328.464933	2024.023269
328.858929	2049.229038
329.252859	2059.311346
329.646726	2071.914231
330.040528	2087.037692
330.434265	2139.969808
330.827938	2142.490385
331.221547	2097.120000
331.615091	2170.216731
332.008571	2202.984231
332.401986	2233.231154
332.795338	2185.340192
333.188625	2182.819615
333.581847	2228.190000
333.975006	2366.821731
334.368100	2215.587115
334.761129	2276.080962
335.154095	2311.369038
335.546996	2369.342308
335.939833	2326.492500
336.332606	2381.945192
336.725315	2422.274423
337.117960	2374.383462
337.510540	2394.548077
337.903056	2407.150962
338.295508	2424.795000
338.687896	2495.371154
339.080220	2467.644808
339.472480	2467.644808
339.864676	2437.397885
340.256807	2467.644808
340.648875	2447.480192
341.040879	2442.439038
341.432818	2452.521346
341.824694	2487.809423
342.216506	2432.356731
342.608253	2507.974038
342.999937	2505.453462
343.391557	2530.659231
343.783113	2492.850577
344.174605	2460.083077
344.566033	2386.986346
344.957397	2397.068654
345.348697	2455.041923
345.739934	2485.288846
346.131106	2480.247692
346.522215	2442.439038
346.913260	2447.480192
347.304241	2487.809423
347.695159	2397.068654
348.086012	2515.535769
348.476802	2414.712692
348.867528	2397.068654
349.258191	2437.397885
349.648789	2523.097500
350.039324	2452.521346
350.429796	2376.904038
350.820203	2477.727115
351.210548	2432.356731
351.600828	2414.712692
351.991045	2414.712692
352.381198	2452.521346
352.771288	2422.274423
353.161314	2439.918462
353.551276	2331.533654
353.941175	2462.603654
354.331010	2434.877308
354.720782	2389.506923
355.110490	2329.013077
355.500135	2344.136538
355.889717	2490.330000
356.279235	2462.603654
356.668689	2465.124231
357.058080	2465.124231
357.447408	2417.233269
357.836672	2374.383462
358.225873	2429.836154
358.615010	2482.768269
359.004084	2417.233269
359.393095	2371.862885
359.782043	2437.397885
360.170927	2444.959615
360.559748	2455.041923
360.948505	2507.974038
361.337199	2399.589231
361.725830	2472.685962
362.114398	2528.138654
362.502903	2386.986346
362.891344	2513.015192
363.279722	2465.124231
363.668037	2465.124231
364.056289	2366.821731
364.444478	2497.891731
364.832603	2434.877308
365.220665	2457.562500
365.608665	2432.356731
365.996601	2553.344423
366.384474	2427.315577
366.772284	2513.015192
367.160031	2422.274423
367.547715	2465.124231
367.935336	2394.548077
368.322893	2502.932885
368.710388	2344.136538
369.097820	2419.753846
369.485189	2548.303269
369.872495	2502.932885
370.259738	2399.589231
370.646918	2497.891731
371.034035	2550.823846
371.421090	2477.727115
371.808081	2465.124231
372.195010	2475.206538
372.581875	2533.179808
372.968678	2444.959615
373.355418	2518.056346
373.742096	2447.480192
374.128710	2482.768269
374.515262	2540.741538
374.901751	2558.385577
375.288177	2497.891731
375.674540	2497.891731
376.060841	2535.700385
376.447079	2510.494615
376.833254	2417.233269
377.219367	2417.233269
377.605417	2422.274423
377.991404	2482.768269
378.377329	2379.424615
378.763191	2467.644808
379.148991	2467.644808
379.534727	2515.535769
379.920402	2399.589231
380.306013	2444.959615
380.691563	2442.439038
381.077049	2432.356731
381.462474	2497.891731
381.847835	2485.288846
382.233134	2543.262115
382.618371	2429.836154
383.003545	2399.589231
383.388657	2427.315577
383.773706	2432.356731
384.158693	2470.165385
384.543618	2384.465769
384.928480	2470.165385
385.313280	2467.644808
385.698017	2485.288846
386.082692	2475.206538
386.467305	2513.015192
386.851856	2389.506923
387.236344	2452.521346
387.620770	2432.356731
388.005133	2482.768269
388.389435	2480.247692
388.773674	2364.301154
389.157851	2490.330000
389.541965	2455.041923
389.926018	2434.877308
390.310008	2490.330000
390.693936	2518.056346
391.077802	2369.342308
391.461606	2482.768269
391.845348	2502.932885
392.229027	2465.124231
392.612645	2407.150962
392.996200	2535.700385
393.379694	2455.041923
393.763125	2540.741538
394.146494	2507.974038
394.529801	2513.015192
394.913047	2432.356731
395.296230	2472.685962
395.679351	2470.165385
396.062410	2507.974038
396.445408	2414.712692
396.828343	2495.371154
397.211217	2450.000769
397.594028	2475.206538
397.976778	2452.521346
398.359466	2427.315577
398.742092	2467.644808
399.124656	2354.218846
399.507158	2492.850577
399.889598	2444.959615
400.271977	2482.768269
400.654294	2442.439038
401.036549	2482.768269
401.418742	2429.836154
401.800874	2447.480192
402.182944	2450.000769
402.564952	2455.041923
402.946898	2470.165385
403.328783	2505.453462
403.710606	2502.932885
404.092367	2414.712692
404.474067	2502.932885
404.855705	2550.823846
405.237282	2573.509038
405.618797	2490.330000
406.000250	2528.138654
406.381642	2480.247692
406.762972	2581.070769
407.144240	2495.371154
407.525447	2460.083077
407.906593	2371.862885
408.287677	2525.618077
408.668700	2419.753846
409.049661	2407.150962
409.430560	2460.083077
409.811399	2485.288846
410.192176	2482.768269
410.572891	2515.535769
410.953545	2432.356731
411.334138	2490.330000
411.714669	2452.521346
412.095139	2470.165385
412.475547	2452.521346
412.855894	2500.412308
413.236180	2515.535769
413.616405	2419.753846
413.996568	2545.782692
414.376670	2450.000769
414.756711	2515.535769
415.136691	2507.974038
415.516609	2455.041923
415.896466	2447.480192
416.276262	2465.124231
416.655997	2457.562500
417.035670	2528.138654
417.415283	2502.932885
417.794834	2432.356731
418.174324	2482.768269
418.553753	2513.015192
418.933121	2462.603654
419.312428	2450.000769
419.691674	2485.288846
420.070859	2349.177692
420.449983	2515.535769
420.829045	2485.288846
421.208047	2505.453462
421.586988	2553.344423
421.965867	2414.712692
422.344686	2442.439038
422.723444	2422.274423
423.102141	2472.685962
423.480777	2444.959615
423.859352	2422.274423
424.237866	2434.877308
424.616319	2434.877308
424.994712	2525.618077
425.373044	2558.385577
425.751314	2419.753846
426.129524	2513.015192
426.507673	2543.262115
426.885762	2507.974038
427.263789	2487.809423
427.641756	2384.465769
428.019662	2429.836154
428.397508	2404.630385
428.775292	2462.603654
429.153016	2558.385577
429.530679	2452.521346
429.908282	2480.247692
430.285824	2366.821731
430.663305	2429.836154
431.040726	2427.315577
431.418086	2520.576923
431.795385	2500.412308
432.172624	2578.550192
432.549802	2510.494615
432.926920	2528.138654
433.303977	2399.589231
433.680974	2404.630385
434.057910	2533.179808
434.434786	2450.000769
434.811601	2392.027500
435.188355	2470.165385
435.565050	2472.685962
435.941683	2520.576923
436.318257	2520.576923
436.694770	2495.371154
437.071222	2540.741538
437.447614	2470.165385
437.823946	2520.576923
438.200218	2555.865000
438.576429	2538.220962
438.952580	2444.959615
439.328670	2480.247692
439.704700	2439.918462
440.080670	2518.056346
440.456580	2477.727115
440.832429	2487.809423
441.208218	2560.906154
441.583947	2439.918462
441.959616	2462.603654
442.335224	2523.097500
442.710773	2477.727115
443.086261	2540.741538
443.461689	2495.371154
443.837057	2424.795000
444.212365	2555.865000
444.587612	2437.397885
444.962800	2439.918462
445.337927	2518.056346
445.712995	2427.315577
446.088002	2472.685962
446.462949	2553.344423
446.837837	2450.000769
447.212664	2523.097500
447.587431	2492.850577
447.962139	2550.823846
448.336786	2505.453462
448.711374	2470.165385
449.085901	2621.400000
449.460369	2429.836154
449.834776	2490.330000
450.209124	2402.109808
450.583412	2495.371154
450.957640	2439.918462
451.331808	2495.371154
451.705917	2500.412308
452.079965	2505.453462
452.453954	2513.015192
452.827883	2475.206538
453.201752	2442.439038
453.575562	2455.041923
453.949311	2417.233269
454.323001	2535.700385
454.696632	2452.521346
455.070202	2470.165385
455.443713	2538.220962
455.817164	2457.562500
456.190556	2497.891731
456.563888	2460.083077
456.937160	2455.041923
457.310373	2427.315577
457.683526	2533.179808
458.056619	2518.056346
458.429653	2475.206538
458.802628	2583.591346
459.175542	2457.562500
459.548398	2480.247692
459.921194	2543.262115
460.293930	2452.521346
460.666607	2480.247692
461.039224	2502.932885
461.411782	2520.576923
461.784280	2530.659231
462.156719	2465.124231
462.529099	2540.741538
462.901419	2480.247692
463.273680	2460.083077
463.645882	2596.194231
464.018024	2482.768269
464.390106	2490.330000
464.762130	2409.671538
465.134094	2465.124231
465.505999	2507.974038
465.877845	2505.453462
466.249631	2495.371154
466.621358	2525.618077
466.993026	2538.220962
467.364634	2588.632500
467.736184	2472.685962
468.107674	2437.397885
468.479105	2563.426731
468.850477	2407.150962
469.221790	2487.809423
469.593043	2545.782692
469.964238	2457.562500
470.335373	2550.823846
470.706449	2487.809423
471.077467	2477.727115
471.448425	2452.521346
471.819324	2442.439038
472.190164	2525.618077
472.560945	2528.138654
472.931667	2442.439038
473.302330	2500.412308
473.672934	2520.576923
474.043479	2563.426731
474.413965	2518.056346
474.784393	2545.782692
475.154761	2475.206538
475.525070	2465.124231
475.895321	2460.083077
476.265513	2548.303269
476.635645	2513.015192
477.005719	2482.768269
477.375734	2497.891731
477.745691	2540.741538
478.115588	2417.233269
478.485427	2520.576923
478.855207	2434.877308
479.224928	2447.480192
479.594591	2465.124231
479.964194	2492.850577
480.333739	2535.700385
480.703226	2412.192115
481.072653	2457.562500
481.442022	2513.015192
481.811333	2540.741538
482.180584	2427.315577
482.549777	2520.576923
482.918912	2412.192115
483.287988	2591.153077
483.657005	2455.041923
484.025964	2462.603654
484.394864	2465.124231
484.763706	2510.494615
485.132489	2495.371154
485.501213	2497.891731
485.869879	2495.371154
486.238487	2452.521346
486.607036	2510.494615
486.975527	2472.685962
487.343959	2558.385577
487.712333	2543.262115
488.080648	2419.753846
488.448905	2535.700385
488.817104	2450.000769
489.185244	2563.426731
489.553326	2480.247692
489.921350	2475.206538
490.289315	2528.138654
490.657222	2465.124231
491.025070	2525.618077
491.392861	2510.494615
491.760593	2392.027500
492.128267	2477.727115
492.495883	2472.685962
492.863440	2543.262115
493.230939	2439.918462
493.598380	2515.535769
493.965763	2482.768269
494.333088	2490.330000
494.700354	2530.659231
495.067563	2520.576923
495.434713	2462.603654
495.801805	2565.947308
496.168839	2515.535769
496.535815	2505.453462
496.902733	2434.877308
497.269593	2535.700385
497.636395	2533.179808
498.003139	2462.603654
498.369825	2492.850577
498.736453	2513.015192
499.103023	2437.397885
499.469535	2560.906154
499.835989	2460.083077
500.202385	2525.618077
500.568723	2414.712692
500.935003	2497.891731
501.301226	2500.412308
501.667390	2409.671538
502.033497	2507.974038
502.399546	2487.809423
502.765537	2513.015192
503.131470	2586.111923
503.497345	2434.877308
503.863163	2452.521346
504.228923	2472.685962
504.594625	2540.741538
504.960269	2518.056346
505.325856	2507.974038
505.691385	2490.330000
506.056856	2520.576923
506.422270	2510.494615
506.787625	2477.727115
507.152924	2573.509038
507.518164	2465.124231
507.883347	2555.865000
508.248472	2424.795000
508.613540	2513.015192
508.978550	2520.576923
509.343503	2472.685962
509.708398	2462.603654
510.073236	2467.644808
510.438016	2480.247692
510.802738	2434.877308
511.167403	2495.371154
511.532010	2485.288846
511.896561	2497.891731
512.261053	2550.823846
512.625488	2502.932885
512.989866	2482.768269
513.354186	2543.262115
513.718449	2518.056346
514.082655	2570.988462
514.446803	2510.494615
514.810894	2480.247692
515.174927	2505.453462
515.538904	2502.932885
515.902822	2455.041923
516.266684	2550.823846
516.630488	2450.000769
516.994235	2482.768269
517.357925	2450.000769
517.721558	2507.974038
518.085133	2520.576923
518.448651	2545.782692
518.812112	2510.494615
519.175516	2485.288846
519.538863	2513.015192
519.902152	2535.700385
520.265385	2513.015192
520.628560	2540.741538
520.991678	2513.015192
521.354739	2565.947308
521.717743	2492.850577
522.080690	2535.700385
522.443580	2485.288846
522.806413	2520.576923
523.169189	2452.521346
523.531908	2444.959615
523.894569	2613.838269
524.257174	2452.521346
524.619722	2485.288846
524.982213	2409.671538
525.344647	2457.562500
525.707025	2439.918462
526.069345	2465.124231
526.431608	2432.356731
526.793815	2550.823846
527.155964	2452.521346
527.518057	2480.247692
527.880093	2523.097500
528.242072	2510.494615
528.603995	2414.712692
528.965860	2500.412308
529.327669	2439.918462
529.689421	2495.371154
530.051117	2470.165385
530.412755	2487.809423
530.774337	2586.111923
531.135862	2500.412308
531.497331	2467.644808
531.858743	2505.453462
532.220098	2477.727115
532.581396	2467.644808
532.942638	2545.782692
533.303824	2533.179808
533.664953	2492.850577
534.026025	2482.768269
534.387040	2513.015192
534.747999	2538.220962
535.108902	2510.494615
535.469748	2525.618077
535.830537	2525.618077
536.191270	2434.877308
536.551947	2502.932885
536.912567	2565.947308
537.273131	2477.727115
537.633638	2497.891731
537.994089	2467.644808
538.354483	2480.247692
538.714821	2568.467885
539.075103	2437.397885
539.435328	2477.727115
539.795497	2477.727115
540.155609	2450.000769
540.515665	2487.809423
540.875665	2457.562500
541.235609	2523.097500
541.595496	2523.097500
541.955328	2480.247692
542.315102	2487.809423
542.674821	2482.768269
543.034483	2465.124231
543.394090	2540.741538
543.753640	2444.959615
544.113134	2502.932885
544.472571	2439.918462
544.831953	2477.727115
545.191278	2525.618077
545.550548	2472.685962
545.909761	2475.206538
546.268918	2530.659231
546.628019	2447.480192
546.987064	2477.727115
547.346053	2480.247692
547.704986	2487.809423
548.063863	2460.083077
548.422684	2437.397885
548.781449	2528.138654
549.140158	2404.630385
549.498811	2502.932885
549.857408	2581.070769
550.215949	2371.862885
550.574434	2538.220962
550.932864	2523.097500
551.291237	2510.494615
551.649555	2480.247692
552.007817	2510.494615
552.366022	2497.891731
552.724173	2555.865000
553.082267	2480.247692
553.440305	2444.959615
553.798288	2495.371154
554.156215	2472.685962
554.514086	2523.097500
554.871902	2424.795000
555.229661	2507.974038
555.587365	2507.974038
555.945014	2450.000769
556.302606	2540.741538
556.660143	2467.644808
557.017625	2492.850577
557.375050	2593.673654
557.732421	2470.165385
558.089735	2510.494615
558.446994	2412.192115
558.804197	2465.124231
559.161345	2505.453462
559.518437	2480.247692
559.875474	2505.453462
560.232455	2460.083077
560.589381	2381.945192
560.946251	2548.303269
561.303065	2515.535769
561.659825	2447.480192
562.016528	2545.782692
562.373177	2490.330000
562.729770	2507.974038
563.086307	2482.768269
563.442789	2472.685962
563.799216	2472.685962
564.155587	2500.412308
564.511904	2447.480192
564.868164	2555.865000
565.224370	2475.206538
565.580520	2460.083077
565.936615	2505.453462
566.292654	2477.727115
566.648638	2613.838269
567.004567	2573.509038
567.360441	2515.535769
567.716260	2558.385577
568.072023	2452.521346
568.427732	2444.959615
568.783385	2444.959615
569.138982	2492.850577
569.494525	2462.603654
569.850013	2475.206538
570.205445	2583.591346
570.560823	2497.891731
570.916145	2450.000769
571.271412	2444.959615
571.626625	2543.262115
571.981782	2434.877308
572.336884	2533.179808
572.691931	2520.576923
573.046923	2482.768269
573.401860	2419.753846
573.756743	2457.562500
574.111570	2465.124231
574.466342	2475.206538
574.821059	2399.589231
575.175722	2576.029615
575.530330	2502.932885
575.884882	2497.891731
576.239380	2477.727115
576.593823	2485.288846
576.948211	2487.809423
577.302544	2510.494615
577.656823	2417.233269
578.011047	2507.974038
578.365216	2482.768269
578.719330	2573.509038
579.073389	2570.988462
579.427394	2462.603654
579.781344	2533.179808
580.135239	2510.494615
580.489080	2565.947308
580.842866	2470.165385
581.196597	2525.618077
581.550273	2500.412308
581.903895	2560.906154
582.257463	2432.356731
582.610975	2510.494615
582.964434	2528.138654
583.317837	2530.659231
583.671186	2540.741538
584.024481	2515.535769
584.377721	2409.671538
584.730906	2538.220962
585.084037	2560.906154
585.437113	2545.782692
585.790135	2538.220962
586.143103	2535.700385
586.496016	2502.932885
586.848874	2520.576923
587.201679	2467.644808
587.554428	2457.562500
587.907124	2437.397885
588.259765	2520.576923
588.612352	2475.206538
588.964884	2593.673654
589.317362	2533.179808
589.669786	2548.303269
590.022155	2510.494615
590.374470	2507.974038
590.726731	2470.165385
591.078937	2565.947308
591.431090	2457.562500
591.783188	2404.630385
592.135232	2497.891731
592.487222	2540.741538
592.839157	2553.344423
593.191038	2533.179808
593.542866	2487.809423
593.894639	2513.015192
594.246358	2490.330000
594.598022	2490.330000
594.949633	2444.959615
595.301190	2533.179808
595.652692	2470.165385
596.004141	2540.741538
596.355535	2565.947308
596.706876	2472.685962
597.058162	2525.618077
597.409395	2444.959615
597.760573	2535.700385
598.111698	2553.344423
598.462768	2530.659231
598.813785	2513.015192
599.164748	2528.138654
599.515657	2492.850577
599.866511	2505.453462
600.217312	2550.823846
600.568060	2500.412308
600.918753	2543.262115
601.269392	2540.741538
601.619978	2558.385577
601.970510	2495.371154
602.320988	2540.741538
602.671412	2490.330000
603.021783	2535.700385
603.372100	2507.974038
603.722363	2422.274423
604.072572	2500.412308
604.422728	2505.453462
604.772830	2513.015192
605.122878	2507.974038
605.472872	2570.988462
605.822813	2480.247692
606.172701	2462.603654
606.522534	2530.659231
606.872314	2553.344423
607.222041	2475.206538
607.571714	2550.823846
607.921333	2550.823846
608.270899	2485.288846
608.620411	2460.083077
608.969870	2467.644808
609.319276	2520.576923
609.668627	2480.247692
610.017926	2538.220962
610.367171	2550.823846
610.716362	2477.727115
611.065500	2460.083077
611.414585	2555.865000
611.763616	2513.015192
612.112594	2545.782692
612.461518	2568.467885
612.810389	2470.165385
613.159207	2543.262115
613.507971	2515.535769
613.856682	2563.426731
614.205340	2497.891731
614.553945	2555.865000
614.902496	2450.000769
615.250994	2507.974038
615.599439	2475.206538
615.947830	2578.550192
616.296169	2427.315577
616.644454	2439.918462
616.992686	2523.097500
617.340864	2467.644808
617.688990	2497.891731
618.037063	2487.809423
618.385082	2510.494615
618.733048	2520.576923
619.080961	2573.509038
619.428821	2422.274423
619.776628	2472.685962
620.124382	2505.453462
620.472083	2535.700385
620.819731	2560.906154
621.167326	2485.288846
621.514868	2565.947308
621.862357	2533.179808
622.209793	2447.480192
622.557176	2565.947308
622.904506	2437.397885
623.251783	2507.974038
623.599007	2570.988462
623.946179	2538.220962
624.293297	2563.426731
624.640363	2523.097500
624.987376	2548.303269
625.334336	2530.659231
625.681243	2482.768269
626.028097	2520.576923
626.374899	2550.823846
626.721647	2482.768269
627.068343	2485.288846
627.414987	2444.959615
627.761577	2490.330000
628.108115	2429.836154
628.454600	2505.453462
628.801032	2447.480192
629.147412	2477.727115
629.493739	2475.206538
629.840014	2434.877308
630.186236	2477.727115
630.532405	2563.426731
630.878521	2507.974038
631.224585	2563.426731
631.570597	2578.550192
631.916556	2513.015192
632.262462	2495.371154
632.608316	2518.056346
632.954117	2555.865000
633.299866	2447.480192
633.645562	2460.083077
633.991206	2528.138654
634.336797	2558.385577
634.682336	2381.945192
635.027823	2513.015192
635.373257	2434.877308
635.718639	2593.673654
636.063968	2528.138654
636.409245	2510.494615
636.754470	2510.494615
637.099642	2477.727115
637.444762	2465.124231
637.789829	2427.315577
638.134845	2480.247692
638.479808	2555.865000
638.824719	2432.356731
639.169577	2462.603654
639.514383	2502.932885
639.859137	2429.836154
640.203839	2538.220962
640.548489	2470.165385
640.893086	2555.865000
641.237632	2409.671538
641.582125	2444.959615
641.926566	2477.727115
642.270955	2596.194231
642.615292	2442.439038
642.959576	2555.865000
643.303809	2477.727115
643.647990	2523.097500
643.992118	2492.850577
644.336195	2505.453462
644.680219	2497.891731
645.024192	2513.015192
645.368112	2480.247692
645.711981	2540.741538
646.055797	2578.550192
646.399562	2442.439038
646.743274	2505.453462
647.086935	2409.671538
647.430544	2434.877308
647.774101	2492.850577
648.117606	2465.124231
648.461059	2502.932885
648.804460	2560.906154
649.147810	2543.262115
649.491108	2465.124231
649.834354	2452.521346
650.177548	2500.412308
650.520690	2515.535769
650.863781	2515.535769
651.206820	2457.562500
651.549807	2500.412308
651.892742	2485.288846
652.235626	2543.262115
652.578458	2507.974038
652.921238	2482.768269
653.263967	2470.165385
653.606644	2513.015192
653.949269	2525.618077
654.291843	2573.509038
654.634365	2601.235385
654.976836	2530.659231
655.319255	2500.412308
655.661622	2523.097500
656.003938	2480.247692
656.346203	2455.041923
656.688416	2540.741538
657.030577	2510.494615
657.372687	2515.535769
657.714746	2505.453462
658.056753	2417.233269
658.398708	2470.165385
658.740612	2399.589231
659.082465	2502.932885
659.424266	2457.562500
659.766016	2381.945192
660.107715	2450.000769
660.449362	2611.317692
660.790958	2606.276538
661.132503	2543.262115
661.473996	2419.753846
661.815438	2576.029615
662.156829	2485.288846
662.498168	2533.179808
662.839456	2465.124231
663.180693	2555.865000
663.521879	2507.974038
663.863013	2472.685962
664.204097	2525.618077
664.545129	2447.480192
664.886110	2518.056346
665.227040	2492.850577
665.567918	2510.494615
665.908746	2553.344423
666.249522	2482.768269
666.590248	2472.685962
666.930922	2490.330000
667.271545	2444.959615
667.612118	2545.782692
667.952639	2460.083077
668.293109	2429.836154
668.633528	2495.371154
668.973896	2558.385577
669.314213	2497.891731
669.654480	2490.330000
669.994695	2565.947308
670.334859	2538.220962
670.674973	2407.150962
671.015035	2492.850577
671.355047	2450.000769
671.695008	2578.550192
672.034918	2487.809423
672.374777	2452.521346
672.714585	2470.165385
673.054342	2460.083077
673.394049	2432.356731
673.733705	2548.303269
674.073310	2475.206538
674.412864	2576.029615
674.752368	2550.823846
675.091820	2530.659231
675.431223	2487.809423
675.770574	2502.932885
676.109875	2477.727115
676.449125	2510.494615
676.788324	2470.165385
677.127473	2452.521346
677.466571	2455.041923
677.805619	2548.303269
678.144616	2429.836154
678.483562	2490.330000
678.822458	2490.330000
679.161303	2548.303269
679.500098	2513.015192
679.838842	2515.535769
680.177535	2480.247692
680.516179	2540.741538
680.854771	2598.714808
681.193314	2520.576923
681.531805	2502.932885
681.870247	2450.000769
682.208638	2550.823846
682.546978	2472.685962
682.885268	2475.206538
683.223508	2485.288846
683.561697	2510.494615
683.899836	2500.412308
684.237925	2606.276538
684.575963	2492.850577
684.913951	2533.179808
685.251889	2490.330000
685.589776	2434.877308
685.927614	2563.426731
686.265401	2450.000769
686.603137	2530.659231
686.940824	2465.124231
687.278460	2402.109808
687.616046	2530.659231
687.953582	2475.206538
688.291068	2495.371154
688.628504	2528.138654
688.965889	2485.288846
689.303224	2490.330000
689.640510	2487.809423
689.977745	2558.385577
690.314930	2502.932885
690.652065	2523.097500
690.989150	2485.288846
691.326185	2492.850577
691.663170	2437.397885
692.000105	2525.618077
692.336990	2495.371154
692.673825	2513.015192
693.010610	2429.836154
693.347345	2437.397885
693.684030	2528.138654
694.020665	2502.932885
694.357251	2419.753846
694.693786	2535.700385
695.030272	2397.068654
695.366707	2457.562500
695.703093	2490.330000
696.039429	2470.165385
696.375716	2467.644808
696.711952	2482.768269
697.048139	2457.562500
697.384276	2535.700385
697.720363	2495.371154
698.056400	2492.850577
698.392388	2505.453462
698.728326	2507.974038
699.064214	2513.015192
699.400053	2538.220962
699.735842	2530.659231
700.071581	2472.685962
700.407270	2462.603654
700.742910	2434.877308
701.078501	2553.344423
701.414042	2485.288846
701.749533	2540.741538
702.084974	2455.041923
702.420366	2502.932885
702.755709	2450.000769
703.091002	2482.768269
703.426246	2520.576923
703.761440	2507.974038
704.096584	2455.041923
704.431679	2490.330000
704.766725	2535.700385
705.101721	2550.823846
705.436668	2573.509038
705.771565	2437.397885
706.106413	2515.535769
706.441212	2487.809423
706.775961	2515.535769
707.110661	2429.836154
707.445311	2497.891731
707.779913	2513.015192
708.114465	2442.439038
708.448967	2477.727115
708.783421	2470.165385
709.117825	2472.685962
709.452180	2510.494615
709.786485	2540.741538
710.120742	2397.068654
710.454949	2470.165385
710.789107	2535.700385
711.123216	2510.494615
711.457275	2460.083077
711.791286	2548.303269
712.125247	2545.782692
712.459159	2492.850577
712.793023	2545.782692
713.126837	2455.041923
713.460602	2533.179808
713.794318	2482.768269
714.127985	2394.548077
714.461602	2492.850577
714.795171	2518.056346
715.128691	2490.330000
715.462162	2475.206538
715.795584	2538.220962
716.128957	2515.535769
716.462281	2427.315577
716.795556	2560.906154
717.128782	2467.644808
717.461960	2513.015192
717.795088	2528.138654
718.128167	2422.274423
718.461198	2460.083077
718.794180	2507.974038
719.127113	2495.371154
719.459997	2533.179808
719.792833	2475.206538
720.125619	2485.288846
720.458357	2477.727115
720.791046	2376.904038
721.123686	2550.823846
721.456278	2528.138654
721.788821	2528.138654
722.121315	2543.262115
722.453761	2523.097500
722.786158	2429.836154
723.118506	2487.809423
723.450805	2492.850577
723.783056	2505.453462
724.115259	2510.494615
724.447412	2444.959615
724.779518	2502.932885
725.111574	2480.247692
725.443582	2513.015192
725.775542	2505.453462
726.107453	2497.891731
726.439315	2520.576923
726.771129	2576.029615
727.102895	2475.206538
727.434612	2507.974038
727.766281	2442.439038
728.097901	2485.288846
728.429473	2452.521346
728.760996	2477.727115
729.092471	2538.220962
729.423897	2515.535769
729.755276	2472.685962
730.086606	2460.083077
730.417887	2502.932885
730.749120	2497.891731
731.080305	2523.097500
731.411442	2520.576923
731.742530	2470.165385
732.073570	2520.576923
732.404562	2518.056346
732.735506	2480.247692
733.066401	2510.494615
733.397249	2560.906154
733.728048	2444.959615
734.058798	2548.303269
734.389501	2586.111923
734.720156	2500.412308
735.050762	2540.741538
735.381320	2518.056346
735.711831	2513.015192
736.042293	2472.685962
736.372707	2505.453462
736.703073	2460.083077
737.033391	2543.262115
737.363661	2460.083077
737.693883	2500.412308
738.024056	2452.521346
738.354182	2505.453462
738.684260	2424.795000
739.014290	2439.918462
739.344272	2485.288846
739.674207	2419.753846
740.004093	2497.891731
740.333931	2467.644808
740.663722	2631.482308
740.993464	2502.932885
741.323159	2399.589231
741.652806	2452.521346
741.982405	2482.768269
742.311956	2480.247692
742.641460	2576.029615
742.970915	2555.865000
743.300323	2414.712692
743.629683	2485.288846
743.958996	2424.795000
744.288260	2528.138654
744.617477	2623.920577
744.946647	2497.891731
745.275768	2568.467885
745.604842	2442.439038
745.933869	2502.932885
746.262847	2434.877308
746.591778	2518.056346
746.920662	2452.521346
747.249498	2520.576923
747.578286	2495.371154
747.907027	2457.562500
748.235720	2513.015192
748.564365	2510.494615
748.892963	2444.959615
749.221514	2467.644808
749.550017	2528.138654
749.878473	2520.576923
750.206881	2530.659231
750.535242	2492.850577
750.863555	2477.727115
751.191821	2467.644808
751.520039	2545.782692
751.848210	2520.576923
752.176334	2505.453462
752.504411	2538.220962
752.832440	2518.056346
753.160421	2533.179808
753.488356	2444.959615
753.816243	2553.344423
754.144082	2457.562500
754.471875	2553.344423
754.799620	2495.371154
755.127318	2533.179808
755.454969	2495.371154
755.782572	2523.097500
756.110129	2515.535769
756.437638	2482.768269
756.765100	2470.165385
757.092515	2422.274423
757.419882	2480.247692
757.747203	2492.850577
758.074477	2530.659231
758.401703	2500.412308
758.728882	2470.165385
759.056014	2540.741538
759.383099	2465.124231
759.710138	2505.453462
760.037129	2439.918462
760.364073	2460.083077
760.690970	2515.535769
761.017820	2502.932885
761.344623	2432.356731
761.671379	2530.659231
761.998088	2510.494615
762.324751	2513.015192
762.651366	2540.741538
762.977935	2379.424615
763.304456	2439.918462
763.630931	2450.000769
763.957359	2434.877308
764.283740	2510.494615
764.610074	2485.288846
764.936362	2515.535769
765.262602	2515.535769
765.588796	2457.562500
765.914943	2545.782692
766.241044	2467.644808
766.567097	2472.685962
766.893104	2462.603654
767.219064	2397.068654
767.544978	2432.356731
767.870845	2477.727115
768.196665	2545.782692
768.522438	2555.865000
768.848165	2482.768269
769.173846	2576.029615
769.499479	2548.303269
769.825066	2497.891731
770.150607	2538.220962
770.476101	2545.782692
770.801548	2447.480192
771.126949	2432.356731
771.452303	2457.562500
771.777611	2502.932885
772.102872	2518.056346
772.428087	2452.521346
772.753256	2465.124231
773.078378	2366.821731
773.403453	2576.029615
773.728482	2482.768269
774.053465	2540.741538
774.378401	2477.727115
774.703291	2477.727115
775.028135	2472.685962
775.352932	2505.453462
775.677683	2439.918462
776.002388	2513.015192
776.327046	2507.974038
776.651658	2525.618077
776.976224	2452.521346
777.300743	2535.700385
777.625216	2495.371154
777.949643	2437.397885
778.274024	2573.509038
778.598359	2535.700385
778.922647	2472.685962
779.246889	2482.768269
779.571086	2502.932885
779.895236	2550.823846
780.219339	2457.562500
780.543397	2460.083077
780.867409	2450.000769
781.191374	2500.412308
781.515294	2505.453462
781.839167	2462.603654
782.162995	2565.947308
782.486776	2424.795000
782.810511	2540.741538
783.134201	2457.562500
783.457844	2576.029615
783.781441	2583.591346
784.104993	2487.809423
784.428498	2424.795000
784.751958	2467.644808
785.075372	2462.603654
785.398739	2490.330000
785.722061	2427.315577
786.045337	2513.015192
786.368568	2507.974038
786.691752	2490.330000
787.014891	2455.041923
787.337983	2381.945192
787.661030	2455.041923
787.984031	2477.727115
788.306987	2520.576923
788.629897	2533.179808
788.952760	2565.947308
789.275579	2502.932885
789.598351	2548.303269
789.921078	2475.206538
790.243759	2545.782692
790.566395	2568.467885
790.888984	2434.877308
791.211529	2528.138654
791.534027	2487.809423
791.856480	2573.509038
792.178888	2513.015192
792.501249	2563.426731
792.823566	2457.562500
793.145836	2507.974038
793.468062	2500.412308
793.790241	2480.247692
794.112375	2480.247692
794.434464	2513.015192
794.756507	2381.945192
795.078505	2485.288846
795.400457	2616.358846
795.722364	2480.247692
796.044226	2485.288846
796.366042	2475.206538
796.687812	2502.932885
797.009538	2497.891731
797.331218	2520.576923
797.652852	2507.974038
797.974442	2497.891731
798.295986	2515.535769
798.617484	2427.315577
798.938938	2520.576923
799.260346	2482.768269
799.581709	2482.768269
799.903026	2502.932885
800.224299	2523.097500
800.545526	2394.548077
800.866708	2550.823846
801.187845	2480.247692
801.508936	2475.206538
801.829983	2505.453462
802.150984	2513.015192
802.471940	2500.412308
802.792851	2414.712692
803.113717	2568.467885
803.434538	2497.891731
803.755314	2465.124231
804.076045	2485.288846
804.396731	2442.439038
804.717372	2442.439038
805.037967	2548.303269
805.358518	2513.015192
805.679024	2407.150962
805.999485	2530.659231
806.319901	2450.000769
806.640272	2523.097500
806.960598	2475.206538
807.280879	2497.891731
807.601115	2450.000769
807.921306	2475.206538
808.241453	2455.041923
808.561554	2507.974038
808.881611	2442.439038
809.201623	2455.041923
809.521590	2412.192115
809.841513	2507.974038
810.161390	2513.015192
810.481223	2540.741538
810.801011	2477.727115
811.120755	2485.288846
811.440453	2422.274423
811.760107	2450.000769
812.079716	2515.535769
812.399281	2528.138654
812.718801	2492.850577
813.038276	2591.153077
813.357707	2465.124231
813.677093	2593.673654
813.996434	2523.097500
814.315731	2450.000769
814.634983	2384.465769
814.954191	2497.891731
815.273354	2475.206538
815.592473	2530.659231
815.911547	2550.823846
816.230577	2518.056346
816.549562	2452.521346
816.868502	2452.521346
817.187399	2500.412308
817.506250	2535.700385
817.825058	2376.904038
818.143821	2520.576923
818.462539	2475.206538
818.781213	2399.589231
819.099843	2477.727115
819.418429	2482.768269
819.736970	2485.288846
820.055466	2513.015192
820.373919	2455.041923
820.692327	2507.974038
821.010691	2475.206538
821.329011	2492.850577
821.647286	2389.506923
821.965517	2472.685962
822.283704	2502.932885
822.601847	2502.932885
822.919945	2570.988462
823.237999	2535.700385
823.556010	2485.288846
823.873976	2525.618077
824.191897	2490.330000
824.509775	2500.412308
824.827609	2502.932885
825.145398	2497.891731
825.463144	2548.303269
825.780845	2399.589231
826.098502	2530.659231
826.416116	2540.741538
826.733685	2573.509038
827.051210	2462.603654
827.368692	2530.659231
827.686129	2444.959615
828.003522	2500.412308
828.320872	2450.000769
828.638177	2490.330000
828.955439	2429.836154
829.272656	2457.562500
829.589830	2525.618077
829.906960	2475.206538
830.224046	2540.741538
830.541088	2520.576923
830.858086	2513.015192
831.175041	2543.262115
831.491952	2442.439038
831.808819	2591.153077
832.125642	2530.659231
832.442421	2550.823846
832.759157	2465.124231
833.075849	2560.906154
833.392497	2490.330000
833.709101	2525.618077
834.025662	2545.782692
834.342179	2487.809423
834.658653	2540.741538
834.975083	2475.206538
835.291469	2507.974038
835.607811	2422.274423
835.924110	2548.303269
836.240366	2500.412308
836.556578	2523.097500
836.872746	2533.179808
837.188871	2560.906154
837.504952	2603.755962
837.820990	2460.083077
838.136984	2545.782692
838.452935	2465.124231
838.768842	2475.206538
839.084706	2414.712692
839.400526	2475.206538
839.716303	2422.274423
840.032037	2447.480192
840.347727	2437.397885
840.663373	2497.891731
840.978977	2472.685962
841.294537	2510.494615
841.610054	2513.015192
841.925527	2538.220962
842.240957	2467.644808
842.556344	2455.041923
842.871687	2465.124231
843.186987	2510.494615
843.502244	2437.397885
843.817458	2381.945192
844.132629	2447.480192
844.447756	2507.974038
844.762840	2535.700385
845.077881	2523.097500
845.392879	2470.165385
845.707833	2462.603654
846.022745	2487.809423
846.337613	2548.303269
846.652438	2480.247692
846.967221	2535.700385
847.281960	2434.877308
847.596656	2492.850577
847.911309	2543.262115
848.225919	2450.000769
848.540485	2523.097500
848.855009	2523.097500
849.169490	2560.906154
849.483928	2429.836154
849.798323	2485.288846
850.112675	2540.741538
850.426984	2424.795000
850.741251	2510.494615
851.055474	2460.083077
851.369654	2518.056346
851.683792	2540.741538
851.997887	2452.521346
852.311938	2560.906154
852.625947	2560.906154
852.939914	2513.015192
853.253837	2550.823846
853.567718	2525.618077
853.881555	2465.124231
854.195350	2465.124231
854.509103	2495.371154
854.822812	2550.823846
855.136479	2603.755962
855.450103	2528.138654
855.763685	2588.632500
856.077224	2558.385577
856.390720	2465.124231
856.704173	2520.576923
857.017584	2477.727115
857.330953	2563.426731
857.644278	2533.179808
857.957561	2518.056346
858.270802	2515.535769
858.584000	2618.879423
858.897155	2586.111923
859.210268	2379.424615
859.523339	2518.056346
859.836367	2578.550192
860.149352	2477.727115
860.462295	2452.521346
860.775195	2470.165385
861.088054	2603.755962
861.400869	2437.397885
861.713642	2422.274423
862.026373	2450.000769
862.339062	2515.535769
862.651708	2510.494615
862.964312	2502.932885
863.276873	2444.959615
863.589392	2540.741538
863.901869	2548.303269
864.214303	2500.412308
864.526696	2545.782692
864.839045	2467.644808
865.151353	2460.083077
865.463619	2533.179808
865.775842	2505.453462
866.088023	2523.097500
866.400162	2457.562500
866.712258	2545.782692
867.024313	2480.247692
867.336325	2462.603654
867.648296	2520.576923
867.960224	2442.439038
868.272110	2502.932885
868.583954	2475.206538
868.895755	2495.371154
869.207515	2434.877308
869.519233	2515.535769
869.830909	2444.959615
870.142542	2548.303269
870.454134	2518.056346
870.765684	2523.097500
871.077191	2492.850577
871.388657	2523.097500
871.700081	2447.480192
872.011463	2548.303269
872.322803	2500.412308
872.634101	2525.618077
872.945357	2455.041923
873.256571	2442.439038
873.567744	2457.562500
873.878874	2465.124231
874.189963	2543.262115
874.501010	2452.521346
874.812015	2434.877308
875.122979	2477.727115
875.433900	2513.015192
875.744780	2470.165385
876.055618	2520.576923
876.366415	2467.644808
876.677169	2548.303269
876.987882	2384.465769
877.298554	2475.206538
877.609183	2439.918462
877.919771	2523.097500
878.230317	2442.439038
878.540822	2452.521346
878.851285	2513.015192
879.161707	2444.959615
879.472087	2434.877308
879.782425	2535.700385
880.092722	2475.206538
880.402977	2475.206538
880.713191	2518.056346
881.023363	2497.891731
881.333494	2442.439038
881.643583	2437.397885
881.953631	2482.768269
882.263637	2467.644808
882.573602	2462.603654
882.883526	2379.424615
883.193408	2432.356731
883.503248	2510.494615
883.813048	2513.015192
884.122806	2505.453462
884.432522	2429.836154
884.742197	2470.165385
885.051831	2439.918462
885.361424	2495.371154
885.670975	2497.891731
885.980485	2591.153077
886.289954	2450.000769
886.599382	2540.741538
886.908768	2598.714808
887.218113	2417.233269
887.527417	2565.947308
887.836680	2434.877308
888.145901	2540.741538
888.455082	2417.233269
888.764221	2533.179808
889.073319	2462.603654
889.382376	2523.097500
889.691392	2515.535769
890.000366	2533.179808
890.309300	2576.029615
890.618193	2535.700385
890.927044	2450.000769
891.235855	2407.150962
891.544625	2555.865000
891.853353	2462.603654
892.162041	2502.932885
892.470687	2429.836154
892.779293	2598.714808
893.087858	2412.192115
893.396381	2429.836154
893.704864	2540.741538
894.013306	2460.083077
894.321707	2523.097500
894.630068	2444.959615
894.938387	2490.330000
895.246665	2495.371154
895.554903	2450.000769
895.863100	2424.795000
896.171256	2502.932885
896.479371	2419.753846
896.787446	2538.220962
897.095480	2419.753846
897.403473	2467.644808
897.711425	2505.453462
898.019336	2525.618077
898.327207	2518.056346
898.635038	2505.453462
898.942827	2452.521346
899.250576	2482.768269
899.558284	2462.603654
899.865952	2507.974038
900.173579	2528.138654
900.481165	2470.165385
900.788711	2424.795000
901.096216	2465.124231
901.403681	2513.015192
901.711105	2507.974038
902.018489	2520.576923
902.325832	2442.439038
902.633135	2543.262115
902.940397	2560.906154
903.247619	2457.562500
903.554800	2505.453462
903.861941	2444.959615
904.169041	2419.753846
904.476101	2475.206538
904.783121	2523.097500
905.090100	2548.303269
905.397039	2507.974038
905.703938	2480.247692
906.010796	2432.356731
906.317614	2490.330000
906.624391	2533.179808
906.931129	2492.850577
907.237826	2495.371154
907.544483	2525.618077
907.851099	2434.877308
908.157675	2364.301154
908.464211	2485.288846
908.770707	2502.932885
909.077163	2538.220962
909.383578	2462.603654
909.689954	2518.056346
909.996289	2482.768269
910.302584	2540.741538
910.608839	2462.603654
910.915054	2470.165385
911.221229	2548.303269
911.527363	2570.988462
911.833458	2500.412308
912.139513	2586.111923
912.445527	2465.124231
912.751502	2553.344423
913.057436	2389.506923
913.363331	2545.782692
913.669186	2457.562500
913.975000	2442.439038
914.280775	2470.165385
914.586510	2480.247692
914.892205	2467.644808
915.197859	2437.397885
915.503475	2490.330000
915.809050	2374.383462
916.114585	2510.494615
916.420081	2482.768269
916.725536	2432.356731
917.030952	2475.206538
917.336328	2472.685962
917.641665	2535.700385
917.946961	2530.659231
918.252218	2434.877308
918.557435	2477.727115
918.862612	2586.111923
919.167750	2462.603654
919.472848	2465.124231
919.777906	2462.603654
920.082925	2467.644808
920.387904	2543.262115
920.692843	2444.959615
920.997743	2482.768269
921.302603	2510.494615
921.607423	2472.685962
921.912204	2560.906154
922.216946	2568.467885
922.521647	2465.124231
922.826310	2560.906154
923.130932	2576.029615
923.435516	2550.823846
923.740059	2452.521346
924.044564	2457.562500
924.349028	2450.000769
924.653454	2533.179808
924.957840	2490.330000
925.262186	2495.371154
925.566493	2553.344423
925.870761	2419.753846
926.174989	2525.618077
926.479178	2550.823846
926.783328	2502.932885
927.087438	2480.247692
927.391509	2520.576923
927.695541	2543.262115
927.999533	2555.865000
928.303486	2470.165385
928.607400	2525.618077
928.911275	2480.247692
929.215110	2510.494615
929.518906	2518.056346
929.822663	2535.700385
930.126381	2563.426731
930.430060	2404.630385
930.733699	2495.371154
931.037299	2518.056346
931.340861	2558.385577
931.644383	2450.000769
931.947866	2502.932885
932.251309	2497.891731
932.554714	2487.809423
932.858080	2558.385577
933.161407	2545.782692
933.464694	2525.618077
933.767943	2513.015192
934.071153	2477.727115
934.374323	2477.727115
934.677455	2492.850577
934.980548	2407.150962
935.283602	2500.412308
935.586617	2482.768269
935.889593	2507.974038
936.192530	2404.630385
936.495428	2513.015192
936.798287	2636.523462
937.101108	2515.535769
937.403890	2487.809423
937.706632	2462.603654
938.009336	2535.700385
938.312002	2412.192115
938.614628	2523.097500
938.917216	2467.644808
939.219765	2560.906154
939.522275	2412.192115
939.824747	2444.959615
940.127179	2505.453462
940.429573	2412.192115
940.731929	2535.700385
941.034246	2465.124231
941.336524	2507.974038
941.638763	2477.727115
941.940964	2450.000769
942.243126	2538.220962
942.545250	2397.068654
942.847335	2422.274423
943.149381	2467.644808
943.451389	2515.535769
943.753359	2477.727115
944.055290	2502.932885
944.357182	2530.659231
944.659036	2427.315577
944.960851	2492.850577
945.262628	2538.220962
945.564367	2525.618077
945.866067	2475.206538
946.167729	2507.974038
946.469352	2535.700385
946.770937	2472.685962
947.072484	2447.480192
947.373992	2518.056346
947.675462	2528.138654
947.976893	2502.932885
948.278286	2535.700385
948.579641	2513.015192
948.880958	2518.056346
949.182236	2497.891731
949.483476	2495.371154
949.784678	2477.727115
950.085841	2495.371154
950.386967	2593.673654
950.688054	2533.179808
950.989103	2543.262115
951.290114	2528.138654
951.591087	2417.233269
951.892021	2520.576923
952.192917	2465.124231
952.493776	2540.741538
952.794596	2457.562500
953.095378	2528.138654
953.396122	2490.330000
953.696828	2588.632500
953.997496	2434.877308
954.298126	2412.192115
954.598718	2472.685962
954.899272	2455.041923
955.199788	2472.685962
955.500266	2432.356731
955.800706	2555.865000
956.101108	2510.494615
956.401472	2507.974038
956.701798	2495.371154
957.002087	2439.918462
957.302337	2482.768269
957.602550	2490.330000
957.902724	2442.439038
958.202861	2442.439038
958.502960	2424.795000
958.803022	2444.959615
959.103045	2520.576923
959.403031	2500.412308
959.702979	2515.535769
960.002889	2558.385577
960.302762	2407.150962
960.602596	2515.535769
960.902393	2485.288846
961.202153	2442.439038
961.501875	2538.220962
961.801559	2487.809423
962.101205	2447.480192
962.400814	2548.303269
962.700385	2505.453462
962.999918	2442.439038
963.299414	2447.480192
963.598873	2507.974038
963.898293	2452.521346
964.197677	2452.521346
964.497022	2545.782692
964.796331	2518.056346
965.095601	2412.192115
965.394835	2480.247692
965.694030	2414.712692
965.993189	2452.521346
966.292309	2528.138654
966.591393	2480.247692
966.890439	2460.083077
967.189447	2507.974038
967.488419	2535.700385
967.787353	2412.192115
968.086249	2495.371154
968.385108	2515.535769
968.683930	2492.850577
968.982714	2477.727115
969.281462	2455.041923
969.580172	2472.685962
969.878844	2437.397885
970.177480	2515.535769
970.476078	2588.632500
970.774639	2442.439038
971.073162	2505.453462
971.371649	2381.945192
971.670098	2437.397885
971.968510	2502.932885
972.266885	2394.548077
972.565223	2538.220962
972.863524	2490.330000
973.161788	2502.932885
973.460014	2465.124231
973.758204	2618.879423
974.056356	2502.932885
974.354471	2495.371154
974.652550	2444.959615
974.950591	2447.480192
975.248595	2447.480192
975.546563	2495.371154
975.844493	2427.315577
976.142386	2487.809423
976.440243	2608.797115
976.738062	2457.562500
977.035845	2492.850577
977.333590	2513.015192
977.631299	2457.562500
977.928971	2432.356731
978.226606	2381.945192
978.524204	2500.412308
978.821765	2480.247692
979.119290	2407.150962
979.416777	2555.865000
979.714228	2490.330000
980.011642	2444.959615
980.309020	2470.165385
980.606360	2578.550192
980.903664	2477.727115
981.200931	2485.288846
981.498162	2422.274423
981.795356	2485.288846
982.092513	2487.809423
982.389633	2507.974038
982.686717	2467.644808
982.983764	2465.124231
983.280775	2447.480192
983.577749	2533.179808
983.874686	2482.768269
984.171587	2376.904038
984.468451	2487.809423
984.765279	2447.480192
985.062070	2480.247692
985.358824	2455.041923
985.655543	2593.673654
985.952224	2472.685962
986.248869	2467.644808
986.545478	2434.877308
986.842050	2452.521346
987.138586	2399.589231
987.435086	2444.959615
987.731549	2472.685962
988.027975	2513.015192
988.324366	2465.124231
988.620719	2444.959615
988.917037	2482.768269
989.213318	2495.371154
989.509563	2576.029615
989.805772	2558.385577
990.101944	2472.685962
990.398080	2500.412308
990.694180	2538.220962
990.990244	2563.426731
991.286271	2513.015192
991.582262	2470.165385
991.878217	2455.041923
992.174136	2513.015192
992.470019	2565.947308
992.765865	2455.041923
993.061676	2510.494615
993.357450	2538.220962
993.653188	2500.412308
993.948890	2487.809423
994.244556	2427.315577
994.540186	2354.218846
994.835780	2518.056346
995.131337	2520.576923
995.426859	2507.974038
995.722345	2497.891731
996.017795	2538.220962
996.313208	2432.356731
996.608586	2359.260000
996.903928	2502.932885
997.199234	2538.220962
997.494504	2386.986346
997.789738	2525.618077
998.084936	2520.576923
998.380099	2480.247692
998.675225	2467.644808
998.970316	2543.262115
999.265371	2548.303269
999.560390	2505.453462
999.855373	2475.206538
1000.150320	2523.097500
1000.445232	2510.494615
1000.740108	2447.480192
1001.034948	2573.509038
1001.329752	2507.974038
1001.624521	2480.247692
1001.919254	2515.535769
1002.213951	2507.974038
1002.508613	2450.000769
1002.803239	2482.768269
1003.097829	2460.083077
1003.392384	2543.262115
1003.686903	2593.673654
1003.981386	2460.083077
1004.275834	2429.836154
1004.570246	2450.000769
1004.864623	2490.330000
1005.158964	2525.618077
1005.453270	2505.453462
1005.747540	2500.412308
1006.041775	2505.453462
1006.335974	2429.836154
1006.630138	2462.603654
1006.924266	2442.439038
1007.218359	2515.535769
1007.512416	2518.056346
1007.806438	2530.659231
1008.100425	2450.000769
1008.394376	2510.494615
1008.688292	2427.315577
1008.982172	2507.974038
1009.276017	2419.753846
1009.569827	2429.836154
1009.863602	2434.877308
1010.157341	2507.974038
1010.451045	2437.397885
1010.744714	2444.959615
1011.038347	2475.206538
1011.331945	2507.974038
1011.625508	2513.015192
1011.919036	2482.768269
1012.212528	2538.220962
1012.505986	2558.385577
1012.799408	2442.439038
1013.092795	2475.206538
1013.386147	2500.412308
1013.679464	2432.356731
1013.972745	2563.426731
1014.265992	2475.206538
1014.559204	2432.356731
1014.852380	2429.836154
1015.145521	2490.330000
1015.438628	2490.330000
1015.731699	2507.974038
1016.024736	2581.070769
1016.317737	2434.877308
1016.610703	2429.836154
1016.903635	2490.330000
1017.196531	2407.150962
1017.489393	2455.041923
1017.782219	2467.644808
1018.075011	2540.741538
1018.367768	2470.165385
1018.660490	2427.315577
1018.953177	2427.315577
1019.245829	2427.315577
