Dividing Wavelength (nm)	Counts (n)	Blue Motor Position (mm): 6.300000	Red Motor Position (mm): 0.000000	
326.493990	2124.846346
326.888308	2124.846346
327.282561	2124.846346
327.676750	2064.352500
328.070874	2107.202308
328.464933	2084.517115
328.858929	2031.585000
329.252859	2074.434808
329.646726	2074.434808
330.040528	2147.531538
330.434265	2150.052115
330.827938	2210.545962
331.221547	2190.381346
331.615091	2124.846346
332.008571	2192.901923
332.401986	2172.737308
332.795338	2208.025385
333.188625	2268.519231
333.581847	2271.039808
333.975006	2250.875192
334.368100	2286.163269
334.761129	2278.601538
335.154095	2334.054231
335.546996	2339.095385
335.939833	2369.342308
336.332606	2376.904038
336.725315	2364.301154
337.117960	2376.904038
337.510540	2485.288846
337.903056	2450.000769
338.295508	2457.562500
338.687896	2502.932885
339.080220	2472.685962
339.472480	2513.015192
339.864676	2424.795000
340.256807	2402.109808
340.648875	2510.494615
341.040879	2359.260000
341.432818	2480.247692
341.824694	2502.932885
342.216506	2510.494615
342.608253	2485.288846
342.999937	2419.753846
343.391557	2525.618077
343.783113	2601.235385
344.174605	2399.589231
344.566033	2417.233269
344.957397	2414.712692
345.348697	2553.344423
345.739934	2520.576923
346.131106	2384.465769
346.522215	2412.192115
346.913260	2487.809423
347.304241	2389.506923
347.695159	2444.959615
348.086012	2432.356731
348.476802	2389.506923
348.867528	2447.480192
349.258191	2455.041923
349.648789	2513.015192
350.039324	2555.865000
350.429796	2434.877308
350.820203	2386.986346
351.210548	2381.945192
351.600828	2485.288846
351.991045	2402.109808
352.381198	2462.603654
352.771288	2487.809423
353.161314	2455.041923
353.551276	2472.685962
353.941175	2414.712692
354.331010	2439.918462
354.720782	2487.809423
355.110490	2427.315577
355.500135	2409.671538
355.889717	2402.109808
356.279235	2500.412308
356.668689	2402.109808
357.058080	2477.727115
357.447408	2465.124231
357.836672	2460.083077
358.225873	2444.959615
358.615010	2475.206538
359.004084	2407.150962
359.393095	2502.932885
359.782043	2419.753846
360.170927	2326.492500
360.559748	2432.356731
360.948505	2437.397885
361.337199	2374.383462
361.725830	2389.506923
362.114398	2366.821731
362.502903	2404.630385
362.891344	2462.603654
363.279722	2432.356731
363.668037	2485.288846
364.056289	2447.480192
364.444478	2422.274423
364.832603	2510.494615
365.220665	2455.041923
365.608665	2472.685962
365.996601	2482.768269
366.384474	2364.301154
366.772284	2535.700385
367.160031	2447.480192
367.547715	2409.671538
367.935336	2450.000769
368.322893	2442.439038
368.710388	2407.150962
369.097820	2477.727115
369.485189	2460.083077
369.872495	2394.548077
370.259738	2424.795000
370.646918	2528.138654
371.034035	2457.562500
371.421090	2455.041923
371.808081	2462.603654
372.195010	2487.809423
372.581875	2402.109808
372.968678	2548.303269
373.355418	2492.850577
373.742096	2404.630385
374.128710	2487.809423
374.515262	2505.453462
374.901751	2417.233269
375.288177	2399.589231
375.674540	2492.850577
376.060841	2442.439038
376.447079	2402.109808
376.833254	2442.439038
377.219367	2490.330000
377.605417	2490.330000
377.991404	2465.124231
378.377329	2545.782692
378.763191	2455.041923
379.148991	2510.494615
379.534727	2515.535769
379.920402	2487.809423
380.306013	2462.603654
380.691563	2366.821731
381.077049	2500.412308
381.462474	2472.685962
381.847835	2482.768269
382.233134	2450.000769
382.618371	2397.068654
383.003545	2450.000769
383.388657	2444.959615
383.773706	2409.671538
384.158693	2500.412308
384.543618	2492.850577
384.928480	2505.453462
385.313280	2417.233269
385.698017	2525.618077
386.082692	2394.548077
386.467305	2389.506923
386.851856	2412.192115
387.236344	2472.685962
387.620770	2513.015192
388.005133	2397.068654
388.389435	2424.795000
388.773674	2465.124231
389.157851	2545.782692
389.541965	2439.918462
389.926018	2407.150962
390.310008	2432.356731
390.693936	2487.809423
391.077802	2442.439038
391.461606	2485.288846
391.845348	2482.768269
392.229027	2439.918462
392.612645	2588.632500
392.996200	2460.083077
393.379694	2492.850577
393.763125	2429.836154
394.146494	2470.165385
394.529801	2427.315577
394.913047	2308.848462
395.296230	2510.494615
395.679351	2389.506923
396.062410	2455.041923
396.445408	2502.932885
396.828343	2389.506923
397.211217	2419.753846
397.594028	2475.206538
397.976778	2452.521346
398.359466	2444.959615
398.742092	2419.753846
399.124656	2439.918462
399.507158	2523.097500
399.889598	2530.659231
400.271977	2452.521346
400.654294	2515.535769
401.036549	2384.465769
401.418742	2424.795000
401.800874	2465.124231
402.182944	2450.000769
402.564952	2417.233269
402.946898	2452.521346
403.328783	2437.397885
403.710606	2528.138654
404.092367	2500.412308
404.474067	2462.603654
404.855705	2384.465769
405.237282	2528.138654
405.618797	2432.356731
406.000250	2470.165385
406.381642	2414.712692
406.762972	2492.850577
407.144240	2553.344423
407.525447	2505.453462
407.906593	2460.083077
408.287677	2518.056346
408.668700	2414.712692
409.049661	2439.918462
409.430560	2513.015192
409.811399	2409.671538
410.192176	2528.138654
410.572891	2442.439038
410.953545	2475.206538
411.334138	2510.494615
411.714669	2480.247692
412.095139	2487.809423
412.475547	2404.630385
412.855894	2462.603654
413.236180	2525.618077
413.616405	2480.247692
413.996568	2477.727115
414.376670	2543.262115
414.756711	2475.206538
415.136691	2417.233269
415.516609	2525.618077
415.896466	2437.397885
416.276262	2364.301154
416.655997	2472.685962
417.035670	2507.974038
417.415283	2487.809423
417.794834	2502.932885
418.174324	2462.603654
418.553753	2470.165385
418.933121	2467.644808
419.312428	2462.603654
419.691674	2470.165385
420.070859	2444.959615
420.449983	2465.124231
420.829045	2492.850577
421.208047	2424.795000
421.586988	2455.041923
421.965867	2482.768269
422.344686	2422.274423
422.723444	2490.330000
423.102141	2472.685962
423.480777	2427.315577
423.859352	2500.412308
424.237866	2475.206538
424.616319	2485.288846
424.994712	2439.918462
425.373044	2518.056346
425.751314	2465.124231
426.129524	2497.891731
426.507673	2502.932885
426.885762	2490.330000
427.263789	2533.179808
427.641756	2487.809423
428.019662	2497.891731
428.397508	2475.206538
428.775292	2500.412308
429.153016	2515.535769
429.530679	2507.974038
429.908282	2528.138654
430.285824	2487.809423
430.663305	2450.000769
431.040726	2482.768269
431.418086	2467.644808
431.795385	2482.768269
432.172624	2447.480192
432.549802	2490.330000
432.926920	2455.041923
433.303977	2518.056346
433.680974	2455.041923
434.057910	2538.220962
434.434786	2409.671538
434.811601	2452.521346
435.188355	2533.179808
435.565050	2523.097500
435.941683	2442.439038
436.318257	2480.247692
436.694770	2510.494615
437.071222	2520.576923
437.447614	2475.206538
437.823946	2394.548077
438.200218	2450.000769
438.576429	2576.029615
438.952580	2540.741538
439.328670	2523.097500
439.704700	2467.644808
440.080670	2495.371154
440.456580	2462.603654
440.832429	2409.671538
441.208218	2460.083077
441.583947	2467.644808
441.959616	2452.521346
442.335224	2455.041923
442.710773	2500.412308
443.086261	2540.741538
443.461689	2523.097500
443.837057	2535.700385
444.212365	2457.562500
444.587612	2465.124231
444.962800	2495.371154
445.337927	2364.301154
445.712995	2371.862885
446.088002	2513.015192
446.462949	2477.727115
446.837837	2497.891731
447.212664	2462.603654
447.587431	2555.865000
447.962139	2424.795000
448.336786	2523.097500
448.711374	2538.220962
449.085901	2520.576923
449.460369	2402.109808
449.834776	2573.509038
450.209124	2545.782692
450.583412	2543.262115
450.957640	2530.659231
451.331808	2465.124231
451.705917	2530.659231
452.079965	2553.344423
452.453954	2540.741538
452.827883	2520.576923
453.201752	2507.974038
453.575562	2515.535769
453.949311	2520.576923
454.323001	2460.083077
454.696632	2434.877308
455.070202	2482.768269
455.443713	2477.727115
455.817164	2424.795000
456.190556	2505.453462
456.563888	2528.138654
456.937160	2515.535769
457.310373	2533.179808
457.683526	2518.056346
458.056619	2422.274423
458.429653	2422.274423
458.802628	2487.809423
459.175542	2485.288846
459.548398	2457.562500
459.921194	2495.371154
460.293930	2465.124231
460.666607	2523.097500
461.039224	2447.480192
461.411782	2492.850577
461.784280	2412.192115
462.156719	2487.809423
462.529099	2540.741538
462.901419	2457.562500
463.273680	2444.959615
463.645882	2520.576923
464.018024	2417.233269
464.390106	2591.153077
464.762130	2497.891731
465.134094	2518.056346
465.505999	2450.000769
465.877845	2558.385577
466.249631	2460.083077
466.621358	2528.138654
466.993026	2518.056346
467.364634	2439.918462
467.736184	2412.192115
468.107674	2475.206538
468.479105	2518.056346
468.850477	2482.768269
469.221790	2555.865000
469.593043	2409.671538
469.964238	2528.138654
470.335373	2447.480192
470.706449	2475.206538
471.077467	2502.932885
471.448425	2465.124231
471.819324	2518.056346
472.190164	2437.397885
472.560945	2502.932885
472.931667	2530.659231
473.302330	2457.562500
473.672934	2548.303269
474.043479	2467.644808
474.413965	2429.836154
474.784393	2480.247692
475.154761	2558.385577
475.525070	2518.056346
475.895321	2472.685962
476.265513	2485.288846
476.635645	2540.741538
477.005719	2669.290962
477.375734	2558.385577
477.745691	2530.659231
478.115588	2492.850577
478.485427	2565.947308
478.855207	2472.685962
479.224928	2563.426731
479.594591	2424.795000
479.964194	2495.371154
480.333739	2472.685962
480.703226	2530.659231
481.072653	2480.247692
481.442022	2548.303269
481.811333	2523.097500
482.180584	2500.412308
482.549777	2450.000769
482.918912	2520.576923
483.287988	2497.891731
483.657005	2460.083077
484.025964	2565.947308
484.394864	2404.630385
484.763706	2520.576923
485.132489	2513.015192
485.501213	2535.700385
485.869879	2437.397885
486.238487	2523.097500
486.607036	2525.618077
486.975527	2525.618077
487.343959	2487.809423
487.712333	2477.727115
488.080648	2460.083077
488.448905	2487.809423
488.817104	2543.262115
489.185244	2482.768269
489.553326	2533.179808
489.921350	2565.947308
490.289315	2528.138654
490.657222	2490.330000
491.025070	2535.700385
491.392861	2510.494615
491.760593	2538.220962
492.128267	2432.356731
492.495883	2424.795000
492.863440	2518.056346
493.230939	2470.165385
493.598380	2467.644808
493.965763	2540.741538
494.333088	2518.056346
494.700354	2558.385577
495.067563	2444.959615
495.434713	2533.179808
495.801805	2465.124231
496.168839	2523.097500
496.535815	2417.233269
496.902733	2452.521346
497.269593	2555.865000
497.636395	2462.603654
498.003139	2510.494615
498.369825	2502.932885
498.736453	2545.782692
499.103023	2588.632500
499.469535	2470.165385
499.835989	2601.235385
500.202385	2450.000769
500.568723	2543.262115
500.935003	2518.056346
501.301226	2495.371154
501.667390	2515.535769
502.033497	2500.412308
502.399546	2470.165385
502.765537	2477.727115
503.131470	2402.109808
503.497345	2381.945192
503.863163	2434.877308
504.228923	2510.494615
504.594625	2583.591346
504.960269	2540.741538
505.325856	2439.918462
505.691385	2482.768269
506.056856	2515.535769
506.422270	2510.494615
506.787625	2490.330000
507.152924	2550.823846
507.518164	2525.618077
507.883347	2523.097500
508.248472	2470.165385
508.613540	2485.288846
508.978550	2470.165385
509.343503	2553.344423
509.708398	2510.494615
510.073236	2480.247692
510.438016	2452.521346
510.802738	2505.453462
511.167403	2495.371154
511.532010	2505.453462
511.896561	2495.371154
512.261053	2495.371154
512.625488	2467.644808
512.989866	2502.932885
513.354186	2447.480192
513.718449	2507.974038
514.082655	2492.850577
514.446803	2528.138654
514.810894	2455.041923
515.174927	2492.850577
515.538904	2533.179808
515.902822	2485.288846
516.266684	2528.138654
516.630488	2477.727115
516.994235	2535.700385
517.357925	2515.535769
517.721558	2523.097500
518.085133	2507.974038
518.448651	2477.727115
518.812112	2452.521346
519.175516	2502.932885
519.538863	2450.000769
519.902152	2518.056346
520.265385	2528.138654
520.628560	2485.288846
520.991678	2510.494615
521.354739	2485.288846
521.717743	2467.644808
522.080690	2548.303269
522.443580	2457.562500
522.806413	2555.865000
523.169189	2417.233269
523.531908	2583.591346
523.894569	2538.220962
524.257174	2472.685962
524.619722	2472.685962
524.982213	2477.727115
525.344647	2545.782692
525.707025	2472.685962
526.069345	2424.795000
526.431608	2475.206538
526.793815	2467.644808
527.155964	2482.768269
527.518057	2359.260000
527.880093	2523.097500
528.242072	2533.179808
528.603995	2442.439038
528.965860	2530.659231
529.327669	2434.877308
529.689421	2525.618077
530.051117	2450.000769
530.412755	2485.288846
530.774337	2586.111923
531.135862	2588.632500
531.497331	2523.097500
531.858743	2475.206538
532.220098	2492.850577
532.581396	2417.233269
532.942638	2467.644808
533.303824	2500.412308
533.664953	2568.467885
534.026025	2414.712692
534.387040	2487.809423
534.747999	2553.344423
535.108902	2500.412308
535.469748	2482.768269
535.830537	2573.509038
536.191270	2467.644808
536.551947	2545.782692
536.912567	2525.618077
537.273131	2460.083077
537.633638	2540.741538
537.994089	2467.644808
538.354483	2507.974038
538.714821	2518.056346
539.075103	2540.741538
539.435328	2510.494615
539.795497	2487.809423
540.155609	2492.850577
540.515665	2502.932885
540.875665	2525.618077
541.235609	2485.288846
541.595496	2548.303269
541.955328	2485.288846
542.315102	2530.659231
542.674821	2573.509038
543.034483	2412.192115
543.394090	2482.768269
543.753640	2548.303269
544.113134	2480.247692
544.472571	2540.741538
544.831953	2480.247692
545.191278	2520.576923
545.550548	2462.603654
545.909761	2465.124231
546.268918	2470.165385
546.628019	2530.659231
546.987064	2540.741538
547.346053	2480.247692
547.704986	2447.480192
548.063863	2586.111923
548.422684	2495.371154
548.781449	2455.041923
549.140158	2550.823846
549.498811	2492.850577
549.857408	2538.220962
550.215949	2553.344423
550.574434	2513.015192
550.932864	2490.330000
551.291237	2465.124231
551.649555	2432.356731
552.007817	2434.877308
552.366022	2505.453462
552.724173	2530.659231
553.082267	2518.056346
553.440305	2505.453462
553.798288	2412.192115
554.156215	2528.138654
554.514086	2485.288846
554.871902	2482.768269
555.229661	2518.056346
555.587365	2419.753846
555.945014	2553.344423
556.302606	2543.262115
556.660143	2525.618077
557.017625	2533.179808
557.375050	2480.247692
557.732421	2545.782692
558.089735	2475.206538
558.446994	2568.467885
558.804197	2490.330000
559.161345	2560.906154
559.518437	2588.632500
559.875474	2513.015192
560.232455	2568.467885
560.589381	2576.029615
560.946251	2434.877308
561.303065	2528.138654
561.659825	2485.288846
562.016528	2538.220962
562.373177	2437.397885
562.729770	2528.138654
563.086307	2497.891731
563.442789	2472.685962
563.799216	2407.150962
564.155587	2412.192115
564.511904	2523.097500
564.868164	2457.562500
565.224370	2565.947308
565.580520	2467.644808
565.936615	2490.330000
566.292654	2500.412308
566.648638	2492.850577
567.004567	2563.426731
567.360441	2467.644808
567.716260	2525.618077
568.072023	2560.906154
568.427732	2555.865000
568.783385	2550.823846
569.138982	2507.974038
569.494525	2467.644808
569.850013	2475.206538
570.205445	2507.974038
570.560823	2576.029615
570.916145	2447.480192
571.271412	2492.850577
571.626625	2497.891731
571.981782	2492.850577
572.336884	2457.562500
572.691931	2518.056346
573.046923	2500.412308
573.401860	2432.356731
573.756743	2480.247692
574.111570	2523.097500
574.466342	2573.509038
574.821059	2485.288846
575.175722	2540.741538
575.530330	2591.153077
575.884882	2434.877308
576.239380	2515.535769
576.593823	2492.850577
576.948211	2560.906154
577.302544	2414.712692
577.656823	2482.768269
578.011047	2497.891731
578.365216	2485.288846
578.719330	2495.371154
579.073389	2523.097500
579.427394	2444.959615
579.781344	2462.603654
580.135239	2543.262115
580.489080	2397.068654
580.842866	2495.371154
581.196597	2523.097500
581.550273	2490.330000
581.903895	2465.124231
582.257463	2417.233269
582.610975	2533.179808
582.964434	2586.111923
583.317837	2465.124231
583.671186	2507.974038
584.024481	2523.097500
584.377721	2455.041923
584.730906	2472.685962
585.084037	2477.727115
585.437113	2477.727115
585.790135	2490.330000
586.143103	2608.797115
586.496016	2439.918462
586.848874	2523.097500
587.201679	2497.891731
587.554428	2530.659231
587.907124	2467.644808
588.259765	2485.288846
588.612352	2480.247692
588.964884	2447.480192
589.317362	2490.330000
589.669786	2437.397885
590.022155	2442.439038
590.374470	2455.041923
590.726731	2487.809423
591.078937	2586.111923
591.431090	2543.262115
591.783188	2470.165385
592.135232	2518.056346
592.487222	2442.439038
592.839157	2482.768269
593.191038	2515.535769
593.542866	2485.288846
593.894639	2507.974038
594.246358	2530.659231
594.598022	2485.288846
594.949633	2467.644808
595.301190	2467.644808
595.652692	2513.015192
596.004141	2555.865000
596.355535	2477.727115
596.706876	2518.056346
597.058162	2462.603654
597.409395	2450.000769
597.760573	2553.344423
598.111698	2513.015192
598.462768	2518.056346
598.813785	2490.330000
599.164748	2540.741538
599.515657	2540.741538
599.866511	2505.453462
600.217312	2558.385577
600.568060	2465.124231
600.918753	2525.618077
601.269392	2460.083077
601.619978	2563.426731
601.970510	2452.521346
602.320988	2518.056346
602.671412	2407.150962
603.021783	2520.576923
603.372100	2570.988462
603.722363	2434.877308
604.072572	2558.385577
604.422728	2513.015192
604.772830	2480.247692
605.122878	2480.247692
605.472872	2533.179808
605.822813	2457.562500
606.172701	2540.741538
606.522534	2515.535769
606.872314	2515.535769
607.222041	2550.823846
607.571714	2442.439038
607.921333	2450.000769
608.270899	2492.850577
608.620411	2518.056346
608.969870	2560.906154
609.319276	2500.412308
609.668627	2591.153077
610.017926	2439.918462
610.367171	2492.850577
610.716362	2485.288846
611.065500	2540.741538
611.414585	2485.288846
611.763616	2470.165385
612.112594	2495.371154
612.461518	2492.850577
612.810389	2520.576923
613.159207	2538.220962
613.507971	2540.741538
613.856682	2467.644808
614.205340	2500.412308
614.553945	2444.959615
614.902496	2487.809423
615.250994	2520.576923
615.599439	2523.097500
615.947830	2505.453462
616.296169	2492.850577
616.644454	2487.809423
616.992686	2465.124231
617.340864	2540.741538
617.688990	2518.056346
618.037063	2404.630385
618.385082	2523.097500
618.733048	2528.138654
619.080961	2550.823846
619.428821	2533.179808
619.776628	2573.509038
620.124382	2570.988462
620.472083	2447.480192
620.819731	2555.865000
621.167326	2505.453462
621.514868	2460.083077
621.862357	2591.153077
622.209793	2472.685962
622.557176	2477.727115
622.904506	2497.891731
623.251783	2470.165385
623.599007	2444.959615
623.946179	2525.618077
624.293297	2502.932885
624.640363	2608.797115
624.987376	2535.700385
625.334336	2497.891731
625.681243	2507.974038
626.028097	2545.782692
626.374899	2578.550192
626.721647	2523.097500
627.068343	2497.891731
627.414987	2523.097500
627.761577	2467.644808
628.108115	2543.262115
628.454600	2490.330000
628.801032	2482.768269
629.147412	2460.083077
629.493739	2422.274423
629.840014	2450.000769
630.186236	2480.247692
630.532405	2601.235385
630.878521	2495.371154
631.224585	2576.029615
631.570597	2515.535769
631.916556	2555.865000
632.262462	2525.618077
632.608316	2578.550192
632.954117	2422.274423
633.299866	2538.220962
633.645562	2487.809423
633.991206	2487.809423
634.336797	2492.850577
634.682336	2434.877308
635.027823	2553.344423
635.373257	2462.603654
635.718639	2543.262115
636.063968	2455.041923
636.409245	2462.603654
636.754470	2525.618077
637.099642	2455.041923
637.444762	2525.618077
637.789829	2437.397885
638.134845	2606.276538
638.479808	2442.439038
638.824719	2543.262115
639.169577	2432.356731
639.514383	2568.467885
639.859137	2427.315577
640.203839	2555.865000
640.548489	2510.494615
640.893086	2525.618077
641.237632	2467.644808
641.582125	2593.673654
641.926566	2513.015192
642.270955	2455.041923
642.615292	2523.097500
642.959576	2477.727115
643.303809	2550.823846
643.647990	2450.000769
643.992118	2518.056346
644.336195	2510.494615
644.680219	2467.644808
645.024192	2510.494615
645.368112	2414.712692
645.711981	2467.644808
646.055797	2470.165385
646.399562	2502.932885
646.743274	2389.506923
647.086935	2513.015192
647.430544	2482.768269
647.774101	2540.741538
648.117606	2601.235385
648.461059	2485.288846
648.804460	2444.959615
649.147810	2535.700385
649.491108	2480.247692
649.834354	2495.371154
650.177548	2487.809423
650.520690	2472.685962
650.863781	2502.932885
651.206820	2505.453462
651.549807	2477.727115
651.892742	2467.644808
652.235626	2500.412308
652.578458	2540.741538
652.921238	2553.344423
653.263967	2477.727115
653.606644	2467.644808
653.949269	2500.412308
654.291843	2460.083077
654.634365	2525.618077
654.976836	2528.138654
655.319255	2497.891731
655.661622	2515.535769
656.003938	2510.494615
656.346203	2482.768269
656.688416	2523.097500
657.030577	2502.932885
657.372687	2548.303269
657.714746	2525.618077
658.056753	2475.206538
658.398708	2550.823846
658.740612	2535.700385
659.082465	2502.932885
659.424266	2502.932885
659.766016	2553.344423
660.107715	2540.741538
660.449362	2452.521346
660.790958	2500.412308
661.132503	2520.576923
661.473996	2485.288846
661.815438	2550.823846
662.156829	2485.288846
662.498168	2399.589231
662.839456	2500.412308
663.180693	2507.974038
663.521879	2550.823846
663.863013	2523.097500
664.204097	2439.918462
664.545129	2455.041923
664.886110	2452.521346
665.227040	2520.576923
665.567918	2510.494615
665.908746	2470.165385
666.249522	2467.644808
666.590248	2460.083077
666.930922	2495.371154
667.271545	2490.330000
667.612118	2495.371154
667.952639	2518.056346
668.293109	2485.288846
668.633528	2437.397885
668.973896	2530.659231
669.314213	2538.220962
669.654480	2422.274423
669.994695	2533.179808
670.334859	2528.138654
670.674973	2515.535769
671.015035	2548.303269
671.355047	2555.865000
671.695008	2419.753846
672.034918	2482.768269
672.374777	2507.974038
672.714585	2578.550192
673.054342	2472.685962
673.394049	2525.618077
673.733705	2470.165385
674.073310	2548.303269
674.412864	2392.027500
674.752368	2510.494615
675.091820	2533.179808
675.431223	2555.865000
675.770574	2502.932885
676.109875	2515.535769
676.449125	2470.165385
676.788324	2596.194231
677.127473	2472.685962
677.466571	2455.041923
677.805619	2548.303269
678.144616	2490.330000
678.483562	2543.262115
678.822458	2515.535769
679.161303	2502.932885
679.500098	2553.344423
679.838842	2434.877308
680.177535	2470.165385
680.516179	2528.138654
680.854771	2576.029615
681.193314	2530.659231
681.531805	2533.179808
681.870247	2520.576923
682.208638	2457.562500
682.546978	2482.768269
682.885268	2480.247692
683.223508	2475.206538
683.561697	2439.918462
683.899836	2553.344423
684.237925	2419.753846
684.575963	2540.741538
684.913951	2583.591346
685.251889	2465.124231
685.589776	2495.371154
685.927614	2439.918462
686.265401	2485.288846
686.603137	2465.124231
686.940824	2417.233269
687.278460	2528.138654
687.616046	2465.124231
687.953582	2462.603654
688.291068	2548.303269
688.628504	2447.480192
688.965889	2442.439038
689.303224	2482.768269
689.640510	2450.000769
689.977745	2437.397885
690.314930	2528.138654
690.652065	2414.712692
690.989150	2475.206538
691.326185	2515.535769
691.663170	2482.768269
692.000105	2548.303269
692.336990	2457.562500
692.673825	2472.685962
693.010610	2412.192115
693.347345	2586.111923
693.684030	2407.150962
694.020665	2548.303269
694.357251	2581.070769
694.693786	2495.371154
695.030272	2528.138654
695.366707	2412.192115
695.703093	2447.480192
696.039429	2434.877308
696.375716	2558.385577
696.711952	2452.521346
697.048139	2530.659231
697.384276	2442.439038
697.720363	2422.274423
698.056400	2482.768269
698.392388	2535.700385
698.728326	2525.618077
699.064214	2450.000769
699.400053	2505.453462
699.735842	2586.111923
700.071581	2507.974038
700.407270	2432.356731
700.742910	2525.618077
701.078501	2452.521346
701.414042	2563.426731
701.749533	2573.509038
702.084974	2535.700385
702.420366	2457.562500
702.755709	2485.288846
703.091002	2545.782692
703.426246	2434.877308
703.761440	2553.344423
704.096584	2381.945192
704.431679	2492.850577
704.766725	2412.192115
705.101721	2518.056346
705.436668	2465.124231
705.771565	2429.836154
706.106413	2550.823846
706.441212	2495.371154
706.775961	2538.220962
707.110661	2467.644808
707.445311	2500.412308
707.779913	2460.083077
708.114465	2417.233269
708.448967	2482.768269
708.783421	2477.727115
709.117825	2429.836154
709.452180	2510.494615
709.786485	2482.768269
710.120742	2439.918462
710.454949	2518.056346
710.789107	2465.124231
711.123216	2530.659231
711.457275	2460.083077
711.791286	2439.918462
712.125247	2437.397885
712.459159	2422.274423
712.793023	2510.494615
713.126837	2485.288846
713.460602	2409.671538
713.794318	2477.727115
714.127985	2480.247692
714.461602	2439.918462
714.795171	2422.274423
715.128691	2510.494615
715.462162	2487.809423
715.795584	2535.700385
716.128957	2560.906154
716.462281	2450.000769
716.795556	2555.865000
717.128782	2402.109808
717.461960	2518.056346
717.795088	2530.659231
718.128167	2520.576923
718.461198	2588.632500
718.794180	2520.576923
719.127113	2553.344423
719.459997	2419.753846
719.792833	2505.453462
720.125619	2467.644808
720.458357	2545.782692
720.791046	2434.877308
721.123686	2460.083077
721.456278	2563.426731
721.788821	2548.303269
722.121315	2553.344423
722.453761	2477.727115
722.786158	2570.988462
723.118506	2540.741538
723.450805	2528.138654
723.783056	2429.836154
724.115259	2548.303269
724.447412	2485.288846
724.779518	2490.330000
725.111574	2452.521346
725.443582	2485.288846
725.775542	2477.727115
726.107453	2437.397885
726.439315	2525.618077
726.771129	2550.823846
727.102895	2543.262115
727.434612	2422.274423
727.766281	2482.768269
728.097901	2588.632500
728.429473	2520.576923
728.760996	2570.988462
729.092471	2475.206538
729.423897	2485.288846
729.755276	2502.932885
730.086606	2500.412308
730.417887	2555.865000
730.749120	2427.315577
731.080305	2518.056346
731.411442	2450.000769
731.742530	2545.782692
732.073570	2437.397885
732.404562	2452.521346
732.735506	2497.891731
733.066401	2500.412308
733.397249	2513.015192
733.728048	2568.467885
734.058798	2540.741538
734.389501	2533.179808
734.720156	2540.741538
735.050762	2465.124231
735.381320	2442.439038
735.711831	2525.618077
736.042293	2475.206538
736.372707	2455.041923
736.703073	2533.179808
737.033391	2485.288846
737.363661	2412.192115
737.693883	2487.809423
738.024056	2472.685962
738.354182	2409.671538
738.684260	2412.192115
739.014290	2505.453462
739.344272	2467.644808
739.674207	2515.535769
740.004093	2515.535769
740.333931	2520.576923
740.663722	2538.220962
740.993464	2578.550192
741.323159	2467.644808
741.652806	2507.974038
741.982405	2510.494615
742.311956	2553.344423
742.641460	2477.727115
742.970915	2513.015192
743.300323	2518.056346
743.629683	2500.412308
743.958996	2570.988462
744.288260	2507.974038
744.617477	2500.412308
744.946647	2523.097500
745.275768	2399.589231
745.604842	2475.206538
745.933869	2452.521346
746.262847	2490.330000
746.591778	2480.247692
746.920662	2560.906154
747.249498	2588.632500
747.578286	2490.330000
747.907027	2505.453462
748.235720	2485.288846
748.564365	2460.083077
748.892963	2437.397885
749.221514	2470.165385
749.550017	2392.027500
749.878473	2507.974038
750.206881	2576.029615
750.535242	2502.932885
750.863555	2550.823846
751.191821	2394.548077
751.520039	2507.974038
751.848210	2487.809423
752.176334	2525.618077
752.504411	2490.330000
752.832440	2402.109808
753.160421	2518.056346
753.488356	2518.056346
753.816243	2472.685962
754.144082	2475.206538
754.471875	2439.918462
754.799620	2507.974038
755.127318	2502.932885
755.454969	2525.618077
755.782572	2507.974038
756.110129	2505.453462
756.437638	2523.097500
756.765100	2525.618077
757.092515	2528.138654
757.419882	2492.850577
757.747203	2457.562500
758.074477	2439.918462
758.401703	2507.974038
758.728882	2482.768269
759.056014	2510.494615
759.383099	2558.385577
759.710138	2520.576923
760.037129	2502.932885
760.364073	2475.206538
760.690970	2470.165385
761.017820	2497.891731
761.344623	2495.371154
761.671379	2480.247692
761.998088	2472.685962
762.324751	2510.494615
762.651366	2482.768269
762.977935	2507.974038
763.304456	2560.906154
763.630931	2460.083077
763.957359	2495.371154
764.283740	2515.535769
764.610074	2558.385577
764.936362	2394.548077
765.262602	2530.659231
765.588796	2523.097500
765.914943	2583.591346
766.241044	2427.315577
766.567097	2507.974038
766.893104	2475.206538
767.219064	2485.288846
767.544978	2525.618077
767.870845	2477.727115
768.196665	2482.768269
768.522438	2548.303269
768.848165	2467.644808
769.173846	2492.850577
769.499479	2462.603654
769.825066	2475.206538
770.150607	2452.521346
770.476101	2568.467885
770.801548	2525.618077
771.126949	2525.618077
771.452303	2442.439038
771.777611	2550.823846
772.102872	2507.974038
772.428087	2513.015192
772.753256	2462.603654
773.078378	2490.330000
773.403453	2510.494615
773.728482	2482.768269
774.053465	2470.165385
774.378401	2545.782692
774.703291	2485.288846
775.028135	2485.288846
775.352932	2450.000769
775.677683	2545.782692
776.002388	2548.303269
776.327046	2507.974038
776.651658	2492.850577
776.976224	2455.041923
777.300743	2457.562500
777.625216	2472.685962
777.949643	2578.550192
778.274024	2500.412308
778.598359	2472.685962
778.922647	2432.356731
779.246889	2495.371154
779.571086	2447.480192
779.895236	2525.618077
780.219339	2480.247692
780.543397	2444.959615
780.867409	2548.303269
781.191374	2598.714808
781.515294	2482.768269
781.839167	2419.753846
782.162995	2472.685962
782.486776	2563.426731
782.810511	2507.974038
783.134201	2535.700385
783.457844	2470.165385
783.781441	2470.165385
784.104993	2475.206538
784.428498	2497.891731
784.751958	2447.480192
785.075372	2475.206538
785.398739	2470.165385
785.722061	2518.056346
786.045337	2462.603654
786.368568	2472.685962
786.691752	2523.097500
787.014891	2439.918462
787.337983	2482.768269
787.661030	2475.206538
787.984031	2515.535769
788.306987	2399.589231
788.629897	2450.000769
788.952760	2480.247692
789.275579	2603.755962
789.598351	2477.727115
789.921078	2500.412308
790.243759	2439.918462
790.566395	2465.124231
790.888984	2490.330000
791.211529	2477.727115
791.534027	2510.494615
791.856480	2389.506923
792.178888	2568.467885
792.501249	2460.083077
792.823566	2437.397885
793.145836	2520.576923
793.468062	2455.041923
793.790241	2573.509038
794.112375	2485.288846
794.434464	2467.644808
794.756507	2429.836154
795.078505	2492.850577
795.400457	2495.371154
795.722364	2593.673654
796.044226	2452.521346
796.366042	2475.206538
796.687812	2520.576923
797.009538	2518.056346
797.331218	2455.041923
797.652852	2515.535769
797.974442	2548.303269
798.295986	2591.153077
798.617484	2553.344423
798.938938	2518.056346
799.260346	2507.974038
799.581709	2558.385577
799.903026	2591.153077
800.224299	2510.494615
800.545526	2533.179808
800.866708	2432.356731
801.187845	2492.850577
801.508936	2475.206538
801.829983	2465.124231
802.150984	2520.576923
802.471940	2555.865000
802.792851	2455.041923
803.113717	2447.480192
803.434538	2518.056346
803.755314	2565.947308
804.076045	2442.439038
804.396731	2538.220962
804.717372	2513.015192
805.037967	2548.303269
805.358518	2422.274423
805.679024	2490.330000
805.999485	2427.315577
806.319901	2530.659231
806.640272	2593.673654
806.960598	2450.000769
807.280879	2480.247692
807.601115	2381.945192
807.921306	2485.288846
808.241453	2555.865000
808.561554	2550.823846
808.881611	2510.494615
809.201623	2525.618077
809.521590	2467.644808
809.841513	2487.809423
810.161390	2560.906154
810.481223	2444.959615
810.801011	2457.562500
811.120755	2462.603654
811.440453	2507.974038
811.760107	2429.836154
812.079716	2492.850577
812.399281	2492.850577
812.718801	2444.959615
813.038276	2507.974038
813.357707	2394.548077
813.677093	2525.618077
813.996434	2510.494615
814.315731	2538.220962
814.634983	2457.562500
814.954191	2462.603654
815.273354	2533.179808
815.592473	2545.782692
815.911547	2462.603654
816.230577	2457.562500
816.549562	2510.494615
816.868502	2460.083077
817.187399	2523.097500
817.506250	2424.795000
817.825058	2487.809423
818.143821	2465.124231
818.462539	2465.124231
818.781213	2429.836154
819.099843	2548.303269
819.418429	2553.344423
819.736970	2523.097500
820.055466	2432.356731
820.373919	2510.494615
820.692327	2477.727115
821.010691	2399.589231
821.329011	2455.041923
821.647286	2545.782692
821.965517	2495.371154
822.283704	2513.015192
822.601847	2444.959615
822.919945	2588.632500
823.237999	2502.932885
823.556010	2472.685962
823.873976	2444.959615
824.191897	2502.932885
824.509775	2452.521346
824.827609	2490.330000
825.145398	2460.083077
825.463144	2548.303269
825.780845	2500.412308
826.098502	2535.700385
826.416116	2500.412308
826.733685	2455.041923
827.051210	2462.603654
827.368692	2565.947308
827.686129	2422.274423
828.003522	2545.782692
828.320872	2422.274423
828.638177	2555.865000
828.955439	2482.768269
829.272656	2500.412308
829.589830	2528.138654
829.906960	2424.795000
830.224046	2518.056346
830.541088	2500.412308
830.858086	2535.700385
831.175041	2507.974038
831.491952	2457.562500
831.808819	2492.850577
832.125642	2444.959615
832.442421	2543.262115
832.759157	2548.303269
833.075849	2492.850577
833.392497	2510.494615
833.709101	2543.262115
834.025662	2530.659231
834.342179	2452.521346
834.658653	2470.165385
834.975083	2480.247692
835.291469	2540.741538
835.607811	2480.247692
835.924110	2510.494615
836.240366	2545.782692
836.556578	2414.712692
836.872746	2540.741538
837.188871	2460.083077
837.504952	2439.918462
837.820990	2507.974038
838.136984	2457.562500
838.452935	2429.836154
838.768842	2500.412308
839.084706	2455.041923
839.400526	2462.603654
839.716303	2492.850577
840.032037	2480.247692
840.347727	2434.877308
840.663373	2381.945192
840.978977	2475.206538
841.294537	2465.124231
841.610054	2475.206538
841.925527	2528.138654
842.240957	2455.041923
842.556344	2548.303269
842.871687	2427.315577
843.186987	2502.932885
843.502244	2492.850577
843.817458	2397.068654
844.132629	2482.768269
844.447756	2482.768269
844.762840	2510.494615
845.077881	2470.165385
845.392879	2467.644808
845.707833	2510.494615
846.022745	2475.206538
846.337613	2515.535769
846.652438	2535.700385
846.967221	2482.768269
847.281960	2510.494615
847.596656	2487.809423
847.911309	2513.015192
848.225919	2538.220962
848.540485	2520.576923
848.855009	2485.288846
849.169490	2417.233269
849.483928	2465.124231
849.798323	2437.397885
850.112675	2500.412308
850.426984	2412.192115
850.741251	2467.644808
851.055474	2477.727115
851.369654	2538.220962
851.683792	2490.330000
851.997887	2485.288846
852.311938	2492.850577
852.625947	2427.315577
852.939914	2472.685962
853.253837	2535.700385
853.567718	2482.768269
853.881555	2480.247692
854.195350	2472.685962
854.509103	2586.111923
854.822812	2397.068654
855.136479	2570.988462
855.450103	2480.247692
855.763685	2560.906154
856.077224	2437.397885
856.390720	2563.426731
856.704173	2515.535769
857.017584	2510.494615
857.330953	2500.412308
857.644278	2548.303269
857.957561	2439.918462
858.270802	2492.850577
858.584000	2450.000769
858.897155	2515.535769
859.210268	2523.097500
859.523339	2500.412308
859.836367	2480.247692
860.149352	2490.330000
860.462295	2452.521346
860.775195	2394.548077
861.088054	2369.342308
861.400869	2510.494615
861.713642	2480.247692
862.026373	2565.947308
862.339062	2502.932885
862.651708	2550.823846
862.964312	2460.083077
863.276873	2495.371154
863.589392	2432.356731
863.901869	2510.494615
864.214303	2485.288846
864.526696	2475.206538
864.839045	2386.986346
865.151353	2485.288846
865.463619	2460.083077
865.775842	2533.179808
866.088023	2487.809423
866.400162	2467.644808
866.712258	2513.015192
867.024313	2485.288846
867.336325	2485.288846
867.648296	2513.015192
867.960224	2407.150962
868.272110	2444.959615
868.583954	2412.192115
868.895755	2462.603654
869.207515	2485.288846
869.519233	2598.714808
869.830909	2412.192115
870.142542	2450.000769
870.454134	2485.288846
870.765684	2518.056346
871.077191	2518.056346
871.388657	2470.165385
871.700081	2470.165385
872.011463	2507.974038
872.322803	2482.768269
872.634101	2533.179808
872.945357	2485.288846
873.256571	2419.753846
873.567744	2497.891731
873.878874	2485.288846
874.189963	2535.700385
874.501010	2427.315577
874.812015	2495.371154
875.122979	2437.397885
875.433900	2497.891731
875.744780	2482.768269
876.055618	2518.056346
876.366415	2482.768269
876.677169	2528.138654
876.987882	2482.768269
877.298554	2465.124231
877.609183	2402.109808
877.919771	2450.000769
878.230317	2502.932885
878.540822	2490.330000
878.851285	2497.891731
879.161707	2485.288846
879.472087	2535.700385
879.782425	2384.465769
880.092722	2475.206538
880.402977	2472.685962
880.713191	2507.974038
881.023363	2422.274423
881.333494	2558.385577
881.643583	2568.467885
881.953631	2465.124231
882.263637	2518.056346
882.573602	2520.576923
882.883526	2437.397885
883.193408	2462.603654
883.503248	2472.685962
883.813048	2502.932885
884.122806	2480.247692
884.432522	2452.521346
884.742197	2505.453462
885.051831	2601.235385
885.361424	2434.877308
885.670975	2490.330000
885.980485	2429.836154
886.289954	2502.932885
886.599382	2444.959615
886.908768	2497.891731
887.218113	2409.671538
887.527417	2455.041923
887.836680	2510.494615
888.145901	2472.685962
888.455082	2548.303269
888.764221	2429.836154
889.073319	2487.809423
889.382376	2530.659231
889.691392	2475.206538
890.000366	2573.509038
890.309300	2444.959615
890.618193	2402.109808
890.927044	2515.535769
891.235855	2447.480192
891.544625	2460.083077
891.853353	2518.056346
892.162041	2540.741538
892.470687	2381.945192
892.779293	2427.315577
893.087858	2439.918462
893.396381	2442.439038
893.704864	2490.330000
894.013306	2475.206538
894.321707	2538.220962
894.630068	2611.317692
894.938387	2455.041923
895.246665	2495.371154
895.554903	2497.891731
895.863100	2502.932885
896.171256	2530.659231
896.479371	2492.850577
896.787446	2523.097500
897.095480	2502.932885
897.403473	2419.753846
897.711425	2520.576923
898.019336	2555.865000
898.327207	2414.712692
898.635038	2495.371154
898.942827	2540.741538
899.250576	2495.371154
899.558284	2507.974038
899.865952	2538.220962
900.173579	2417.233269
900.481165	2490.330000
900.788711	2462.603654
901.096216	2513.015192
901.403681	2538.220962
901.711105	2518.056346
902.018489	2555.865000
902.325832	2460.083077
902.633135	2480.247692
902.940397	2432.356731
903.247619	2543.262115
903.554800	2366.821731
903.861941	2455.041923
904.169041	2475.206538
904.476101	2475.206538
904.783121	2389.506923
905.090100	2452.521346
905.397039	2543.262115
905.703938	2502.932885
906.010796	2507.974038
906.317614	2485.288846
906.624391	2470.165385
906.931129	2515.535769
907.237826	2470.165385
907.544483	2472.685962
907.851099	2513.015192
908.157675	2419.753846
908.464211	2502.932885
908.770707	2490.330000
909.077163	2409.671538
909.383578	2460.083077
909.689954	2490.330000
909.996289	2586.111923
910.302584	2520.576923
910.608839	2530.659231
910.915054	2540.741538
911.221229	2485.288846
911.527363	2452.521346
911.833458	2530.659231
912.139513	2470.165385
912.445527	2626.441154
912.751502	2502.932885
913.057436	2520.576923
913.363331	2565.947308
913.669186	2505.453462
913.975000	2502.932885
914.280775	2495.371154
914.586510	2520.576923
914.892205	2487.809423
915.197859	2497.891731
915.503475	2555.865000
915.809050	2376.904038
916.114585	2455.041923
916.420081	2477.727115
916.725536	2462.603654
917.030952	2477.727115
917.336328	2497.891731
917.641665	2462.603654
917.946961	2533.179808
918.252218	2455.041923
918.557435	2608.797115
918.862612	2603.755962
919.167750	2490.330000
919.472848	2414.712692
919.777906	2457.562500
920.082925	2588.632500
920.387904	2490.330000
920.692843	2535.700385
920.997743	2437.397885
921.302603	2502.932885
921.607423	2502.932885
921.912204	2495.371154
922.216946	2533.179808
922.521647	2386.986346
922.826310	2515.535769
923.130932	2414.712692
923.435516	2523.097500
923.740059	2455.041923
924.044564	2437.397885
924.349028	2518.056346
924.653454	2472.685962
924.957840	2444.959615
925.262186	2482.768269
925.566493	2518.056346
925.870761	2553.344423
926.174989	2414.712692
926.479178	2543.262115
926.783328	2480.247692
927.087438	2502.932885
927.391509	2465.124231
927.695541	2457.562500
927.999533	2414.712692
928.303486	2460.083077
928.607400	2455.041923
928.911275	2487.809423
929.215110	2523.097500
929.518906	2477.727115
929.822663	2560.906154
930.126381	2492.850577
930.430060	2518.056346
930.733699	2465.124231
931.037299	2492.850577
931.340861	2470.165385
931.644383	2424.795000
931.947866	2482.768269
932.251309	2452.521346
932.554714	2520.576923
932.858080	2480.247692
933.161407	2452.521346
933.464694	2505.453462
933.767943	2510.494615
934.071153	2450.000769
934.374323	2520.576923
934.677455	2570.988462
934.980548	2553.344423
935.283602	2444.959615
935.586617	2525.618077
935.889593	2545.782692
936.192530	2394.548077
936.495428	2500.412308
936.798287	2528.138654
937.101108	2487.809423
937.403890	2492.850577
937.706632	2477.727115
938.009336	2450.000769
938.312002	2518.056346
938.614628	2467.644808
938.917216	2535.700385
939.219765	2513.015192
939.522275	2515.535769
939.824747	2477.727115
940.127179	2513.015192
940.429573	2477.727115
940.731929	2465.124231
941.034246	2422.274423
941.336524	2497.891731
941.638763	2485.288846
941.940964	2462.603654
942.243126	2472.685962
942.545250	2520.576923
942.847335	2528.138654
943.149381	2492.850577
943.451389	2485.288846
943.753359	2444.959615
944.055290	2515.535769
944.357182	2528.138654
944.659036	2510.494615
944.960851	2482.768269
945.262628	2477.727115
945.564367	2492.850577
945.866067	2341.615962
946.167729	2525.618077
946.469352	2515.535769
946.770937	2407.150962
947.072484	2555.865000
947.373992	2475.206538
947.675462	2417.233269
947.976893	2457.562500
948.278286	2487.809423
948.579641	2427.315577
948.880958	2462.603654
949.182236	2533.179808
949.483476	2462.603654
949.784678	2467.644808
950.085841	2513.015192
950.386967	2535.700385
950.688054	2500.412308
950.989103	2414.712692
951.290114	2472.685962
951.591087	2429.836154
951.892021	2477.727115
952.192917	2495.371154
952.493776	2558.385577
952.794596	2535.700385
953.095378	2429.836154
953.396122	2573.509038
953.696828	2538.220962
953.997496	2487.809423
954.298126	2447.480192
954.598718	2475.206538
954.899272	2465.124231
955.199788	2538.220962
955.500266	2452.521346
955.800706	2513.015192
956.101108	2523.097500
956.401472	2462.603654
956.701798	2397.068654
957.002087	2460.083077
957.302337	2460.083077
957.602550	2540.741538
957.902724	2480.247692
958.202861	2477.727115
958.502960	2434.877308
958.803022	2490.330000
959.103045	2429.836154
959.403031	2465.124231
959.702979	2523.097500
960.002889	2553.344423
960.302762	2515.535769
960.602596	2560.906154
960.902393	2462.603654
961.202153	2535.700385
961.501875	2424.795000
961.801559	2518.056346
962.101205	2439.918462
962.400814	2470.165385
962.700385	2513.015192
962.999918	2518.056346
963.299414	2412.192115
963.598873	2495.371154
963.898293	2485.288846
964.197677	2500.412308
964.497022	2518.056346
964.796331	2591.153077
965.095601	2502.932885
965.394835	2507.974038
965.694030	2520.576923
965.993189	2407.150962
966.292309	2495.371154
966.591393	2545.782692
966.890439	2467.644808
967.189447	2404.630385
967.488419	2568.467885
967.787353	2467.644808
968.086249	2502.932885
968.385108	2422.274423
968.683930	2452.521346
968.982714	2482.768269
969.281462	2563.426731
969.580172	2450.000769
969.878844	2505.453462
970.177480	2480.247692
970.476078	2545.782692
970.774639	2485.288846
971.073162	2515.535769
971.371649	2462.603654
971.670098	2545.782692
971.968510	2417.233269
972.266885	2538.220962
972.565223	2462.603654
972.863524	2495.371154
973.161788	2462.603654
973.460014	2467.644808
973.758204	2497.891731
974.056356	2485.288846
974.354471	2467.644808
974.652550	2591.153077
974.950591	2422.274423
975.248595	2543.262115
975.546563	2538.220962
975.844493	2507.974038
976.142386	2414.712692
976.440243	2490.330000
976.738062	2485.288846
977.035845	2472.685962
977.333590	2568.467885
977.631299	2553.344423
977.928971	2570.988462
978.226606	2427.315577
978.524204	2485.288846
978.821765	2452.521346
979.119290	2510.494615
979.416777	2576.029615
979.714228	2422.274423
980.011642	2472.685962
980.309020	2555.865000
980.606360	2460.083077
980.903664	2528.138654
981.200931	2510.494615
981.498162	2490.330000
981.795356	2472.685962
982.092513	2500.412308
982.389633	2472.685962
982.686717	2389.506923
982.983764	2540.741538
983.280775	2455.041923
983.577749	2560.906154
983.874686	2490.330000
984.171587	2460.083077
984.468451	2404.630385
984.765279	2528.138654
985.062070	2550.823846
985.358824	2586.111923
985.655543	2490.330000
985.952224	2538.220962
986.248869	2477.727115
986.545478	2525.618077
986.842050	2558.385577
987.138586	2596.194231
987.435086	2502.932885
987.731549	2482.768269
988.027975	2427.315577
988.324366	2533.179808
988.620719	2437.397885
988.917037	2475.206538
989.213318	2565.947308
989.509563	2407.150962
989.805772	2500.412308
990.101944	2598.714808
990.398080	2497.891731
990.694180	2543.262115
990.990244	2462.603654
991.286271	2490.330000
991.582262	2467.644808
991.878217	2457.562500
992.174136	2439.918462
992.470019	2520.576923
992.765865	2495.371154
993.061676	2432.356731
993.357450	2497.891731
993.653188	2444.959615
993.948890	2550.823846
994.244556	2563.426731
994.540186	2465.124231
994.835780	2507.974038
995.131337	2432.356731
995.426859	2475.206538
995.722345	2540.741538
996.017795	2457.562500
996.313208	2533.179808
996.608586	2505.453462
996.903928	2507.974038
997.199234	2465.124231
997.494504	2462.603654
997.789738	2450.000769
998.084936	2533.179808
998.380099	2533.179808
998.675225	2507.974038
998.970316	2419.753846
999.265371	2495.371154
999.560390	2455.041923
999.855373	2490.330000
1000.150320	2497.891731
1000.445232	2424.795000
1000.740108	2573.509038
1001.034948	2487.809423
1001.329752	2540.741538
1001.624521	2437.397885
1001.919254	2407.150962
1002.213951	2419.753846
1002.508613	2482.768269
1002.803239	2419.753846
1003.097829	2492.850577
1003.392384	2477.727115
1003.686903	2500.412308
1003.981386	2450.000769
1004.275834	2490.330000
1004.570246	2510.494615
1004.864623	2518.056346
1005.158964	2470.165385
1005.453270	2545.782692
1005.747540	2490.330000
1006.041775	2636.523462
1006.335974	2518.056346
1006.630138	2475.206538
1006.924266	2598.714808
1007.218359	2475.206538
1007.512416	2538.220962
1007.806438	2422.274423
1008.100425	2543.262115
1008.394376	2427.315577
1008.688292	2487.809423
1008.982172	2513.015192
1009.276017	2490.330000
1009.569827	2475.206538
1009.863602	2432.356731
1010.157341	2457.562500
1010.451045	2515.535769
1010.744714	2500.412308
1011.038347	2417.233269
1011.331945	2460.083077
1011.625508	2447.480192
1011.919036	2502.932885
1012.212528	2560.906154
1012.505986	2553.344423
1012.799408	2475.206538
1013.092795	2513.015192
1013.386147	2434.877308
1013.679464	2505.453462
1013.972745	2475.206538
1014.265992	2492.850577
1014.559204	2318.930769
1014.852380	2528.138654
1015.145521	2472.685962
1015.438628	2548.303269
1015.731699	2450.000769
1016.024736	2475.206538
1016.317737	2477.727115
1016.610703	2520.576923
1016.903635	2477.727115
1017.196531	2515.535769
1017.489393	2518.056346
1017.782219	2482.768269
1018.075011	2510.494615
1018.367768	2492.850577
1018.660490	2518.056346
1018.953177	2518.056346
1019.245829	2518.056346
