Dividing Wavelength (nm)	Counts (n)	Blue Motor Position (mm): 8.300000	Red Motor Position (mm): 0.000000	
326.493990	2197.943077
326.888308	2197.943077
327.282561	2197.943077
327.676750	2041.667308
328.070874	2021.502692
328.464933	2036.626154
328.858929	2081.996538
329.252859	2109.722885
329.646726	2114.764038
330.040528	2134.928654
330.434265	2056.790769
330.827938	2124.846346
331.221547	2147.531538
331.615091	2200.463654
332.008571	2245.834038
332.401986	2172.737308
332.795338	2255.916346
333.188625	2208.025385
333.581847	2167.696154
333.975006	2220.628269
334.368100	2286.163269
334.761129	2265.998654
335.154095	2318.930769
335.546996	2444.959615
335.939833	2268.519231
336.332606	2371.862885
336.725315	2392.027500
337.117960	2339.095385
337.510540	2437.397885
337.903056	2429.836154
338.295508	2500.412308
338.687896	2444.959615
339.080220	2344.136538
339.472480	2397.068654
339.864676	2409.671538
340.256807	2465.124231
340.648875	2417.233269
341.040879	2442.439038
341.432818	2462.603654
341.824694	2500.412308
342.216506	2432.356731
342.608253	2381.945192
342.999937	2470.165385
343.391557	2601.235385
343.783113	2404.630385
344.174605	2565.947308
344.566033	2490.330000
344.957397	2495.371154
345.348697	2480.247692
345.739934	2467.644808
346.131106	2502.932885
346.522215	2505.453462
346.913260	2397.068654
347.304241	2465.124231
347.695159	2422.274423
348.086012	2419.753846
348.476802	2442.439038
348.867528	2376.904038
349.258191	2467.644808
349.648789	2424.795000
350.039324	2399.589231
350.429796	2429.836154
350.820203	2417.233269
351.210548	2457.562500
351.600828	2467.644808
351.991045	2444.959615
352.381198	2450.000769
352.771288	2392.027500
353.161314	2437.397885
353.551276	2427.315577
353.941175	2442.439038
354.331010	2460.083077
354.720782	2510.494615
355.110490	2402.109808
355.500135	2457.562500
355.889717	2369.342308
356.279235	2480.247692
356.668689	2379.424615
357.058080	2389.506923
357.447408	2502.932885
357.836672	2480.247692
358.225873	2399.589231
358.615010	2470.165385
359.004084	2409.671538
359.393095	2404.630385
359.782043	2399.589231
360.170927	2399.589231
360.559748	2414.712692
360.948505	2439.918462
361.337199	2422.274423
361.725830	2434.877308
362.114398	2389.506923
362.502903	2477.727115
362.891344	2460.083077
363.279722	2490.330000
363.668037	2467.644808
364.056289	2450.000769
364.444478	2477.727115
364.832603	2485.288846
365.220665	2399.589231
365.608665	2507.974038
365.996601	2414.712692
366.384474	2487.809423
366.772284	2417.233269
367.160031	2374.383462
367.547715	2467.644808
367.935336	2482.768269
368.322893	2417.233269
368.710388	2538.220962
369.097820	2467.644808
369.485189	2437.397885
369.872495	2455.041923
370.259738	2447.480192
370.646918	2457.562500
371.034035	2452.521346
371.421090	2482.768269
371.808081	2427.315577
372.195010	2366.821731
372.581875	2487.809423
372.968678	2409.671538
373.355418	2414.712692
373.742096	2457.562500
374.128710	2477.727115
374.515262	2447.480192
374.901751	2419.753846
375.288177	2497.891731
375.674540	2507.974038
376.060841	2467.644808
376.447079	2573.509038
376.833254	2444.959615
377.219367	2437.397885
377.605417	2472.685962
377.991404	2397.068654
378.377329	2384.465769
378.763191	2518.056346
379.148991	2497.891731
379.534727	2470.165385
379.920402	2492.850577
380.306013	2507.974038
380.691563	2553.344423
381.077049	2462.603654
381.462474	2399.589231
381.847835	2535.700385
382.233134	2497.891731
382.618371	2500.412308
383.003545	2475.206538
383.388657	2399.589231
383.773706	2407.150962
384.158693	2548.303269
384.543618	2540.741538
384.928480	2553.344423
385.313280	2455.041923
385.698017	2457.562500
386.082692	2376.904038
386.467305	2465.124231
386.851856	2434.877308
387.236344	2452.521346
387.620770	2528.138654
388.005133	2452.521346
388.389435	2422.274423
388.773674	2467.644808
389.157851	2475.206538
389.541965	2467.644808
389.926018	2490.330000
390.310008	2419.753846
390.693936	2533.179808
391.077802	2507.974038
391.461606	2497.891731
391.845348	2429.836154
392.229027	2480.247692
392.612645	2495.371154
392.996200	2356.739423
393.379694	2472.685962
393.763125	2515.535769
394.146494	2490.330000
394.529801	2502.932885
394.913047	2477.727115
395.296230	2475.206538
395.679351	2563.426731
396.062410	2434.877308
396.445408	2490.330000
396.828343	2447.480192
397.211217	2538.220962
397.594028	2439.918462
397.976778	2381.945192
398.359466	2439.918462
398.742092	2452.521346
399.124656	2462.603654
399.507158	2520.576923
399.889598	2439.918462
400.271977	2505.453462
400.654294	2500.412308
401.036549	2475.206538
401.418742	2429.836154
401.800874	2424.795000
402.182944	2457.562500
402.564952	2429.836154
402.946898	2477.727115
403.328783	2515.535769
403.710606	2502.932885
404.092367	2538.220962
404.474067	2475.206538
404.855705	2452.521346
405.237282	2422.274423
405.618797	2384.465769
406.000250	2497.891731
406.381642	2452.521346
406.762972	2510.494615
407.144240	2414.712692
407.525447	2477.727115
407.906593	2467.644808
408.287677	2525.618077
408.668700	2540.741538
409.049661	2497.891731
409.430560	2482.768269
409.811399	2502.932885
410.192176	2422.274423
410.572891	2334.054231
410.953545	2518.056346
411.334138	2465.124231
411.714669	2394.548077
412.095139	2485.288846
412.475547	2467.644808
412.855894	2457.562500
413.236180	2447.480192
413.616405	2412.192115
413.996568	2487.809423
414.376670	2523.097500
414.756711	2558.385577
415.136691	2513.015192
415.516609	2545.782692
415.896466	2402.109808
416.276262	2520.576923
416.655997	2386.986346
417.035670	2570.988462
417.415283	2447.480192
417.794834	2460.083077
418.174324	2455.041923
418.553753	2472.685962
418.933121	2439.918462
419.312428	2472.685962
419.691674	2470.165385
420.070859	2427.315577
420.449983	2424.795000
420.829045	2495.371154
421.208047	2455.041923
421.586988	2384.465769
421.965867	2523.097500
422.344686	2497.891731
422.723444	2492.850577
423.102141	2492.850577
423.480777	2422.274423
423.859352	2389.506923
424.237866	2452.521346
424.616319	2505.453462
424.994712	2495.371154
425.373044	2515.535769
425.751314	2490.330000
426.129524	2490.330000
426.507673	2533.179808
426.885762	2502.932885
427.263789	2518.056346
427.641756	2450.000769
428.019662	2465.124231
428.397508	2530.659231
428.775292	2429.836154
429.153016	2533.179808
429.530679	2505.453462
429.908282	2497.891731
430.285824	2550.823846
430.663305	2525.618077
431.040726	2450.000769
431.418086	2386.986346
431.795385	2502.932885
432.172624	2465.124231
432.549802	2558.385577
432.926920	2550.823846
433.303977	2482.768269
433.680974	2470.165385
434.057910	2563.426731
434.434786	2502.932885
434.811601	2429.836154
435.188355	2414.712692
435.565050	2409.671538
435.941683	2515.535769
436.318257	2530.659231
436.694770	2429.836154
437.071222	2477.727115
437.447614	2439.918462
437.823946	2533.179808
438.200218	2510.494615
438.576429	2525.618077
438.952580	2427.315577
439.328670	2510.494615
439.704700	2500.412308
440.080670	2500.412308
440.456580	2472.685962
440.832429	2417.233269
441.208218	2424.795000
441.583947	2470.165385
441.959616	2470.165385
442.335224	2495.371154
442.710773	2386.986346
443.086261	2548.303269
443.461689	2450.000769
443.837057	2465.124231
444.212365	2472.685962
444.587612	2482.768269
444.962800	2417.233269
445.337927	2475.206538
445.712995	2477.727115
446.088002	2455.041923
446.462949	2550.823846
446.837837	2452.521346
447.212664	2523.097500
447.587431	2518.056346
447.962139	2523.097500
448.336786	2409.671538
448.711374	2424.795000
449.085901	2490.330000
449.460369	2432.356731
449.834776	2424.795000
450.209124	2520.576923
450.583412	2507.974038
450.957640	2349.177692
451.331808	2480.247692
451.705917	2502.932885
452.079965	2455.041923
452.453954	2573.509038
452.827883	2424.795000
453.201752	2444.959615
453.575562	2460.083077
453.949311	2482.768269
454.323001	2495.371154
454.696632	2492.850577
455.070202	2462.603654
455.443713	2470.165385
455.817164	2490.330000
456.190556	2497.891731
456.563888	2495.371154
456.937160	2465.124231
457.310373	2505.453462
457.683526	2515.535769
458.056619	2528.138654
458.429653	2457.562500
458.802628	2563.426731
459.175542	2533.179808
459.548398	2518.056346
459.921194	2502.932885
460.293930	2482.768269
460.666607	2414.712692
461.039224	2409.671538
461.411782	2467.644808
461.784280	2475.206538
462.156719	2540.741538
462.529099	2487.809423
462.901419	2495.371154
463.273680	2558.385577
463.645882	2502.932885
464.018024	2515.535769
464.390106	2513.015192
464.762130	2482.768269
465.134094	2513.015192
465.505999	2626.441154
465.877845	2437.397885
466.249631	2535.700385
466.621358	2485.288846
466.993026	2530.659231
467.364634	2482.768269
467.736184	2518.056346
468.107674	2437.397885
468.479105	2568.467885
468.850477	2485.288846
469.221790	2515.535769
469.593043	2502.932885
469.964238	2568.467885
470.335373	2528.138654
470.706449	2538.220962
471.077467	2507.974038
471.448425	2450.000769
471.819324	2472.685962
472.190164	2507.974038
472.560945	2462.603654
472.931667	2538.220962
473.302330	2429.836154
473.672934	2500.412308
474.043479	2513.015192
474.413965	2409.671538
474.784393	2497.891731
475.154761	2450.000769
475.525070	2470.165385
475.895321	2384.465769
476.265513	2500.412308
476.635645	2381.945192
477.005719	2495.371154
477.375734	2606.276538
477.745691	2432.356731
478.115588	2545.782692
478.485427	2465.124231
478.855207	2502.932885
479.224928	2497.891731
479.594591	2460.083077
479.964194	2442.439038
480.333739	2447.480192
480.703226	2455.041923
481.072653	2563.426731
481.442022	2470.165385
481.811333	2485.288846
482.180584	2432.356731
482.549777	2528.138654
482.918912	2480.247692
483.287988	2495.371154
483.657005	2467.644808
484.025964	2444.959615
484.394864	2507.974038
484.763706	2475.206538
485.132489	2538.220962
485.501213	2482.768269
485.869879	2497.891731
486.238487	2457.562500
486.607036	2487.809423
486.975527	2507.974038
487.343959	2555.865000
487.712333	2432.356731
488.080648	2497.891731
488.448905	2457.562500
488.817104	2432.356731
489.185244	2558.385577
489.553326	2460.083077
489.921350	2528.138654
490.289315	2497.891731
490.657222	2450.000769
491.025070	2553.344423
491.392861	2611.317692
491.760593	2467.644808
492.128267	2462.603654
492.495883	2495.371154
492.863440	2495.371154
493.230939	2525.618077
493.598380	2482.768269
493.965763	2485.288846
494.333088	2477.727115
494.700354	2502.932885
495.067563	2457.562500
495.434713	2475.206538
495.801805	2502.932885
496.168839	2507.974038
496.535815	2505.453462
496.902733	2528.138654
497.269593	2487.809423
497.636395	2439.918462
498.003139	2432.356731
498.369825	2568.467885
498.736453	2467.644808
499.103023	2472.685962
499.469535	2490.330000
499.835989	2510.494615
500.202385	2467.644808
500.568723	2462.603654
500.935003	2545.782692
501.301226	2470.165385
501.667390	2550.823846
502.033497	2457.562500
502.399546	2515.535769
502.765537	2467.644808
503.131470	2545.782692
503.497345	2465.124231
503.863163	2457.562500
504.228923	2427.315577
504.594625	2366.821731
504.960269	2502.932885
505.325856	2507.974038
505.691385	2402.109808
506.056856	2563.426731
506.422270	2477.727115
506.787625	2480.247692
507.152924	2568.467885
507.518164	2550.823846
507.883347	2490.330000
508.248472	2502.932885
508.613540	2485.288846
508.978550	2573.509038
509.343503	2591.153077
509.708398	2475.206538
510.073236	2455.041923
510.438016	2432.356731
510.802738	2480.247692
511.167403	2495.371154
511.532010	2417.233269
511.896561	2538.220962
512.261053	2495.371154
512.625488	2545.782692
512.989866	2462.603654
513.354186	2518.056346
513.718449	2502.932885
514.082655	2497.891731
514.446803	2568.467885
514.810894	2535.700385
515.174927	2523.097500
515.538904	2450.000769
515.902822	2477.727115
516.266684	2543.262115
516.630488	2462.603654
516.994235	2596.194231
517.357925	2515.535769
517.721558	2538.220962
518.085133	2490.330000
518.448651	2525.618077
518.812112	2543.262115
519.175516	2477.727115
519.538863	2603.755962
519.902152	2520.576923
520.265385	2558.385577
520.628560	2495.371154
520.991678	2563.426731
521.354739	2525.618077
521.717743	2500.412308
522.080690	2523.097500
522.443580	2457.562500
522.806413	2409.671538
523.169189	2422.274423
523.531908	2429.836154
523.894569	2576.029615
524.257174	2437.397885
524.619722	2515.535769
524.982213	2555.865000
525.344647	2460.083077
525.707025	2452.521346
526.069345	2553.344423
526.431608	2497.891731
526.793815	2482.768269
527.155964	2470.165385
527.518057	2490.330000
527.880093	2565.947308
528.242072	2618.879423
528.603995	2520.576923
528.965860	2414.712692
529.327669	2475.206538
529.689421	2502.932885
530.051117	2487.809423
530.412755	2545.782692
530.774337	2417.233269
531.135862	2487.809423
531.497331	2439.918462
531.858743	2492.850577
532.220098	2482.768269
532.581396	2442.439038
532.942638	2487.809423
533.303824	2520.576923
533.664953	2500.412308
534.026025	2510.494615
534.387040	2480.247692
534.747999	2497.891731
535.108902	2535.700385
535.469748	2570.988462
535.830537	2550.823846
536.191270	2490.330000
536.551947	2538.220962
536.912567	2467.644808
537.273131	2475.206538
537.633638	2555.865000
537.994089	2475.206538
538.354483	2397.068654
538.714821	2482.768269
539.075103	2528.138654
539.435328	2472.685962
539.795497	2432.356731
540.155609	2482.768269
540.515665	2545.782692
540.875665	2462.603654
541.235609	2495.371154
541.595496	2525.618077
541.955328	2570.988462
542.315102	2528.138654
542.674821	2500.412308
543.034483	2492.850577
543.394090	2477.727115
543.753640	2560.906154
544.113134	2472.685962
544.472571	2500.412308
544.831953	2510.494615
545.191278	2492.850577
545.550548	2444.959615
545.909761	2525.618077
546.268918	2434.877308
546.628019	2591.153077
546.987064	2535.700385
547.346053	2472.685962
547.704986	2507.974038
548.063863	2513.015192
548.422684	2490.330000
548.781449	2507.974038
549.140158	2570.988462
549.498811	2457.562500
549.857408	2495.371154
550.215949	2505.453462
550.574434	2442.439038
550.932864	2455.041923
551.291237	2507.974038
551.649555	2437.397885
552.007817	2507.974038
552.366022	2510.494615
552.724173	2467.644808
553.082267	2507.974038
553.440305	2482.768269
553.798288	2513.015192
554.156215	2560.906154
554.514086	2513.015192
554.871902	2598.714808
555.229661	2450.000769
555.587365	2520.576923
555.945014	2480.247692
556.302606	2495.371154
556.660143	2518.056346
557.017625	2465.124231
557.375050	2490.330000
557.732421	2495.371154
558.089735	2482.768269
558.446994	2533.179808
558.804197	2447.480192
559.161345	2515.535769
559.518437	2442.439038
559.875474	2555.865000
560.232455	2510.494615
560.589381	2518.056346
560.946251	2507.974038
561.303065	2475.206538
561.659825	2533.179808
562.016528	2500.412308
562.373177	2477.727115
562.729770	2502.932885
563.086307	2538.220962
563.442789	2515.535769
563.799216	2560.906154
564.155587	2563.426731
564.511904	2500.412308
564.868164	2502.932885
565.224370	2452.521346
565.580520	2444.959615
565.936615	2419.753846
566.292654	2515.535769
566.648638	2586.111923
567.004567	2439.918462
567.360441	2538.220962
567.716260	2505.453462
568.072023	2513.015192
568.427732	2523.097500
568.783385	2565.947308
569.138982	2442.439038
569.494525	2593.673654
569.850013	2550.823846
570.205445	2424.795000
570.560823	2467.644808
570.916145	2550.823846
571.271412	2505.453462
571.626625	2545.782692
571.981782	2472.685962
572.336884	2472.685962
572.691931	2465.124231
573.046923	2497.891731
573.401860	2492.850577
573.756743	2505.453462
574.111570	2480.247692
574.466342	2497.891731
574.821059	2487.809423
575.175722	2444.959615
575.530330	2467.644808
575.884882	2495.371154
576.239380	2563.426731
576.593823	2528.138654
576.948211	2548.303269
577.302544	2598.714808
577.656823	2462.603654
578.011047	2520.576923
578.365216	2502.932885
578.719330	2528.138654
579.073389	2548.303269
579.427394	2606.276538
579.781344	2485.288846
580.135239	2480.247692
580.489080	2487.809423
580.842866	2492.850577
581.196597	2538.220962
581.550273	2487.809423
581.903895	2490.330000
582.257463	2482.768269
582.610975	2475.206538
582.964434	2583.591346
583.317837	2507.974038
583.671186	2414.712692
584.024481	2460.083077
584.377721	2528.138654
584.730906	2505.453462
585.084037	2442.439038
585.437113	2523.097500
585.790135	2500.412308
586.143103	2502.932885
586.496016	2553.344423
586.848874	2480.247692
587.201679	2530.659231
587.554428	2505.453462
587.907124	2500.412308
588.259765	2485.288846
588.612352	2540.741538
588.964884	2530.659231
589.317362	2366.821731
589.669786	2515.535769
590.022155	2442.439038
590.374470	2505.453462
590.726731	2505.453462
591.078937	2492.850577
591.431090	2477.727115
591.783188	2495.371154
592.135232	2518.056346
592.487222	2447.480192
592.839157	2555.865000
593.191038	2482.768269
593.542866	2533.179808
593.894639	2518.056346
594.246358	2507.974038
594.598022	2487.809423
594.949633	2444.959615
595.301190	2560.906154
595.652692	2437.397885
596.004141	2452.521346
596.355535	2472.685962
596.706876	2487.809423
597.058162	2424.795000
597.409395	2593.673654
597.760573	2505.453462
598.111698	2485.288846
598.462768	2558.385577
598.813785	2447.480192
599.164748	2465.124231
599.515657	2568.467885
599.866511	2573.509038
600.217312	2548.303269
600.568060	2538.220962
600.918753	2523.097500
601.269392	2513.015192
601.619978	2535.700385
601.970510	2452.521346
602.320988	2492.850577
602.671412	2485.288846
603.021783	2490.330000
603.372100	2518.056346
603.722363	2429.836154
604.072572	2434.877308
604.422728	2548.303269
604.772830	2450.000769
605.122878	2497.891731
605.472872	2465.124231
605.822813	2487.809423
606.172701	2432.356731
606.522534	2465.124231
606.872314	2497.891731
607.222041	2487.809423
607.571714	2573.509038
607.921333	2414.712692
608.270899	2437.397885
608.620411	2548.303269
608.969870	2523.097500
609.319276	2394.548077
609.668627	2467.644808
610.017926	2507.974038
610.367171	2568.467885
610.716362	2475.206538
611.065500	2482.768269
611.414585	2452.521346
611.763616	2553.344423
612.112594	2487.809423
612.461518	2427.315577
612.810389	2404.630385
613.159207	2545.782692
613.507971	2540.741538
613.856682	2502.932885
614.205340	2538.220962
614.553945	2397.068654
614.902496	2452.521346
615.250994	2550.823846
615.599439	2485.288846
615.947830	2477.727115
616.296169	2472.685962
616.644454	2480.247692
616.992686	2485.288846
617.340864	2487.809423
617.688990	2502.932885
618.037063	2495.371154
618.385082	2515.535769
618.733048	2452.521346
619.080961	2523.097500
619.428821	2500.412308
619.776628	2502.932885
620.124382	2513.015192
620.472083	2470.165385
620.819731	2455.041923
621.167326	2520.576923
621.514868	2450.000769
621.862357	2535.700385
622.209793	2540.741538
622.557176	2477.727115
622.904506	2490.330000
623.251783	2475.206538
623.599007	2583.591346
623.946179	2465.124231
624.293297	2543.262115
624.640363	2505.453462
624.987376	2523.097500
625.334336	2555.865000
625.681243	2497.891731
626.028097	2565.947308
626.374899	2447.480192
626.721647	2611.317692
627.068343	2452.521346
627.414987	2497.891731
627.761577	2558.385577
628.108115	2507.974038
628.454600	2460.083077
628.801032	2525.618077
629.147412	2386.986346
629.493739	2568.467885
629.840014	2507.974038
630.186236	2570.988462
630.532405	2513.015192
630.878521	2472.685962
631.224585	2533.179808
631.570597	2492.850577
631.916556	2530.659231
632.262462	2510.494615
632.608316	2470.165385
632.954117	2460.083077
633.299866	2535.700385
633.645562	2460.083077
633.991206	2555.865000
634.336797	2490.330000
634.682336	2500.412308
635.027823	2407.150962
635.373257	2409.671538
635.718639	2533.179808
636.063968	2450.000769
636.409245	2505.453462
636.754470	2507.974038
637.099642	2510.494615
637.444762	2465.124231
637.789829	2429.836154
638.134845	2502.932885
638.479808	2543.262115
638.824719	2505.453462
639.169577	2507.974038
639.514383	2434.877308
639.859137	2495.371154
640.203839	2465.124231
640.548489	2548.303269
640.893086	2482.768269
641.237632	2548.303269
641.582125	2502.932885
641.926566	2563.426731
642.270955	2477.727115
642.615292	2545.782692
642.959576	2487.809423
643.303809	2515.535769
643.647990	2470.165385
643.992118	2553.344423
644.336195	2583.591346
644.680219	2588.632500
645.024192	2497.891731
645.368112	2450.000769
645.711981	2495.371154
646.055797	2450.000769
646.399562	2492.850577
646.743274	2442.439038
647.086935	2560.906154
647.430544	2467.644808
647.774101	2495.371154
648.117606	2485.288846
648.461059	2470.165385
648.804460	2515.535769
649.147810	2452.521346
649.491108	2497.891731
649.834354	2538.220962
650.177548	2450.000769
650.520690	2583.591346
650.863781	2455.041923
651.206820	2502.932885
651.549807	2502.932885
651.892742	2540.741538
652.235626	2530.659231
652.578458	2452.521346
652.921238	2414.712692
653.263967	2475.206538
653.606644	2550.823846
653.949269	2505.453462
654.291843	2530.659231
654.634365	2467.644808
654.976836	2432.356731
655.319255	2480.247692
655.661622	2462.603654
656.003938	2409.671538
656.346203	2497.891731
656.688416	2460.083077
657.030577	2419.753846
657.372687	2485.288846
657.714746	2535.700385
658.056753	2492.850577
658.398708	2525.618077
658.740612	2495.371154
659.082465	2528.138654
659.424266	2462.603654
659.766016	2535.700385
660.107715	2427.315577
660.449362	2533.179808
660.790958	2513.015192
661.132503	2404.630385
661.473996	2578.550192
661.815438	2442.439038
662.156829	2439.918462
662.498168	2540.741538
662.839456	2467.644808
663.180693	2533.179808
663.521879	2525.618077
663.863013	2560.906154
664.204097	2576.029615
664.545129	2477.727115
664.886110	2505.453462
665.227040	2553.344423
665.567918	2535.700385
665.908746	2507.974038
666.249522	2427.315577
666.590248	2462.603654
666.930922	2510.494615
667.271545	2457.562500
667.612118	2467.644808
667.952639	2487.809423
668.293109	2500.412308
668.633528	2535.700385
668.973896	2543.262115
669.314213	2467.644808
669.654480	2452.521346
669.994695	2581.070769
670.334859	2392.027500
670.674973	2505.453462
671.015035	2442.439038
671.355047	2520.576923
671.695008	2460.083077
672.034918	2525.618077
672.374777	2432.356731
672.714585	2510.494615
673.054342	2434.877308
673.394049	2485.288846
673.733705	2513.015192
674.073310	2550.823846
674.412864	2581.070769
674.752368	2477.727115
675.091820	2573.509038
675.431223	2439.918462
675.770574	2570.988462
676.109875	2515.535769
676.449125	2452.521346
676.788324	2419.753846
677.127473	2470.165385
677.466571	2434.877308
677.805619	2462.603654
678.144616	2530.659231
678.483562	2455.041923
678.822458	2606.276538
679.161303	2543.262115
679.500098	2419.753846
679.838842	2505.453462
680.177535	2588.632500
680.516179	2477.727115
680.854771	2540.741538
681.193314	2434.877308
681.531805	2472.685962
681.870247	2432.356731
682.208638	2513.015192
682.546978	2525.618077
682.885268	2467.644808
683.223508	2510.494615
683.561697	2570.988462
683.899836	2465.124231
684.237925	2457.562500
684.575963	2462.603654
684.913951	2490.330000
685.251889	2444.959615
685.589776	2528.138654
685.927614	2447.480192
686.265401	2470.165385
686.603137	2465.124231
686.940824	2462.603654
687.278460	2487.809423
687.616046	2462.603654
687.953582	2470.165385
688.291068	2482.768269
688.628504	2434.877308
688.965889	2482.768269
689.303224	2545.782692
689.640510	2439.918462
689.977745	2460.083077
690.314930	2523.097500
690.652065	2434.877308
690.989150	2472.685962
691.326185	2434.877308
691.663170	2560.906154
692.000105	2475.206538
692.336990	2573.509038
692.673825	2465.124231
693.010610	2553.344423
693.347345	2490.330000
693.684030	2533.179808
694.020665	2495.371154
694.357251	2492.850577
694.693786	2470.165385
695.030272	2520.576923
695.366707	2404.630385
695.703093	2513.015192
696.039429	2460.083077
696.375716	2515.535769
696.711952	2470.165385
697.048139	2472.685962
697.384276	2465.124231
697.720363	2490.330000
698.056400	2442.439038
698.392388	2444.959615
698.728326	2520.576923
699.064214	2583.591346
699.400053	2591.153077
699.735842	2581.070769
700.071581	2472.685962
700.407270	2530.659231
700.742910	2475.206538
701.078501	2480.247692
701.414042	2480.247692
701.749533	2525.618077
702.084974	2455.041923
702.420366	2462.603654
702.755709	2409.671538
703.091002	2414.712692
703.426246	2497.891731
703.761440	2548.303269
704.096584	2465.124231
704.431679	2505.453462
704.766725	2507.974038
705.101721	2437.397885
705.436668	2487.809423
705.771565	2598.714808
706.106413	2467.644808
706.441212	2487.809423
706.775961	2422.274423
707.110661	2497.891731
707.445311	2477.727115
707.779913	2538.220962
708.114465	2452.521346
708.448967	2495.371154
708.783421	2477.727115
709.117825	2518.056346
709.452180	2452.521346
709.786485	2525.618077
710.120742	2432.356731
710.454949	2467.644808
710.789107	2492.850577
711.123216	2550.823846
711.457275	2437.397885
711.791286	2545.782692
712.125247	2477.727115
712.459159	2586.111923
712.793023	2535.700385
713.126837	2528.138654
713.460602	2528.138654
713.794318	2397.068654
714.127985	2462.603654
714.461602	2457.562500
714.795171	2528.138654
715.128691	2502.932885
715.462162	2422.274423
715.795584	2485.288846
716.128957	2427.315577
716.462281	2513.015192
716.795556	2540.741538
717.128782	2475.206538
717.461960	2472.685962
717.795088	2482.768269
718.128167	2480.247692
718.461198	2555.865000
718.794180	2518.056346
719.127113	2581.070769
719.459997	2409.671538
719.792833	2545.782692
720.125619	2447.480192
720.458357	2447.480192
720.791046	2515.535769
721.123686	2444.959615
721.456278	2533.179808
721.788821	2487.809423
722.121315	2487.809423
722.453761	2568.467885
722.786158	2432.356731
723.118506	2555.865000
723.450805	2502.932885
723.783056	2538.220962
724.115259	2492.850577
724.447412	2515.535769
724.779518	2447.480192
725.111574	2505.453462
725.443582	2513.015192
725.775542	2460.083077
726.107453	2533.179808
726.439315	2518.056346
726.771129	2472.685962
727.102895	2485.288846
727.434612	2550.823846
727.766281	2460.083077
728.097901	2497.891731
728.429473	2455.041923
728.760996	2553.344423
729.092471	2434.877308
729.423897	2555.865000
729.755276	2513.015192
730.086606	2513.015192
730.417887	2444.959615
730.749120	2502.932885
731.080305	2381.945192
731.411442	2409.671538
731.742530	2560.906154
732.073570	2467.644808
732.404562	2450.000769
732.735506	2560.906154
733.066401	2429.836154
733.397249	2530.659231
733.728048	2442.439038
734.058798	2434.877308
734.389501	2450.000769
734.720156	2500.412308
735.050762	2465.124231
735.381320	2444.959615
735.711831	2543.262115
736.042293	2394.548077
736.372707	2535.700385
736.703073	2437.397885
737.033391	2497.891731
737.363661	2460.083077
737.693883	2528.138654
738.024056	2538.220962
738.354182	2558.385577
738.684260	2502.932885
739.014290	2485.288846
739.344272	2523.097500
739.674207	2548.303269
740.004093	2507.974038
740.333931	2490.330000
740.663722	2487.809423
740.993464	2586.111923
741.323159	2513.015192
741.652806	2538.220962
741.982405	2545.782692
742.311956	2497.891731
742.641460	2543.262115
742.970915	2485.288846
743.300323	2548.303269
743.629683	2467.644808
743.958996	2523.097500
744.288260	2515.535769
744.617477	2543.262115
744.946647	2437.397885
745.275768	2558.385577
745.604842	2530.659231
745.933869	2482.768269
746.262847	2495.371154
746.591778	2502.932885
746.920662	2452.521346
747.249498	2525.618077
747.578286	2475.206538
747.907027	2507.974038
748.235720	2465.124231
748.564365	2515.535769
748.892963	2588.632500
749.221514	2588.632500
749.550017	2492.850577
749.878473	2472.685962
750.206881	2487.809423
750.535242	2518.056346
750.863555	2482.768269
751.191821	2530.659231
751.520039	2495.371154
751.848210	2523.097500
752.176334	2513.015192
752.504411	2515.535769
752.832440	2414.712692
753.160421	2492.850577
753.488356	2475.206538
753.816243	2475.206538
754.144082	2376.904038
754.471875	2457.562500
754.799620	2450.000769
755.127318	2472.685962
755.454969	2497.891731
755.782572	2538.220962
756.110129	2417.233269
756.437638	2455.041923
756.765100	2500.412308
757.092515	2563.426731
757.419882	2417.233269
757.747203	2513.015192
758.074477	2548.303269
758.401703	2570.988462
758.728882	2485.288846
759.056014	2578.550192
759.383099	2444.959615
759.710138	2467.644808
760.037129	2470.165385
760.364073	2518.056346
760.690970	2477.727115
761.017820	2437.397885
761.344623	2502.932885
761.671379	2485.288846
761.998088	2533.179808
762.324751	2513.015192
762.651366	2548.303269
762.977935	2450.000769
763.304456	2422.274423
763.630931	2465.124231
763.957359	2419.753846
764.283740	2543.262115
764.610074	2495.371154
764.936362	2505.453462
765.262602	2422.274423
765.588796	2530.659231
765.914943	2560.906154
766.241044	2397.068654
766.567097	2502.932885
766.893104	2444.959615
767.219064	2439.918462
767.544978	2495.371154
767.870845	2497.891731
768.196665	2540.741538
768.522438	2442.439038
768.848165	2475.206538
769.173846	2472.685962
769.499479	2417.233269
769.825066	2555.865000
770.150607	2475.206538
770.476101	2528.138654
770.801548	2414.712692
771.126949	2528.138654
771.452303	2457.562500
771.777611	2507.974038
772.102872	2502.932885
772.428087	2457.562500
772.753256	2472.685962
773.078378	2553.344423
773.403453	2553.344423
773.728482	2414.712692
774.053465	2502.932885
774.378401	2480.247692
774.703291	2419.753846
775.028135	2434.877308
775.352932	2487.809423
775.677683	2530.659231
776.002388	2616.358846
776.327046	2434.877308
776.651658	2523.097500
776.976224	2507.974038
777.300743	2439.918462
777.625216	2417.233269
777.949643	2518.056346
778.274024	2465.124231
778.598359	2497.891731
778.922647	2455.041923
779.246889	2502.932885
779.571086	2497.891731
779.895236	2442.439038
780.219339	2487.809423
780.543397	2402.109808
780.867409	2419.753846
781.191374	2497.891731
781.515294	2515.535769
781.839167	2502.932885
782.162995	2490.330000
782.486776	2490.330000
782.810511	2477.727115
783.134201	2528.138654
783.457844	2515.535769
783.781441	2485.288846
784.104993	2525.618077
784.428498	2482.768269
784.751958	2573.509038
785.075372	2467.644808
785.398739	2523.097500
785.722061	2457.562500
786.045337	2485.288846
786.368568	2530.659231
786.691752	2457.562500
787.014891	2399.589231
787.337983	2482.768269
787.661030	2482.768269
787.984031	2505.453462
788.306987	2467.644808
788.629897	2470.165385
788.952760	2505.453462
789.275579	2490.330000
789.598351	2492.850577
789.921078	2563.426731
790.243759	2520.576923
790.566395	2492.850577
790.888984	2495.371154
791.211529	2505.453462
791.534027	2530.659231
791.856480	2470.165385
792.178888	2515.535769
792.501249	2407.150962
792.823566	2472.685962
793.145836	2525.618077
793.468062	2465.124231
793.790241	2528.138654
794.112375	2442.439038
794.434464	2424.795000
794.756507	2452.521346
795.078505	2432.356731
795.400457	2533.179808
795.722364	2465.124231
796.044226	2507.974038
796.366042	2500.412308
796.687812	2424.795000
797.009538	2570.988462
797.331218	2507.974038
797.652852	2477.727115
797.974442	2470.165385
798.295986	2523.097500
798.617484	2374.383462
798.938938	2472.685962
799.260346	2467.644808
799.581709	2480.247692
799.903026	2444.959615
800.224299	2528.138654
800.545526	2434.877308
800.866708	2502.932885
801.187845	2439.918462
801.508936	2497.891731
801.829983	2513.015192
802.150984	2487.809423
802.471940	2490.330000
802.792851	2560.906154
803.113717	2513.015192
803.434538	2495.371154
803.755314	2427.315577
804.076045	2540.741538
804.396731	2510.494615
804.717372	2535.700385
805.037967	2528.138654
805.358518	2482.768269
805.679024	2616.358846
805.999485	2444.959615
806.319901	2482.768269
806.640272	2533.179808
806.960598	2450.000769
807.280879	2558.385577
807.601115	2452.521346
807.921306	2530.659231
808.241453	2419.753846
808.561554	2565.947308
808.881611	2518.056346
809.201623	2530.659231
809.521590	2460.083077
809.841513	2515.535769
810.161390	2472.685962
810.481223	2543.262115
810.801011	2429.836154
811.120755	2495.371154
811.440453	2523.097500
811.760107	2525.618077
812.079716	2480.247692
812.399281	2596.194231
812.718801	2467.644808
813.038276	2616.358846
813.357707	2507.974038
813.677093	2500.412308
813.996434	2583.591346
814.315731	2452.521346
814.634983	2528.138654
814.954191	2568.467885
815.273354	2500.412308
815.592473	2540.741538
815.911547	2490.330000
816.230577	2407.150962
816.549562	2502.932885
816.868502	2485.288846
817.187399	2495.371154
817.506250	2424.795000
817.825058	2422.274423
818.143821	2500.412308
818.462539	2477.727115
818.781213	2482.768269
819.099843	2452.521346
819.418429	2520.576923
819.736970	2505.453462
820.055466	2502.932885
820.373919	2515.535769
820.692327	2510.494615
821.010691	2409.671538
821.329011	2492.850577
821.647286	2470.165385
821.965517	2472.685962
822.283704	2444.959615
822.601847	2550.823846
822.919945	2490.330000
823.237999	2470.165385
823.556010	2505.453462
823.873976	2442.439038
824.191897	2465.124231
824.509775	2490.330000
824.827609	2540.741538
825.145398	2462.603654
825.463144	2505.453462
825.780845	2427.315577
826.098502	2475.206538
826.416116	2460.083077
826.733685	2490.330000
827.051210	2558.385577
827.368692	2462.603654
827.686129	2513.015192
828.003522	2495.371154
828.320872	2500.412308
828.638177	2457.562500
828.955439	2424.795000
829.272656	2530.659231
829.589830	2467.644808
829.906960	2434.877308
830.224046	2422.274423
830.541088	2422.274423
830.858086	2565.947308
831.175041	2462.603654
831.491952	2482.768269
831.808819	2535.700385
832.125642	2540.741538
832.442421	2482.768269
832.759157	2550.823846
833.075849	2490.330000
833.392497	2533.179808
833.709101	2480.247692
834.025662	2384.465769
834.342179	2495.371154
834.658653	2475.206538
834.975083	2404.630385
835.291469	2545.782692
835.607811	2472.685962
835.924110	2497.891731
836.240366	2497.891731
836.556578	2477.727115
836.872746	2487.809423
837.188871	2505.453462
837.504952	2472.685962
837.820990	2548.303269
838.136984	2598.714808
838.452935	2487.809423
838.768842	2558.385577
839.084706	2565.947308
839.400526	2518.056346
839.716303	2482.768269
840.032037	2457.562500
840.347727	2578.550192
840.663373	2507.974038
840.978977	2392.027500
841.294537	2520.576923
841.610054	2472.685962
841.925527	2467.644808
842.240957	2407.150962
842.556344	2480.247692
842.871687	2545.782692
843.186987	2515.535769
843.502244	2462.603654
843.817458	2538.220962
844.132629	2485.288846
844.447756	2392.027500
844.762840	2457.562500
845.077881	2545.782692
845.392879	2482.768269
845.707833	2497.891731
846.022745	2515.535769
846.337613	2487.809423
846.652438	2442.439038
846.967221	2485.288846
847.281960	2487.809423
847.596656	2452.521346
847.911309	2533.179808
848.225919	2470.165385
848.540485	2502.932885
848.855009	2482.768269
849.169490	2490.330000
849.483928	2475.206538
849.798323	2525.618077
850.112675	2515.535769
850.426984	2485.288846
850.741251	2505.453462
851.055474	2386.986346
851.369654	2487.809423
851.683792	2497.891731
851.997887	2366.821731
852.311938	2558.385577
852.625947	2457.562500
852.939914	2538.220962
853.253837	2502.932885
853.567718	2563.426731
853.881555	2457.562500
854.195350	2518.056346
854.509103	2467.644808
854.822812	2450.000769
855.136479	2530.659231
855.450103	2497.891731
855.763685	2528.138654
856.077224	2518.056346
856.390720	2510.494615
856.704173	2490.330000
857.017584	2462.603654
857.330953	2427.315577
857.644278	2538.220962
857.957561	2475.206538
858.270802	2495.371154
858.584000	2434.877308
858.897155	2487.809423
859.210268	2507.974038
859.523339	2467.644808
859.836367	2407.150962
860.149352	2482.768269
860.462295	2432.356731
860.775195	2568.467885
861.088054	2472.685962
861.400869	2482.768269
861.713642	2530.659231
862.026373	2490.330000
862.339062	2457.562500
862.651708	2490.330000
862.964312	2439.918462
863.276873	2601.235385
863.589392	2419.753846
863.901869	2533.179808
864.214303	2510.494615
864.526696	2419.753846
864.839045	2520.576923
865.151353	2495.371154
865.463619	2505.453462
865.775842	2384.465769
866.088023	2505.453462
866.400162	2515.535769
866.712258	2497.891731
867.024313	2442.439038
867.336325	2432.356731
867.648296	2538.220962
867.960224	2518.056346
868.272110	2548.303269
868.583954	2470.165385
868.895755	2444.959615
869.207515	2452.521346
869.519233	2528.138654
869.830909	2477.727115
870.142542	2581.070769
870.454134	2457.562500
870.765684	2515.535769
871.077191	2447.480192
871.388657	2497.891731
871.700081	2424.795000
872.011463	2533.179808
872.322803	2523.097500
872.634101	2381.945192
872.945357	2538.220962
873.256571	2467.644808
873.567744	2515.535769
873.878874	2550.823846
874.189963	2520.576923
874.501010	2477.727115
874.812015	2462.603654
875.122979	2513.015192
875.433900	2510.494615
875.744780	2455.041923
876.055618	2482.768269
876.366415	2570.988462
876.677169	2455.041923
876.987882	2495.371154
877.298554	2437.397885
877.609183	2465.124231
877.919771	2470.165385
878.230317	2528.138654
878.540822	2437.397885
878.851285	2482.768269
879.161707	2533.179808
879.472087	2419.753846
879.782425	2492.850577
880.092722	2502.932885
880.402977	2429.836154
880.713191	2510.494615
881.023363	2450.000769
881.333494	2455.041923
881.643583	2455.041923
881.953631	2495.371154
882.263637	2470.165385
882.573602	2520.576923
882.883526	2588.632500
883.193408	2477.727115
883.503248	2528.138654
883.813048	2419.753846
884.122806	2460.083077
884.432522	2497.891731
884.742197	2523.097500
885.051831	2477.727115
885.361424	2525.618077
885.670975	2495.371154
885.980485	2553.344423
886.289954	2470.165385
886.599382	2518.056346
886.908768	2407.150962
887.218113	2497.891731
887.527417	2434.877308
887.836680	2485.288846
888.145901	2422.274423
888.455082	2543.262115
888.764221	2523.097500
889.073319	2553.344423
889.382376	2502.932885
889.691392	2545.782692
890.000366	2450.000769
890.309300	2490.330000
890.618193	2550.823846
890.927044	2510.494615
891.235855	2497.891731
891.544625	2505.453462
891.853353	2450.000769
892.162041	2414.712692
892.470687	2550.823846
892.779293	2422.274423
893.087858	2523.097500
893.396381	2525.618077
893.704864	2523.097500
894.013306	2480.247692
894.321707	2586.111923
894.630068	2384.465769
894.938387	2452.521346
895.246665	2429.836154
895.554903	2490.330000
895.863100	2518.056346
896.171256	2477.727115
896.479371	2450.000769
896.787446	2414.712692
897.095480	2505.453462
897.403473	2543.262115
897.711425	2518.056346
898.019336	2520.576923
898.327207	2523.097500
898.635038	2407.150962
898.942827	2485.288846
899.250576	2361.780577
899.558284	2495.371154
899.865952	2450.000769
900.173579	2533.179808
900.481165	2487.809423
900.788711	2515.535769
901.096216	2417.233269
901.403681	2450.000769
901.711105	2505.453462
902.018489	2502.932885
902.325832	2452.521346
902.633135	2563.426731
902.940397	2550.823846
903.247619	2497.891731
903.554800	2596.194231
903.861941	2545.782692
904.169041	2545.782692
904.476101	2465.124231
904.783121	2553.344423
905.090100	2447.480192
905.397039	2447.480192
905.703938	2452.521346
906.010796	2497.891731
906.317614	2515.535769
906.624391	2492.850577
906.931129	2457.562500
907.237826	2515.535769
907.544483	2472.685962
907.851099	2472.685962
908.157675	2530.659231
908.464211	2427.315577
908.770707	2442.439038
909.077163	2475.206538
909.383578	2480.247692
909.689954	2545.782692
909.996289	2492.850577
910.302584	2429.836154
910.608839	2482.768269
910.915054	2444.959615
911.221229	2477.727115
911.527363	2460.083077
911.833458	2515.535769
912.139513	2444.959615
912.445527	2487.809423
912.751502	2457.562500
913.057436	2475.206538
913.363331	2437.397885
913.669186	2518.056346
913.975000	2528.138654
914.280775	2447.480192
914.586510	2543.262115
914.892205	2513.015192
915.197859	2513.015192
915.503475	2538.220962
915.809050	2462.603654
916.114585	2570.988462
916.420081	2490.330000
916.725536	2409.671538
917.030952	2487.809423
917.336328	2450.000769
917.641665	2591.153077
917.946961	2439.918462
918.252218	2515.535769
918.557435	2518.056346
918.862612	2424.795000
919.167750	2510.494615
919.472848	2475.206538
919.777906	2497.891731
920.082925	2507.974038
920.387904	2558.385577
920.692843	2455.041923
920.997743	2538.220962
921.302603	2432.356731
921.607423	2563.426731
921.912204	2513.015192
922.216946	2523.097500
922.521647	2548.303269
922.826310	2515.535769
923.130932	2520.576923
923.435516	2535.700385
923.740059	2490.330000
924.044564	2437.397885
924.349028	2558.385577
924.653454	2530.659231
924.957840	2553.344423
925.262186	2470.165385
925.566493	2513.015192
925.870761	2533.179808
926.174989	2535.700385
926.479178	2495.371154
926.783328	2520.576923
927.087438	2404.630385
927.391509	2535.700385
927.695541	2397.068654
927.999533	2543.262115
928.303486	2500.412308
928.607400	2402.109808
928.911275	2558.385577
929.215110	2502.932885
929.518906	2500.412308
929.822663	2596.194231
930.126381	2455.041923
930.430060	2563.426731
930.733699	2621.400000
931.037299	2485.288846
931.340861	2397.068654
931.644383	2472.685962
931.947866	2581.070769
932.251309	2505.453462
932.554714	2507.974038
932.858080	2502.932885
933.161407	2540.741538
933.464694	2465.124231
933.767943	2497.891731
934.071153	2437.397885
934.374323	2450.000769
934.677455	2480.247692
934.980548	2502.932885
935.283602	2472.685962
935.586617	2452.521346
935.889593	2525.618077
936.192530	2434.877308
936.495428	2475.206538
936.798287	2480.247692
937.101108	2475.206538
937.403890	2482.768269
937.706632	2457.562500
938.009336	2442.439038
938.312002	2485.288846
938.614628	2523.097500
938.917216	2495.371154
939.219765	2543.262115
939.522275	2465.124231
939.824747	2502.932885
940.127179	2515.535769
940.429573	2472.685962
940.731929	2480.247692
941.034246	2533.179808
941.336524	2439.918462
941.638763	2502.932885
941.940964	2424.795000
942.243126	2515.535769
942.545250	2470.165385
942.847335	2460.083077
943.149381	2510.494615
943.451389	2533.179808
943.753359	2497.891731
944.055290	2500.412308
944.357182	2500.412308
944.659036	2500.412308
944.960851	2550.823846
945.262628	2492.850577
945.564367	2520.576923
945.866067	2460.083077
946.167729	2480.247692
946.469352	2550.823846
946.770937	2520.576923
947.072484	2510.494615
947.373992	2505.453462
947.675462	2480.247692
947.976893	2444.959615
948.278286	2465.124231
948.579641	2470.165385
948.880958	2523.097500
949.182236	2565.947308
949.483476	2452.521346
949.784678	2543.262115
950.085841	2505.453462
950.386967	2490.330000
950.688054	2518.056346
950.989103	2495.371154
951.290114	2480.247692
951.591087	2518.056346
951.892021	2505.453462
952.192917	2467.644808
952.493776	2477.727115
952.794596	2535.700385
953.095378	2528.138654
953.396122	2497.891731
953.696828	2528.138654
953.997496	2502.932885
954.298126	2507.974038
954.598718	2452.521346
954.899272	2518.056346
955.199788	2548.303269
955.500266	2470.165385
955.800706	2477.727115
956.101108	2414.712692
956.401472	2528.138654
956.701798	2437.397885
957.002087	2404.630385
957.302337	2462.603654
957.602550	2487.809423
957.902724	2447.480192
958.202861	2568.467885
958.502960	2518.056346
958.803022	2409.671538
959.103045	2477.727115
959.403031	2507.974038
959.702979	2457.562500
960.002889	2366.821731
960.302762	2495.371154
960.602596	2502.932885
960.902393	2497.891731
961.202153	2402.109808
961.501875	2482.768269
961.801559	2467.644808
962.101205	2485.288846
962.400814	2457.562500
962.700385	2515.535769
962.999918	2470.165385
963.299414	2568.467885
963.598873	2477.727115
963.898293	2523.097500
964.197677	2477.727115
964.497022	2465.124231
964.796331	2462.603654
965.095601	2568.467885
965.394835	2450.000769
965.694030	2487.809423
965.993189	2407.150962
966.292309	2450.000769
966.591393	2467.644808
966.890439	2455.041923
967.189447	2482.768269
967.488419	2487.809423
967.787353	2460.083077
968.086249	2447.480192
968.385108	2518.056346
968.683930	2409.671538
968.982714	2412.192115
969.281462	2525.618077
969.580172	2442.439038
969.878844	2507.974038
970.177480	2525.618077
970.476078	2455.041923
970.774639	2518.056346
971.073162	2455.041923
971.371649	2538.220962
971.670098	2497.891731
971.968510	2533.179808
972.266885	2442.439038
972.565223	2467.644808
972.863524	2507.974038
973.161788	2538.220962
973.460014	2434.877308
973.758204	2515.535769
974.056356	2528.138654
974.354471	2492.850577
974.652550	2422.274423
974.950591	2457.562500
975.248595	2497.891731
975.546563	2482.768269
975.844493	2576.029615
976.142386	2424.795000
976.440243	2472.685962
976.738062	2477.727115
977.035845	2480.247692
977.333590	2487.809423
977.631299	2477.727115
977.928971	2444.959615
978.226606	2518.056346
978.524204	2480.247692
978.821765	2492.850577
979.119290	2497.891731
979.416777	2492.850577
979.714228	2412.192115
980.011642	2545.782692
980.309020	2465.124231
980.606360	2487.809423
980.903664	2460.083077
981.200931	2560.906154
981.498162	2457.562500
981.795356	2442.439038
982.092513	2588.632500
982.389633	2404.630385
982.686717	2515.535769
982.983764	2467.644808
983.280775	2535.700385
983.577749	2523.097500
983.874686	2492.850577
984.171587	2538.220962
984.468451	2482.768269
984.765279	2487.809423
985.062070	2409.671538
985.358824	2581.070769
985.655543	2528.138654
985.952224	2545.782692
986.248869	2558.385577
986.545478	2414.712692
986.842050	2460.083077
987.138586	2402.109808
987.435086	2462.603654
987.731549	2472.685962
988.027975	2487.809423
988.324366	2434.877308
988.620719	2460.083077
988.917037	2475.206538
989.213318	2450.000769
989.509563	2437.397885
989.805772	2548.303269
990.101944	2500.412308
990.398080	2543.262115
990.694180	2465.124231
990.990244	2538.220962
991.286271	2432.356731
991.582262	2530.659231
991.878217	2444.959615
992.174136	2417.233269
992.470019	2472.685962
992.765865	2419.753846
993.061676	2515.535769
993.357450	2502.932885
993.653188	2452.521346
993.948890	2520.576923
994.244556	2444.959615
994.540186	2452.521346
994.835780	2409.671538
995.131337	2485.288846
995.426859	2495.371154
995.722345	2543.262115
996.017795	2540.741538
996.313208	2455.041923
996.608586	2497.891731
996.903928	2482.768269
997.199234	2414.712692
997.494504	2470.165385
997.789738	2497.891731
998.084936	2533.179808
998.380099	2424.795000
998.675225	2513.015192
998.970316	2606.276538
999.265371	2442.439038
999.560390	2525.618077
999.855373	2477.727115
1000.150320	2545.782692
1000.445232	2472.685962
1000.740108	2520.576923
1001.034948	2477.727115
1001.329752	2528.138654
1001.624521	2558.385577
1001.919254	2480.247692
1002.213951	2505.453462
1002.508613	2492.850577
1002.803239	2538.220962
1003.097829	2502.932885
1003.392384	2515.535769
1003.686903	2507.974038
1003.981386	2450.000769
1004.275834	2492.850577
1004.570246	2601.235385
1004.864623	2533.179808
1005.158964	2502.932885
1005.453270	2470.165385
1005.747540	2510.494615
1006.041775	2490.330000
1006.335974	2565.947308
1006.630138	2500.412308
1006.924266	2470.165385
1007.218359	2591.153077
1007.512416	2495.371154
1007.806438	2502.932885
1008.100425	2520.576923
1008.394376	2490.330000
1008.688292	2475.206538
1008.982172	2523.097500
1009.276017	2450.000769
1009.569827	2480.247692
1009.863602	2520.576923
1010.157341	2487.809423
1010.451045	2465.124231
1010.744714	2560.906154
1011.038347	2500.412308
1011.331945	2444.959615
1011.625508	2427.315577
1011.919036	2427.315577
1012.212528	2455.041923
1012.505986	2394.548077
1012.799408	2462.603654
1013.092795	2457.562500
1013.386147	2548.303269
1013.679464	2492.850577
1013.972745	2422.274423
1014.265992	2465.124231
1014.559204	2497.891731
1014.852380	2492.850577
1015.145521	2510.494615
1015.438628	2455.041923
1015.731699	2538.220962
1016.024736	2472.685962
1016.317737	2515.535769
1016.610703	2480.247692
1016.903635	2543.262115
1017.196531	2427.315577
1017.489393	2490.330000
1017.782219	2497.891731
1018.075011	2429.836154
1018.367768	2480.247692
1018.660490	2457.562500
1018.953177	2457.562500
1019.245829	2457.562500
