Dividing Wavelength (nm)	Counts (n)	Blue Motor Position (mm): 1.000000	Red Motor Position (mm): 0.000000	
326.493990	2139.969808
326.888308	2139.969808
327.282561	2139.969808
327.676750	2046.708462
328.070874	2026.543846
328.464933	2087.037692
328.858929	2114.764038
329.252859	2084.517115
329.646726	2172.737308
330.040528	2152.572692
330.434265	2102.161154
330.827938	2119.805192
331.221547	2139.969808
331.615091	2139.969808
332.008571	2165.175577
332.401986	2200.463654
332.795338	2223.148846
333.188625	2258.436923
333.581847	2263.478077
333.975006	2326.492500
334.368100	2288.683846
334.761129	2351.698269
335.154095	2334.054231
335.546996	2371.862885
335.939833	2361.780577
336.332606	2384.465769
336.725315	2439.918462
337.117960	2402.109808
337.510540	2419.753846
337.903056	2460.083077
338.295508	2361.780577
338.687896	2414.712692
339.080220	2495.371154
339.472480	2439.918462
339.864676	2450.000769
340.256807	2470.165385
340.648875	2502.932885
341.040879	2477.727115
341.432818	2429.836154
341.824694	2510.494615
342.216506	2500.412308
342.608253	2515.535769
342.999937	2497.891731
343.391557	2429.836154
343.783113	2515.535769
344.174605	2455.041923
344.566033	2447.480192
344.957397	2407.150962
345.348697	2515.535769
345.739934	2507.974038
346.131106	2492.850577
346.522215	2417.233269
346.913260	2528.138654
347.304241	2412.192115
347.695159	2442.439038
348.086012	2475.206538
348.476802	2462.603654
348.867528	2422.274423
349.258191	2475.206538
349.648789	2450.000769
350.039324	2477.727115
350.429796	2424.795000
350.820203	2490.330000
351.210548	2361.780577
351.600828	2349.177692
351.991045	2518.056346
352.381198	2397.068654
352.771288	2424.795000
353.161314	2409.671538
353.551276	2444.959615
353.941175	2427.315577
354.331010	2437.397885
354.720782	2392.027500
355.110490	2364.301154
355.500135	2477.727115
355.889717	2437.397885
356.279235	2422.274423
356.668689	2444.959615
357.058080	2376.904038
357.447408	2518.056346
357.836672	2447.480192
358.225873	2515.535769
358.615010	2381.945192
359.004084	2457.562500
359.393095	2487.809423
359.782043	2462.603654
360.170927	2412.192115
360.559748	2460.083077
360.948505	2381.945192
361.337199	2392.027500
361.725830	2490.330000
362.114398	2404.630385
362.502903	2414.712692
362.891344	2460.083077
363.279722	2359.260000
363.668037	2475.206538
364.056289	2407.150962
364.444478	2462.603654
364.832603	2439.918462
365.220665	2495.371154
365.608665	2437.397885
365.996601	2422.274423
366.384474	2444.959615
366.772284	2434.877308
367.160031	2472.685962
367.547715	2417.233269
367.935336	2374.383462
368.322893	2528.138654
368.710388	2462.603654
369.097820	2399.589231
369.485189	2397.068654
369.872495	2518.056346
370.259738	2397.068654
370.646918	2450.000769
371.034035	2470.165385
371.421090	2427.315577
371.808081	2472.685962
372.195010	2447.480192
372.581875	2500.412308
372.968678	2475.206538
373.355418	2472.685962
373.742096	2485.288846
374.128710	2533.179808
374.515262	2384.465769
374.901751	2487.809423
375.288177	2434.877308
375.674540	2417.233269
376.060841	2424.795000
376.447079	2538.220962
376.833254	2412.192115
377.219367	2502.932885
377.605417	2502.932885
377.991404	2457.562500
378.377329	2381.945192
378.763191	2510.494615
379.148991	2450.000769
379.534727	2470.165385
379.920402	2376.904038
380.306013	2465.124231
380.691563	2490.330000
381.077049	2429.836154
381.462474	2500.412308
381.847835	2472.685962
382.233134	2412.192115
382.618371	2540.741538
383.003545	2490.330000
383.388657	2475.206538
383.773706	2480.247692
384.158693	2495.371154
384.543618	2444.959615
384.928480	2424.795000
385.313280	2513.015192
385.698017	2379.424615
386.082692	2432.356731
386.467305	2523.097500
386.851856	2437.397885
387.236344	2434.877308
387.620770	2439.918462
388.005133	2444.959615
388.389435	2460.083077
388.773674	2392.027500
389.157851	2497.891731
389.541965	2500.412308
389.926018	2523.097500
390.310008	2495.371154
390.693936	2485.288846
391.077802	2417.233269
391.461606	2465.124231
391.845348	2429.836154
392.229027	2457.562500
392.612645	2502.932885
392.996200	2447.480192
393.379694	2472.685962
393.763125	2429.836154
394.146494	2402.109808
394.529801	2480.247692
394.913047	2477.727115
395.296230	2530.659231
395.679351	2419.753846
396.062410	2495.371154
396.445408	2414.712692
396.828343	2412.192115
397.211217	2404.630385
397.594028	2455.041923
397.976778	2427.315577
398.359466	2538.220962
398.742092	2465.124231
399.124656	2482.768269
399.507158	2412.192115
399.889598	2447.480192
400.271977	2452.521346
400.654294	2507.974038
401.036549	2450.000769
401.418742	2490.330000
401.800874	2412.192115
402.182944	2525.618077
402.564952	2472.685962
402.946898	2515.535769
403.328783	2530.659231
403.710606	2495.371154
404.092367	2507.974038
404.474067	2444.959615
404.855705	2402.109808
405.237282	2565.947308
405.618797	2497.891731
406.000250	2497.891731
406.381642	2422.274423
406.762972	2394.548077
407.144240	2417.233269
407.525447	2482.768269
407.906593	2392.027500
408.287677	2485.288846
408.668700	2477.727115
409.049661	2442.439038
409.430560	2530.659231
409.811399	2485.288846
410.192176	2442.439038
410.572891	2432.356731
410.953545	2525.618077
411.334138	2460.083077
411.714669	2472.685962
412.095139	2540.741538
412.475547	2525.618077
412.855894	2492.850577
413.236180	2500.412308
413.616405	2555.865000
413.996568	2455.041923
414.376670	2442.439038
414.756711	2500.412308
415.136691	2576.029615
415.516609	2386.986346
415.896466	2497.891731
416.276262	2500.412308
416.655997	2485.288846
417.035670	2482.768269
417.415283	2558.385577
417.794834	2452.521346
418.174324	2495.371154
418.553753	2447.480192
418.933121	2475.206538
419.312428	2497.891731
419.691674	2475.206538
420.070859	2467.644808
420.449983	2513.015192
420.829045	2543.262115
421.208047	2407.150962
421.586988	2497.891731
421.965867	2518.056346
422.344686	2520.576923
422.723444	2475.206538
423.102141	2533.179808
423.480777	2588.632500
423.859352	2422.274423
424.237866	2460.083077
424.616319	2422.274423
424.994712	2525.618077
425.373044	2442.439038
425.751314	2470.165385
426.129524	2429.836154
426.507673	2500.412308
426.885762	2497.891731
427.263789	2470.165385
427.641756	2404.630385
428.019662	2525.618077
428.397508	2424.795000
428.775292	2523.097500
429.153016	2510.494615
429.530679	2407.150962
429.908282	2502.932885
430.285824	2553.344423
430.663305	2510.494615
431.040726	2505.453462
431.418086	2422.274423
431.795385	2460.083077
432.172624	2480.247692
432.549802	2515.535769
432.926920	2462.603654
433.303977	2540.741538
433.680974	2525.618077
434.057910	2465.124231
434.434786	2462.603654
434.811601	2455.041923
435.188355	2470.165385
435.565050	2507.974038
435.941683	2452.521346
436.318257	2525.618077
436.694770	2472.685962
437.071222	2470.165385
437.447614	2482.768269
437.823946	2465.124231
438.200218	2447.480192
438.576429	2444.959615
438.952580	2419.753846
439.328670	2550.823846
439.704700	2518.056346
440.080670	2417.233269
440.456580	2392.027500
440.832429	2419.753846
441.208218	2434.877308
441.583947	2497.891731
441.959616	2457.562500
442.335224	2591.153077
442.710773	2525.618077
443.086261	2507.974038
443.461689	2513.015192
443.837057	2492.850577
444.212365	2429.836154
444.587612	2472.685962
444.962800	2452.521346
445.337927	2404.630385
445.712995	2450.000769
446.088002	2480.247692
446.462949	2490.330000
446.837837	2530.659231
447.212664	2472.685962
447.587431	2450.000769
447.962139	2444.959615
448.336786	2470.165385
448.711374	2475.206538
449.085901	2530.659231
449.460369	2404.630385
449.834776	2543.262115
450.209124	2480.247692
450.583412	2533.179808
450.957640	2434.877308
451.331808	2518.056346
451.705917	2485.288846
452.079965	2520.576923
452.453954	2500.412308
452.827883	2528.138654
453.201752	2437.397885
453.575562	2492.850577
453.949311	2576.029615
454.323001	2434.877308
454.696632	2543.262115
455.070202	2538.220962
455.443713	2424.795000
455.817164	2497.891731
456.190556	2422.274423
456.563888	2515.535769
456.937160	2452.521346
457.310373	2563.426731
457.683526	2523.097500
458.056619	2439.918462
458.429653	2507.974038
458.802628	2500.412308
459.175542	2470.165385
459.548398	2490.330000
459.921194	2450.000769
460.293930	2422.274423
460.666607	2500.412308
461.039224	2565.947308
461.411782	2450.000769
461.784280	2444.959615
462.156719	2455.041923
462.529099	2495.371154
462.901419	2487.809423
463.273680	2414.712692
463.645882	2467.644808
464.018024	2482.768269
464.390106	2462.603654
464.762130	2437.397885
465.134094	2482.768269
465.505999	2507.974038
465.877845	2460.083077
466.249631	2545.782692
466.621358	2502.932885
466.993026	2525.618077
467.364634	2477.727115
467.736184	2470.165385
468.107674	2507.974038
468.479105	2535.700385
468.850477	2548.303269
469.221790	2523.097500
469.593043	2485.288846
469.964238	2502.932885
470.335373	2437.397885
470.706449	2533.179808
471.077467	2444.959615
471.448425	2437.397885
471.819324	2505.453462
472.190164	2502.932885
472.560945	2399.589231
472.931667	2578.550192
473.302330	2518.056346
473.672934	2412.192115
474.043479	2409.671538
474.413965	2460.083077
474.784393	2452.521346
475.154761	2492.850577
475.525070	2555.865000
475.895321	2434.877308
476.265513	2535.700385
476.635645	2475.206538
477.005719	2429.836154
477.375734	2472.685962
477.745691	2437.397885
478.115588	2442.439038
478.485427	2523.097500
478.855207	2500.412308
479.224928	2429.836154
479.594591	2457.562500
479.964194	2480.247692
480.333739	2560.906154
480.703226	2460.083077
481.072653	2565.947308
481.442022	2422.274423
481.811333	2465.124231
482.180584	2480.247692
482.549777	2460.083077
482.918912	2618.879423
483.287988	2485.288846
483.657005	2452.521346
484.025964	2510.494615
484.394864	2530.659231
484.763706	2507.974038
485.132489	2452.521346
485.501213	2601.235385
485.869879	2465.124231
486.238487	2505.453462
486.607036	2528.138654
486.975527	2510.494615
487.343959	2535.700385
487.712333	2442.439038
488.080648	2578.550192
488.448905	2528.138654
488.817104	2570.988462
489.185244	2422.274423
489.553326	2424.795000
489.921350	2492.850577
490.289315	2482.768269
490.657222	2485.288846
491.025070	2424.795000
491.392861	2482.768269
491.760593	2525.618077
492.128267	2470.165385
492.495883	2452.521346
492.863440	2482.768269
493.230939	2485.288846
493.598380	2497.891731
493.965763	2495.371154
494.333088	2530.659231
494.700354	2490.330000
495.067563	2502.932885
495.434713	2518.056346
495.801805	2432.356731
496.168839	2500.412308
496.535815	2465.124231
496.902733	2444.959615
497.269593	2502.932885
497.636395	2525.618077
498.003139	2475.206538
498.369825	2528.138654
498.736453	2447.480192
499.103023	2500.412308
499.469535	2497.891731
499.835989	2528.138654
500.202385	2492.850577
500.568723	2487.809423
500.935003	2470.165385
501.301226	2523.097500
501.667390	2513.015192
502.033497	2520.576923
502.399546	2603.755962
502.765537	2570.988462
503.131470	2540.741538
503.497345	2530.659231
503.863163	2515.535769
504.228923	2515.535769
504.594625	2414.712692
504.960269	2581.070769
505.325856	2434.877308
505.691385	2528.138654
506.056856	2507.974038
506.422270	2543.262115
506.787625	2414.712692
507.152924	2553.344423
507.518164	2568.467885
507.883347	2487.809423
508.248472	2545.782692
508.613540	2437.397885
508.978550	2510.494615
509.343503	2507.974038
509.708398	2492.850577
510.073236	2487.809423
510.438016	2548.303269
510.802738	2535.700385
511.167403	2407.150962
511.532010	2525.618077
511.896561	2462.603654
512.261053	2482.768269
512.625488	2502.932885
512.989866	2513.015192
513.354186	2457.562500
513.718449	2525.618077
514.082655	2439.918462
514.446803	2369.342308
514.810894	2555.865000
515.174927	2402.109808
515.538904	2543.262115
515.902822	2535.700385
516.266684	2560.906154
516.630488	2467.644808
516.994235	2530.659231
517.357925	2545.782692
517.721558	2513.015192
518.085133	2540.741538
518.448651	2447.480192
518.812112	2520.576923
519.175516	2437.397885
519.538863	2434.877308
519.902152	2530.659231
520.265385	2462.603654
520.628560	2409.671538
520.991678	2507.974038
521.354739	2573.509038
521.717743	2581.070769
522.080690	2475.206538
522.443580	2530.659231
522.806413	2457.562500
523.169189	2414.712692
523.531908	2515.535769
523.894569	2447.480192
524.257174	2495.371154
524.619722	2533.179808
524.982213	2422.274423
525.344647	2472.685962
525.707025	2442.439038
526.069345	2598.714808
526.431608	2576.029615
526.793815	2485.288846
527.155964	2500.412308
527.518057	2505.453462
527.880093	2568.467885
528.242072	2583.591346
528.603995	2392.027500
528.965860	2439.918462
529.327669	2497.891731
529.689421	2477.727115
530.051117	2535.700385
530.412755	2535.700385
530.774337	2450.000769
531.135862	2558.385577
531.497331	2502.932885
531.858743	2558.385577
532.220098	2538.220962
532.581396	2510.494615
532.942638	2472.685962
533.303824	2460.083077
533.664953	2427.315577
534.026025	2533.179808
534.387040	2510.494615
534.747999	2470.165385
535.108902	2560.906154
535.469748	2477.727115
535.830537	2444.959615
536.191270	2485.288846
536.551947	2510.494615
536.912567	2490.330000
537.273131	2452.521346
537.633638	2543.262115
537.994089	2523.097500
538.354483	2515.535769
538.714821	2429.836154
539.075103	2485.288846
539.435328	2530.659231
539.795497	2460.083077
540.155609	2518.056346
540.515665	2455.041923
540.875665	2462.603654
541.235609	2470.165385
541.595496	2429.836154
541.955328	2407.150962
542.315102	2497.891731
542.674821	2530.659231
543.034483	2455.041923
543.394090	2460.083077
543.753640	2502.932885
544.113134	2573.509038
544.472571	2500.412308
544.831953	2452.521346
545.191278	2530.659231
545.550548	2424.795000
545.909761	2424.795000
546.268918	2520.576923
546.628019	2444.959615
546.987064	2429.836154
547.346053	2523.097500
547.704986	2447.480192
548.063863	2495.371154
548.422684	2492.850577
548.781449	2555.865000
549.140158	2490.330000
549.498811	2563.426731
549.857408	2462.603654
550.215949	2520.576923
550.574434	2497.891731
550.932864	2434.877308
551.291237	2530.659231
551.649555	2455.041923
552.007817	2560.906154
552.366022	2568.467885
552.724173	2487.809423
553.082267	2434.877308
553.440305	2422.274423
553.798288	2560.906154
554.156215	2538.220962
554.514086	2548.303269
554.871902	2502.932885
555.229661	2434.877308
555.587365	2495.371154
555.945014	2422.274423
556.302606	2507.974038
556.660143	2414.712692
557.017625	2513.015192
557.375050	2507.974038
557.732421	2490.330000
558.089735	2518.056346
558.446994	2523.097500
558.804197	2460.083077
559.161345	2538.220962
559.518437	2475.206538
559.875474	2502.932885
560.232455	2439.918462
560.589381	2555.865000
560.946251	2452.521346
561.303065	2452.521346
561.659825	2500.412308
562.016528	2444.959615
562.373177	2432.356731
562.729770	2465.124231
563.086307	2545.782692
563.442789	2545.782692
563.799216	2548.303269
564.155587	2565.947308
564.511904	2548.303269
564.868164	2477.727115
565.224370	2588.632500
565.580520	2472.685962
565.936615	2492.850577
566.292654	2533.179808
566.648638	2497.891731
567.004567	2588.632500
567.360441	2500.412308
567.716260	2606.276538
568.072023	2490.330000
568.427732	2518.056346
568.783385	2427.315577
569.138982	2444.959615
569.494525	2502.932885
569.850013	2510.494615
570.205445	2437.397885
570.560823	2543.262115
570.916145	2568.467885
571.271412	2540.741538
571.626625	2525.618077
571.981782	2598.714808
572.336884	2465.124231
572.691931	2467.644808
573.046923	2505.453462
573.401860	2472.685962
573.756743	2432.356731
574.111570	2452.521346
574.466342	2502.932885
574.821059	2482.768269
575.175722	2525.618077
575.530330	2525.618077
575.884882	2409.671538
576.239380	2530.659231
576.593823	2444.959615
576.948211	2533.179808
577.302544	2523.097500
577.656823	2439.918462
578.011047	2545.782692
578.365216	2528.138654
578.719330	2470.165385
579.073389	2510.494615
579.427394	2530.659231
579.781344	2477.727115
580.135239	2533.179808
580.489080	2555.865000
580.842866	2495.371154
581.196597	2500.412308
581.550273	2543.262115
581.903895	2560.906154
582.257463	2477.727115
582.610975	2507.974038
582.964434	2460.083077
583.317837	2510.494615
583.671186	2475.206538
584.024481	2553.344423
584.377721	2528.138654
584.730906	2465.124231
585.084037	2535.700385
585.437113	2472.685962
585.790135	2520.576923
586.143103	2492.850577
586.496016	2518.056346
586.848874	2573.509038
587.201679	2470.165385
587.554428	2480.247692
587.907124	2455.041923
588.259765	2502.932885
588.612352	2505.453462
588.964884	2485.288846
589.317362	2560.906154
589.669786	2472.685962
590.022155	2389.506923
590.374470	2502.932885
590.726731	2518.056346
591.078937	2429.836154
591.431090	2475.206538
591.783188	2545.782692
592.135232	2500.412308
592.487222	2497.891731
592.839157	2429.836154
593.191038	2492.850577
593.542866	2583.591346
593.894639	2480.247692
594.246358	2422.274423
594.598022	2555.865000
594.949633	2475.206538
595.301190	2540.741538
595.652692	2490.330000
596.004141	2475.206538
596.355535	2452.521346
596.706876	2528.138654
597.058162	2505.453462
597.409395	2510.494615
597.760573	2452.521346
598.111698	2485.288846
598.462768	2513.015192
598.813785	2507.974038
599.164748	2399.589231
599.515657	2455.041923
599.866511	2447.480192
600.217312	2495.371154
600.568060	2543.262115
600.918753	2475.206538
601.269392	2482.768269
601.619978	2447.480192
601.970510	2538.220962
602.320988	2510.494615
602.671412	2553.344423
603.021783	2515.535769
603.372100	2462.603654
603.722363	2528.138654
604.072572	2505.453462
604.422728	2530.659231
604.772830	2437.397885
605.122878	2495.371154
605.472872	2502.932885
605.822813	2457.562500
606.172701	2465.124231
606.522534	2472.685962
606.872314	2502.932885
607.222041	2460.083077
607.571714	2477.727115
607.921333	2412.192115
608.270899	2450.000769
608.620411	2485.288846
608.969870	2470.165385
609.319276	2523.097500
609.668627	2525.618077
610.017926	2434.877308
610.367171	2452.521346
610.716362	2586.111923
611.065500	2545.782692
611.414585	2482.768269
611.763616	2518.056346
612.112594	2475.206538
612.461518	2477.727115
612.810389	2548.303269
613.159207	2515.535769
613.507971	2507.974038
613.856682	2447.480192
614.205340	2548.303269
614.553945	2422.274423
614.902496	2523.097500
615.250994	2573.509038
615.599439	2507.974038
615.947830	2538.220962
616.296169	2485.288846
616.644454	2515.535769
616.992686	2525.618077
617.340864	2477.727115
617.688990	2513.015192
618.037063	2467.644808
618.385082	2497.891731
618.733048	2558.385577
619.080961	2487.809423
619.428821	2485.288846
619.776628	2548.303269
620.124382	2482.768269
620.472083	2538.220962
620.819731	2528.138654
621.167326	2427.315577
621.514868	2558.385577
621.862357	2505.453462
622.209793	2462.603654
622.557176	2502.932885
622.904506	2482.768269
623.251783	2462.603654
623.599007	2513.015192
623.946179	2439.918462
624.293297	2465.124231
624.640363	2475.206538
624.987376	2475.206538
625.334336	2429.836154
625.681243	2505.453462
626.028097	2578.550192
626.374899	2371.862885
626.721647	2507.974038
627.068343	2444.959615
627.414987	2507.974038
627.761577	2502.932885
628.108115	2414.712692
628.454600	2457.562500
628.801032	2442.439038
629.147412	2507.974038
629.493739	2414.712692
629.840014	2462.603654
630.186236	2492.850577
630.532405	2429.836154
630.878521	2558.385577
631.224585	2467.644808
631.570597	2434.877308
631.916556	2550.823846
632.262462	2520.576923
632.608316	2462.603654
632.954117	2543.262115
633.299866	2487.809423
633.645562	2485.288846
633.991206	2444.959615
634.336797	2515.535769
634.682336	2465.124231
635.027823	2442.439038
635.373257	2452.521346
635.718639	2407.150962
636.063968	2477.727115
636.409245	2518.056346
636.754470	2444.959615
637.099642	2434.877308
637.444762	2497.891731
637.789829	2492.850577
638.134845	2462.603654
638.479808	2462.603654
638.824719	2492.850577
639.169577	2492.850577
639.514383	2460.083077
639.859137	2450.000769
640.203839	2500.412308
640.548489	2465.124231
640.893086	2450.000769
641.237632	2540.741538
641.582125	2510.494615
641.926566	2424.795000
642.270955	2477.727115
642.615292	2490.330000
642.959576	2480.247692
643.303809	2495.371154
643.647990	2502.932885
643.992118	2523.097500
644.336195	2485.288846
644.680219	2485.288846
645.024192	2507.974038
645.368112	2500.412308
645.711981	2359.260000
646.055797	2452.521346
646.399562	2598.714808
646.743274	2467.644808
647.086935	2505.453462
647.430544	2505.453462
647.774101	2525.618077
648.117606	2472.685962
648.461059	2487.809423
648.804460	2497.891731
649.147810	2442.439038
649.491108	2533.179808
649.834354	2450.000769
650.177548	2558.385577
650.520690	2492.850577
650.863781	2475.206538
651.206820	2434.877308
651.549807	2455.041923
651.892742	2497.891731
652.235626	2450.000769
652.578458	2462.603654
652.921238	2533.179808
653.263967	2553.344423
653.606644	2432.356731
653.949269	2480.247692
654.291843	2540.741538
654.634365	2429.836154
654.976836	2515.535769
655.319255	2424.795000
655.661622	2540.741538
656.003938	2455.041923
656.346203	2404.630385
656.688416	2447.480192
657.030577	2482.768269
657.372687	2520.576923
657.714746	2492.850577
658.056753	2467.644808
658.398708	2452.521346
658.740612	2495.371154
659.082465	2470.165385
659.424266	2505.453462
659.766016	2422.274423
660.107715	2349.177692
660.449362	2482.768269
660.790958	2485.288846
661.132503	2538.220962
661.473996	2434.877308
661.815438	2545.782692
662.156829	2545.782692
662.498168	2462.603654
662.839456	2432.356731
663.180693	2518.056346
663.521879	2487.809423
663.863013	2487.809423
664.204097	2581.070769
664.545129	2480.247692
664.886110	2482.768269
665.227040	2482.768269
665.567918	2452.521346
665.908746	2505.453462
666.249522	2460.083077
666.590248	2510.494615
666.930922	2530.659231
667.271545	2510.494615
667.612118	2447.480192
667.952639	2550.823846
668.293109	2460.083077
668.633528	2560.906154
668.973896	2470.165385
669.314213	2417.233269
669.654480	2515.535769
669.994695	2500.412308
670.334859	2530.659231
670.674973	2475.206538
671.015035	2492.850577
671.355047	2502.932885
671.695008	2530.659231
672.034918	2450.000769
672.374777	2462.603654
672.714585	2495.371154
673.054342	2444.959615
673.394049	2490.330000
673.733705	2495.371154
674.073310	2455.041923
674.412864	2472.685962
674.752368	2558.385577
675.091820	2490.330000
675.431223	2568.467885
675.770574	2558.385577
676.109875	2460.083077
676.449125	2467.644808
676.788324	2530.659231
677.127473	2573.509038
677.466571	2528.138654
677.805619	2550.823846
678.144616	2467.644808
678.483562	2525.618077
678.822458	2555.865000
679.161303	2573.509038
679.500098	2555.865000
679.838842	2437.397885
680.177535	2472.685962
680.516179	2462.603654
680.854771	2555.865000
681.193314	2588.632500
681.531805	2497.891731
681.870247	2525.618077
682.208638	2495.371154
682.546978	2482.768269
682.885268	2442.439038
683.223508	2457.562500
683.561697	2568.467885
683.899836	2518.056346
684.237925	2439.918462
684.575963	2515.535769
684.913951	2447.480192
685.251889	2477.727115
685.589776	2513.015192
685.927614	2444.959615
686.265401	2523.097500
686.603137	2543.262115
686.940824	2507.974038
687.278460	2525.618077
687.616046	2447.480192
687.953582	2409.671538
688.291068	2576.029615
688.628504	2472.685962
688.965889	2482.768269
689.303224	2528.138654
689.640510	2515.535769
689.977745	2442.439038
690.314930	2490.330000
690.652065	2606.276538
690.989150	2533.179808
691.326185	2482.768269
691.663170	2480.247692
692.000105	2535.700385
692.336990	2457.562500
692.673825	2470.165385
693.010610	2540.741538
693.347345	2576.029615
693.684030	2523.097500
694.020665	2497.891731
694.357251	2535.700385
694.693786	2460.083077
695.030272	2563.426731
695.366707	2540.741538
695.703093	2427.315577
696.039429	2513.015192
696.375716	2465.124231
696.711952	2394.548077
697.048139	2520.576923
697.384276	2528.138654
697.720363	2520.576923
698.056400	2558.385577
698.392388	2507.974038
698.728326	2495.371154
699.064214	2472.685962
699.400053	2460.083077
699.735842	2452.521346
700.071581	2528.138654
700.407270	2492.850577
700.742910	2515.535769
701.078501	2495.371154
701.414042	2520.576923
701.749533	2507.974038
702.084974	2414.712692
702.420366	2462.603654
702.755709	2533.179808
703.091002	2460.083077
703.426246	2548.303269
703.761440	2492.850577
704.096584	2515.535769
704.431679	2455.041923
704.766725	2424.795000
705.101721	2482.768269
705.436668	2490.330000
705.771565	2427.315577
706.106413	2502.932885
706.441212	2513.015192
706.775961	2500.412308
707.110661	2530.659231
707.445311	2543.262115
707.779913	2424.795000
708.114465	2520.576923
708.448967	2444.959615
708.783421	2505.453462
709.117825	2475.206538
709.452180	2518.056346
709.786485	2465.124231
710.120742	2513.015192
710.454949	2432.356731
710.789107	2432.356731
711.123216	2507.974038
711.457275	2492.850577
711.791286	2455.041923
712.125247	2611.317692
712.459159	2611.317692
712.793023	2482.768269
713.126837	2475.206538
713.460602	2457.562500
713.794318	2475.206538
714.127985	2560.906154
714.461602	2565.947308
714.795171	2477.727115
715.128691	2492.850577
715.462162	2477.727115
715.795584	2500.412308
716.128957	2467.644808
716.462281	2513.015192
716.795556	2515.535769
717.128782	2497.891731
717.461960	2581.070769
717.795088	2492.850577
718.128167	2500.412308
718.461198	2462.603654
718.794180	2487.809423
719.127113	2540.741538
719.459997	2450.000769
719.792833	2475.206538
720.125619	2450.000769
720.458357	2583.591346
720.791046	2480.247692
721.123686	2470.165385
721.456278	2553.344423
721.788821	2444.959615
722.121315	2505.453462
722.453761	2555.865000
722.786158	2545.782692
723.118506	2490.330000
723.450805	2442.439038
723.783056	2502.932885
724.115259	2502.932885
724.447412	2437.397885
724.779518	2424.795000
725.111574	2550.823846
725.443582	2419.753846
725.775542	2545.782692
726.107453	2472.685962
726.439315	2568.467885
726.771129	2485.288846
727.102895	2525.618077
727.434612	2477.727115
727.766281	2444.959615
728.097901	2492.850577
728.429473	2518.056346
728.760996	2457.562500
729.092471	2482.768269
729.423897	2492.850577
729.755276	2581.070769
730.086606	2467.644808
730.417887	2452.521346
730.749120	2520.576923
731.080305	2500.412308
731.411442	2515.535769
731.742530	2482.768269
732.073570	2560.906154
732.404562	2555.865000
732.735506	2480.247692
733.066401	2457.562500
733.397249	2424.795000
733.728048	2540.741538
734.058798	2497.891731
734.389501	2500.412308
734.720156	2497.891731
735.050762	2487.809423
735.381320	2470.165385
735.711831	2518.056346
736.042293	2455.041923
736.372707	2407.150962
736.703073	2543.262115
737.033391	2429.836154
737.363661	2432.356731
737.693883	2457.562500
738.024056	2518.056346
738.354182	2480.247692
738.684260	2510.494615
739.014290	2434.877308
739.344272	2457.562500
739.674207	2467.644808
740.004093	2525.618077
740.333931	2520.576923
740.663722	2477.727115
740.993464	2417.233269
741.323159	2437.397885
741.652806	2472.685962
741.982405	2409.671538
742.311956	2568.467885
742.641460	2528.138654
742.970915	2467.644808
743.300323	2545.782692
743.629683	2581.070769
743.958996	2563.426731
744.288260	2583.591346
744.617477	2513.015192
744.946647	2462.603654
745.275768	2530.659231
745.604842	2444.959615
745.933869	2500.412308
746.262847	2444.959615
746.591778	2480.247692
746.920662	2490.330000
747.249498	2568.467885
747.578286	2460.083077
747.907027	2467.644808
748.235720	2475.206538
748.564365	2460.083077
748.892963	2492.850577
749.221514	2490.330000
749.550017	2497.891731
749.878473	2482.768269
750.206881	2500.412308
750.535242	2495.371154
750.863555	2500.412308
751.191821	2523.097500
751.520039	2480.247692
751.848210	2475.206538
752.176334	2407.150962
752.504411	2455.041923
752.832440	2460.083077
753.160421	2475.206538
753.488356	2502.932885
753.816243	2452.521346
754.144082	2487.809423
754.471875	2535.700385
754.799620	2447.480192
755.127318	2490.330000
755.454969	2545.782692
755.782572	2467.644808
756.110129	2452.521346
756.437638	2533.179808
756.765100	2460.083077
757.092515	2487.809423
757.419882	2427.315577
757.747203	2505.453462
758.074477	2465.124231
758.401703	2495.371154
758.728882	2472.685962
759.056014	2452.521346
759.383099	2593.673654
759.710138	2472.685962
760.037129	2523.097500
760.364073	2434.877308
760.690970	2500.412308
761.017820	2586.111923
761.344623	2465.124231
761.671379	2500.412308
761.998088	2482.768269
762.324751	2530.659231
762.651366	2497.891731
762.977935	2528.138654
763.304456	2485.288846
763.630931	2480.247692
763.957359	2490.330000
764.283740	2472.685962
764.610074	2513.015192
764.936362	2452.521346
765.262602	2545.782692
765.588796	2515.535769
765.914943	2550.823846
766.241044	2520.576923
766.567097	2500.412308
766.893104	2598.714808
767.219064	2507.974038
767.544978	2510.494615
767.870845	2555.865000
768.196665	2460.083077
768.522438	2487.809423
768.848165	2507.974038
769.173846	2540.741538
769.499479	2523.097500
769.825066	2520.576923
770.150607	2442.439038
770.476101	2462.603654
770.801548	2500.412308
771.126949	2570.988462
771.452303	2480.247692
771.777611	2505.453462
772.102872	2414.712692
772.428087	2490.330000
772.753256	2470.165385
773.078378	2465.124231
773.403453	2502.932885
773.728482	2513.015192
774.053465	2470.165385
774.378401	2490.330000
774.703291	2437.397885
775.028135	2394.548077
775.352932	2490.330000
775.677683	2500.412308
776.002388	2515.535769
776.327046	2467.644808
776.651658	2533.179808
776.976224	2540.741538
777.300743	2515.535769
777.625216	2507.974038
777.949643	2487.809423
778.274024	2495.371154
778.598359	2424.795000
778.922647	2442.439038
779.246889	2563.426731
779.571086	2407.150962
779.895236	2492.850577
780.219339	2467.644808
780.543397	2485.288846
780.867409	2495.371154
781.191374	2502.932885
781.515294	2475.206538
781.839167	2442.439038
782.162995	2482.768269
782.486776	2528.138654
782.810511	2460.083077
783.134201	2598.714808
783.457844	2540.741538
783.781441	2475.206538
784.104993	2472.685962
784.428498	2555.865000
784.751958	2462.603654
785.075372	2450.000769
785.398739	2558.385577
785.722061	2465.124231
786.045337	2462.603654
786.368568	2460.083077
786.691752	2515.535769
787.014891	2487.809423
787.337983	2482.768269
787.661030	2414.712692
787.984031	2550.823846
788.306987	2492.850577
788.629897	2447.480192
788.952760	2470.165385
789.275579	2518.056346
789.598351	2485.288846
789.921078	2505.453462
790.243759	2513.015192
790.566395	2540.741538
790.888984	2513.015192
791.211529	2412.192115
791.534027	2402.109808
791.856480	2621.400000
792.178888	2424.795000
792.501249	2424.795000
792.823566	2520.576923
793.145836	2525.618077
793.468062	2530.659231
793.790241	2518.056346
794.112375	2492.850577
794.434464	2586.111923
794.756507	2467.644808
795.078505	2500.412308
795.400457	2548.303269
795.722364	2545.782692
796.044226	2518.056346
796.366042	2513.015192
796.687812	2495.371154
797.009538	2502.932885
797.331218	2543.262115
797.652852	2482.768269
797.974442	2480.247692
798.295986	2477.727115
798.617484	2434.877308
798.938938	2525.618077
799.260346	2520.576923
799.581709	2399.589231
799.903026	2528.138654
800.224299	2608.797115
800.545526	2462.603654
800.866708	2460.083077
801.187845	2570.988462
801.508936	2523.097500
801.829983	2487.809423
802.150984	2505.453462
802.471940	2565.947308
802.792851	2394.548077
803.113717	2460.083077
803.434538	2563.426731
803.755314	2457.562500
804.076045	2482.768269
804.396731	2568.467885
804.717372	2500.412308
805.037967	2555.865000
805.358518	2462.603654
805.679024	2490.330000
805.999485	2492.850577
806.319901	2520.576923
806.640272	2553.344423
806.960598	2444.959615
807.280879	2439.918462
807.601115	2505.453462
807.921306	2480.247692
808.241453	2490.330000
808.561554	2447.480192
808.881611	2439.918462
809.201623	2502.932885
809.521590	2450.000769
809.841513	2444.959615
810.161390	2472.685962
810.481223	2520.576923
810.801011	2495.371154
811.120755	2505.453462
811.440453	2432.356731
811.760107	2470.165385
812.079716	2450.000769
812.399281	2502.932885
812.718801	2457.562500
813.038276	2530.659231
813.357707	2434.877308
813.677093	2505.453462
813.996434	2500.412308
814.315731	2507.974038
814.634983	2540.741538
814.954191	2482.768269
815.273354	2487.809423
815.592473	2434.877308
815.911547	2548.303269
816.230577	2495.371154
816.549562	2450.000769
816.868502	2533.179808
817.187399	2417.233269
817.506250	2467.644808
817.825058	2447.480192
818.143821	2480.247692
818.462539	2485.288846
818.781213	2523.097500
819.099843	2452.521346
819.418429	2447.480192
819.736970	2540.741538
820.055466	2437.397885
820.373919	2470.165385
820.692327	2444.959615
821.010691	2457.562500
821.329011	2495.371154
821.647286	2563.426731
821.965517	2475.206538
822.283704	2397.068654
822.601847	2462.603654
822.919945	2573.509038
823.237999	2485.288846
823.556010	2502.932885
823.873976	2583.591346
824.191897	2475.206538
824.509775	2510.494615
824.827609	2533.179808
825.145398	2500.412308
825.463144	2465.124231
825.780845	2492.850577
826.098502	2525.618077
826.416116	2465.124231
826.733685	2455.041923
827.051210	2452.521346
827.368692	2490.330000
827.686129	2482.768269
828.003522	2528.138654
828.320872	2422.274423
828.638177	2520.576923
828.955439	2455.041923
829.272656	2525.618077
829.589830	2528.138654
829.906960	2510.494615
830.224046	2455.041923
830.541088	2487.809423
830.858086	2487.809423
831.175041	2477.727115
831.491952	2555.865000
831.808819	2548.303269
832.125642	2482.768269
832.442421	2452.521346
832.759157	2447.480192
833.075849	2533.179808
833.392497	2558.385577
833.709101	2500.412308
834.025662	2470.165385
834.342179	2432.356731
834.658653	2460.083077
834.975083	2422.274423
835.291469	2565.947308
835.607811	2455.041923
835.924110	2495.371154
836.240366	2470.165385
836.556578	2510.494615
836.872746	2482.768269
837.188871	2477.727115
837.504952	2467.644808
837.820990	2460.083077
838.136984	2545.782692
838.452935	2515.535769
838.768842	2477.727115
839.084706	2543.262115
839.400526	2389.506923
839.716303	2457.562500
840.032037	2518.056346
840.347727	2482.768269
840.663373	2480.247692
840.978977	2404.630385
841.294537	2492.850577
841.610054	2497.891731
841.925527	2545.782692
842.240957	2490.330000
842.556344	2553.344423
842.871687	2550.823846
843.186987	2543.262115
843.502244	2523.097500
843.817458	2480.247692
844.132629	2480.247692
844.447756	2470.165385
844.762840	2525.618077
845.077881	2505.453462
845.392879	2455.041923
845.707833	2470.165385
846.022745	2530.659231
846.337613	2432.356731
846.652438	2518.056346
846.967221	2523.097500
847.281960	2444.959615
847.596656	2429.836154
847.911309	2525.618077
848.225919	2568.467885
848.540485	2419.753846
848.855009	2487.809423
849.169490	2535.700385
849.483928	2523.097500
849.798323	2513.015192
850.112675	2596.194231
850.426984	2487.809423
850.741251	2447.480192
851.055474	2424.795000
851.369654	2525.618077
851.683792	2472.685962
851.997887	2553.344423
852.311938	2472.685962
852.625947	2462.603654
852.939914	2502.932885
853.253837	2570.988462
853.567718	2439.918462
853.881555	2424.795000
854.195350	2480.247692
854.509103	2419.753846
854.822812	2540.741538
855.136479	2535.700385
855.450103	2457.562500
855.763685	2465.124231
856.077224	2485.288846
856.390720	2495.371154
856.704173	2472.685962
857.017584	2497.891731
857.330953	2492.850577
857.644278	2482.768269
857.957561	2447.480192
858.270802	2505.453462
858.584000	2492.850577
858.897155	2470.165385
859.210268	2429.836154
859.523339	2518.056346
859.836367	2538.220962
860.149352	2424.795000
860.462295	2565.947308
860.775195	2470.165385
861.088054	2497.891731
861.400869	2548.303269
861.713642	2422.274423
862.026373	2523.097500
862.339062	2470.165385
862.651708	2523.097500
862.964312	2477.727115
863.276873	2565.947308
863.589392	2490.330000
863.901869	2495.371154
864.214303	2560.906154
864.526696	2558.385577
864.839045	2588.632500
865.151353	2470.165385
865.463619	2487.809423
865.775842	2500.412308
866.088023	2502.932885
866.400162	2513.015192
866.712258	2530.659231
867.024313	2533.179808
867.336325	2455.041923
867.648296	2560.906154
867.960224	2465.124231
868.272110	2545.782692
868.583954	2596.194231
868.895755	2513.015192
869.207515	2540.741538
869.519233	2487.809423
869.830909	2523.097500
870.142542	2573.509038
870.454134	2495.371154
870.765684	2515.535769
871.077191	2452.521346
871.388657	2530.659231
871.700081	2424.795000
872.011463	2497.891731
872.322803	2528.138654
872.634101	2429.836154
872.945357	2475.206538
873.256571	2563.426731
873.567744	2447.480192
873.878874	2447.480192
874.189963	2450.000769
874.501010	2518.056346
874.812015	2490.330000
875.122979	2507.974038
875.433900	2533.179808
875.744780	2480.247692
876.055618	2492.850577
876.366415	2414.712692
876.677169	2467.644808
876.987882	2475.206538
877.298554	2565.947308
877.609183	2510.494615
877.919771	2507.974038
878.230317	2472.685962
878.540822	2518.056346
878.851285	2543.262115
879.161707	2429.836154
879.472087	2543.262115
879.782425	2495.371154
880.092722	2563.426731
880.402977	2520.576923
880.713191	2424.795000
881.023363	2444.959615
881.333494	2507.974038
881.643583	2510.494615
881.953631	2490.330000
882.263637	2502.932885
882.573602	2528.138654
882.883526	2432.356731
883.193408	2490.330000
883.503248	2429.836154
883.813048	2460.083077
884.122806	2407.150962
884.432522	2540.741538
884.742197	2444.959615
885.051831	2550.823846
885.361424	2419.753846
885.670975	2553.344423
885.980485	2455.041923
886.289954	2482.768269
886.599382	2510.494615
886.908768	2455.041923
887.218113	2545.782692
887.527417	2538.220962
887.836680	2470.165385
888.145901	2450.000769
888.455082	2523.097500
888.764221	2492.850577
889.073319	2492.850577
889.382376	2581.070769
889.691392	2535.700385
890.000366	2475.206538
890.309300	2490.330000
890.618193	2505.453462
890.927044	2450.000769
891.235855	2497.891731
891.544625	2563.426731
891.853353	2500.412308
892.162041	2528.138654
892.470687	2399.589231
892.779293	2452.521346
893.087858	2465.124231
893.396381	2515.535769
893.704864	2528.138654
894.013306	2540.741538
894.321707	2520.576923
894.630068	2513.015192
894.938387	2513.015192
895.246665	2563.426731
895.554903	2535.700385
895.863100	2404.630385
896.171256	2475.206538
896.479371	2490.330000
896.787446	2470.165385
897.095480	2437.397885
897.403473	2467.644808
897.711425	2482.768269
898.019336	2510.494615
898.327207	2450.000769
898.635038	2407.150962
898.942827	2487.809423
899.250576	2555.865000
899.558284	2475.206538
899.865952	2465.124231
900.173579	2533.179808
900.481165	2492.850577
900.788711	2432.356731
901.096216	2543.262115
901.403681	2472.685962
901.711105	2455.041923
902.018489	2555.865000
902.325832	2530.659231
902.633135	2500.412308
902.940397	2520.576923
903.247619	2502.932885
903.554800	2462.603654
903.861941	2475.206538
904.169041	2480.247692
904.476101	2444.959615
904.783121	2500.412308
905.090100	2450.000769
905.397039	2482.768269
905.703938	2560.906154
906.010796	2553.344423
906.317614	2465.124231
906.624391	2515.535769
906.931129	2510.494615
907.237826	2439.918462
907.544483	2530.659231
907.851099	2477.727115
908.157675	2427.315577
908.464211	2399.589231
908.770707	2399.589231
909.077163	2394.548077
909.383578	2392.027500
909.689954	2472.685962
909.996289	2434.877308
910.302584	2455.041923
910.608839	2523.097500
910.915054	2545.782692
911.221229	2470.165385
911.527363	2492.850577
911.833458	2507.974038
912.139513	2510.494615
912.445527	2497.891731
912.751502	2424.795000
913.057436	2520.576923
913.363331	2523.097500
913.669186	2374.383462
913.975000	2442.439038
914.280775	2553.344423
914.586510	2460.083077
914.892205	2500.412308
915.197859	2497.891731
915.503475	2490.330000
915.809050	2414.712692
916.114585	2465.124231
916.420081	2424.795000
916.725536	2477.727115
917.030952	2560.906154
917.336328	2477.727115
917.641665	2588.632500
917.946961	2482.768269
918.252218	2568.467885
918.557435	2515.535769
918.862612	2528.138654
919.167750	2462.603654
919.472848	2485.288846
919.777906	2467.644808
920.082925	2513.015192
920.387904	2497.891731
920.692843	2515.535769
920.997743	2518.056346
921.302603	2553.344423
921.607423	2545.782692
921.912204	2523.097500
922.216946	2518.056346
922.521647	2432.356731
922.826310	2434.877308
923.130932	2502.932885
923.435516	2384.465769
923.740059	2533.179808
924.044564	2475.206538
924.349028	2497.891731
924.653454	2475.206538
924.957840	2457.562500
925.262186	2505.453462
925.566493	2523.097500
925.870761	2533.179808
926.174989	2538.220962
926.479178	2538.220962
926.783328	2578.550192
927.087438	2455.041923
927.391509	2576.029615
927.695541	2523.097500
927.999533	2553.344423
928.303486	2497.891731
928.607400	2422.274423
928.911275	2563.426731
929.215110	2450.000769
929.518906	2500.412308
929.822663	2563.426731
930.126381	2530.659231
930.430060	2429.836154
930.733699	2500.412308
931.037299	2465.124231
931.340861	2429.836154
931.644383	2434.877308
931.947866	2555.865000
932.251309	2530.659231
932.554714	2472.685962
932.858080	2465.124231
933.161407	2432.356731
933.464694	2502.932885
933.767943	2495.371154
934.071153	2465.124231
934.374323	2462.603654
934.677455	2540.741538
934.980548	2394.548077
935.283602	2447.480192
935.586617	2457.562500
935.889593	2500.412308
936.192530	2485.288846
936.495428	2467.644808
936.798287	2477.727115
937.101108	2437.397885
937.403890	2485.288846
937.706632	2412.192115
938.009336	2538.220962
938.312002	2492.850577
938.614628	2477.727115
938.917216	2447.480192
939.219765	2490.330000
939.522275	2497.891731
939.824747	2525.618077
940.127179	2507.974038
940.429573	2518.056346
940.731929	2429.836154
941.034246	2386.986346
941.336524	2523.097500
941.638763	2457.562500
941.940964	2523.097500
942.243126	2480.247692
942.545250	2492.850577
942.847335	2515.535769
943.149381	2578.550192
943.451389	2540.741538
943.753359	2495.371154
944.055290	2465.124231
944.357182	2472.685962
944.659036	2518.056346
944.960851	2460.083077
945.262628	2462.603654
945.564367	2477.727115
945.866067	2475.206538
946.167729	2507.974038
946.469352	2525.618077
946.770937	2450.000769
947.072484	2417.233269
947.373992	2533.179808
947.675462	2497.891731
947.976893	2543.262115
948.278286	2530.659231
948.579641	2452.521346
948.880958	2465.124231
949.182236	2513.015192
949.483476	2520.576923
949.784678	2450.000769
950.085841	2455.041923
950.386967	2457.562500
950.688054	2465.124231
950.989103	2475.206538
951.290114	2485.288846
951.591087	2442.439038
951.892021	2507.974038
952.192917	2518.056346
952.493776	2482.768269
952.794596	2462.603654
953.095378	2465.124231
953.396122	2482.768269
953.696828	2507.974038
953.997496	2429.836154
954.298126	2560.906154
954.598718	2502.932885
954.899272	2424.795000
955.199788	2472.685962
955.500266	2601.235385
955.800706	2465.124231
956.101108	2515.535769
956.401472	2442.439038
956.701798	2480.247692
957.002087	2550.823846
957.302337	2402.109808
957.602550	2507.974038
957.902724	2565.947308
958.202861	2560.906154
958.502960	2485.288846
958.803022	2515.535769
959.103045	2518.056346
959.403031	2513.015192
959.702979	2505.453462
960.002889	2447.480192
960.302762	2432.356731
960.602596	2492.850577
960.902393	2414.712692
961.202153	2543.262115
961.501875	2452.521346
961.801559	2525.618077
962.101205	2545.782692
962.400814	2457.562500
962.700385	2510.494615
962.999918	2495.371154
963.299414	2513.015192
963.598873	2513.015192
963.898293	2558.385577
964.197677	2439.918462
964.497022	2573.509038
964.796331	2444.959615
965.095601	2535.700385
965.394835	2477.727115
965.694030	2510.494615
965.993189	2480.247692
966.292309	2467.644808
966.591393	2447.480192
966.890439	2427.315577
967.189447	2470.165385
967.488419	2485.288846
967.787353	2487.809423
968.086249	2518.056346
968.385108	2518.056346
968.683930	2460.083077
968.982714	2553.344423
969.281462	2452.521346
969.580172	2477.727115
969.878844	2553.344423
970.177480	2444.959615
970.476078	2495.371154
970.774639	2485.288846
971.073162	2518.056346
971.371649	2465.124231
971.670098	2492.850577
971.968510	2553.344423
972.266885	2513.015192
972.565223	2482.768269
972.863524	2518.056346
973.161788	2480.247692
973.460014	2389.506923
973.758204	2510.494615
974.056356	2555.865000
974.354471	2487.809423
974.652550	2510.494615
974.950591	2485.288846
975.248595	2480.247692
975.546563	2462.603654
975.844493	2543.262115
976.142386	2460.083077
976.440243	2417.233269
976.738062	2510.494615
977.035845	2465.124231
977.333590	2500.412308
977.631299	2485.288846
977.928971	2518.056346
978.226606	2460.083077
978.524204	2482.768269
978.821765	2490.330000
979.119290	2528.138654
979.416777	2523.097500
979.714228	2545.782692
980.011642	2465.124231
980.309020	2460.083077
980.606360	2583.591346
980.903664	2490.330000
981.200931	2477.727115
981.498162	2518.056346
981.795356	2540.741538
982.092513	2465.124231
982.389633	2500.412308
982.686717	2427.315577
982.983764	2553.344423
983.280775	2576.029615
983.577749	2462.603654
983.874686	2480.247692
984.171587	2472.685962
984.468451	2505.453462
984.765279	2538.220962
985.062070	2450.000769
985.358824	2460.083077
985.655543	2480.247692
985.952224	2548.303269
986.248869	2442.439038
986.545478	2485.288846
986.842050	2525.618077
987.138586	2500.412308
987.435086	2533.179808
987.731549	2510.494615
988.027975	2513.015192
988.324366	2558.385577
988.620719	2515.535769
988.917037	2399.589231
989.213318	2460.083077
989.509563	2570.988462
989.805772	2482.768269
990.101944	2462.603654
990.398080	2505.453462
990.694180	2470.165385
990.990244	2500.412308
991.286271	2520.576923
991.582262	2525.618077
991.878217	2462.603654
992.174136	2500.412308
992.470019	2500.412308
992.765865	2565.947308
993.061676	2432.356731
993.357450	2465.124231
993.653188	2424.795000
993.948890	2500.412308
994.244556	2442.439038
994.540186	2495.371154
994.835780	2432.356731
995.131337	2583.591346
995.426859	2444.959615
995.722345	2540.741538
996.017795	2492.850577
996.313208	2545.782692
996.608586	2485.288846
996.903928	2472.685962
997.199234	2525.618077
997.494504	2455.041923
997.789738	2432.356731
998.084936	2472.685962
998.380099	2455.041923
998.675225	2427.315577
998.970316	2583.591346
999.265371	2470.165385
999.560390	2525.618077
999.855373	2462.603654
1000.150320	2528.138654
1000.445232	2485.288846
1000.740108	2500.412308
1001.034948	2467.644808
1001.329752	2545.782692
1001.624521	2497.891731
1001.919254	2467.644808
1002.213951	2505.453462
1002.508613	2528.138654
1002.803239	2518.056346
1003.097829	2472.685962
1003.392384	2487.809423
1003.686903	2437.397885
1003.981386	2477.727115
1004.275834	2437.397885
1004.570246	2550.823846
1004.864623	2467.644808
1005.158964	2482.768269
1005.453270	2437.397885
1005.747540	2472.685962
1006.041775	2424.795000
1006.335974	2497.891731
1006.630138	2439.918462
1006.924266	2528.138654
1007.218359	2515.535769
1007.512416	2497.891731
1007.806438	2477.727115
1008.100425	2480.247692
1008.394376	2447.480192
1008.688292	2548.303269
1008.982172	2457.562500
1009.276017	2528.138654
1009.569827	2550.823846
1009.863602	2447.480192
1010.157341	2437.397885
1010.451045	2492.850577
1010.744714	2417.233269
1011.038347	2510.494615
1011.331945	2386.986346
1011.625508	2492.850577
1011.919036	2550.823846
1012.212528	2462.603654
1012.505986	2560.906154
1012.799408	2457.562500
1013.092795	2434.877308
1013.386147	2465.124231
1013.679464	2505.453462
1013.972745	2500.412308
1014.265992	2457.562500
1014.559204	2432.356731
1014.852380	2518.056346
1015.145521	2518.056346
1015.438628	2570.988462
1015.731699	2528.138654
1016.024736	2429.836154
1016.317737	2507.974038
1016.610703	2548.303269
1016.903635	2444.959615
1017.196531	2437.397885
1017.489393	2550.823846
1017.782219	2472.685962
1018.075011	2492.850577
1018.367768	2507.974038
1018.660490	2563.426731
1018.953177	2563.426731
1019.245829	2563.426731
