Dividing Wavelength (nm)	Counts (n)	Blue Motor Position (mm): 8.700000	Red Motor Position (mm): 0.000000	
326.493990	2102.161154
326.888308	2102.161154
327.282561	2102.161154
327.676750	2051.749615
328.070874	2041.667308
328.464933	2074.434808
328.858929	2112.243462
329.252859	2127.366923
329.646726	2054.270192
330.040528	2114.764038
330.434265	2109.722885
330.827938	2190.381346
331.221547	2046.708462
331.615091	2139.969808
332.008571	2205.504808
332.401986	2157.613846
332.795338	2187.860769
333.188625	2233.231154
333.581847	2303.807308
333.975006	2321.451346
334.368100	2293.725000
334.761129	2228.190000
335.154095	2306.327885
335.546996	2346.657115
335.939833	2384.465769
336.332606	2316.410192
336.725315	2359.260000
337.117960	2392.027500
337.510540	2386.986346
337.903056	2402.109808
338.295508	2366.821731
338.687896	2414.712692
339.080220	2535.700385
339.472480	2432.356731
339.864676	2429.836154
340.256807	2457.562500
340.648875	2422.274423
341.040879	2447.480192
341.432818	2525.618077
341.824694	2535.700385
342.216506	2462.603654
342.608253	2444.959615
342.999937	2588.632500
343.391557	2583.591346
343.783113	2472.685962
344.174605	2515.535769
344.566033	2452.521346
344.957397	2528.138654
345.348697	2460.083077
345.739934	2429.836154
346.131106	2457.562500
346.522215	2465.124231
346.913260	2412.192115
347.304241	2394.548077
347.695159	2450.000769
348.086012	2452.521346
348.476802	2442.439038
348.867528	2455.041923
349.258191	2427.315577
349.648789	2460.083077
350.039324	2495.371154
350.429796	2560.906154
350.820203	2432.356731
351.210548	2447.480192
351.600828	2455.041923
351.991045	2507.974038
352.381198	2429.836154
352.771288	2424.795000
353.161314	2447.480192
353.551276	2482.768269
353.941175	2422.274423
354.331010	2414.712692
354.720782	2487.809423
355.110490	2371.862885
355.500135	2364.301154
355.889717	2434.877308
356.279235	2341.615962
356.668689	2487.809423
357.058080	2419.753846
357.447408	2422.274423
357.836672	2442.439038
358.225873	2465.124231
358.615010	2528.138654
359.004084	2439.918462
359.393095	2485.288846
359.782043	2444.959615
360.170927	2432.356731
360.559748	2442.439038
360.948505	2490.330000
361.337199	2326.492500
361.725830	2417.233269
362.114398	2495.371154
362.502903	2510.494615
362.891344	2394.548077
363.279722	2502.932885
363.668037	2386.986346
364.056289	2518.056346
364.444478	2495.371154
364.832603	2447.480192
365.220665	2465.124231
365.608665	2442.439038
365.996601	2427.315577
366.384474	2412.192115
366.772284	2523.097500
367.160031	2452.521346
367.547715	2475.206538
367.935336	2407.150962
368.322893	2505.453462
368.710388	2515.535769
369.097820	2460.083077
369.485189	2533.179808
369.872495	2523.097500
370.259738	2371.862885
370.646918	2492.850577
371.034035	2429.836154
371.421090	2414.712692
371.808081	2520.576923
372.195010	2439.918462
372.581875	2465.124231
372.968678	2389.506923
373.355418	2427.315577
373.742096	2444.959615
374.128710	2419.753846
374.515262	2427.315577
374.901751	2510.494615
375.288177	2477.727115
375.674540	2412.192115
376.060841	2510.494615
376.447079	2452.521346
376.833254	2439.918462
377.219367	2477.727115
377.605417	2409.671538
377.991404	2530.659231
378.377329	2419.753846
378.763191	2485.288846
379.148991	2386.986346
379.534727	2525.618077
379.920402	2480.247692
380.306013	2505.453462
380.691563	2417.233269
381.077049	2427.315577
381.462474	2477.727115
381.847835	2399.589231
382.233134	2518.056346
382.618371	2437.397885
383.003545	2457.562500
383.388657	2513.015192
383.773706	2520.576923
384.158693	2452.521346
384.543618	2467.644808
384.928480	2573.509038
385.313280	2455.041923
385.698017	2560.906154
386.082692	2485.288846
386.467305	2487.809423
386.851856	2520.576923
387.236344	2553.344423
387.620770	2349.177692
388.005133	2392.027500
388.389435	2432.356731
388.773674	2475.206538
389.157851	2444.959615
389.541965	2510.494615
389.926018	2414.712692
390.310008	2530.659231
390.693936	2346.657115
391.077802	2457.562500
391.461606	2480.247692
391.845348	2543.262115
392.229027	2439.918462
392.612645	2513.015192
392.996200	2432.356731
393.379694	2465.124231
393.763125	2480.247692
394.146494	2439.918462
394.529801	2439.918462
394.913047	2485.288846
395.296230	2437.397885
395.679351	2530.659231
396.062410	2450.000769
396.445408	2525.618077
396.828343	2447.480192
397.211217	2523.097500
397.594028	2520.576923
397.976778	2434.877308
398.359466	2457.562500
398.742092	2442.439038
399.124656	2470.165385
399.507158	2384.465769
399.889598	2447.480192
400.271977	2492.850577
400.654294	2500.412308
401.036549	2485.288846
401.418742	2487.809423
401.800874	2412.192115
402.182944	2495.371154
402.564952	2444.959615
402.946898	2442.439038
403.328783	2502.932885
403.710606	2500.412308
404.092367	2497.891731
404.474067	2502.932885
404.855705	2465.124231
405.237282	2540.741538
405.618797	2465.124231
406.000250	2371.862885
406.381642	2434.877308
406.762972	2462.603654
407.144240	2545.782692
407.525447	2462.603654
407.906593	2444.959615
408.287677	2442.439038
408.668700	2485.288846
409.049661	2523.097500
409.430560	2414.712692
409.811399	2523.097500
410.192176	2495.371154
410.572891	2507.974038
410.953545	2455.041923
411.334138	2467.644808
411.714669	2460.083077
412.095139	2533.179808
412.475547	2402.109808
412.855894	2437.397885
413.236180	2502.932885
413.616405	2570.988462
413.996568	2550.823846
414.376670	2520.576923
414.756711	2543.262115
415.136691	2379.424615
415.516609	2480.247692
415.896466	2530.659231
416.276262	2450.000769
416.655997	2399.589231
417.035670	2470.165385
417.415283	2450.000769
417.794834	2581.070769
418.174324	2500.412308
418.553753	2429.836154
418.933121	2515.535769
419.312428	2419.753846
419.691674	2545.782692
420.070859	2429.836154
420.449983	2540.741538
420.829045	2442.439038
421.208047	2460.083077
421.586988	2467.644808
421.965867	2485.288846
422.344686	2460.083077
422.723444	2535.700385
423.102141	2465.124231
423.480777	2447.480192
423.859352	2467.644808
424.237866	2596.194231
424.616319	2558.385577
424.994712	2477.727115
425.373044	2538.220962
425.751314	2376.904038
426.129524	2507.974038
426.507673	2477.727115
426.885762	2558.385577
427.263789	2361.780577
427.641756	2457.562500
428.019662	2392.027500
428.397508	2533.179808
428.775292	2467.644808
429.153016	2540.741538
429.530679	2487.809423
429.908282	2399.589231
430.285824	2490.330000
430.663305	2528.138654
431.040726	2485.288846
431.418086	2437.397885
431.795385	2510.494615
432.172624	2434.877308
432.549802	2528.138654
432.926920	2407.150962
433.303977	2528.138654
433.680974	2424.795000
434.057910	2518.056346
434.434786	2447.480192
434.811601	2518.056346
435.188355	2457.562500
435.565050	2482.768269
435.941683	2477.727115
436.318257	2513.015192
436.694770	2477.727115
437.071222	2497.891731
437.447614	2525.618077
437.823946	2462.603654
438.200218	2520.576923
438.576429	2477.727115
438.952580	2467.644808
439.328670	2422.274423
439.704700	2480.247692
440.080670	2429.836154
440.456580	2568.467885
440.832429	2568.467885
441.208218	2450.000769
441.583947	2414.712692
441.959616	2495.371154
442.335224	2507.974038
442.710773	2467.644808
443.086261	2354.218846
443.461689	2417.233269
443.837057	2452.521346
444.212365	2497.891731
444.587612	2513.015192
444.962800	2513.015192
445.337927	2528.138654
445.712995	2399.589231
446.088002	2492.850577
446.462949	2490.330000
446.837837	2515.535769
447.212664	2533.179808
447.587431	2545.782692
447.962139	2470.165385
448.336786	2560.906154
448.711374	2573.509038
449.085901	2550.823846
449.460369	2457.562500
449.834776	2525.618077
450.209124	2414.712692
450.583412	2480.247692
450.957640	2485.288846
451.331808	2507.974038
451.705917	2447.480192
452.079965	2472.685962
452.453954	2535.700385
452.827883	2533.179808
453.201752	2487.809423
453.575562	2467.644808
453.949311	2404.630385
454.323001	2507.974038
454.696632	2520.576923
455.070202	2422.274423
455.443713	2528.138654
455.817164	2492.850577
456.190556	2432.356731
456.563888	2404.630385
456.937160	2530.659231
457.310373	2467.644808
457.683526	2450.000769
458.056619	2450.000769
458.429653	2502.932885
458.802628	2429.836154
459.175542	2457.562500
459.548398	2465.124231
459.921194	2419.753846
460.293930	2470.165385
460.666607	2444.959615
461.039224	2553.344423
461.411782	2492.850577
461.784280	2505.453462
462.156719	2419.753846
462.529099	2437.397885
462.901419	2490.330000
463.273680	2530.659231
463.645882	2487.809423
464.018024	2505.453462
464.390106	2467.644808
464.762130	2505.453462
465.134094	2535.700385
465.505999	2553.344423
465.877845	2432.356731
466.249631	2528.138654
466.621358	2492.850577
466.993026	2427.315577
467.364634	2490.330000
467.736184	2470.165385
468.107674	2518.056346
468.479105	2490.330000
468.850477	2518.056346
469.221790	2495.371154
469.593043	2515.535769
469.964238	2437.397885
470.335373	2475.206538
470.706449	2533.179808
471.077467	2432.356731
471.448425	2538.220962
471.819324	2588.632500
472.190164	2563.426731
472.560945	2490.330000
472.931667	2495.371154
473.302330	2467.644808
473.672934	2422.274423
474.043479	2409.671538
474.413965	2505.453462
474.784393	2538.220962
475.154761	2523.097500
475.525070	2510.494615
475.895321	2475.206538
476.265513	2548.303269
476.635645	2397.068654
477.005719	2540.741538
477.375734	2444.959615
477.745691	2543.262115
478.115588	2507.974038
478.485427	2477.727115
478.855207	2550.823846
479.224928	2482.768269
479.594591	2555.865000
479.964194	2553.344423
480.333739	2417.233269
480.703226	2470.165385
481.072653	2465.124231
481.442022	2502.932885
481.811333	2465.124231
482.180584	2452.521346
482.549777	2525.618077
482.918912	2513.015192
483.287988	2505.453462
483.657005	2482.768269
484.025964	2586.111923
484.394864	2553.344423
484.763706	2560.906154
485.132489	2432.356731
485.501213	2465.124231
485.869879	2412.192115
486.238487	2530.659231
486.607036	2404.630385
486.975527	2505.453462
487.343959	2482.768269
487.712333	2515.535769
488.080648	2555.865000
488.448905	2412.192115
488.817104	2523.097500
489.185244	2500.412308
489.553326	2412.192115
489.921350	2492.850577
490.289315	2540.741538
490.657222	2510.494615
491.025070	2510.494615
491.392861	2530.659231
491.760593	2490.330000
492.128267	2500.412308
492.495883	2460.083077
492.863440	2465.124231
493.230939	2520.576923
493.598380	2490.330000
493.965763	2505.453462
494.333088	2576.029615
494.700354	2487.809423
495.067563	2530.659231
495.434713	2465.124231
495.801805	2548.303269
496.168839	2457.562500
496.535815	2437.397885
496.902733	2480.247692
497.269593	2492.850577
497.636395	2467.644808
498.003139	2507.974038
498.369825	2518.056346
498.736453	2434.877308
499.103023	2525.618077
499.469535	2447.480192
499.835989	2558.385577
500.202385	2397.068654
500.568723	2598.714808
500.935003	2472.685962
501.301226	2487.809423
501.667390	2518.056346
502.033497	2477.727115
502.399546	2462.603654
502.765537	2399.589231
503.131470	2482.768269
503.497345	2467.644808
503.863163	2487.809423
504.228923	2460.083077
504.594625	2495.371154
504.960269	2490.330000
505.325856	2563.426731
505.691385	2578.550192
506.056856	2591.153077
506.422270	2432.356731
506.787625	2495.371154
507.152924	2475.206538
507.518164	2568.467885
507.883347	2455.041923
508.248472	2394.548077
508.613540	2417.233269
508.978550	2482.768269
509.343503	2518.056346
509.708398	2568.467885
510.073236	2553.344423
510.438016	2583.591346
510.802738	2429.836154
511.167403	2422.274423
511.532010	2442.439038
511.896561	2540.741538
512.261053	2485.288846
512.625488	2414.712692
512.989866	2500.412308
513.354186	2455.041923
513.718449	2485.288846
514.082655	2578.550192
514.446803	2518.056346
514.810894	2465.124231
515.174927	2513.015192
515.538904	2492.850577
515.902822	2457.562500
516.266684	2457.562500
516.630488	2467.644808
516.994235	2560.906154
517.357925	2495.371154
517.721558	2518.056346
518.085133	2598.714808
518.448651	2482.768269
518.812112	2581.070769
519.175516	2497.891731
519.538863	2437.397885
519.902152	2467.644808
520.265385	2540.741538
520.628560	2429.836154
520.991678	2477.727115
521.354739	2447.480192
521.717743	2376.904038
522.080690	2520.576923
522.443580	2424.795000
522.806413	2518.056346
523.169189	2371.862885
523.531908	2502.932885
523.894569	2515.535769
524.257174	2523.097500
524.619722	2583.591346
524.982213	2560.906154
525.344647	2444.959615
525.707025	2528.138654
526.069345	2450.000769
526.431608	2480.247692
526.793815	2510.494615
527.155964	2437.397885
527.518057	2513.015192
527.880093	2490.330000
528.242072	2450.000769
528.603995	2460.083077
528.965860	2477.727115
529.327669	2520.576923
529.689421	2429.836154
530.051117	2439.918462
530.412755	2505.453462
530.774337	2467.644808
531.135862	2525.618077
531.497331	2500.412308
531.858743	2475.206538
532.220098	2467.644808
532.581396	2507.974038
532.942638	2452.521346
533.303824	2510.494615
533.664953	2412.192115
534.026025	2497.891731
534.387040	2563.426731
534.747999	2510.494615
535.108902	2560.906154
535.469748	2495.371154
535.830537	2487.809423
536.191270	2480.247692
536.551947	2535.700385
536.912567	2450.000769
537.273131	2608.797115
537.633638	2487.809423
537.994089	2591.153077
538.354483	2482.768269
538.714821	2540.741538
539.075103	2502.932885
539.435328	2462.603654
539.795497	2485.288846
540.155609	2424.795000
540.515665	2500.412308
540.875665	2439.918462
541.235609	2520.576923
541.595496	2432.356731
541.955328	2533.179808
542.315102	2586.111923
542.674821	2555.865000
543.034483	2480.247692
543.394090	2429.836154
543.753640	2450.000769
544.113134	2467.644808
544.472571	2507.974038
544.831953	2470.165385
545.191278	2540.741538
545.550548	2455.041923
545.909761	2507.974038
546.268918	2523.097500
546.628019	2480.247692
546.987064	2565.947308
547.346053	2528.138654
547.704986	2573.509038
548.063863	2460.083077
548.422684	2565.947308
548.781449	2472.685962
549.140158	2513.015192
549.498811	2485.288846
549.857408	2515.535769
550.215949	2442.439038
550.574434	2520.576923
550.932864	2475.206538
551.291237	2452.521346
551.649555	2422.274423
552.007817	2550.823846
552.366022	2490.330000
552.724173	2518.056346
553.082267	2450.000769
553.440305	2505.453462
553.798288	2530.659231
554.156215	2586.111923
554.514086	2543.262115
554.871902	2465.124231
555.229661	2442.439038
555.587365	2545.782692
555.945014	2432.356731
556.302606	2535.700385
556.660143	2558.385577
557.017625	2586.111923
557.375050	2487.809423
557.732421	2500.412308
558.089735	2487.809423
558.446994	2543.262115
558.804197	2437.397885
559.161345	2538.220962
559.518437	2515.535769
559.875474	2452.521346
560.232455	2424.795000
560.589381	2381.945192
560.946251	2507.974038
561.303065	2543.262115
561.659825	2500.412308
562.016528	2482.768269
562.373177	2520.576923
562.729770	2452.521346
563.086307	2399.589231
563.442789	2631.482308
563.799216	2560.906154
564.155587	2560.906154
564.511904	2535.700385
564.868164	2530.659231
565.224370	2576.029615
565.580520	2429.836154
565.936615	2475.206538
566.292654	2553.344423
566.648638	2540.741538
567.004567	2598.714808
567.360441	2530.659231
567.716260	2553.344423
568.072023	2515.535769
568.427732	2460.083077
568.783385	2462.603654
569.138982	2450.000769
569.494525	2485.288846
569.850013	2523.097500
570.205445	2515.535769
570.560823	2495.371154
570.916145	2515.535769
571.271412	2507.974038
571.626625	2444.959615
571.981782	2467.644808
572.336884	2452.521346
572.691931	2437.397885
573.046923	2553.344423
573.401860	2513.015192
573.756743	2472.685962
574.111570	2500.412308
574.466342	2538.220962
574.821059	2414.712692
575.175722	2515.535769
575.530330	2545.782692
575.884882	2444.959615
576.239380	2437.397885
576.593823	2538.220962
576.948211	2462.603654
577.302544	2513.015192
577.656823	2548.303269
578.011047	2482.768269
578.365216	2518.056346
578.719330	2560.906154
579.073389	2515.535769
579.427394	2548.303269
579.781344	2515.535769
580.135239	2442.439038
580.489080	2576.029615
580.842866	2553.344423
581.196597	2538.220962
581.550273	2523.097500
581.903895	2535.700385
582.257463	2513.015192
582.610975	2550.823846
582.964434	2472.685962
583.317837	2495.371154
583.671186	2437.397885
584.024481	2364.301154
584.377721	2424.795000
584.730906	2480.247692
585.084037	2543.262115
585.437113	2407.150962
585.790135	2518.056346
586.143103	2432.356731
586.496016	2460.083077
586.848874	2520.576923
587.201679	2518.056346
587.554428	2422.274423
587.907124	2540.741538
588.259765	2505.453462
588.612352	2560.906154
588.964884	2513.015192
589.317362	2480.247692
589.669786	2490.330000
590.022155	2472.685962
590.374470	2475.206538
590.726731	2480.247692
591.078937	2460.083077
591.431090	2500.412308
591.783188	2540.741538
592.135232	2447.480192
592.487222	2480.247692
592.839157	2490.330000
593.191038	2404.630385
593.542866	2540.741538
593.894639	2477.727115
594.246358	2560.906154
594.598022	2530.659231
594.949633	2452.521346
595.301190	2505.453462
595.652692	2477.727115
596.004141	2525.618077
596.355535	2505.453462
596.706876	2555.865000
597.058162	2381.945192
597.409395	2528.138654
597.760573	2467.644808
598.111698	2513.015192
598.462768	2568.467885
598.813785	2495.371154
599.164748	2513.015192
599.515657	2397.068654
599.866511	2591.153077
600.217312	2558.385577
600.568060	2558.385577
600.918753	2586.111923
601.269392	2467.644808
601.619978	2530.659231
601.970510	2432.356731
602.320988	2477.727115
602.671412	2462.603654
603.021783	2502.932885
603.372100	2520.576923
603.722363	2520.576923
604.072572	2497.891731
604.422728	2555.865000
604.772830	2510.494615
605.122878	2434.877308
605.472872	2515.535769
605.822813	2437.397885
606.172701	2497.891731
606.522534	2434.877308
606.872314	2568.467885
607.222041	2518.056346
607.571714	2523.097500
607.921333	2533.179808
608.270899	2497.891731
608.620411	2553.344423
608.969870	2477.727115
609.319276	2510.494615
609.668627	2510.494615
610.017926	2518.056346
610.367171	2555.865000
610.716362	2507.974038
611.065500	2520.576923
611.414585	2545.782692
611.763616	2543.262115
612.112594	2482.768269
612.461518	2497.891731
612.810389	2485.288846
613.159207	2568.467885
613.507971	2460.083077
613.856682	2424.795000
614.205340	2538.220962
614.553945	2487.809423
614.902496	2588.632500
615.250994	2591.153077
615.599439	2452.521346
615.947830	2497.891731
616.296169	2447.480192
616.644454	2482.768269
616.992686	2520.576923
617.340864	2495.371154
617.688990	2538.220962
618.037063	2472.685962
618.385082	2429.836154
618.733048	2530.659231
619.080961	2578.550192
619.428821	2422.274423
619.776628	2455.041923
620.124382	2495.371154
620.472083	2540.741538
620.819731	2361.780577
621.167326	2510.494615
621.514868	2467.644808
621.862357	2518.056346
622.209793	2581.070769
622.557176	2434.877308
622.904506	2560.906154
623.251783	2502.932885
623.599007	2447.480192
623.946179	2429.836154
624.293297	2568.467885
624.640363	2470.165385
624.987376	2404.630385
625.334336	2523.097500
625.681243	2475.206538
626.028097	2553.344423
626.374899	2500.412308
626.721647	2553.344423
627.068343	2444.959615
627.414987	2462.603654
627.761577	2555.865000
628.108115	2444.959615
628.454600	2510.494615
628.801032	2523.097500
629.147412	2490.330000
629.493739	2523.097500
629.840014	2447.480192
630.186236	2465.124231
630.532405	2480.247692
630.878521	2505.453462
631.224585	2465.124231
631.570597	2588.632500
631.916556	2513.015192
632.262462	2510.494615
632.608316	2513.015192
632.954117	2513.015192
633.299866	2523.097500
633.645562	2460.083077
633.991206	2475.206538
634.336797	2470.165385
634.682336	2460.083077
635.027823	2444.959615
635.373257	2560.906154
635.718639	2528.138654
636.063968	2455.041923
636.409245	2460.083077
636.754470	2482.768269
637.099642	2485.288846
637.444762	2492.850577
637.789829	2462.603654
638.134845	2535.700385
638.479808	2465.124231
638.824719	2518.056346
639.169577	2480.247692
639.514383	2490.330000
639.859137	2482.768269
640.203839	2492.850577
640.548489	2507.974038
640.893086	2535.700385
641.237632	2485.288846
641.582125	2480.247692
641.926566	2495.371154
642.270955	2568.467885
642.615292	2477.727115
642.959576	2538.220962
643.303809	2540.741538
643.647990	2618.879423
643.992118	2518.056346
644.336195	2502.932885
644.680219	2558.385577
645.024192	2505.453462
645.368112	2407.150962
645.711981	2548.303269
646.055797	2530.659231
646.399562	2462.603654
646.743274	2422.274423
647.086935	2543.262115
647.430544	2422.274423
647.774101	2505.453462
648.117606	2450.000769
648.461059	2460.083077
648.804460	2470.165385
649.147810	2510.494615
649.491108	2487.809423
649.834354	2535.700385
650.177548	2510.494615
650.520690	2535.700385
650.863781	2530.659231
651.206820	2538.220962
651.549807	2497.891731
651.892742	2535.700385
652.235626	2538.220962
652.578458	2535.700385
652.921238	2502.932885
653.263967	2467.644808
653.606644	2543.262115
653.949269	2472.685962
654.291843	2402.109808
654.634365	2535.700385
654.976836	2487.809423
655.319255	2560.906154
655.661622	2465.124231
656.003938	2475.206538
656.346203	2513.015192
656.688416	2558.385577
657.030577	2540.741538
657.372687	2513.015192
657.714746	2457.562500
658.056753	2444.959615
658.398708	2513.015192
658.740612	2470.165385
659.082465	2515.535769
659.424266	2573.509038
659.766016	2457.562500
660.107715	2455.041923
660.449362	2520.576923
660.790958	2497.891731
661.132503	2550.823846
661.473996	2507.974038
661.815438	2553.344423
662.156829	2490.330000
662.498168	2543.262115
662.839456	2485.288846
663.180693	2538.220962
663.521879	2424.795000
663.863013	2465.124231
664.204097	2455.041923
664.545129	2462.603654
664.886110	2507.974038
665.227040	2467.644808
665.567918	2543.262115
665.908746	2497.891731
666.249522	2540.741538
666.590248	2477.727115
666.930922	2507.974038
667.271545	2480.247692
667.612118	2467.644808
667.952639	2414.712692
668.293109	2528.138654
668.633528	2452.521346
668.973896	2480.247692
669.314213	2412.192115
669.654480	2548.303269
669.994695	2482.768269
670.334859	2470.165385
670.674973	2500.412308
671.015035	2530.659231
671.355047	2538.220962
671.695008	2646.605769
672.034918	2429.836154
672.374777	2495.371154
672.714585	2535.700385
673.054342	2487.809423
673.394049	2507.974038
673.733705	2450.000769
674.073310	2472.685962
674.412864	2548.303269
674.752368	2507.974038
675.091820	2518.056346
675.431223	2475.206538
675.770574	2540.741538
676.109875	2492.850577
676.449125	2472.685962
676.788324	2513.015192
677.127473	2553.344423
677.466571	2475.206538
677.805619	2525.618077
678.144616	2581.070769
678.483562	2475.206538
678.822458	2480.247692
679.161303	2543.262115
679.500098	2487.809423
679.838842	2545.782692
680.177535	2457.562500
680.516179	2490.330000
680.854771	2424.795000
681.193314	2482.768269
681.531805	2543.262115
681.870247	2528.138654
682.208638	2560.906154
682.546978	2482.768269
682.885268	2495.371154
683.223508	2450.000769
683.561697	2482.768269
683.899836	2480.247692
684.237925	2404.630385
684.575963	2437.397885
684.913951	2520.576923
685.251889	2480.247692
685.589776	2465.124231
685.927614	2477.727115
686.265401	2452.521346
686.603137	2475.206538
686.940824	2475.206538
687.278460	2492.850577
687.616046	2613.838269
687.953582	2460.083077
688.291068	2497.891731
688.628504	2492.850577
688.965889	2485.288846
689.303224	2485.288846
689.640510	2485.288846
689.977745	2507.974038
690.314930	2465.124231
690.652065	2548.303269
690.989150	2578.550192
691.326185	2593.673654
691.663170	2543.262115
692.000105	2492.850577
692.336990	2528.138654
692.673825	2553.344423
693.010610	2475.206538
693.347345	2510.494615
693.684030	2515.535769
694.020665	2497.891731
694.357251	2495.371154
694.693786	2487.809423
695.030272	2490.330000
695.366707	2462.603654
695.703093	2341.615962
696.039429	2578.550192
696.375716	2492.850577
696.711952	2444.959615
697.048139	2530.659231
697.384276	2485.288846
697.720363	2568.467885
698.056400	2495.371154
698.392388	2538.220962
698.728326	2500.412308
699.064214	2553.344423
699.400053	2563.426731
699.735842	2563.426731
700.071581	2467.644808
700.407270	2399.589231
700.742910	2450.000769
701.078501	2500.412308
701.414042	2455.041923
701.749533	2472.685962
702.084974	2505.453462
702.420366	2480.247692
702.755709	2439.918462
703.091002	2523.097500
703.426246	2530.659231
703.761440	2578.550192
704.096584	2419.753846
704.431679	2500.412308
704.766725	2439.918462
705.101721	2515.535769
705.436668	2523.097500
705.771565	2515.535769
706.106413	2470.165385
706.441212	2490.330000
706.775961	2442.439038
707.110661	2535.700385
707.445311	2472.685962
707.779913	2545.782692
708.114465	2576.029615
708.448967	2500.412308
708.783421	2472.685962
709.117825	2495.371154
709.452180	2523.097500
709.786485	2502.932885
710.120742	2495.371154
710.454949	2490.330000
710.789107	2477.727115
711.123216	2439.918462
711.457275	2495.371154
711.791286	2518.056346
712.125247	2520.576923
712.459159	2533.179808
712.793023	2505.453462
713.126837	2422.274423
713.460602	2442.439038
713.794318	2505.453462
714.127985	2530.659231
714.461602	2482.768269
714.795171	2545.782692
715.128691	2500.412308
715.462162	2548.303269
715.795584	2475.206538
716.128957	2581.070769
716.462281	2588.632500
716.795556	2444.959615
717.128782	2477.727115
717.461960	2397.068654
717.795088	2505.453462
718.128167	2472.685962
718.461198	2482.768269
718.794180	2502.932885
719.127113	2538.220962
719.459997	2548.303269
719.792833	2450.000769
720.125619	2565.947308
720.458357	2485.288846
720.791046	2507.974038
721.123686	2497.891731
721.456278	2394.548077
721.788821	2497.891731
722.121315	2427.315577
722.453761	2487.809423
722.786158	2492.850577
723.118506	2558.385577
723.450805	2467.644808
723.783056	2578.550192
724.115259	2487.809423
724.447412	2500.412308
724.779518	2518.056346
725.111574	2578.550192
725.443582	2472.685962
725.775542	2553.344423
726.107453	2439.918462
726.439315	2442.439038
726.771129	2543.262115
727.102895	2505.453462
727.434612	2444.959615
727.766281	2475.206538
728.097901	2540.741538
728.429473	2455.041923
728.760996	2538.220962
729.092471	2558.385577
729.423897	2447.480192
729.755276	2485.288846
730.086606	2513.015192
730.417887	2467.644808
730.749120	2467.644808
731.080305	2513.015192
731.411442	2487.809423
731.742530	2591.153077
732.073570	2507.974038
732.404562	2487.809423
732.735506	2475.206538
733.066401	2482.768269
733.397249	2429.836154
733.728048	2497.891731
734.058798	2477.727115
734.389501	2523.097500
734.720156	2540.741538
735.050762	2369.342308
735.381320	2523.097500
735.711831	2457.562500
736.042293	2465.124231
736.372707	2470.165385
736.703073	2535.700385
737.033391	2495.371154
737.363661	2442.439038
737.693883	2467.644808
738.024056	2505.453462
738.354182	2538.220962
738.684260	2477.727115
739.014290	2510.494615
739.344272	2502.932885
739.674207	2427.315577
740.004093	2513.015192
740.333931	2492.850577
740.663722	2540.741538
740.993464	2465.124231
741.323159	2573.509038
741.652806	2495.371154
741.982405	2470.165385
742.311956	2530.659231
742.641460	2437.397885
742.970915	2480.247692
743.300323	2513.015192
743.629683	2555.865000
743.958996	2465.124231
744.288260	2507.974038
744.617477	2434.877308
744.946647	2525.618077
745.275768	2518.056346
745.604842	2523.097500
745.933869	2497.891731
746.262847	2523.097500
746.591778	2472.685962
746.920662	2477.727115
747.249498	2525.618077
747.578286	2588.632500
747.907027	2540.741538
748.235720	2470.165385
748.564365	2467.644808
748.892963	2462.603654
749.221514	2523.097500
749.550017	2444.959615
749.878473	2545.782692
750.206881	2497.891731
750.535242	2565.947308
750.863555	2485.288846
751.191821	2513.015192
751.520039	2563.426731
751.848210	2487.809423
752.176334	2497.891731
752.504411	2437.397885
752.832440	2530.659231
753.160421	2444.959615
753.488356	2513.015192
753.816243	2417.233269
754.144082	2628.961731
754.471875	2510.494615
754.799620	2482.768269
755.127318	2500.412308
755.454969	2462.603654
755.782572	2507.974038
756.110129	2485.288846
756.437638	2565.947308
756.765100	2455.041923
757.092515	2470.165385
757.419882	2462.603654
757.747203	2487.809423
758.074477	2528.138654
758.401703	2502.932885
758.728882	2510.494615
759.056014	2525.618077
759.383099	2502.932885
759.710138	2533.179808
760.037129	2550.823846
760.364073	2545.782692
760.690970	2452.521346
761.017820	2611.317692
761.344623	2475.206538
761.671379	2515.535769
761.998088	2543.262115
762.324751	2470.165385
762.651366	2525.618077
762.977935	2452.521346
763.304456	2462.603654
763.630931	2399.589231
763.957359	2505.453462
764.283740	2593.673654
764.610074	2460.083077
764.936362	2495.371154
765.262602	2560.906154
765.588796	2548.303269
765.914943	2560.906154
766.241044	2505.453462
766.567097	2487.809423
766.893104	2565.947308
767.219064	2533.179808
767.544978	2581.070769
767.870845	2568.467885
768.196665	2447.480192
768.522438	2507.974038
768.848165	2500.412308
769.173846	2505.453462
769.499479	2442.439038
769.825066	2578.550192
770.150607	2457.562500
770.476101	2505.453462
770.801548	2472.685962
771.126949	2530.659231
771.452303	2447.480192
771.777611	2538.220962
772.102872	2437.397885
772.428087	2505.453462
772.753256	2450.000769
773.078378	2472.685962
773.403453	2543.262115
773.728482	2528.138654
774.053465	2502.932885
774.378401	2581.070769
774.703291	2480.247692
775.028135	2485.288846
775.352932	2513.015192
775.677683	2500.412308
776.002388	2500.412308
776.327046	2545.782692
776.651658	2472.685962
776.976224	2530.659231
777.300743	2535.700385
777.625216	2500.412308
777.949643	2492.850577
778.274024	2540.741538
778.598359	2505.453462
778.922647	2482.768269
779.246889	2470.165385
779.571086	2424.795000
779.895236	2530.659231
780.219339	2533.179808
780.543397	2510.494615
780.867409	2540.741538
781.191374	2447.480192
781.515294	2495.371154
781.839167	2409.671538
782.162995	2460.083077
782.486776	2455.041923
782.810511	2528.138654
783.134201	2523.097500
783.457844	2500.412308
783.781441	2505.453462
784.104993	2447.480192
784.428498	2528.138654
784.751958	2455.041923
785.075372	2576.029615
785.398739	2462.603654
785.722061	2422.274423
786.045337	2447.480192
786.368568	2507.974038
786.691752	2366.821731
787.014891	2475.206538
787.337983	2354.218846
787.661030	2533.179808
787.984031	2477.727115
788.306987	2533.179808
788.629897	2553.344423
788.952760	2518.056346
789.275579	2560.906154
789.598351	2608.797115
789.921078	2480.247692
790.243759	2444.959615
790.566395	2492.850577
790.888984	2495.371154
791.211529	2492.850577
791.534027	2560.906154
791.856480	2467.644808
792.178888	2485.288846
792.501249	2523.097500
792.823566	2450.000769
793.145836	2475.206538
793.468062	2502.932885
793.790241	2523.097500
794.112375	2434.877308
794.434464	2485.288846
794.756507	2492.850577
795.078505	2525.618077
795.400457	2550.823846
795.722364	2588.632500
796.044226	2467.644808
796.366042	2505.453462
796.687812	2452.521346
797.009538	2490.330000
797.331218	2513.015192
797.652852	2523.097500
797.974442	2583.591346
798.295986	2470.165385
798.617484	2515.535769
798.938938	2434.877308
799.260346	2429.836154
799.581709	2515.535769
799.903026	2439.918462
800.224299	2548.303269
800.545526	2548.303269
800.866708	2565.947308
801.187845	2487.809423
801.508936	2530.659231
801.829983	2518.056346
802.150984	2427.315577
802.471940	2553.344423
802.792851	2472.685962
803.113717	2475.206538
803.434538	2492.850577
803.755314	2412.192115
804.076045	2530.659231
804.396731	2540.741538
804.717372	2467.644808
805.037967	2485.288846
805.358518	2515.535769
805.679024	2510.494615
805.999485	2550.823846
806.319901	2427.315577
806.640272	2528.138654
806.960598	2472.685962
807.280879	2490.330000
807.601115	2475.206538
807.921306	2583.591346
808.241453	2558.385577
808.561554	2470.165385
808.881611	2515.535769
809.201623	2487.809423
809.521590	2596.194231
809.841513	2502.932885
810.161390	2424.795000
810.481223	2608.797115
810.801011	2467.644808
811.120755	2482.768269
811.440453	2465.124231
811.760107	2502.932885
812.079716	2533.179808
812.399281	2543.262115
812.718801	2500.412308
813.038276	2442.439038
813.357707	2495.371154
813.677093	2591.153077
813.996434	2394.548077
814.315731	2540.741538
814.634983	2475.206538
814.954191	2437.397885
815.273354	2530.659231
815.592473	2502.932885
815.911547	2429.836154
816.230577	2507.974038
816.549562	2543.262115
816.868502	2439.918462
817.187399	2565.947308
817.506250	2515.535769
817.825058	2502.932885
818.143821	2540.741538
818.462539	2455.041923
818.781213	2442.439038
819.099843	2518.056346
819.418429	2480.247692
819.736970	2485.288846
820.055466	2528.138654
820.373919	2540.741538
820.692327	2467.644808
821.010691	2429.836154
821.329011	2533.179808
821.647286	2583.591346
821.965517	2455.041923
822.283704	2477.727115
822.601847	2520.576923
822.919945	2510.494615
823.237999	2490.330000
823.556010	2487.809423
823.873976	2427.315577
824.191897	2495.371154
824.509775	2530.659231
824.827609	2535.700385
825.145398	2482.768269
825.463144	2568.467885
825.780845	2538.220962
826.098502	2550.823846
826.416116	2452.521346
826.733685	2470.165385
827.051210	2487.809423
827.368692	2487.809423
827.686129	2495.371154
828.003522	2460.083077
828.320872	2434.877308
828.638177	2371.862885
828.955439	2563.426731
829.272656	2462.603654
829.589830	2485.288846
829.906960	2442.439038
830.224046	2490.330000
830.541088	2450.000769
830.858086	2530.659231
831.175041	2482.768269
831.491952	2520.576923
831.808819	2525.618077
832.125642	2480.247692
832.442421	2540.741538
832.759157	2535.700385
833.075849	2495.371154
833.392497	2452.521346
833.709101	2500.412308
834.025662	2520.576923
834.342179	2543.262115
834.658653	2442.439038
834.975083	2490.330000
835.291469	2465.124231
835.607811	2500.412308
835.924110	2495.371154
836.240366	2520.576923
836.556578	2460.083077
836.872746	2538.220962
837.188871	2515.535769
837.504952	2482.768269
837.820990	2606.276538
838.136984	2505.453462
838.452935	2487.809423
838.768842	2412.192115
839.084706	2525.618077
839.400526	2467.644808
839.716303	2487.809423
840.032037	2422.274423
840.347727	2555.865000
840.663373	2442.439038
840.978977	2543.262115
841.294537	2497.891731
841.610054	2475.206538
841.925527	2507.974038
842.240957	2530.659231
842.556344	2616.358846
842.871687	2563.426731
843.186987	2492.850577
843.502244	2477.727115
843.817458	2565.947308
844.132629	2442.439038
844.447756	2515.535769
844.762840	2505.453462
845.077881	2497.891731
845.392879	2422.274423
845.707833	2581.070769
846.022745	2538.220962
846.337613	2558.385577
846.652438	2442.439038
846.967221	2520.576923
847.281960	2485.288846
847.596656	2513.015192
847.911309	2477.727115
848.225919	2485.288846
848.540485	2520.576923
848.855009	2442.439038
849.169490	2520.576923
849.483928	2568.467885
849.798323	2472.685962
850.112675	2475.206538
850.426984	2424.795000
850.741251	2510.494615
851.055474	2507.974038
851.369654	2535.700385
851.683792	2507.974038
851.997887	2492.850577
852.311938	2480.247692
852.625947	2472.685962
852.939914	2528.138654
853.253837	2462.603654
853.567718	2465.124231
853.881555	2510.494615
854.195350	2535.700385
854.509103	2477.727115
854.822812	2530.659231
855.136479	2588.632500
855.450103	2485.288846
855.763685	2482.768269
856.077224	2482.768269
856.390720	2550.823846
856.704173	2497.891731
857.017584	2492.850577
857.330953	2555.865000
857.644278	2444.959615
857.957561	2465.124231
858.270802	2507.974038
858.584000	2530.659231
858.897155	2412.192115
859.210268	2533.179808
859.523339	2492.850577
859.836367	2442.439038
860.149352	2475.206538
860.462295	2540.741538
860.775195	2429.836154
861.088054	2500.412308
861.400869	2475.206538
861.713642	2417.233269
862.026373	2535.700385
862.339062	2485.288846
862.651708	2485.288846
862.964312	2523.097500
863.276873	2472.685962
863.589392	2492.850577
863.901869	2497.891731
864.214303	2412.192115
864.526696	2495.371154
864.839045	2530.659231
865.151353	2505.453462
865.463619	2482.768269
865.775842	2611.317692
866.088023	2422.274423
866.400162	2475.206538
866.712258	2538.220962
867.024313	2480.247692
867.336325	2505.453462
867.648296	2535.700385
867.960224	2513.015192
868.272110	2482.768269
868.583954	2460.083077
868.895755	2543.262115
869.207515	2407.150962
869.519233	2505.453462
869.830909	2520.576923
870.142542	2439.918462
870.454134	2581.070769
870.765684	2452.521346
871.077191	2558.385577
871.388657	2460.083077
871.700081	2540.741538
872.011463	2450.000769
872.322803	2470.165385
872.634101	2518.056346
872.945357	2550.823846
873.256571	2480.247692
873.567744	2510.494615
873.878874	2444.959615
874.189963	2487.809423
874.501010	2465.124231
874.812015	2525.618077
875.122979	2419.753846
875.433900	2523.097500
875.744780	2538.220962
876.055618	2482.768269
876.366415	2442.439038
876.677169	2465.124231
876.987882	2530.659231
877.298554	2563.426731
877.609183	2434.877308
877.919771	2490.330000
878.230317	2447.480192
878.540822	2495.371154
878.851285	2490.330000
879.161707	2578.550192
879.472087	2540.741538
879.782425	2487.809423
880.092722	2578.550192
880.402977	2460.083077
880.713191	2513.015192
881.023363	2470.165385
881.333494	2513.015192
881.643583	2528.138654
881.953631	2540.741538
882.263637	2550.823846
882.573602	2505.453462
882.883526	2505.453462
883.193408	2477.727115
883.503248	2515.535769
883.813048	2465.124231
884.122806	2558.385577
884.432522	2487.809423
884.742197	2447.480192
885.051831	2573.509038
885.361424	2588.632500
885.670975	2437.397885
885.980485	2417.233269
886.289954	2462.603654
886.599382	2500.412308
886.908768	2558.385577
887.218113	2487.809423
887.527417	2543.262115
887.836680	2470.165385
888.145901	2495.371154
888.455082	2442.439038
888.764221	2487.809423
889.073319	2455.041923
889.382376	2465.124231
889.691392	2482.768269
890.000366	2470.165385
890.309300	2558.385577
890.618193	2497.891731
890.927044	2497.891731
891.235855	2455.041923
891.544625	2505.453462
891.853353	2502.932885
892.162041	2518.056346
892.470687	2528.138654
892.779293	2513.015192
893.087858	2593.673654
893.396381	2500.412308
893.704864	2487.809423
894.013306	2502.932885
894.321707	2515.535769
894.630068	2460.083077
894.938387	2465.124231
895.246665	2477.727115
895.554903	2510.494615
895.863100	2528.138654
896.171256	2460.083077
896.479371	2513.015192
896.787446	2553.344423
897.095480	2465.124231
897.403473	2502.932885
897.711425	2480.247692
898.019336	2505.453462
898.327207	2535.700385
898.635038	2513.015192
898.942827	2465.124231
899.250576	2475.206538
899.558284	2487.809423
899.865952	2392.027500
900.173579	2520.576923
900.481165	2462.603654
900.788711	2457.562500
901.096216	2412.192115
901.403681	2500.412308
901.711105	2439.918462
902.018489	2515.535769
902.325832	2487.809423
902.633135	2515.535769
902.940397	2389.506923
903.247619	2586.111923
903.554800	2442.439038
903.861941	2492.850577
904.169041	2447.480192
904.476101	2394.548077
904.783121	2507.974038
905.090100	2419.753846
905.397039	2465.124231
905.703938	2447.480192
906.010796	2518.056346
906.317614	2482.768269
906.624391	2550.823846
906.931129	2482.768269
907.237826	2502.932885
907.544483	2402.109808
907.851099	2495.371154
908.157675	2465.124231
908.464211	2530.659231
908.770707	2510.494615
909.077163	2611.317692
909.383578	2482.768269
909.689954	2553.344423
909.996289	2485.288846
910.302584	2450.000769
910.608839	2475.206538
910.915054	2424.795000
911.221229	2601.235385
911.527363	2452.521346
911.833458	2530.659231
912.139513	2497.891731
912.445527	2548.303269
912.751502	2480.247692
913.057436	2540.741538
913.363331	2510.494615
913.669186	2452.521346
913.975000	2467.644808
914.280775	2535.700385
914.586510	2510.494615
914.892205	2530.659231
915.197859	2505.453462
915.503475	2492.850577
915.809050	2422.274423
916.114585	2465.124231
916.420081	2475.206538
916.725536	2513.015192
917.030952	2515.535769
917.336328	2500.412308
917.641665	2447.480192
917.946961	2477.727115
918.252218	2439.918462
918.557435	2432.356731
918.862612	2399.589231
919.167750	2492.850577
919.472848	2528.138654
919.777906	2581.070769
920.082925	2510.494615
920.387904	2545.782692
920.692843	2439.918462
920.997743	2492.850577
921.302603	2465.124231
921.607423	2560.906154
921.912204	2457.562500
922.216946	2596.194231
922.521647	2455.041923
922.826310	2447.480192
923.130932	2500.412308
923.435516	2518.056346
923.740059	2407.150962
924.044564	2502.932885
924.349028	2482.768269
924.653454	2505.453462
924.957840	2507.974038
925.262186	2502.932885
925.566493	2480.247692
925.870761	2586.111923
926.174989	2432.356731
926.479178	2467.644808
926.783328	2455.041923
927.087438	2495.371154
927.391509	2528.138654
927.695541	2455.041923
927.999533	2497.891731
928.303486	2608.797115
928.607400	2482.768269
928.911275	2477.727115
929.215110	2482.768269
929.518906	2487.809423
929.822663	2452.521346
930.126381	2545.782692
930.430060	2447.480192
930.733699	2555.865000
931.037299	2462.603654
931.340861	2555.865000
931.644383	2452.521346
931.947866	2528.138654
932.251309	2412.192115
932.554714	2515.535769
932.858080	2467.644808
933.161407	2480.247692
933.464694	2558.385577
933.767943	2500.412308
934.071153	2528.138654
934.374323	2407.150962
934.677455	2555.865000
934.980548	2457.562500
935.283602	2460.083077
935.586617	2467.644808
935.889593	2381.945192
936.192530	2452.521346
936.495428	2543.262115
936.798287	2460.083077
937.101108	2497.891731
937.403890	2550.823846
937.706632	2460.083077
938.009336	2485.288846
938.312002	2490.330000
938.614628	2513.015192
938.917216	2540.741538
939.219765	2490.330000
939.522275	2518.056346
939.824747	2414.712692
940.127179	2485.288846
940.429573	2550.823846
940.731929	2450.000769
941.034246	2578.550192
941.336524	2412.192115
941.638763	2487.809423
941.940964	2520.576923
942.243126	2505.453462
942.545250	2533.179808
942.847335	2505.453462
943.149381	2482.768269
943.451389	2505.453462
943.753359	2462.603654
944.055290	2465.124231
944.357182	2487.809423
944.659036	2505.453462
944.960851	2497.891731
945.262628	2475.206538
945.564367	2472.685962
945.866067	2427.315577
946.167729	2573.509038
946.469352	2492.850577
946.770937	2502.932885
947.072484	2500.412308
947.373992	2513.015192
947.675462	2394.548077
947.976893	2455.041923
948.278286	2510.494615
948.579641	2550.823846
948.880958	2510.494615
949.182236	2533.179808
949.483476	2422.274423
949.784678	2540.741538
950.085841	2480.247692
950.386967	2530.659231
950.688054	2490.330000
950.989103	2444.959615
951.290114	2480.247692
951.591087	2455.041923
951.892021	2525.618077
952.192917	2490.330000
952.493776	2487.809423
952.794596	2470.165385
953.095378	2518.056346
953.396122	2462.603654
953.696828	2444.959615
953.997496	2548.303269
954.298126	2470.165385
954.598718	2563.426731
954.899272	2495.371154
955.199788	2543.262115
955.500266	2502.932885
955.800706	2616.358846
956.101108	2444.959615
956.401472	2437.397885
956.701798	2465.124231
957.002087	2505.453462
957.302337	2457.562500
957.602550	2452.521346
957.902724	2397.068654
958.202861	2432.356731
958.502960	2578.550192
958.803022	2417.233269
959.103045	2525.618077
959.403031	2492.850577
959.702979	2450.000769
960.002889	2462.603654
960.302762	2513.015192
960.602596	2437.397885
960.902393	2596.194231
961.202153	2480.247692
961.501875	2525.618077
961.801559	2576.029615
962.101205	2477.727115
962.400814	2558.385577
962.700385	2470.165385
962.999918	2462.603654
963.299414	2447.480192
963.598873	2548.303269
963.898293	2518.056346
964.197677	2480.247692
964.497022	2495.371154
964.796331	2533.179808
965.095601	2402.109808
965.394835	2437.397885
965.694030	2450.000769
965.993189	2553.344423
966.292309	2550.823846
966.591393	2570.988462
966.890439	2427.315577
967.189447	2500.412308
967.488419	2470.165385
967.787353	2495.371154
968.086249	2576.029615
968.385108	2417.233269
968.683930	2510.494615
968.982714	2545.782692
969.281462	2402.109808
969.580172	2412.192115
969.878844	2487.809423
970.177480	2460.083077
970.476078	2412.192115
970.774639	2530.659231
971.073162	2475.206538
971.371649	2492.850577
971.670098	2434.877308
971.968510	2505.453462
972.266885	2404.630385
972.565223	2477.727115
972.863524	2470.165385
973.161788	2477.727115
973.460014	2432.356731
973.758204	2507.974038
974.056356	2507.974038
974.354471	2515.535769
974.652550	2492.850577
974.950591	2520.576923
975.248595	2452.521346
975.546563	2477.727115
975.844493	2472.685962
976.142386	2455.041923
976.440243	2545.782692
976.738062	2414.712692
977.035845	2487.809423
977.333590	2460.083077
977.631299	2432.356731
977.928971	2487.809423
978.226606	2442.439038
978.524204	2447.480192
978.821765	2429.836154
979.119290	2475.206538
979.416777	2462.603654
979.714228	2545.782692
980.011642	2472.685962
980.309020	2520.576923
980.606360	2487.809423
980.903664	2460.083077
981.200931	2482.768269
981.498162	2490.330000
981.795356	2439.918462
982.092513	2502.932885
982.389633	2505.453462
982.686717	2510.494615
982.983764	2465.124231
983.280775	2480.247692
983.577749	2475.206538
983.874686	2442.439038
984.171587	2500.412308
984.468451	2477.727115
984.765279	2485.288846
985.062070	2563.426731
985.358824	2450.000769
985.655543	2450.000769
985.952224	2482.768269
986.248869	2482.768269
986.545478	2500.412308
986.842050	2475.206538
987.138586	2515.535769
987.435086	2434.877308
987.731549	2495.371154
988.027975	2530.659231
988.324366	2467.644808
988.620719	2608.797115
988.917037	2442.439038
989.213318	2518.056346
989.509563	2409.671538
989.805772	2502.932885
990.101944	2442.439038
990.398080	2510.494615
990.694180	2467.644808
990.990244	2515.535769
991.286271	2510.494615
991.582262	2525.618077
991.878217	2480.247692
992.174136	2523.097500
992.470019	2578.550192
992.765865	2535.700385
993.061676	2477.727115
993.357450	2500.412308
993.653188	2460.083077
993.948890	2543.262115
994.244556	2528.138654
994.540186	2432.356731
994.835780	2465.124231
995.131337	2495.371154
995.426859	2475.206538
995.722345	2487.809423
996.017795	2429.836154
996.313208	2437.397885
996.608586	2472.685962
996.903928	2487.809423
997.199234	2462.603654
997.494504	2510.494615
997.789738	2477.727115
998.084936	2384.465769
998.380099	2482.768269
998.675225	2555.865000
998.970316	2485.288846
999.265371	2432.356731
999.560390	2442.439038
999.855373	2450.000769
1000.150320	2502.932885
1000.445232	2482.768269
1000.740108	2530.659231
1001.034948	2414.712692
1001.329752	2460.083077
1001.624521	2515.535769
1001.919254	2500.412308
1002.213951	2424.795000
1002.508613	2472.685962
1002.803239	2485.288846
1003.097829	2432.356731
1003.392384	2419.753846
1003.686903	2432.356731
1003.981386	2495.371154
1004.275834	2397.068654
1004.570246	2510.494615
1004.864623	2465.124231
1005.158964	2455.041923
1005.453270	2457.562500
1005.747540	2497.891731
1006.041775	2581.070769
1006.335974	2422.274423
1006.630138	2497.891731
1006.924266	2528.138654
1007.218359	2467.644808
1007.512416	2450.000769
1007.806438	2515.535769
1008.100425	2432.356731
1008.394376	2533.179808
1008.688292	2462.603654
1008.982172	2550.823846
1009.276017	2533.179808
1009.569827	2429.836154
1009.863602	2495.371154
1010.157341	2490.330000
1010.451045	2450.000769
1010.744714	2490.330000
1011.038347	2525.618077
1011.331945	2467.644808
1011.625508	2535.700385
1011.919036	2510.494615
1012.212528	2485.288846
1012.505986	2472.685962
1012.799408	2472.685962
1013.092795	2497.891731
1013.386147	2450.000769
1013.679464	2462.603654
1013.972745	2550.823846
1014.265992	2465.124231
1014.559204	2482.768269
1014.852380	2424.795000
1015.145521	2510.494615
1015.438628	2505.453462
1015.731699	2447.480192
1016.024736	2515.535769
1016.317737	2462.603654
1016.610703	2485.288846
1016.903635	2558.385577
1017.196531	2432.356731
1017.489393	2452.521346
1017.782219	2490.330000
1018.075011	2432.356731
1018.367768	2462.603654
1018.660490	2515.535769
1018.953177	2515.535769
1019.245829	2515.535769
