Dividing Wavelength (nm)	Counts (n)	Blue Motor Position (mm): 2.400000	Red Motor Position (mm): 0.000000	
326.493990	2150.052115
326.888308	2150.052115
327.282561	2150.052115
327.676750	2041.667308
328.070874	2003.858654
328.464933	2071.914231
328.858929	2094.599423
329.252859	1988.735192
329.646726	2079.475962
330.040528	2114.764038
330.434265	2054.270192
330.827938	2084.517115
331.221547	2132.408077
331.615091	2162.655000
332.008571	2215.587115
332.401986	2205.504808
332.795338	2220.628269
333.188625	2165.175577
333.581847	2250.875192
333.975006	2331.533654
334.368100	2291.204423
334.761129	2364.301154
335.154095	2356.739423
335.546996	2389.506923
335.939833	2374.383462
336.332606	2369.342308
336.725315	2407.150962
337.117960	2346.657115
337.510540	2434.877308
337.903056	2402.109808
338.295508	2450.000769
338.687896	2467.644808
339.080220	2402.109808
339.472480	2361.780577
339.864676	2404.630385
340.256807	2424.795000
340.648875	2417.233269
341.040879	2515.535769
341.432818	2480.247692
341.824694	2407.150962
342.216506	2462.603654
342.608253	2407.150962
342.999937	2502.932885
343.391557	2450.000769
343.783113	2442.439038
344.174605	2565.947308
344.566033	2457.562500
344.957397	2490.330000
345.348697	2460.083077
345.739934	2364.301154
346.131106	2412.192115
346.522215	2381.945192
346.913260	2500.412308
347.304241	2434.877308
347.695159	2507.974038
348.086012	2485.288846
348.476802	2394.548077
348.867528	2419.753846
349.258191	2482.768269
349.648789	2477.727115
350.039324	2402.109808
350.429796	2366.821731
350.820203	2460.083077
351.210548	2409.671538
351.600828	2412.192115
351.991045	2455.041923
352.381198	2462.603654
352.771288	2460.083077
353.161314	2439.918462
353.551276	2444.959615
353.941175	2472.685962
354.331010	2505.453462
354.720782	2515.535769
355.110490	2444.959615
355.500135	2442.439038
355.889717	2480.247692
356.279235	2422.274423
356.668689	2381.945192
357.058080	2397.068654
357.447408	2490.330000
357.836672	2429.836154
358.225873	2444.959615
358.615010	2424.795000
359.004084	2513.015192
359.393095	2450.000769
359.782043	2525.618077
360.170927	2452.521346
360.559748	2371.862885
360.948505	2465.124231
361.337199	2424.795000
361.725830	2472.685962
362.114398	2409.671538
362.502903	2525.618077
362.891344	2422.274423
363.279722	2497.891731
363.668037	2359.260000
364.056289	2450.000769
364.444478	2351.698269
364.832603	2460.083077
365.220665	2407.150962
365.608665	2480.247692
365.996601	2485.288846
366.384474	2495.371154
366.772284	2545.782692
367.160031	2442.439038
367.547715	2404.630385
367.935336	2452.521346
368.322893	2497.891731
368.710388	2558.385577
369.097820	2515.535769
369.485189	2497.891731
369.872495	2429.836154
370.259738	2457.562500
370.646918	2462.603654
371.034035	2447.480192
371.421090	2487.809423
371.808081	2439.918462
372.195010	2402.109808
372.581875	2515.535769
372.968678	2472.685962
373.355418	2528.138654
373.742096	2389.506923
374.128710	2475.206538
374.515262	2472.685962
374.901751	2515.535769
375.288177	2502.932885
375.674540	2429.836154
376.060841	2497.891731
376.447079	2419.753846
376.833254	2392.027500
377.219367	2384.465769
377.605417	2490.330000
377.991404	2417.233269
378.377329	2540.741538
378.763191	2475.206538
379.148991	2543.262115
379.534727	2460.083077
379.920402	2417.233269
380.306013	2444.959615
380.691563	2482.768269
381.077049	2374.383462
381.462474	2455.041923
381.847835	2432.356731
382.233134	2513.015192
382.618371	2399.589231
383.003545	2462.603654
383.388657	2422.274423
383.773706	2470.165385
384.158693	2545.782692
384.543618	2465.124231
384.928480	2455.041923
385.313280	2414.712692
385.698017	2505.453462
386.082692	2518.056346
386.467305	2482.768269
386.851856	2472.685962
387.236344	2392.027500
387.620770	2492.850577
388.005133	2467.644808
388.389435	2465.124231
388.773674	2480.247692
389.157851	2485.288846
389.541965	2434.877308
389.926018	2538.220962
390.310008	2437.397885
390.693936	2570.988462
391.077802	2442.439038
391.461606	2467.644808
391.845348	2397.068654
392.229027	2437.397885
392.612645	2389.506923
392.996200	2460.083077
393.379694	2392.027500
393.763125	2386.986346
394.146494	2467.644808
394.529801	2495.371154
394.913047	2439.918462
395.296230	2490.330000
395.679351	2482.768269
396.062410	2427.315577
396.445408	2513.015192
396.828343	2439.918462
397.211217	2414.712692
397.594028	2374.383462
397.976778	2457.562500
398.359466	2540.741538
398.742092	2414.712692
399.124656	2502.932885
399.507158	2452.521346
399.889598	2467.644808
400.271977	2460.083077
400.654294	2432.356731
401.036549	2460.083077
401.418742	2550.823846
401.800874	2452.521346
402.182944	2429.836154
402.564952	2409.671538
402.946898	2490.330000
403.328783	2510.494615
403.710606	2500.412308
404.092367	2470.165385
404.474067	2480.247692
404.855705	2475.206538
405.237282	2394.548077
405.618797	2455.041923
406.000250	2470.165385
406.381642	2429.836154
406.762972	2593.673654
407.144240	2477.727115
407.525447	2472.685962
407.906593	2475.206538
408.287677	2465.124231
408.668700	2414.712692
409.049661	2477.727115
409.430560	2439.918462
409.811399	2437.397885
410.192176	2397.068654
410.572891	2548.303269
410.953545	2528.138654
411.334138	2455.041923
411.714669	2447.480192
412.095139	2487.809423
412.475547	2457.562500
412.855894	2477.727115
413.236180	2452.521346
413.616405	2492.850577
413.996568	2442.439038
414.376670	2533.179808
414.756711	2422.274423
415.136691	2510.494615
415.516609	2520.576923
415.896466	2485.288846
416.276262	2399.589231
416.655997	2455.041923
417.035670	2439.918462
417.415283	2444.959615
417.794834	2563.426731
418.174324	2475.206538
418.553753	2447.480192
418.933121	2419.753846
419.312428	2518.056346
419.691674	2424.795000
420.070859	2457.562500
420.449983	2487.809423
420.829045	2424.795000
421.208047	2477.727115
421.586988	2533.179808
421.965867	2523.097500
422.344686	2432.356731
422.723444	2437.397885
423.102141	2497.891731
423.480777	2455.041923
423.859352	2495.371154
424.237866	2490.330000
424.616319	2437.397885
424.994712	2381.945192
425.373044	2422.274423
425.751314	2472.685962
426.129524	2470.165385
426.507673	2422.274423
426.885762	2525.618077
427.263789	2485.288846
427.641756	2576.029615
428.019662	2475.206538
428.397508	2530.659231
428.775292	2417.233269
429.153016	2427.315577
429.530679	2518.056346
429.908282	2563.426731
430.285824	2369.342308
430.663305	2523.097500
431.040726	2442.439038
431.418086	2523.097500
431.795385	2439.918462
432.172624	2525.618077
432.549802	2439.918462
432.926920	2495.371154
433.303977	2429.836154
433.680974	2455.041923
434.057910	2462.603654
434.434786	2455.041923
434.811601	2487.809423
435.188355	2500.412308
435.565050	2502.932885
435.941683	2470.165385
436.318257	2487.809423
436.694770	2492.850577
437.071222	2444.959615
437.447614	2434.877308
437.823946	2510.494615
438.200218	2462.603654
438.576429	2460.083077
438.952580	2543.262115
439.328670	2467.644808
439.704700	2485.288846
440.080670	2515.535769
440.456580	2470.165385
440.832429	2485.288846
441.208218	2432.356731
441.583947	2482.768269
441.959616	2482.768269
442.335224	2460.083077
442.710773	2502.932885
443.086261	2404.630385
443.461689	2485.288846
443.837057	2439.918462
444.212365	2480.247692
444.587612	2419.753846
444.962800	2487.809423
445.337927	2472.685962
445.712995	2485.288846
446.088002	2505.453462
446.462949	2460.083077
446.837837	2492.850577
447.212664	2455.041923
447.587431	2533.179808
447.962139	2513.015192
448.336786	2470.165385
448.711374	2399.589231
449.085901	2497.891731
449.460369	2520.576923
449.834776	2525.618077
450.209124	2530.659231
450.583412	2495.371154
450.957640	2507.974038
451.331808	2520.576923
451.705917	2432.356731
452.079965	2485.288846
452.453954	2432.356731
452.827883	2492.850577
453.201752	2429.836154
453.575562	2465.124231
453.949311	2482.768269
454.323001	2515.535769
454.696632	2495.371154
455.070202	2581.070769
455.443713	2518.056346
455.817164	2535.700385
456.190556	2457.562500
456.563888	2432.356731
456.937160	2485.288846
457.310373	2442.439038
457.683526	2497.891731
458.056619	2371.862885
458.429653	2419.753846
458.802628	2472.685962
459.175542	2555.865000
459.548398	2497.891731
459.921194	2601.235385
460.293930	2495.371154
460.666607	2525.618077
461.039224	2558.385577
461.411782	2432.356731
461.784280	2510.494615
462.156719	2457.562500
462.529099	2442.439038
462.901419	2497.891731
463.273680	2525.618077
463.645882	2475.206538
464.018024	2528.138654
464.390106	2460.083077
464.762130	2492.850577
465.134094	2437.397885
465.505999	2442.439038
465.877845	2392.027500
466.249631	2530.659231
466.621358	2455.041923
466.993026	2553.344423
467.364634	2460.083077
467.736184	2540.741538
468.107674	2475.206538
468.479105	2518.056346
468.850477	2535.700385
469.221790	2439.918462
469.593043	2560.906154
469.964238	2502.932885
470.335373	2507.974038
470.706449	2477.727115
471.077467	2419.753846
471.448425	2475.206538
471.819324	2419.753846
472.190164	2457.562500
472.560945	2442.439038
472.931667	2419.753846
473.302330	2386.986346
473.672934	2586.111923
474.043479	2487.809423
474.413965	2460.083077
474.784393	2520.576923
475.154761	2417.233269
475.525070	2507.974038
475.895321	2442.439038
476.265513	2480.247692
476.635645	2450.000769
477.005719	2502.932885
477.375734	2502.932885
477.745691	2460.083077
478.115588	2419.753846
478.485427	2480.247692
478.855207	2500.412308
479.224928	2465.124231
479.594591	2505.453462
479.964194	2439.918462
480.333739	2460.083077
480.703226	2429.836154
481.072653	2427.315577
481.442022	2477.727115
481.811333	2530.659231
482.180584	2419.753846
482.549777	2510.494615
482.918912	2563.426731
483.287988	2467.644808
483.657005	2550.823846
484.025964	2404.630385
484.394864	2500.412308
484.763706	2399.589231
485.132489	2548.303269
485.501213	2475.206538
485.869879	2518.056346
486.238487	2485.288846
486.607036	2505.453462
486.975527	2518.056346
487.343959	2502.932885
487.712333	2563.426731
488.080648	2487.809423
488.448905	2482.768269
488.817104	2533.179808
489.185244	2540.741538
489.553326	2470.165385
489.921350	2467.644808
490.289315	2510.494615
490.657222	2520.576923
491.025070	2606.276538
491.392861	2460.083077
491.760593	2487.809423
492.128267	2450.000769
492.495883	2611.317692
492.863440	2477.727115
493.230939	2495.371154
493.598380	2452.521346
493.965763	2520.576923
494.333088	2465.124231
494.700354	2558.385577
495.067563	2538.220962
495.434713	2500.412308
495.801805	2429.836154
496.168839	2467.644808
496.535815	2477.727115
496.902733	2397.068654
497.269593	2460.083077
497.636395	2525.618077
498.003139	2472.685962
498.369825	2467.644808
498.736453	2528.138654
499.103023	2434.877308
499.469535	2457.562500
499.835989	2510.494615
500.202385	2502.932885
500.568723	2528.138654
500.935003	2487.809423
501.301226	2442.439038
501.667390	2555.865000
502.033497	2510.494615
502.399546	2487.809423
502.765537	2432.356731
503.131470	2470.165385
503.497345	2482.768269
503.863163	2450.000769
504.228923	2477.727115
504.594625	2540.741538
504.960269	2480.247692
505.325856	2550.823846
505.691385	2545.782692
506.056856	2502.932885
506.422270	2480.247692
506.787625	2455.041923
507.152924	2520.576923
507.518164	2497.891731
507.883347	2490.330000
508.248472	2450.000769
508.613540	2417.233269
508.978550	2510.494615
509.343503	2447.480192
509.708398	2485.288846
510.073236	2480.247692
510.438016	2502.932885
510.802738	2460.083077
511.167403	2528.138654
511.532010	2573.509038
511.896561	2475.206538
512.261053	2560.906154
512.625488	2485.288846
512.989866	2457.562500
513.354186	2500.412308
513.718449	2502.932885
514.082655	2444.959615
514.446803	2427.315577
514.810894	2497.891731
515.174927	2495.371154
515.538904	2510.494615
515.902822	2543.262115
516.266684	2507.974038
516.630488	2507.974038
516.994235	2507.974038
517.357925	2520.576923
517.721558	2465.124231
518.085133	2507.974038
518.448651	2482.768269
518.812112	2502.932885
519.175516	2500.412308
519.538863	2457.562500
519.902152	2523.097500
520.265385	2480.247692
520.628560	2439.918462
520.991678	2515.535769
521.354739	2477.727115
521.717743	2601.235385
522.080690	2495.371154
522.443580	2570.988462
522.806413	2452.521346
523.169189	2558.385577
523.531908	2460.083077
523.894569	2432.356731
524.257174	2535.700385
524.619722	2439.918462
524.982213	2533.179808
525.344647	2540.741538
525.707025	2495.371154
526.069345	2588.632500
526.431608	2505.453462
526.793815	2500.412308
527.155964	2439.918462
527.518057	2452.521346
527.880093	2487.809423
528.242072	2548.303269
528.603995	2611.317692
528.965860	2409.671538
529.327669	2540.741538
529.689421	2528.138654
530.051117	2588.632500
530.412755	2611.317692
530.774337	2475.206538
531.135862	2515.535769
531.497331	2477.727115
531.858743	2548.303269
532.220098	2505.453462
532.581396	2487.809423
532.942638	2558.385577
533.303824	2543.262115
533.664953	2573.509038
534.026025	2371.862885
534.387040	2492.850577
534.747999	2502.932885
535.108902	2520.576923
535.469748	2480.247692
535.830537	2500.412308
536.191270	2550.823846
536.551947	2535.700385
536.912567	2460.083077
537.273131	2530.659231
537.633638	2490.330000
537.994089	2530.659231
538.354483	2518.056346
538.714821	2475.206538
539.075103	2505.453462
539.435328	2490.330000
539.795497	2465.124231
540.155609	2497.891731
540.515665	2528.138654
540.875665	2507.974038
541.235609	2409.671538
541.595496	2402.109808
541.955328	2573.509038
542.315102	2467.644808
542.674821	2467.644808
543.034483	2535.700385
543.394090	2444.959615
543.753640	2495.371154
544.113134	2457.562500
544.472571	2482.768269
544.831953	2518.056346
545.191278	2497.891731
545.550548	2422.274423
545.909761	2518.056346
546.268918	2460.083077
546.628019	2563.426731
546.987064	2442.439038
547.346053	2500.412308
547.704986	2497.891731
548.063863	2555.865000
548.422684	2480.247692
548.781449	2515.535769
549.140158	2530.659231
549.498811	2513.015192
549.857408	2402.109808
550.215949	2510.494615
550.574434	2442.439038
550.932864	2460.083077
551.291237	2535.700385
551.649555	2495.371154
552.007817	2545.782692
552.366022	2490.330000
552.724173	2505.453462
553.082267	2558.385577
553.440305	2437.397885
553.798288	2528.138654
554.156215	2450.000769
554.514086	2528.138654
554.871902	2492.850577
555.229661	2518.056346
555.587365	2462.603654
555.945014	2510.494615
556.302606	2497.891731
556.660143	2576.029615
557.017625	2452.521346
557.375050	2525.618077
557.732421	2480.247692
558.089735	2477.727115
558.446994	2518.056346
558.804197	2444.959615
559.161345	2472.685962
559.518437	2591.153077
559.875474	2623.920577
560.232455	2472.685962
560.589381	2467.644808
560.946251	2535.700385
561.303065	2550.823846
561.659825	2545.782692
562.016528	2560.906154
562.373177	2528.138654
562.729770	2472.685962
563.086307	2500.412308
563.442789	2502.932885
563.799216	2485.288846
564.155587	2477.727115
564.511904	2480.247692
564.868164	2505.453462
565.224370	2465.124231
565.580520	2513.015192
565.936615	2482.768269
566.292654	2455.041923
566.648638	2482.768269
567.004567	2502.932885
567.360441	2460.083077
567.716260	2570.988462
568.072023	2467.644808
568.427732	2560.906154
568.783385	2540.741538
569.138982	2455.041923
569.494525	2535.700385
569.850013	2482.768269
570.205445	2530.659231
570.560823	2530.659231
570.916145	2477.727115
571.271412	2472.685962
571.626625	2450.000769
571.981782	2550.823846
572.336884	2495.371154
572.691931	2578.550192
573.046923	2576.029615
573.401860	2565.947308
573.756743	2560.906154
574.111570	2447.480192
574.466342	2477.727115
574.821059	2487.809423
575.175722	2462.603654
575.530330	2414.712692
575.884882	2482.768269
576.239380	2467.644808
576.593823	2447.480192
576.948211	2424.795000
577.302544	2523.097500
577.656823	2505.453462
578.011047	2502.932885
578.365216	2543.262115
578.719330	2492.850577
579.073389	2495.371154
579.427394	2427.315577
579.781344	2560.906154
580.135239	2470.165385
580.489080	2510.494615
580.842866	2452.521346
581.196597	2507.974038
581.550273	2480.247692
581.903895	2535.700385
582.257463	2545.782692
582.610975	2510.494615
582.964434	2442.439038
583.317837	2444.959615
583.671186	2553.344423
584.024481	2563.426731
584.377721	2525.618077
584.730906	2490.330000
585.084037	2462.603654
585.437113	2545.782692
585.790135	2500.412308
586.143103	2487.809423
586.496016	2520.576923
586.848874	2359.260000
587.201679	2482.768269
587.554428	2434.877308
587.907124	2502.932885
588.259765	2500.412308
588.612352	2555.865000
588.964884	2460.083077
589.317362	2538.220962
589.669786	2570.988462
590.022155	2465.124231
590.374470	2467.644808
590.726731	2429.836154
591.078937	2497.891731
591.431090	2444.959615
591.783188	2588.632500
592.135232	2558.385577
592.487222	2626.441154
592.839157	2477.727115
593.191038	2518.056346
593.542866	2568.467885
593.894639	2482.768269
594.246358	2482.768269
594.598022	2507.974038
594.949633	2482.768269
595.301190	2573.509038
595.652692	2505.453462
596.004141	2505.453462
596.355535	2497.891731
596.706876	2505.453462
597.058162	2450.000769
597.409395	2502.932885
597.760573	2472.685962
598.111698	2578.550192
598.462768	2477.727115
598.813785	2545.782692
599.164748	2444.959615
599.515657	2530.659231
599.866511	2548.303269
600.217312	2538.220962
600.568060	2447.480192
600.918753	2447.480192
601.269392	2485.288846
601.619978	2502.932885
601.970510	2492.850577
602.320988	2497.891731
602.671412	2518.056346
603.021783	2598.714808
603.372100	2465.124231
603.722363	2520.576923
604.072572	2492.850577
604.422728	2497.891731
604.772830	2402.109808
605.122878	2563.426731
605.472872	2419.753846
605.822813	2470.165385
606.172701	2523.097500
606.522534	2500.412308
606.872314	2525.618077
607.222041	2389.506923
607.571714	2555.865000
607.921333	2495.371154
608.270899	2500.412308
608.620411	2528.138654
608.969870	2545.782692
609.319276	2452.521346
609.668627	2432.356731
610.017926	2565.947308
610.367171	2492.850577
610.716362	2482.768269
611.065500	2515.535769
611.414585	2550.823846
611.763616	2472.685962
612.112594	2495.371154
612.461518	2495.371154
612.810389	2477.727115
613.159207	2490.330000
613.507971	2505.453462
613.856682	2528.138654
614.205340	2467.644808
614.553945	2502.932885
614.902496	2475.206538
615.250994	2502.932885
615.599439	2578.550192
615.947830	2538.220962
616.296169	2626.441154
616.644454	2548.303269
616.992686	2424.795000
617.340864	2482.768269
617.688990	2447.480192
618.037063	2507.974038
618.385082	2477.727115
618.733048	2407.150962
619.080961	2535.700385
619.428821	2507.974038
619.776628	2558.385577
620.124382	2412.192115
620.472083	2482.768269
620.819731	2492.850577
621.167326	2497.891731
621.514868	2447.480192
621.862357	2560.906154
622.209793	2490.330000
622.557176	2505.453462
622.904506	2462.603654
623.251783	2553.344423
623.599007	2404.630385
623.946179	2460.083077
624.293297	2497.891731
624.640363	2555.865000
624.987376	2510.494615
625.334336	2528.138654
625.681243	2444.959615
626.028097	2492.850577
626.374899	2477.727115
626.721647	2414.712692
627.068343	2538.220962
627.414987	2518.056346
627.761577	2581.070769
628.108115	2442.439038
628.454600	2442.439038
628.801032	2553.344423
629.147412	2442.439038
629.493739	2515.535769
629.840014	2419.753846
630.186236	2505.453462
630.532405	2495.371154
630.878521	2515.535769
631.224585	2507.974038
631.570597	2465.124231
631.916556	2502.932885
632.262462	2407.150962
632.608316	2538.220962
632.954117	2457.562500
633.299866	2518.056346
633.645562	2495.371154
633.991206	2548.303269
634.336797	2548.303269
634.682336	2613.838269
635.027823	2407.150962
635.373257	2563.426731
635.718639	2523.097500
636.063968	2472.685962
636.409245	2465.124231
636.754470	2507.974038
637.099642	2500.412308
637.444762	2545.782692
637.789829	2510.494615
638.134845	2497.891731
638.479808	2502.932885
638.824719	2465.124231
639.169577	2507.974038
639.514383	2500.412308
639.859137	2497.891731
640.203839	2485.288846
640.548489	2553.344423
640.893086	2477.727115
641.237632	2545.782692
641.582125	2528.138654
641.926566	2417.233269
642.270955	2500.412308
642.615292	2467.644808
642.959576	2482.768269
643.303809	2497.891731
643.647990	2513.015192
643.992118	2460.083077
644.336195	2553.344423
644.680219	2465.124231
645.024192	2467.644808
645.368112	2500.412308
645.711981	2490.330000
646.055797	2490.330000
646.399562	2523.097500
646.743274	2477.727115
647.086935	2525.618077
647.430544	2485.288846
647.774101	2515.535769
648.117606	2465.124231
648.461059	2467.644808
648.804460	2497.891731
649.147810	2533.179808
649.491108	2477.727115
649.834354	2502.932885
650.177548	2497.891731
650.520690	2563.426731
650.863781	2540.741538
651.206820	2533.179808
651.549807	2515.535769
651.892742	2543.262115
652.235626	2470.165385
652.578458	2480.247692
652.921238	2525.618077
653.263967	2533.179808
653.606644	2470.165385
653.949269	2505.453462
654.291843	2530.659231
654.634365	2472.685962
654.976836	2530.659231
655.319255	2475.206538
655.661622	2507.974038
656.003938	2576.029615
656.346203	2505.453462
656.688416	2530.659231
657.030577	2497.891731
657.372687	2533.179808
657.714746	2442.439038
658.056753	2442.439038
658.398708	2465.124231
658.740612	2533.179808
659.082465	2450.000769
659.424266	2444.959615
659.766016	2525.618077
660.107715	2492.850577
660.449362	2510.494615
660.790958	2596.194231
661.132503	2477.727115
661.473996	2507.974038
661.815438	2485.288846
662.156829	2505.453462
662.498168	2482.768269
662.839456	2513.015192
663.180693	2442.439038
663.521879	2452.521346
663.863013	2598.714808
664.204097	2490.330000
664.545129	2576.029615
664.886110	2480.247692
665.227040	2525.618077
665.567918	2472.685962
665.908746	2450.000769
666.249522	2487.809423
666.590248	2444.959615
666.930922	2407.150962
667.271545	2510.494615
667.612118	2404.630385
667.952639	2462.603654
668.293109	2518.056346
668.633528	2523.097500
668.973896	2429.836154
669.314213	2507.974038
669.654480	2505.453462
669.994695	2492.850577
670.334859	2510.494615
670.674973	2480.247692
671.015035	2497.891731
671.355047	2472.685962
671.695008	2555.865000
672.034918	2500.412308
672.374777	2500.412308
672.714585	2482.768269
673.054342	2480.247692
673.394049	2467.644808
673.733705	2475.206538
674.073310	2480.247692
674.412864	2570.988462
674.752368	2450.000769
675.091820	2487.809423
675.431223	2533.179808
675.770574	2500.412308
676.109875	2429.836154
676.449125	2444.959615
676.788324	2548.303269
677.127473	2439.918462
677.466571	2515.535769
677.805619	2419.753846
678.144616	2462.603654
678.483562	2492.850577
678.822458	2475.206538
679.161303	2482.768269
679.500098	2500.412308
679.838842	2515.535769
680.177535	2540.741538
680.516179	2518.056346
680.854771	2550.823846
681.193314	2480.247692
681.531805	2497.891731
681.870247	2550.823846
682.208638	2482.768269
682.546978	2520.576923
682.885268	2444.959615
683.223508	2518.056346
683.561697	2490.330000
683.899836	2450.000769
684.237925	2520.576923
684.575963	2467.644808
684.913951	2548.303269
685.251889	2470.165385
685.589776	2455.041923
685.927614	2439.918462
686.265401	2442.439038
686.603137	2487.809423
686.940824	2495.371154
687.278460	2507.974038
687.616046	2455.041923
687.953582	2480.247692
688.291068	2482.768269
688.628504	2427.315577
688.965889	2417.233269
689.303224	2528.138654
689.640510	2465.124231
689.977745	2450.000769
690.314930	2462.603654
690.652065	2472.685962
690.989150	2528.138654
691.326185	2492.850577
691.663170	2419.753846
692.000105	2500.412308
692.336990	2460.083077
692.673825	2528.138654
693.010610	2535.700385
693.347345	2480.247692
693.684030	2475.206538
694.020665	2495.371154
694.357251	2472.685962
694.693786	2513.015192
695.030272	2555.865000
695.366707	2452.521346
695.703093	2543.262115
696.039429	2444.959615
696.375716	2550.823846
696.711952	2482.768269
697.048139	2485.288846
697.384276	2530.659231
697.720363	2432.356731
698.056400	2450.000769
698.392388	2480.247692
698.728326	2588.632500
699.064214	2465.124231
699.400053	2520.576923
699.735842	2414.712692
700.071581	2520.576923
700.407270	2442.439038
700.742910	2568.467885
701.078501	2475.206538
701.414042	2518.056346
701.749533	2545.782692
702.084974	2570.988462
702.420366	2548.303269
702.755709	2518.056346
703.091002	2457.562500
703.426246	2548.303269
703.761440	2505.453462
704.096584	2437.397885
704.431679	2507.974038
704.766725	2528.138654
705.101721	2457.562500
705.436668	2412.192115
705.771565	2497.891731
706.106413	2543.262115
706.441212	2553.344423
706.775961	2447.480192
707.110661	2455.041923
707.445311	2432.356731
707.779913	2525.618077
708.114465	2525.618077
708.448967	2412.192115
708.783421	2502.932885
709.117825	2495.371154
709.452180	2553.344423
709.786485	2538.220962
710.120742	2495.371154
710.454949	2429.836154
710.789107	2437.397885
711.123216	2465.124231
711.457275	2528.138654
711.791286	2457.562500
712.125247	2525.618077
712.459159	2548.303269
712.793023	2472.685962
713.126837	2558.385577
713.460602	2412.192115
713.794318	2457.562500
714.127985	2447.480192
714.461602	2510.494615
714.795171	2447.480192
715.128691	2414.712692
715.462162	2467.644808
715.795584	2588.632500
716.128957	2490.330000
716.462281	2487.809423
716.795556	2538.220962
717.128782	2492.850577
717.461960	2548.303269
717.795088	2444.959615
718.128167	2407.150962
718.461198	2548.303269
718.794180	2460.083077
719.127113	2588.632500
719.459997	2608.797115
719.792833	2518.056346
720.125619	2583.591346
720.458357	2495.371154
720.791046	2533.179808
721.123686	2462.603654
721.456278	2497.891731
721.788821	2444.959615
722.121315	2477.727115
722.453761	2434.877308
722.786158	2439.918462
723.118506	2447.480192
723.450805	2603.755962
723.783056	2588.632500
724.115259	2518.056346
724.447412	2485.288846
724.779518	2487.809423
725.111574	2465.124231
725.443582	2452.521346
725.775542	2457.562500
726.107453	2593.673654
726.439315	2497.891731
726.771129	2518.056346
727.102895	2581.070769
727.434612	2613.838269
727.766281	2505.453462
728.097901	2462.603654
728.429473	2538.220962
728.760996	2515.535769
729.092471	2500.412308
729.423897	2442.439038
729.755276	2535.700385
730.086606	2472.685962
730.417887	2457.562500
730.749120	2490.330000
731.080305	2500.412308
731.411442	2437.397885
731.742530	2490.330000
732.073570	2477.727115
732.404562	2515.535769
732.735506	2490.330000
733.066401	2437.397885
733.397249	2540.741538
733.728048	2432.356731
734.058798	2518.056346
734.389501	2505.453462
734.720156	2422.274423
735.050762	2495.371154
735.381320	2414.712692
735.711831	2513.015192
736.042293	2477.727115
736.372707	2495.371154
736.703073	2462.603654
737.033391	2507.974038
737.363661	2525.618077
737.693883	2462.603654
738.024056	2492.850577
738.354182	2485.288846
738.684260	2528.138654
739.014290	2447.480192
739.344272	2540.741538
739.674207	2465.124231
740.004093	2548.303269
740.333931	2497.891731
740.663722	2502.932885
740.993464	2515.535769
741.323159	2467.644808
741.652806	2482.768269
741.982405	2457.562500
742.311956	2434.877308
742.641460	2507.974038
742.970915	2457.562500
743.300323	2465.124231
743.629683	2457.562500
743.958996	2467.644808
744.288260	2437.397885
744.617477	2447.480192
744.946647	2528.138654
745.275768	2543.262115
745.604842	2548.303269
745.933869	2513.015192
746.262847	2492.850577
746.591778	2513.015192
746.920662	2495.371154
747.249498	2497.891731
747.578286	2470.165385
747.907027	2460.083077
748.235720	2525.618077
748.564365	2437.397885
748.892963	2467.644808
749.221514	2434.877308
749.550017	2515.535769
749.878473	2553.344423
750.206881	2447.480192
750.535242	2386.986346
750.863555	2497.891731
751.191821	2447.480192
751.520039	2475.206538
751.848210	2528.138654
752.176334	2598.714808
752.504411	2482.768269
752.832440	2497.891731
753.160421	2452.521346
753.488356	2507.974038
753.816243	2533.179808
754.144082	2460.083077
754.471875	2492.850577
754.799620	2455.041923
755.127318	2533.179808
755.454969	2525.618077
755.782572	2439.918462
756.110129	2439.918462
756.437638	2588.632500
756.765100	2505.453462
757.092515	2523.097500
757.419882	2505.453462
757.747203	2525.618077
758.074477	2533.179808
758.401703	2477.727115
758.728882	2485.288846
759.056014	2447.480192
759.383099	2538.220962
759.710138	2480.247692
760.037129	2487.809423
760.364073	2442.439038
760.690970	2462.603654
761.017820	2513.015192
761.344623	2505.453462
761.671379	2472.685962
761.998088	2460.083077
762.324751	2525.618077
762.651366	2500.412308
762.977935	2523.097500
763.304456	2424.795000
763.630931	2465.124231
763.957359	2523.097500
764.283740	2596.194231
764.610074	2525.618077
764.936362	2487.809423
765.262602	2477.727115
765.588796	2465.124231
765.914943	2477.727115
766.241044	2492.850577
766.567097	2487.809423
766.893104	2502.932885
767.219064	2548.303269
767.544978	2533.179808
767.870845	2555.865000
768.196665	2492.850577
768.522438	2450.000769
768.848165	2427.315577
769.173846	2485.288846
769.499479	2507.974038
769.825066	2495.371154
770.150607	2515.535769
770.476101	2497.891731
770.801548	2482.768269
771.126949	2477.727115
771.452303	2487.809423
771.777611	2497.891731
772.102872	2513.015192
772.428087	2555.865000
772.753256	2477.727115
773.078378	2497.891731
773.403453	2513.015192
773.728482	2525.618077
774.053465	2462.603654
774.378401	2502.932885
774.703291	2603.755962
775.028135	2510.494615
775.352932	2523.097500
775.677683	2495.371154
776.002388	2485.288846
776.327046	2510.494615
776.651658	2450.000769
776.976224	2495.371154
777.300743	2477.727115
777.625216	2507.974038
777.949643	2570.988462
778.274024	2565.947308
778.598359	2427.315577
778.922647	2533.179808
779.246889	2543.262115
779.571086	2465.124231
779.895236	2518.056346
780.219339	2452.521346
780.543397	2530.659231
780.867409	2515.535769
781.191374	2462.603654
781.515294	2548.303269
781.839167	2490.330000
782.162995	2434.877308
782.486776	2507.974038
782.810511	2460.083077
783.134201	2462.603654
783.457844	2475.206538
783.781441	2513.015192
784.104993	2548.303269
784.428498	2429.836154
784.751958	2530.659231
785.075372	2442.439038
785.398739	2404.630385
785.722061	2568.467885
786.045337	2444.959615
786.368568	2510.494615
786.691752	2505.453462
787.014891	2553.344423
787.337983	2528.138654
787.661030	2543.262115
787.984031	2424.795000
788.306987	2457.562500
788.629897	2399.589231
788.952760	2563.426731
789.275579	2530.659231
789.598351	2528.138654
789.921078	2528.138654
790.243759	2520.576923
790.566395	2465.124231
790.888984	2545.782692
791.211529	2472.685962
791.534027	2523.097500
791.856480	2475.206538
792.178888	2533.179808
792.501249	2533.179808
792.823566	2450.000769
793.145836	2480.247692
793.468062	2533.179808
793.790241	2465.124231
794.112375	2480.247692
794.434464	2550.823846
794.756507	2520.576923
795.078505	2470.165385
795.400457	2548.303269
795.722364	2586.111923
796.044226	2550.823846
796.366042	2460.083077
796.687812	2470.165385
797.009538	2502.932885
797.331218	2538.220962
797.652852	2434.877308
797.974442	2434.877308
798.295986	2515.535769
798.617484	2510.494615
798.938938	2447.480192
799.260346	2528.138654
799.581709	2487.809423
799.903026	2412.192115
800.224299	2586.111923
800.545526	2407.150962
800.866708	2482.768269
801.187845	2467.644808
801.508936	2616.358846
801.829983	2513.015192
802.150984	2447.480192
802.471940	2530.659231
802.792851	2533.179808
803.113717	2518.056346
803.434538	2510.494615
803.755314	2573.509038
804.076045	2424.795000
804.396731	2500.412308
804.717372	2452.521346
805.037967	2439.918462
805.358518	2495.371154
805.679024	2452.521346
805.999485	2515.535769
806.319901	2495.371154
806.640272	2460.083077
806.960598	2462.603654
807.280879	2555.865000
807.601115	2477.727115
807.921306	2518.056346
808.241453	2485.288846
808.561554	2485.288846
808.881611	2538.220962
809.201623	2447.480192
809.521590	2513.015192
809.841513	2477.727115
810.161390	2437.397885
810.481223	2477.727115
810.801011	2457.562500
811.120755	2495.371154
811.440453	2467.644808
811.760107	2528.138654
812.079716	2523.097500
812.399281	2452.521346
812.718801	2467.644808
813.038276	2492.850577
813.357707	2457.562500
813.677093	2565.947308
813.996434	2439.918462
814.315731	2467.644808
814.634983	2530.659231
814.954191	2573.509038
815.273354	2518.056346
815.592473	2495.371154
815.911547	2477.727115
816.230577	2465.124231
816.549562	2510.494615
816.868502	2487.809423
817.187399	2487.809423
817.506250	2543.262115
817.825058	2437.397885
818.143821	2465.124231
818.462539	2558.385577
818.781213	2497.891731
819.099843	2530.659231
819.418429	2462.603654
819.736970	2467.644808
820.055466	2467.644808
820.373919	2533.179808
820.692327	2565.947308
821.010691	2465.124231
821.329011	2487.809423
821.647286	2442.439038
821.965517	2475.206538
822.283704	2507.974038
822.601847	2513.015192
822.919945	2472.685962
823.237999	2505.453462
823.556010	2523.097500
823.873976	2437.397885
824.191897	2535.700385
824.509775	2525.618077
824.827609	2477.727115
825.145398	2525.618077
825.463144	2462.603654
825.780845	2548.303269
826.098502	2563.426731
826.416116	2513.015192
826.733685	2507.974038
827.051210	2450.000769
827.368692	2518.056346
827.686129	2565.947308
828.003522	2505.453462
828.320872	2402.109808
828.638177	2540.741538
828.955439	2457.562500
829.272656	2507.974038
829.589830	2507.974038
829.906960	2510.494615
830.224046	2495.371154
830.541088	2528.138654
830.858086	2502.932885
831.175041	2507.974038
831.491952	2359.260000
831.808819	2507.974038
832.125642	2457.562500
832.442421	2490.330000
832.759157	2497.891731
833.075849	2510.494615
833.392497	2507.974038
833.709101	2467.644808
834.025662	2444.959615
834.342179	2533.179808
834.658653	2535.700385
834.975083	2482.768269
835.291469	2502.932885
835.607811	2412.192115
835.924110	2475.206538
836.240366	2432.356731
836.556578	2530.659231
836.872746	2470.165385
837.188871	2545.782692
837.504952	2608.797115
837.820990	2505.453462
838.136984	2485.288846
838.452935	2460.083077
838.768842	2442.439038
839.084706	2558.385577
839.400526	2558.385577
839.716303	2376.904038
840.032037	2601.235385
840.347727	2510.494615
840.663373	2518.056346
840.978977	2492.850577
841.294537	2573.509038
841.610054	2475.206538
841.925527	2510.494615
842.240957	2487.809423
842.556344	2480.247692
842.871687	2540.741538
843.186987	2568.467885
843.502244	2404.630385
843.817458	2482.768269
844.132629	2470.165385
844.447756	2470.165385
844.762840	2482.768269
845.077881	2507.974038
845.392879	2419.753846
845.707833	2510.494615
846.022745	2495.371154
846.337613	2439.918462
846.652438	2523.097500
846.967221	2490.330000
847.281960	2570.988462
847.596656	2497.891731
847.911309	2525.618077
848.225919	2455.041923
848.540485	2545.782692
848.855009	2525.618077
849.169490	2442.439038
849.483928	2523.097500
849.798323	2558.385577
850.112675	2588.632500
850.426984	2442.439038
850.741251	2465.124231
851.055474	2470.165385
851.369654	2482.768269
851.683792	2437.397885
851.997887	2591.153077
852.311938	2437.397885
852.625947	2455.041923
852.939914	2475.206538
853.253837	2467.644808
853.567718	2485.288846
853.881555	2553.344423
854.195350	2497.891731
854.509103	2492.850577
854.822812	2482.768269
855.136479	2553.344423
855.450103	2485.288846
855.763685	2518.056346
856.077224	2429.836154
856.390720	2439.918462
856.704173	2505.453462
857.017584	2513.015192
857.330953	2538.220962
857.644278	2485.288846
857.957561	2490.330000
858.270802	2528.138654
858.584000	2394.548077
858.897155	2447.480192
859.210268	2452.521346
859.523339	2545.782692
859.836367	2452.521346
860.149352	2528.138654
860.462295	2447.480192
860.775195	2520.576923
861.088054	2497.891731
861.400869	2510.494615
861.713642	2558.385577
862.026373	2543.262115
862.339062	2460.083077
862.651708	2543.262115
862.964312	2576.029615
863.276873	2462.603654
863.589392	2485.288846
863.901869	2444.959615
864.214303	2510.494615
864.526696	2538.220962
864.839045	2535.700385
865.151353	2558.385577
865.463619	2477.727115
865.775842	2460.083077
866.088023	2452.521346
866.400162	2487.809423
866.712258	2462.603654
867.024313	2513.015192
867.336325	2505.453462
867.648296	2434.877308
867.960224	2507.974038
868.272110	2480.247692
868.583954	2470.165385
868.895755	2502.932885
869.207515	2467.644808
869.519233	2553.344423
869.830909	2460.083077
870.142542	2444.959615
870.454134	2500.412308
870.765684	2548.303269
871.077191	2444.959615
871.388657	2485.288846
871.700081	2457.562500
872.011463	2500.412308
872.322803	2477.727115
872.634101	2492.850577
872.945357	2472.685962
873.256571	2558.385577
873.567744	2495.371154
873.878874	2507.974038
874.189963	2475.206538
874.501010	2419.753846
874.812015	2513.015192
875.122979	2563.426731
875.433900	2583.591346
875.744780	2472.685962
876.055618	2591.153077
876.366415	2475.206538
876.677169	2475.206538
876.987882	2505.453462
877.298554	2414.712692
877.609183	2490.330000
877.919771	2487.809423
878.230317	2472.685962
878.540822	2578.550192
878.851285	2502.932885
879.161707	2455.041923
879.472087	2432.356731
879.782425	2394.548077
880.092722	2497.891731
880.402977	2450.000769
880.713191	2482.768269
881.023363	2444.959615
881.333494	2442.439038
881.643583	2523.097500
881.953631	2439.918462
882.263637	2505.453462
882.573602	2497.891731
882.883526	2505.453462
883.193408	2510.494615
883.503248	2389.506923
883.813048	2442.439038
884.122806	2538.220962
884.432522	2472.685962
884.742197	2515.535769
885.051831	2480.247692
885.361424	2500.412308
885.670975	2412.192115
885.980485	2480.247692
886.289954	2452.521346
886.599382	2419.753846
886.908768	2535.700385
887.218113	2465.124231
887.527417	2490.330000
887.836680	2495.371154
888.145901	2505.453462
888.455082	2467.644808
888.764221	2553.344423
889.073319	2520.576923
889.382376	2563.426731
889.691392	2462.603654
890.000366	2523.097500
890.309300	2460.083077
890.618193	2490.330000
890.927044	2530.659231
891.235855	2434.877308
891.544625	2480.247692
891.853353	2429.836154
892.162041	2495.371154
892.470687	2399.589231
892.779293	2497.891731
893.087858	2495.371154
893.396381	2455.041923
893.704864	2462.603654
894.013306	2490.330000
894.321707	2528.138654
894.630068	2386.986346
894.938387	2518.056346
895.246665	2460.083077
895.554903	2540.741538
895.863100	2492.850577
896.171256	2482.768269
896.479371	2528.138654
896.787446	2485.288846
897.095480	2475.206538
897.403473	2555.865000
897.711425	2565.947308
898.019336	2523.097500
898.327207	2487.809423
898.635038	2407.150962
898.942827	2507.974038
899.250576	2538.220962
899.558284	2480.247692
899.865952	2507.974038
900.173579	2553.344423
900.481165	2442.439038
900.788711	2422.274423
901.096216	2525.618077
901.403681	2523.097500
901.711105	2470.165385
902.018489	2540.741538
902.325832	2450.000769
902.633135	2422.274423
902.940397	2394.548077
903.247619	2500.412308
903.554800	2510.494615
903.861941	2540.741538
904.169041	2444.959615
904.476101	2538.220962
904.783121	2500.412308
905.090100	2535.700385
905.397039	2455.041923
905.703938	2513.015192
906.010796	2457.562500
906.317614	2450.000769
906.624391	2497.891731
906.931129	2492.850577
907.237826	2555.865000
907.544483	2412.192115
907.851099	2510.494615
908.157675	2538.220962
908.464211	2586.111923
908.770707	2533.179808
909.077163	2495.371154
909.383578	2455.041923
909.689954	2523.097500
909.996289	2447.480192
910.302584	2535.700385
910.608839	2502.932885
910.915054	2462.603654
911.221229	2450.000769
911.527363	2427.315577
911.833458	2457.562500
912.139513	2495.371154
912.445527	2586.111923
912.751502	2465.124231
913.057436	2502.932885
913.363331	2482.768269
913.669186	2533.179808
913.975000	2482.768269
914.280775	2492.850577
914.586510	2424.795000
914.892205	2535.700385
915.197859	2389.506923
915.503475	2495.371154
915.809050	2434.877308
916.114585	2548.303269
916.420081	2407.150962
916.725536	2495.371154
917.030952	2507.974038
917.336328	2427.315577
917.641665	2543.262115
917.946961	2502.932885
918.252218	2593.673654
918.557435	2563.426731
918.862612	2452.521346
919.167750	2444.959615
919.472848	2495.371154
919.777906	2510.494615
920.082925	2540.741538
920.387904	2419.753846
920.692843	2528.138654
920.997743	2487.809423
921.302603	2480.247692
921.607423	2450.000769
921.912204	2485.288846
922.216946	2467.644808
922.521647	2417.233269
922.826310	2530.659231
923.130932	2455.041923
923.435516	2548.303269
923.740059	2518.056346
924.044564	2457.562500
924.349028	2429.836154
924.653454	2502.932885
924.957840	2492.850577
925.262186	2467.644808
925.566493	2548.303269
925.870761	2460.083077
926.174989	2500.412308
926.479178	2465.124231
926.783328	2513.015192
927.087438	2472.685962
927.391509	2460.083077
927.695541	2560.906154
927.999533	2518.056346
928.303486	2530.659231
928.607400	2465.124231
928.911275	2510.494615
929.215110	2379.424615
929.518906	2462.603654
929.822663	2475.206538
930.126381	2417.233269
930.430060	2450.000769
930.733699	2495.371154
931.037299	2560.906154
931.340861	2442.439038
931.644383	2533.179808
931.947866	2439.918462
932.251309	2513.015192
932.554714	2565.947308
932.858080	2530.659231
933.161407	2586.111923
933.464694	2455.041923
933.767943	2455.041923
934.071153	2482.768269
934.374323	2505.453462
934.677455	2482.768269
934.980548	2487.809423
935.283602	2482.768269
935.586617	2480.247692
935.889593	2427.315577
936.192530	2500.412308
936.495428	2482.768269
936.798287	2450.000769
937.101108	2505.453462
937.403890	2528.138654
937.706632	2490.330000
938.009336	2444.959615
938.312002	2550.823846
938.614628	2558.385577
938.917216	2467.644808
939.219765	2510.494615
939.522275	2457.562500
939.824747	2530.659231
940.127179	2558.385577
940.429573	2573.509038
940.731929	2490.330000
941.034246	2467.644808
941.336524	2470.165385
941.638763	2492.850577
941.940964	2450.000769
942.243126	2495.371154
942.545250	2518.056346
942.847335	2455.041923
943.149381	2495.371154
943.451389	2570.988462
943.753359	2482.768269
944.055290	2492.850577
944.357182	2417.233269
944.659036	2518.056346
944.960851	2550.823846
945.262628	2510.494615
945.564367	2505.453462
945.866067	2497.891731
946.167729	2497.891731
946.469352	2550.823846
946.770937	2500.412308
947.072484	2553.344423
947.373992	2447.480192
947.675462	2578.550192
947.976893	2434.877308
948.278286	2495.371154
948.579641	2490.330000
948.880958	2462.603654
949.182236	2442.439038
949.483476	2472.685962
949.784678	2447.480192
950.085841	2470.165385
950.386967	2450.000769
950.688054	2500.412308
950.989103	2429.836154
951.290114	2462.603654
951.591087	2434.877308
951.892021	2500.412308
952.192917	2434.877308
952.493776	2520.576923
952.794596	2399.589231
953.095378	2452.521346
953.396122	2540.741538
953.696828	2462.603654
953.997496	2500.412308
954.298126	2389.506923
954.598718	2399.589231
954.899272	2525.618077
955.199788	2480.247692
955.500266	2530.659231
955.800706	2450.000769
956.101108	2495.371154
956.401472	2412.192115
956.701798	2465.124231
957.002087	2495.371154
957.302337	2530.659231
957.602550	2467.644808
957.902724	2576.029615
958.202861	2492.850577
958.502960	2538.220962
958.803022	2439.918462
959.103045	2533.179808
959.403031	2447.480192
959.702979	2480.247692
960.002889	2467.644808
960.302762	2465.124231
960.602596	2565.947308
960.902393	2497.891731
961.202153	2495.371154
961.501875	2462.603654
961.801559	2457.562500
962.101205	2467.644808
962.400814	2482.768269
962.700385	2462.603654
962.999918	2565.947308
963.299414	2563.426731
963.598873	2487.809423
963.898293	2465.124231
964.197677	2455.041923
964.497022	2417.233269
964.796331	2434.877308
965.095601	2497.891731
965.394835	2502.932885
965.694030	2538.220962
965.993189	2507.974038
966.292309	2447.480192
966.591393	2482.768269
966.890439	2505.453462
967.189447	2513.015192
967.488419	2548.303269
967.787353	2457.562500
968.086249	2500.412308
968.385108	2437.397885
968.683930	2404.630385
968.982714	2427.315577
969.281462	2523.097500
969.580172	2424.795000
969.878844	2437.397885
970.177480	2462.603654
970.476078	2477.727115
970.774639	2409.671538
971.073162	2477.727115
971.371649	2528.138654
971.670098	2475.206538
971.968510	2502.932885
972.266885	2444.959615
972.565223	2497.891731
972.863524	2432.356731
973.161788	2482.768269
973.460014	2455.041923
973.758204	2513.015192
974.056356	2513.015192
974.354471	2455.041923
974.652550	2525.618077
974.950591	2467.644808
975.248595	2525.618077
975.546563	2419.753846
975.844493	2533.179808
976.142386	2437.397885
976.440243	2437.397885
976.738062	2528.138654
977.035845	2434.877308
977.333590	2490.330000
977.631299	2452.521346
977.928971	2467.644808
978.226606	2442.439038
978.524204	2513.015192
978.821765	2485.288846
979.119290	2515.535769
979.416777	2507.974038
979.714228	2460.083077
980.011642	2465.124231
980.309020	2528.138654
980.606360	2528.138654
980.903664	2437.397885
981.200931	2439.918462
981.498162	2472.685962
981.795356	2528.138654
982.092513	2452.521346
982.389633	2553.344423
982.686717	2475.206538
982.983764	2540.741538
983.280775	2381.945192
983.577749	2455.041923
983.874686	2470.165385
984.171587	2482.768269
984.468451	2414.712692
984.765279	2515.535769
985.062070	2507.974038
985.358824	2555.865000
985.655543	2530.659231
985.952224	2452.521346
986.248869	2432.356731
986.545478	2528.138654
986.842050	2407.150962
987.138586	2379.424615
987.435086	2434.877308
987.731549	2460.083077
988.027975	2513.015192
988.324366	2457.562500
988.620719	2515.535769
988.917037	2477.727115
989.213318	2485.288846
989.509563	2555.865000
989.805772	2528.138654
990.101944	2447.480192
990.398080	2507.974038
990.694180	2538.220962
990.990244	2507.974038
991.286271	2502.932885
991.582262	2432.356731
991.878217	2507.974038
992.174136	2553.344423
992.470019	2523.097500
992.765865	2520.576923
993.061676	2591.153077
993.357450	2482.768269
993.653188	2505.453462
993.948890	2485.288846
994.244556	2419.753846
994.540186	2465.124231
994.835780	2455.041923
995.131337	2462.603654
995.426859	2432.356731
995.722345	2545.782692
996.017795	2497.891731
996.313208	2487.809423
996.608586	2515.535769
996.903928	2535.700385
997.199234	2467.644808
997.494504	2548.303269
997.789738	2412.192115
998.084936	2543.262115
998.380099	2497.891731
998.675225	2507.974038
998.970316	2437.397885
999.265371	2500.412308
999.560390	2515.535769
999.855373	2628.961731
1000.150320	2513.015192
1000.445232	2543.262115
1000.740108	2505.453462
1001.034948	2457.562500
1001.329752	2417.233269
1001.624521	2565.947308
1001.919254	2450.000769
1002.213951	2497.891731
1002.508613	2462.603654
1002.803239	2462.603654
1003.097829	2427.315577
1003.392384	2434.877308
1003.686903	2538.220962
1003.981386	2515.535769
1004.275834	2520.576923
1004.570246	2482.768269
1004.864623	2427.315577
1005.158964	2472.685962
1005.453270	2432.356731
1005.747540	2510.494615
1006.041775	2444.959615
1006.335974	2528.138654
1006.630138	2545.782692
1006.924266	2389.506923
1007.218359	2475.206538
1007.512416	2442.439038
1007.806438	2513.015192
1008.100425	2528.138654
1008.394376	2540.741538
1008.688292	2457.562500
1008.982172	2510.494615
1009.276017	2424.795000
1009.569827	2477.727115
1009.863602	2470.165385
1010.157341	2623.920577
1010.451045	2434.877308
1010.744714	2412.192115
1011.038347	2412.192115
1011.331945	2465.124231
1011.625508	2545.782692
1011.919036	2497.891731
1012.212528	2490.330000
1012.505986	2450.000769
1012.799408	2452.521346
1013.092795	2593.673654
1013.386147	2432.356731
1013.679464	2515.535769
1013.972745	2490.330000
1014.265992	2525.618077
1014.559204	2444.959615
1014.852380	2545.782692
1015.145521	2492.850577
1015.438628	2510.494615
1015.731699	2452.521346
1016.024736	2507.974038
1016.317737	2427.315577
1016.610703	2540.741538
1016.903635	2535.700385
1017.196531	2455.041923
1017.489393	2427.315577
1017.782219	2487.809423
1018.075011	2500.412308
1018.367768	2492.850577
1018.660490	2563.426731
1018.953177	2563.426731
1019.245829	2563.426731
