Dividing Wavelength (nm)	Counts (n)	Blue Motor Position (mm): 7.900000	Red Motor Position (mm): 0.000000	
326.493990	2155.093269
326.888308	2155.093269
327.282561	2155.093269
327.676750	2092.078846
328.070874	2046.708462
328.464933	2089.558269
328.858929	2102.161154
329.252859	2089.558269
329.646726	2069.393654
330.040528	2092.078846
330.434265	2213.066538
330.827938	2104.681731
331.221547	2182.819615
331.615091	2122.325769
332.008571	2150.052115
332.401986	2225.669423
332.795338	2210.545962
333.188625	2205.504808
333.581847	2250.875192
333.975006	2344.136538
334.368100	2220.628269
334.761129	2293.725000
335.154095	2417.233269
335.546996	2414.712692
335.939833	2351.698269
336.332606	2364.301154
336.725315	2447.480192
337.117960	2472.685962
337.510540	2356.739423
337.903056	2434.877308
338.295508	2366.821731
338.687896	2477.727115
339.080220	2530.659231
339.472480	2472.685962
339.864676	2467.644808
340.256807	2507.974038
340.648875	2442.439038
341.040879	2444.959615
341.432818	2409.671538
341.824694	2513.015192
342.216506	2573.509038
342.608253	2439.918462
342.999937	2462.603654
343.391557	2490.330000
343.783113	2485.288846
344.174605	2500.412308
344.566033	2470.165385
344.957397	2535.700385
345.348697	2455.041923
345.739934	2528.138654
346.131106	2465.124231
346.522215	2475.206538
346.913260	2361.780577
347.304241	2467.644808
347.695159	2573.509038
348.086012	2513.015192
348.476802	2437.397885
348.867528	2510.494615
349.258191	2457.562500
349.648789	2485.288846
350.039324	2369.342308
350.429796	2487.809423
350.820203	2419.753846
351.210548	2376.904038
351.600828	2447.480192
351.991045	2465.124231
352.381198	2502.932885
352.771288	2434.877308
353.161314	2417.233269
353.551276	2407.150962
353.941175	2442.439038
354.331010	2359.260000
354.720782	2386.986346
355.110490	2437.397885
355.500135	2422.274423
355.889717	2495.371154
356.279235	2450.000769
356.668689	2417.233269
357.058080	2397.068654
357.447408	2455.041923
357.836672	2452.521346
358.225873	2414.712692
358.615010	2457.562500
359.004084	2376.904038
359.393095	2492.850577
359.782043	2409.671538
360.170927	2437.397885
360.559748	2442.439038
360.948505	2402.109808
361.337199	2434.877308
361.725830	2455.041923
362.114398	2422.274423
362.502903	2419.753846
362.891344	2460.083077
363.279722	2427.315577
363.668037	2482.768269
364.056289	2485.288846
364.444478	2515.535769
364.832603	2480.247692
365.220665	2452.521346
365.608665	2384.465769
365.996601	2472.685962
366.384474	2452.521346
366.772284	2465.124231
367.160031	2485.288846
367.547715	2381.945192
367.935336	2500.412308
368.322893	2550.823846
368.710388	2507.974038
369.097820	2457.562500
369.485189	2404.630385
369.872495	2465.124231
370.259738	2480.247692
370.646918	2538.220962
371.034035	2452.521346
371.421090	2452.521346
371.808081	2482.768269
372.195010	2444.959615
372.581875	2482.768269
372.968678	2485.288846
373.355418	2515.535769
373.742096	2500.412308
374.128710	2366.821731
374.515262	2434.877308
374.901751	2518.056346
375.288177	2528.138654
375.674540	2429.836154
376.060841	2386.986346
376.447079	2442.439038
376.833254	2472.685962
377.219367	2492.850577
377.605417	2490.330000
377.991404	2442.439038
378.377329	2424.795000
378.763191	2379.424615
379.148991	2424.795000
379.534727	2429.836154
379.920402	2404.630385
380.306013	2482.768269
380.691563	2500.412308
381.077049	2497.891731
381.462474	2480.247692
381.847835	2417.233269
382.233134	2515.535769
382.618371	2424.795000
383.003545	2437.397885
383.388657	2429.836154
383.773706	2447.480192
384.158693	2392.027500
384.543618	2457.562500
384.928480	2543.262115
385.313280	2455.041923
385.698017	2573.509038
386.082692	2455.041923
386.467305	2538.220962
386.851856	2510.494615
387.236344	2417.233269
387.620770	2429.836154
388.005133	2472.685962
388.389435	2402.109808
388.773674	2550.823846
389.157851	2487.809423
389.541965	2444.959615
389.926018	2424.795000
390.310008	2490.330000
390.693936	2545.782692
391.077802	2442.439038
391.461606	2487.809423
391.845348	2482.768269
392.229027	2465.124231
392.612645	2452.521346
392.996200	2591.153077
393.379694	2412.192115
393.763125	2450.000769
394.146494	2482.768269
394.529801	2460.083077
394.913047	2444.959615
395.296230	2404.630385
395.679351	2505.453462
396.062410	2510.494615
396.445408	2525.618077
396.828343	2573.509038
397.211217	2487.809423
397.594028	2422.274423
397.976778	2450.000769
398.359466	2482.768269
398.742092	2460.083077
399.124656	2548.303269
399.507158	2520.576923
399.889598	2470.165385
400.271977	2520.576923
400.654294	2490.330000
401.036549	2462.603654
401.418742	2505.453462
401.800874	2550.823846
402.182944	2465.124231
402.564952	2586.111923
402.946898	2545.782692
403.328783	2422.274423
403.710606	2480.247692
404.092367	2472.685962
404.474067	2442.439038
404.855705	2497.891731
405.237282	2450.000769
405.618797	2439.918462
406.000250	2439.918462
406.381642	2434.877308
406.762972	2452.521346
407.144240	2434.877308
407.525447	2450.000769
407.906593	2434.877308
408.287677	2437.397885
408.668700	2460.083077
409.049661	2477.727115
409.430560	2515.535769
409.811399	2412.192115
410.192176	2497.891731
410.572891	2369.342308
410.953545	2497.891731
411.334138	2422.274423
411.714669	2500.412308
412.095139	2452.521346
412.475547	2399.589231
412.855894	2497.891731
413.236180	2540.741538
413.616405	2465.124231
413.996568	2444.959615
414.376670	2520.576923
414.756711	2442.439038
415.136691	2485.288846
415.516609	2432.356731
415.896466	2402.109808
416.276262	2510.494615
416.655997	2444.959615
417.035670	2497.891731
417.415283	2505.453462
417.794834	2434.877308
418.174324	2535.700385
418.553753	2467.644808
418.933121	2523.097500
419.312428	2371.862885
419.691674	2513.015192
420.070859	2487.809423
420.449983	2472.685962
420.829045	2515.535769
421.208047	2530.659231
421.586988	2485.288846
421.965867	2513.015192
422.344686	2465.124231
422.723444	2538.220962
423.102141	2480.247692
423.480777	2487.809423
423.859352	2555.865000
424.237866	2447.480192
424.616319	2452.521346
424.994712	2439.918462
425.373044	2502.932885
425.751314	2412.192115
426.129524	2497.891731
426.507673	2475.206538
426.885762	2485.288846
427.263789	2540.741538
427.641756	2460.083077
428.019662	2583.591346
428.397508	2492.850577
428.775292	2457.562500
429.153016	2500.412308
429.530679	2460.083077
429.908282	2460.083077
430.285824	2389.506923
430.663305	2492.850577
431.040726	2495.371154
431.418086	2545.782692
431.795385	2495.371154
432.172624	2465.124231
432.549802	2510.494615
432.926920	2472.685962
433.303977	2442.439038
433.680974	2462.603654
434.057910	2548.303269
434.434786	2399.589231
434.811601	2510.494615
435.188355	2480.247692
435.565050	2510.494615
435.941683	2472.685962
436.318257	2490.330000
436.694770	2414.712692
437.071222	2460.083077
437.447614	2455.041923
437.823946	2485.288846
438.200218	2460.083077
438.576429	2497.891731
438.952580	2565.947308
439.328670	2482.768269
439.704700	2553.344423
440.080670	2520.576923
440.456580	2427.315577
440.832429	2492.850577
441.208218	2490.330000
441.583947	2510.494615
441.959616	2485.288846
442.335224	2442.439038
442.710773	2444.959615
443.086261	2545.782692
443.461689	2450.000769
443.837057	2487.809423
444.212365	2444.959615
444.587612	2467.644808
444.962800	2392.027500
445.337927	2434.877308
445.712995	2482.768269
446.088002	2568.467885
446.462949	2467.644808
446.837837	2515.535769
447.212664	2477.727115
447.587431	2505.453462
447.962139	2462.603654
448.336786	2502.932885
448.711374	2432.356731
449.085901	2518.056346
449.460369	2487.809423
449.834776	2470.165385
450.209124	2490.330000
450.583412	2475.206538
450.957640	2452.521346
451.331808	2507.974038
451.705917	2495.371154
452.079965	2404.630385
452.453954	2407.150962
452.827883	2560.906154
453.201752	2442.439038
453.575562	2467.644808
453.949311	2482.768269
454.323001	2533.179808
454.696632	2555.865000
455.070202	2470.165385
455.443713	2507.974038
455.817164	2444.959615
456.190556	2560.906154
456.563888	2432.356731
456.937160	2429.836154
457.310373	2452.521346
457.683526	2402.109808
458.056619	2394.548077
458.429653	2460.083077
458.802628	2535.700385
459.175542	2515.535769
459.548398	2429.836154
459.921194	2588.632500
460.293930	2379.424615
460.666607	2386.986346
461.039224	2432.356731
461.411782	2450.000769
461.784280	2598.714808
462.156719	2424.795000
462.529099	2548.303269
462.901419	2444.959615
463.273680	2444.959615
463.645882	2513.015192
464.018024	2538.220962
464.390106	2487.809423
464.762130	2482.768269
465.134094	2392.027500
465.505999	2535.700385
465.877845	2497.891731
466.249631	2482.768269
466.621358	2414.712692
466.993026	2550.823846
467.364634	2447.480192
467.736184	2518.056346
468.107674	2535.700385
468.479105	2452.521346
468.850477	2450.000769
469.221790	2492.850577
469.593043	2457.562500
469.964238	2497.891731
470.335373	2500.412308
470.706449	2500.412308
471.077467	2485.288846
471.448425	2437.397885
471.819324	2502.932885
472.190164	2475.206538
472.560945	2545.782692
472.931667	2507.974038
473.302330	2452.521346
473.672934	2414.712692
474.043479	2502.932885
474.413965	2477.727115
474.784393	2437.397885
475.154761	2409.671538
475.525070	2513.015192
475.895321	2485.288846
476.265513	2492.850577
476.635645	2502.932885
477.005719	2460.083077
477.375734	2490.330000
477.745691	2533.179808
478.115588	2540.741538
478.485427	2495.371154
478.855207	2409.671538
479.224928	2444.959615
479.594591	2550.823846
479.964194	2485.288846
480.333739	2518.056346
480.703226	2475.206538
481.072653	2593.673654
481.442022	2429.836154
481.811333	2437.397885
482.180584	2472.685962
482.549777	2422.274423
482.918912	2434.877308
483.287988	2485.288846
483.657005	2543.262115
484.025964	2515.535769
484.394864	2434.877308
484.763706	2487.809423
485.132489	2482.768269
485.501213	2576.029615
485.869879	2588.632500
486.238487	2477.727115
486.607036	2492.850577
486.975527	2545.782692
487.343959	2422.274423
487.712333	2543.262115
488.080648	2472.685962
488.448905	2535.700385
488.817104	2513.015192
489.185244	2480.247692
489.553326	2450.000769
489.921350	2434.877308
490.289315	2477.727115
490.657222	2555.865000
491.025070	2475.206538
491.392861	2470.165385
491.760593	2447.480192
492.128267	2457.562500
492.495883	2568.467885
492.863440	2392.027500
493.230939	2429.836154
493.598380	2528.138654
493.965763	2467.644808
494.333088	2502.932885
494.700354	2450.000769
495.067563	2475.206538
495.434713	2513.015192
495.801805	2487.809423
496.168839	2419.753846
496.535815	2570.988462
496.902733	2538.220962
497.269593	2565.947308
497.636395	2482.768269
498.003139	2450.000769
498.369825	2550.823846
498.736453	2502.932885
499.103023	2457.562500
499.469535	2460.083077
499.835989	2515.535769
500.202385	2525.618077
500.568723	2399.589231
500.935003	2492.850577
501.301226	2550.823846
501.667390	2487.809423
502.033497	2523.097500
502.399546	2495.371154
502.765537	2460.083077
503.131470	2455.041923
503.497345	2407.150962
503.863163	2470.165385
504.228923	2563.426731
504.594625	2495.371154
504.960269	2427.315577
505.325856	2533.179808
505.691385	2475.206538
506.056856	2480.247692
506.422270	2472.685962
506.787625	2558.385577
507.152924	2560.906154
507.518164	2497.891731
507.883347	2490.330000
508.248472	2505.453462
508.613540	2558.385577
508.978550	2530.659231
509.343503	2492.850577
509.708398	2510.494615
510.073236	2518.056346
510.438016	2462.603654
510.802738	2480.247692
511.167403	2550.823846
511.532010	2495.371154
511.896561	2487.809423
512.261053	2480.247692
512.625488	2404.630385
512.989866	2500.412308
513.354186	2437.397885
513.718449	2467.644808
514.082655	2409.671538
514.446803	2457.562500
514.810894	2535.700385
515.174927	2397.068654
515.538904	2533.179808
515.902822	2439.918462
516.266684	2462.603654
516.630488	2447.480192
516.994235	2528.138654
517.357925	2570.988462
517.721558	2450.000769
518.085133	2450.000769
518.448651	2518.056346
518.812112	2467.644808
519.175516	2540.741538
519.538863	2520.576923
519.902152	2490.330000
520.265385	2507.974038
520.628560	2397.068654
520.991678	2490.330000
521.354739	2419.753846
521.717743	2495.371154
522.080690	2518.056346
522.443580	2497.891731
522.806413	2535.700385
523.169189	2480.247692
523.531908	2442.439038
523.894569	2452.521346
524.257174	2513.015192
524.619722	2472.685962
524.982213	2560.906154
525.344647	2576.029615
525.707025	2490.330000
526.069345	2520.576923
526.431608	2530.659231
526.793815	2409.671538
527.155964	2487.809423
527.518057	2500.412308
527.880093	2460.083077
528.242072	2550.823846
528.603995	2460.083077
528.965860	2397.068654
529.327669	2510.494615
529.689421	2455.041923
530.051117	2460.083077
530.412755	2490.330000
530.774337	2528.138654
531.135862	2500.412308
531.497331	2492.850577
531.858743	2409.671538
532.220098	2475.206538
532.581396	2518.056346
532.942638	2485.288846
533.303824	2540.741538
533.664953	2515.535769
534.026025	2538.220962
534.387040	2442.439038
534.747999	2447.480192
535.108902	2510.494615
535.469748	2467.644808
535.830537	2447.480192
536.191270	2450.000769
536.551947	2507.974038
536.912567	2530.659231
537.273131	2487.809423
537.633638	2452.521346
537.994089	2530.659231
538.354483	2487.809423
538.714821	2525.618077
539.075103	2528.138654
539.435328	2475.206538
539.795497	2429.836154
540.155609	2482.768269
540.515665	2452.521346
540.875665	2533.179808
541.235609	2472.685962
541.595496	2485.288846
541.955328	2495.371154
542.315102	2515.535769
542.674821	2455.041923
543.034483	2490.330000
543.394090	2573.509038
543.753640	2457.562500
544.113134	2518.056346
544.472571	2497.891731
544.831953	2520.576923
545.191278	2419.753846
545.550548	2462.603654
545.909761	2467.644808
546.268918	2538.220962
546.628019	2480.247692
546.987064	2480.247692
547.346053	2485.288846
547.704986	2533.179808
548.063863	2543.262115
548.422684	2480.247692
548.781449	2515.535769
549.140158	2518.056346
549.498811	2520.576923
549.857408	2439.918462
550.215949	2450.000769
550.574434	2467.644808
550.932864	2482.768269
551.291237	2560.906154
551.649555	2495.371154
552.007817	2399.589231
552.366022	2482.768269
552.724173	2601.235385
553.082267	2460.083077
553.440305	2543.262115
553.798288	2550.823846
554.156215	2500.412308
554.514086	2565.947308
554.871902	2450.000769
555.229661	2555.865000
555.587365	2394.548077
555.945014	2495.371154
556.302606	2452.521346
556.660143	2520.576923
557.017625	2472.685962
557.375050	2538.220962
557.732421	2492.850577
558.089735	2470.165385
558.446994	2530.659231
558.804197	2545.782692
559.161345	2507.974038
559.518437	2455.041923
559.875474	2495.371154
560.232455	2444.959615
560.589381	2553.344423
560.946251	2558.385577
561.303065	2457.562500
561.659825	2427.315577
562.016528	2487.809423
562.373177	2520.576923
562.729770	2487.809423
563.086307	2472.685962
563.442789	2467.644808
563.799216	2432.356731
564.155587	2510.494615
564.511904	2482.768269
564.868164	2550.823846
565.224370	2613.838269
565.580520	2475.206538
565.936615	2495.371154
566.292654	2530.659231
566.648638	2470.165385
567.004567	2409.671538
567.360441	2412.192115
567.716260	2568.467885
568.072023	2475.206538
568.427732	2510.494615
568.783385	2465.124231
569.138982	2555.865000
569.494525	2462.603654
569.850013	2407.150962
570.205445	2500.412308
570.560823	2507.974038
570.916145	2533.179808
571.271412	2570.988462
571.626625	2543.262115
571.981782	2505.453462
572.336884	2573.509038
572.691931	2485.288846
573.046923	2555.865000
573.401860	2470.165385
573.756743	2502.932885
574.111570	2465.124231
574.466342	2523.097500
574.821059	2412.192115
575.175722	2465.124231
575.530330	2570.988462
575.884882	2543.262115
576.239380	2485.288846
576.593823	2495.371154
576.948211	2558.385577
577.302544	2434.877308
577.656823	2545.782692
578.011047	2533.179808
578.365216	2502.932885
578.719330	2513.015192
579.073389	2538.220962
579.427394	2432.356731
579.781344	2520.576923
580.135239	2505.453462
580.489080	2490.330000
580.842866	2558.385577
581.196597	2576.029615
581.550273	2490.330000
581.903895	2397.068654
582.257463	2515.535769
582.610975	2507.974038
582.964434	2538.220962
583.317837	2535.700385
583.671186	2397.068654
584.024481	2518.056346
584.377721	2442.439038
584.730906	2513.015192
585.084037	2437.397885
585.437113	2518.056346
585.790135	2502.932885
586.143103	2520.576923
586.496016	2510.494615
586.848874	2462.603654
587.201679	2477.727115
587.554428	2455.041923
587.907124	2545.782692
588.259765	2505.453462
588.612352	2450.000769
588.964884	2427.315577
589.317362	2497.891731
589.669786	2437.397885
590.022155	2558.385577
590.374470	2530.659231
590.726731	2497.891731
591.078937	2437.397885
591.431090	2528.138654
591.783188	2507.974038
592.135232	2470.165385
592.487222	2472.685962
592.839157	2477.727115
593.191038	2492.850577
593.542866	2417.233269
593.894639	2500.412308
594.246358	2540.741538
594.598022	2467.644808
594.949633	2520.576923
595.301190	2472.685962
595.652692	2470.165385
596.004141	2444.959615
596.355535	2402.109808
596.706876	2495.371154
597.058162	2475.206538
597.409395	2530.659231
597.760573	2487.809423
598.111698	2530.659231
598.462768	2437.397885
598.813785	2487.809423
599.164748	2460.083077
599.515657	2518.056346
599.866511	2419.753846
600.217312	2462.603654
600.568060	2518.056346
600.918753	2555.865000
601.269392	2583.591346
601.619978	2500.412308
601.970510	2444.959615
602.320988	2487.809423
602.671412	2477.727115
603.021783	2565.947308
603.372100	2510.494615
603.722363	2513.015192
604.072572	2518.056346
604.422728	2583.591346
604.772830	2518.056346
605.122878	2465.124231
605.472872	2485.288846
605.822813	2442.439038
606.172701	2480.247692
606.522534	2457.562500
606.872314	2507.974038
607.222041	2417.233269
607.571714	2550.823846
607.921333	2545.782692
608.270899	2497.891731
608.620411	2472.685962
608.969870	2518.056346
609.319276	2450.000769
609.668627	2497.891731
610.017926	2432.356731
610.367171	2510.494615
610.716362	2568.467885
611.065500	2510.494615
611.414585	2472.685962
611.763616	2545.782692
612.112594	2465.124231
612.461518	2583.591346
612.810389	2434.877308
613.159207	2500.412308
613.507971	2452.521346
613.856682	2553.344423
614.205340	2424.795000
614.553945	2422.274423
614.902496	2490.330000
615.250994	2460.083077
615.599439	2576.029615
615.947830	2518.056346
616.296169	2465.124231
616.644454	2565.947308
616.992686	2581.070769
617.340864	2381.945192
617.688990	2462.603654
618.037063	2497.891731
618.385082	2477.727115
618.733048	2505.453462
619.080961	2434.877308
619.428821	2495.371154
619.776628	2482.768269
620.124382	2497.891731
620.472083	2437.397885
620.819731	2543.262115
621.167326	2477.727115
621.514868	2500.412308
621.862357	2452.521346
622.209793	2578.550192
622.557176	2455.041923
622.904506	2502.932885
623.251783	2470.165385
623.599007	2560.906154
623.946179	2502.932885
624.293297	2487.809423
624.640363	2560.906154
624.987376	2540.741538
625.334336	2369.342308
625.681243	2530.659231
626.028097	2523.097500
626.374899	2490.330000
626.721647	2444.959615
627.068343	2424.795000
627.414987	2570.988462
627.761577	2525.618077
628.108115	2535.700385
628.454600	2528.138654
628.801032	2457.562500
629.147412	2530.659231
629.493739	2528.138654
629.840014	2497.891731
630.186236	2432.356731
630.532405	2538.220962
630.878521	2490.330000
631.224585	2392.027500
631.570597	2457.562500
631.916556	2490.330000
632.262462	2528.138654
632.608316	2485.288846
632.954117	2530.659231
633.299866	2518.056346
633.645562	2515.535769
633.991206	2447.480192
634.336797	2553.344423
634.682336	2490.330000
635.027823	2467.644808
635.373257	2487.809423
635.718639	2518.056346
636.063968	2520.576923
636.409245	2586.111923
636.754470	2472.685962
637.099642	2578.550192
637.444762	2497.891731
637.789829	2495.371154
638.134845	2588.632500
638.479808	2470.165385
638.824719	2528.138654
639.169577	2578.550192
639.514383	2487.809423
639.859137	2523.097500
640.203839	2444.959615
640.548489	2518.056346
640.893086	2477.727115
641.237632	2477.727115
641.582125	2540.741538
641.926566	2482.768269
642.270955	2523.097500
642.615292	2417.233269
642.959576	2472.685962
643.303809	2510.494615
643.647990	2510.494615
643.992118	2444.959615
644.336195	2513.015192
644.680219	2510.494615
645.024192	2455.041923
645.368112	2550.823846
645.711981	2487.809423
646.055797	2480.247692
646.399562	2525.618077
646.743274	2518.056346
647.086935	2510.494615
647.430544	2523.097500
647.774101	2475.206538
648.117606	2518.056346
648.461059	2533.179808
648.804460	2515.535769
649.147810	2581.070769
649.491108	2472.685962
649.834354	2523.097500
650.177548	2560.906154
650.520690	2487.809423
650.863781	2465.124231
651.206820	2570.988462
651.549807	2480.247692
651.892742	2535.700385
652.235626	2437.397885
652.578458	2477.727115
652.921238	2596.194231
653.263967	2510.494615
653.606644	2513.015192
653.949269	2563.426731
654.291843	2477.727115
654.634365	2477.727115
654.976836	2480.247692
655.319255	2495.371154
655.661622	2540.741538
656.003938	2507.974038
656.346203	2497.891731
656.688416	2470.165385
657.030577	2487.809423
657.372687	2480.247692
657.714746	2467.644808
658.056753	2513.015192
658.398708	2560.906154
658.740612	2497.891731
659.082465	2540.741538
659.424266	2457.562500
659.766016	2490.330000
660.107715	2470.165385
660.449362	2437.397885
660.790958	2439.918462
661.132503	2442.439038
661.473996	2581.070769
661.815438	2500.412308
662.156829	2513.015192
662.498168	2515.535769
662.839456	2475.206538
663.180693	2490.330000
663.521879	2540.741538
663.863013	2515.535769
664.204097	2467.644808
664.545129	2568.467885
664.886110	2560.906154
665.227040	2490.330000
665.567918	2513.015192
665.908746	2497.891731
666.249522	2548.303269
666.590248	2404.630385
666.930922	2450.000769
667.271545	2540.741538
667.612118	2407.150962
667.952639	2528.138654
668.293109	2477.727115
668.633528	2505.453462
668.973896	2470.165385
669.314213	2528.138654
669.654480	2467.644808
669.994695	2502.932885
670.334859	2462.603654
670.674973	2535.700385
671.015035	2553.344423
671.355047	2507.974038
671.695008	2419.753846
672.034918	2480.247692
672.374777	2402.109808
672.714585	2500.412308
673.054342	2452.521346
673.394049	2490.330000
673.733705	2470.165385
674.073310	2530.659231
674.412864	2429.836154
674.752368	2520.576923
675.091820	2535.700385
675.431223	2510.494615
675.770574	2520.576923
676.109875	2535.700385
676.449125	2490.330000
676.788324	2407.150962
677.127473	2455.041923
677.466571	2515.535769
677.805619	2462.603654
678.144616	2485.288846
678.483562	2447.480192
678.822458	2482.768269
679.161303	2492.850577
679.500098	2475.206538
679.838842	2502.932885
680.177535	2497.891731
680.516179	2495.371154
680.854771	2475.206538
681.193314	2538.220962
681.531805	2515.535769
681.870247	2467.644808
682.208638	2558.385577
682.546978	2462.603654
682.885268	2457.562500
683.223508	2487.809423
683.561697	2497.891731
683.899836	2497.891731
684.237925	2450.000769
684.575963	2507.974038
684.913951	2492.850577
685.251889	2523.097500
685.589776	2467.644808
685.927614	2475.206538
686.265401	2397.068654
686.603137	2510.494615
686.940824	2434.877308
687.278460	2477.727115
687.616046	2583.591346
687.953582	2568.467885
688.291068	2460.083077
688.628504	2467.644808
688.965889	2487.809423
689.303224	2495.371154
689.640510	2487.809423
689.977745	2439.918462
690.314930	2507.974038
690.652065	2447.480192
690.989150	2492.850577
691.326185	2497.891731
691.663170	2530.659231
692.000105	2568.467885
692.336990	2492.850577
692.673825	2515.535769
693.010610	2507.974038
693.347345	2490.330000
693.684030	2452.521346
694.020665	2510.494615
694.357251	2477.727115
694.693786	2427.315577
695.030272	2525.618077
695.366707	2495.371154
695.703093	2540.741538
696.039429	2442.439038
696.375716	2487.809423
696.711952	2482.768269
697.048139	2507.974038
697.384276	2460.083077
697.720363	2525.618077
698.056400	2558.385577
698.392388	2505.453462
698.728326	2457.562500
699.064214	2490.330000
699.400053	2482.768269
699.735842	2523.097500
700.071581	2452.521346
700.407270	2518.056346
700.742910	2444.959615
701.078501	2510.494615
701.414042	2510.494615
701.749533	2530.659231
702.084974	2593.673654
702.420366	2462.603654
702.755709	2535.700385
703.091002	2510.494615
703.426246	2500.412308
703.761440	2626.441154
704.096584	2525.618077
704.431679	2533.179808
704.766725	2540.741538
705.101721	2540.741538
705.436668	2568.467885
705.771565	2472.685962
706.106413	2495.371154
706.441212	2591.153077
706.775961	2530.659231
707.110661	2543.262115
707.445311	2586.111923
707.779913	2472.685962
708.114465	2581.070769
708.448967	2475.206538
708.783421	2540.741538
709.117825	2482.768269
709.452180	2475.206538
709.786485	2444.959615
710.120742	2553.344423
710.454949	2505.453462
710.789107	2545.782692
711.123216	2507.974038
711.457275	2492.850577
711.791286	2495.371154
712.125247	2492.850577
712.459159	2573.509038
712.793023	2523.097500
713.126837	2505.453462
713.460602	2492.850577
713.794318	2480.247692
714.127985	2475.206538
714.461602	2450.000769
714.795171	2452.521346
715.128691	2495.371154
715.462162	2535.700385
715.795584	2528.138654
716.128957	2455.041923
716.462281	2515.535769
716.795556	2497.891731
717.128782	2492.850577
717.461960	2386.986346
717.795088	2497.891731
718.128167	2548.303269
718.461198	2432.356731
718.794180	2530.659231
719.127113	2518.056346
719.459997	2482.768269
719.792833	2477.727115
720.125619	2490.330000
720.458357	2591.153077
720.791046	2417.233269
721.123686	2475.206538
721.456278	2457.562500
721.788821	2515.535769
722.121315	2485.288846
722.453761	2487.809423
722.786158	2442.439038
723.118506	2472.685962
723.450805	2447.480192
723.783056	2487.809423
724.115259	2467.644808
724.447412	2540.741538
724.779518	2525.618077
725.111574	2518.056346
725.443582	2563.426731
725.775542	2452.521346
726.107453	2510.494615
726.439315	2427.315577
726.771129	2507.974038
727.102895	2520.576923
727.434612	2540.741538
727.766281	2565.947308
728.097901	2507.974038
728.429473	2502.932885
728.760996	2480.247692
729.092471	2485.288846
729.423897	2487.809423
729.755276	2548.303269
730.086606	2480.247692
730.417887	2490.330000
730.749120	2397.068654
731.080305	2502.932885
731.411442	2472.685962
731.742530	2520.576923
732.073570	2475.206538
732.404562	2538.220962
732.735506	2455.041923
733.066401	2480.247692
733.397249	2560.906154
733.728048	2452.521346
734.058798	2452.521346
734.389501	2437.397885
734.720156	2570.988462
735.050762	2485.288846
735.381320	2510.494615
735.711831	2384.465769
736.042293	2543.262115
736.372707	2525.618077
736.703073	2523.097500
737.033391	2490.330000
737.363661	2402.109808
737.693883	2389.506923
738.024056	2487.809423
738.354182	2434.877308
738.684260	2465.124231
739.014290	2510.494615
739.344272	2429.836154
739.674207	2502.932885
740.004093	2513.015192
740.333931	2523.097500
740.663722	2470.165385
740.993464	2470.165385
741.323159	2505.453462
741.652806	2530.659231
741.982405	2555.865000
742.311956	2480.247692
742.641460	2470.165385
742.970915	2553.344423
743.300323	2480.247692
743.629683	2533.179808
743.958996	2520.576923
744.288260	2505.453462
744.617477	2480.247692
744.946647	2455.041923
745.275768	2480.247692
745.604842	2470.165385
745.933869	2533.179808
746.262847	2490.330000
746.591778	2553.344423
746.920662	2419.753846
747.249498	2475.206538
747.578286	2596.194231
747.907027	2434.877308
748.235720	2555.865000
748.564365	2480.247692
748.892963	2467.644808
749.221514	2482.768269
749.550017	2482.768269
749.878473	2447.480192
750.206881	2470.165385
750.535242	2528.138654
750.863555	2475.206538
751.191821	2505.453462
751.520039	2462.603654
751.848210	2535.700385
752.176334	2432.356731
752.504411	2442.439038
752.832440	2437.397885
753.160421	2480.247692
753.488356	2548.303269
753.816243	2455.041923
754.144082	2505.453462
754.471875	2513.015192
754.799620	2530.659231
755.127318	2533.179808
755.454969	2427.315577
755.782572	2502.932885
756.110129	2505.453462
756.437638	2500.412308
756.765100	2465.124231
757.092515	2437.397885
757.419882	2434.877308
757.747203	2432.356731
758.074477	2535.700385
758.401703	2523.097500
758.728882	2502.932885
759.056014	2497.891731
759.383099	2530.659231
759.710138	2538.220962
760.037129	2485.288846
760.364073	2515.535769
760.690970	2422.274423
761.017820	2525.618077
761.344623	2523.097500
761.671379	2492.850577
761.998088	2432.356731
762.324751	2439.918462
762.651366	2492.850577
762.977935	2424.795000
763.304456	2520.576923
763.630931	2470.165385
763.957359	2460.083077
764.283740	2465.124231
764.610074	2543.262115
764.936362	2480.247692
765.262602	2495.371154
765.588796	2520.576923
765.914943	2507.974038
766.241044	2535.700385
766.567097	2444.959615
766.893104	2462.603654
767.219064	2515.535769
767.544978	2482.768269
767.870845	2442.439038
768.196665	2518.056346
768.522438	2490.330000
768.848165	2548.303269
769.173846	2601.235385
769.499479	2565.947308
769.825066	2518.056346
770.150607	2490.330000
770.476101	2548.303269
770.801548	2565.947308
771.126949	2462.603654
771.452303	2442.439038
771.777611	2455.041923
772.102872	2457.562500
772.428087	2497.891731
772.753256	2545.782692
773.078378	2490.330000
773.403453	2497.891731
773.728482	2452.521346
774.053465	2603.755962
774.378401	2467.644808
774.703291	2530.659231
775.028135	2417.233269
775.352932	2545.782692
775.677683	2465.124231
776.002388	2432.356731
776.327046	2500.412308
776.651658	2492.850577
776.976224	2518.056346
777.300743	2548.303269
777.625216	2515.535769
777.949643	2465.124231
778.274024	2414.712692
778.598359	2533.179808
778.922647	2467.644808
779.246889	2482.768269
779.571086	2381.945192
779.895236	2518.056346
780.219339	2510.494615
780.543397	2457.562500
780.867409	2419.753846
781.191374	2364.301154
781.515294	2497.891731
781.839167	2455.041923
782.162995	2502.932885
782.486776	2565.947308
782.810511	2482.768269
783.134201	2533.179808
783.457844	2502.932885
783.781441	2470.165385
784.104993	2412.192115
784.428498	2470.165385
784.751958	2480.247692
785.075372	2525.618077
785.398739	2505.453462
785.722061	2490.330000
786.045337	2455.041923
786.368568	2490.330000
786.691752	2507.974038
787.014891	2437.397885
787.337983	2606.276538
787.661030	2502.932885
787.984031	2520.576923
788.306987	2452.521346
788.629897	2477.727115
788.952760	2502.932885
789.275579	2560.906154
789.598351	2444.959615
789.921078	2540.741538
790.243759	2457.562500
790.566395	2530.659231
790.888984	2444.959615
791.211529	2477.727115
791.534027	2515.535769
791.856480	2528.138654
792.178888	2550.823846
792.501249	2533.179808
792.823566	2487.809423
793.145836	2487.809423
793.468062	2472.685962
793.790241	2490.330000
794.112375	2404.630385
794.434464	2462.603654
794.756507	2442.439038
795.078505	2490.330000
795.400457	2460.083077
795.722364	2462.603654
796.044226	2444.959615
796.366042	2485.288846
796.687812	2525.618077
797.009538	2525.618077
797.331218	2510.494615
797.652852	2523.097500
797.974442	2482.768269
798.295986	2548.303269
798.617484	2563.426731
798.938938	2525.618077
799.260346	2530.659231
799.581709	2470.165385
799.903026	2497.891731
800.224299	2450.000769
800.545526	2427.315577
800.866708	2429.836154
801.187845	2545.782692
801.508936	2538.220962
801.829983	2535.700385
802.150984	2442.439038
802.471940	2515.535769
802.792851	2467.644808
803.113717	2502.932885
803.434538	2432.356731
803.755314	2520.576923
804.076045	2608.797115
804.396731	2472.685962
804.717372	2540.741538
805.037967	2510.494615
805.358518	2460.083077
805.679024	2507.974038
805.999485	2480.247692
806.319901	2480.247692
806.640272	2475.206538
806.960598	2606.276538
807.280879	2467.644808
807.601115	2570.988462
807.921306	2500.412308
808.241453	2492.850577
808.561554	2507.974038
808.881611	2543.262115
809.201623	2460.083077
809.521590	2515.535769
809.841513	2424.795000
810.161390	2507.974038
810.481223	2500.412308
810.801011	2520.576923
811.120755	2392.027500
811.440453	2497.891731
811.760107	2578.550192
812.079716	2470.165385
812.399281	2485.288846
812.718801	2470.165385
813.038276	2548.303269
813.357707	2518.056346
813.677093	2555.865000
813.996434	2513.015192
814.315731	2399.589231
814.634983	2502.932885
814.954191	2563.426731
815.273354	2482.768269
815.592473	2530.659231
815.911547	2414.712692
816.230577	2485.288846
816.549562	2394.548077
816.868502	2490.330000
817.187399	2450.000769
817.506250	2513.015192
817.825058	2492.850577
818.143821	2462.603654
818.462539	2460.083077
818.781213	2470.165385
819.099843	2475.206538
819.418429	2525.618077
819.736970	2530.659231
820.055466	2470.165385
820.373919	2495.371154
820.692327	2543.262115
821.010691	2482.768269
821.329011	2500.412308
821.647286	2520.576923
821.965517	2497.891731
822.283704	2444.959615
822.601847	2505.453462
822.919945	2419.753846
823.237999	2510.494615
823.556010	2432.356731
823.873976	2543.262115
824.191897	2492.850577
824.509775	2540.741538
824.827609	2364.301154
825.145398	2505.453462
825.463144	2505.453462
825.780845	2455.041923
826.098502	2429.836154
826.416116	2462.603654
826.733685	2548.303269
827.051210	2502.932885
827.368692	2598.714808
827.686129	2505.453462
828.003522	2555.865000
828.320872	2482.768269
828.638177	2505.453462
828.955439	2543.262115
829.272656	2523.097500
829.589830	2412.192115
829.906960	2419.753846
830.224046	2492.850577
830.541088	2480.247692
830.858086	2444.959615
831.175041	2535.700385
831.491952	2535.700385
831.808819	2560.906154
832.125642	2530.659231
832.442421	2492.850577
832.759157	2386.986346
833.075849	2492.850577
833.392497	2439.918462
833.709101	2485.288846
834.025662	2495.371154
834.342179	2492.850577
834.658653	2576.029615
834.975083	2520.576923
835.291469	2482.768269
835.607811	2497.891731
835.924110	2540.741538
836.240366	2497.891731
836.556578	2540.741538
836.872746	2495.371154
837.188871	2477.727115
837.504952	2535.700385
837.820990	2412.192115
838.136984	2560.906154
838.452935	2533.179808
838.768842	2523.097500
839.084706	2472.685962
839.400526	2530.659231
839.716303	2460.083077
840.032037	2495.371154
840.347727	2475.206538
840.663373	2465.124231
840.978977	2480.247692
841.294537	2485.288846
841.610054	2427.315577
841.925527	2533.179808
842.240957	2447.480192
842.556344	2465.124231
842.871687	2538.220962
843.186987	2523.097500
843.502244	2550.823846
843.817458	2573.509038
844.132629	2497.891731
844.447756	2543.262115
844.762840	2520.576923
845.077881	2439.918462
845.392879	2480.247692
845.707833	2487.809423
846.022745	2485.288846
846.337613	2515.535769
846.652438	2555.865000
846.967221	2530.659231
847.281960	2472.685962
847.596656	2613.838269
847.911309	2583.591346
848.225919	2467.644808
848.540485	2444.959615
848.855009	2465.124231
849.169490	2475.206538
849.483928	2545.782692
849.798323	2472.685962
850.112675	2533.179808
850.426984	2422.274423
850.741251	2412.192115
851.055474	2563.426731
851.369654	2475.206538
851.683792	2444.959615
851.997887	2510.494615
852.311938	2444.959615
852.625947	2460.083077
852.939914	2513.015192
853.253837	2513.015192
853.567718	2465.124231
853.881555	2432.356731
854.195350	2450.000769
854.509103	2490.330000
854.822812	2455.041923
855.136479	2513.015192
855.450103	2500.412308
855.763685	2500.412308
856.077224	2414.712692
856.390720	2467.644808
856.704173	2540.741538
857.017584	2419.753846
857.330953	2439.918462
857.644278	2437.397885
857.957561	2598.714808
858.270802	2490.330000
858.584000	2560.906154
858.897155	2465.124231
859.210268	2487.809423
859.523339	2442.439038
859.836367	2505.453462
860.149352	2500.412308
860.462295	2513.015192
860.775195	2467.644808
861.088054	2525.618077
861.400869	2462.603654
861.713642	2550.823846
862.026373	2525.618077
862.339062	2558.385577
862.651708	2472.685962
862.964312	2470.165385
863.276873	2500.412308
863.589392	2366.821731
863.901869	2492.850577
864.214303	2530.659231
864.526696	2500.412308
864.839045	2540.741538
865.151353	2538.220962
865.463619	2490.330000
865.775842	2576.029615
866.088023	2460.083077
866.400162	2455.041923
866.712258	2518.056346
867.024313	2500.412308
867.336325	2497.891731
867.648296	2475.206538
867.960224	2422.274423
868.272110	2487.809423
868.583954	2560.906154
868.895755	2487.809423
869.207515	2422.274423
869.519233	2535.700385
869.830909	2392.027500
870.142542	2460.083077
870.454134	2472.685962
870.765684	2525.618077
871.077191	2487.809423
871.388657	2480.247692
871.700081	2465.124231
872.011463	2550.823846
872.322803	2487.809423
872.634101	2452.521346
872.945357	2450.000769
873.256571	2452.521346
873.567744	2465.124231
873.878874	2467.644808
874.189963	2495.371154
874.501010	2515.535769
874.812015	2465.124231
875.122979	2417.233269
875.433900	2593.673654
875.744780	2442.439038
876.055618	2502.932885
876.366415	2492.850577
876.677169	2553.344423
876.987882	2444.959615
877.298554	2520.576923
877.609183	2510.494615
877.919771	2530.659231
878.230317	2444.959615
878.540822	2427.315577
878.851285	2500.412308
879.161707	2439.918462
879.472087	2550.823846
879.782425	2447.480192
880.092722	2472.685962
880.402977	2450.000769
880.713191	2480.247692
881.023363	2450.000769
881.333494	2518.056346
881.643583	2505.453462
881.953631	2505.453462
882.263637	2429.836154
882.573602	2470.165385
882.883526	2533.179808
883.193408	2578.550192
883.503248	2487.809423
883.813048	2510.494615
884.122806	2414.712692
884.432522	2505.453462
884.742197	2472.685962
885.051831	2472.685962
885.361424	2500.412308
885.670975	2467.644808
885.980485	2573.509038
886.289954	2540.741538
886.599382	2450.000769
886.908768	2565.947308
887.218113	2518.056346
887.527417	2540.741538
887.836680	2515.535769
888.145901	2480.247692
888.455082	2523.097500
888.764221	2583.591346
889.073319	2429.836154
889.382376	2563.426731
889.691392	2460.083077
890.000366	2470.165385
890.309300	2510.494615
890.618193	2444.959615
890.927044	2414.712692
891.235855	2495.371154
891.544625	2404.630385
891.853353	2520.576923
892.162041	2523.097500
892.470687	2452.521346
892.779293	2437.397885
893.087858	2497.891731
893.396381	2510.494615
893.704864	2470.165385
894.013306	2490.330000
894.321707	2507.974038
894.630068	2447.480192
894.938387	2409.671538
895.246665	2525.618077
895.554903	2520.576923
895.863100	2538.220962
896.171256	2507.974038
896.479371	2485.288846
896.787446	2518.056346
897.095480	2535.700385
897.403473	2563.426731
897.711425	2492.850577
898.019336	2553.344423
898.327207	2477.727115
898.635038	2593.673654
898.942827	2480.247692
899.250576	2540.741538
899.558284	2520.576923
899.865952	2533.179808
900.173579	2434.877308
900.481165	2540.741538
900.788711	2490.330000
901.096216	2510.494615
901.403681	2510.494615
901.711105	2457.562500
902.018489	2535.700385
902.325832	2470.165385
902.633135	2520.576923
902.940397	2545.782692
903.247619	2452.521346
903.554800	2477.727115
903.861941	2505.453462
904.169041	2510.494615
904.476101	2452.521346
904.783121	2550.823846
905.090100	2492.850577
905.397039	2598.714808
905.703938	2495.371154
906.010796	2540.741538
906.317614	2485.288846
906.624391	2465.124231
906.931129	2412.192115
907.237826	2507.974038
907.544483	2444.959615
907.851099	2462.603654
908.157675	2518.056346
908.464211	2550.823846
908.770707	2442.439038
909.077163	2457.562500
909.383578	2490.330000
909.689954	2427.315577
909.996289	2475.206538
910.302584	2530.659231
910.608839	2578.550192
910.915054	2465.124231
911.221229	2502.932885
911.527363	2482.768269
911.833458	2515.535769
912.139513	2492.850577
912.445527	2452.521346
912.751502	2505.453462
913.057436	2565.947308
913.363331	2447.480192
913.669186	2545.782692
913.975000	2455.041923
914.280775	2427.315577
914.586510	2376.904038
914.892205	2528.138654
915.197859	2533.179808
915.503475	2477.727115
915.809050	2538.220962
916.114585	2588.632500
916.420081	2452.521346
916.725536	2444.959615
917.030952	2507.974038
917.336328	2528.138654
917.641665	2528.138654
917.946961	2545.782692
918.252218	2412.192115
918.557435	2447.480192
918.862612	2467.644808
919.167750	2477.727115
919.472848	2447.480192
919.777906	2419.753846
920.082925	2502.932885
920.387904	2407.150962
920.692843	2477.727115
920.997743	2538.220962
921.302603	2525.618077
921.607423	2485.288846
921.912204	2472.685962
922.216946	2538.220962
922.521647	2467.644808
922.826310	2402.109808
923.130932	2482.768269
923.435516	2555.865000
923.740059	2417.233269
924.044564	2482.768269
924.349028	2465.124231
924.653454	2515.535769
924.957840	2502.932885
925.262186	2507.974038
925.566493	2535.700385
925.870761	2472.685962
926.174989	2507.974038
926.479178	2480.247692
926.783328	2472.685962
927.087438	2568.467885
927.391509	2510.494615
927.695541	2472.685962
927.999533	2515.535769
928.303486	2525.618077
928.607400	2412.192115
928.911275	2515.535769
929.215110	2444.959615
929.518906	2568.467885
929.822663	2472.685962
930.126381	2414.712692
930.430060	2432.356731
930.733699	2608.797115
931.037299	2477.727115
931.340861	2404.630385
931.644383	2407.150962
931.947866	2515.535769
932.251309	2528.138654
932.554714	2457.562500
932.858080	2457.562500
933.161407	2472.685962
933.464694	2518.056346
933.767943	2447.480192
934.071153	2558.385577
934.374323	2497.891731
934.677455	2505.453462
934.980548	2563.426731
935.283602	2467.644808
935.586617	2558.385577
935.889593	2538.220962
936.192530	2442.439038
936.495428	2460.083077
936.798287	2558.385577
937.101108	2533.179808
937.403890	2452.521346
937.706632	2424.795000
938.009336	2500.412308
938.312002	2518.056346
938.614628	2525.618077
938.917216	2545.782692
939.219765	2507.974038
939.522275	2515.535769
939.824747	2482.768269
940.127179	2568.467885
940.429573	2427.315577
940.731929	2452.521346
941.034246	2366.821731
941.336524	2515.535769
941.638763	2402.109808
941.940964	2528.138654
942.243126	2505.453462
942.545250	2502.932885
942.847335	2392.027500
943.149381	2530.659231
943.451389	2558.385577
943.753359	2477.727115
944.055290	2515.535769
944.357182	2465.124231
944.659036	2505.453462
944.960851	2472.685962
945.262628	2487.809423
945.564367	2482.768269
945.866067	2507.974038
946.167729	2578.550192
946.469352	2510.494615
946.770937	2518.056346
947.072484	2485.288846
947.373992	2457.562500
947.675462	2437.397885
947.976893	2555.865000
948.278286	2528.138654
948.579641	2477.727115
948.880958	2497.891731
949.182236	2427.315577
949.483476	2533.179808
949.784678	2502.932885
950.085841	2502.932885
950.386967	2482.768269
950.688054	2432.356731
950.989103	2444.959615
951.290114	2505.453462
951.591087	2460.083077
951.892021	2475.206538
952.192917	2460.083077
952.493776	2543.262115
952.794596	2538.220962
953.095378	2485.288846
953.396122	2548.303269
953.696828	2485.288846
953.997496	2520.576923
954.298126	2447.480192
954.598718	2548.303269
954.899272	2538.220962
955.199788	2598.714808
955.500266	2495.371154
955.800706	2467.644808
956.101108	2422.274423
956.401472	2392.027500
956.701798	2482.768269
957.002087	2507.974038
957.302337	2497.891731
957.602550	2510.494615
957.902724	2419.753846
958.202861	2475.206538
958.502960	2457.562500
958.803022	2492.850577
959.103045	2465.124231
959.403031	2565.947308
959.702979	2613.838269
960.002889	2452.521346
960.302762	2505.453462
960.602596	2492.850577
960.902393	2437.397885
961.202153	2424.795000
961.501875	2510.494615
961.801559	2518.056346
962.101205	2495.371154
962.400814	2528.138654
962.700385	2492.850577
962.999918	2530.659231
963.299414	2442.439038
963.598873	2492.850577
963.898293	2533.179808
964.197677	2465.124231
964.497022	2500.412308
964.796331	2495.371154
965.095601	2540.741538
965.394835	2525.618077
965.694030	2578.550192
965.993189	2444.959615
966.292309	2548.303269
966.591393	2560.906154
966.890439	2477.727115
967.189447	2528.138654
967.488419	2442.439038
967.787353	2558.385577
968.086249	2485.288846
968.385108	2467.644808
968.683930	2507.974038
968.982714	2480.247692
969.281462	2502.932885
969.580172	2442.439038
969.878844	2432.356731
970.177480	2447.480192
970.476078	2414.712692
970.774639	2530.659231
971.073162	2485.288846
971.371649	2490.330000
971.670098	2533.179808
971.968510	2442.439038
972.266885	2495.371154
972.565223	2492.850577
972.863524	2404.630385
973.161788	2450.000769
973.460014	2495.371154
973.758204	2386.986346
974.056356	2495.371154
974.354471	2447.480192
974.652550	2535.700385
974.950591	2472.685962
975.248595	2467.644808
975.546563	2523.097500
975.844493	2482.768269
976.142386	2402.109808
976.440243	2475.206538
976.738062	2482.768269
977.035845	2611.317692
977.333590	2414.712692
977.631299	2515.535769
977.928971	2563.426731
978.226606	2525.618077
978.524204	2460.083077
978.821765	2502.932885
979.119290	2497.891731
979.416777	2500.412308
979.714228	2412.192115
980.011642	2439.918462
980.309020	2475.206538
980.606360	2523.097500
980.903664	2485.288846
981.200931	2495.371154
981.498162	2510.494615
981.795356	2538.220962
982.092513	2439.918462
982.389633	2548.303269
982.686717	2563.426731
982.983764	2470.165385
983.280775	2487.809423
983.577749	2485.288846
983.874686	2558.385577
984.171587	2530.659231
984.468451	2455.041923
984.765279	2568.467885
985.062070	2432.356731
985.358824	2407.150962
985.655543	2505.453462
985.952224	2528.138654
986.248869	2497.891731
986.545478	2510.494615
986.842050	2513.015192
987.138586	2477.727115
987.435086	2462.603654
987.731549	2528.138654
988.027975	2475.206538
988.324366	2565.947308
988.620719	2472.685962
988.917037	2470.165385
989.213318	2583.591346
989.509563	2487.809423
989.805772	2487.809423
990.101944	2550.823846
990.398080	2450.000769
990.694180	2470.165385
990.990244	2477.727115
991.286271	2487.809423
991.582262	2505.453462
991.878217	2505.453462
992.174136	2485.288846
992.470019	2502.932885
992.765865	2477.727115
993.061676	2462.603654
993.357450	2482.768269
993.653188	2568.467885
993.948890	2404.630385
994.244556	2402.109808
994.540186	2495.371154
994.835780	2460.083077
995.131337	2502.932885
995.426859	2492.850577
995.722345	2500.412308
996.017795	2563.426731
996.313208	2540.741538
996.608586	2404.630385
996.903928	2581.070769
997.199234	2520.576923
997.494504	2480.247692
997.789738	2460.083077
998.084936	2523.097500
998.380099	2495.371154
998.675225	2525.618077
998.970316	2450.000769
999.265371	2485.288846
999.560390	2460.083077
999.855373	2538.220962
1000.150320	2528.138654
1000.445232	2560.906154
1000.740108	2487.809423
1001.034948	2455.041923
1001.329752	2462.603654
1001.624521	2528.138654
1001.919254	2581.070769
1002.213951	2518.056346
1002.508613	2518.056346
1002.803239	2475.206538
1003.097829	2472.685962
1003.392384	2475.206538
1003.686903	2447.480192
1003.981386	2513.015192
1004.275834	2457.562500
1004.570246	2455.041923
1004.864623	2513.015192
1005.158964	2583.591346
1005.453270	2495.371154
1005.747540	2538.220962
1006.041775	2442.439038
1006.335974	2500.412308
1006.630138	2465.124231
1006.924266	2497.891731
1007.218359	2467.644808
1007.512416	2535.700385
1007.806438	2505.453462
1008.100425	2407.150962
1008.394376	2513.015192
1008.688292	2472.685962
1008.982172	2437.397885
1009.276017	2462.603654
1009.569827	2492.850577
1009.863602	2475.206538
1010.157341	2475.206538
1010.451045	2447.480192
1010.744714	2475.206538
1011.038347	2374.383462
1011.331945	2548.303269
1011.625508	2462.603654
1011.919036	2518.056346
1012.212528	2482.768269
1012.505986	2457.562500
1012.799408	2472.685962
1013.092795	2505.453462
1013.386147	2583.591346
1013.679464	2409.671538
1013.972745	2386.986346
1014.265992	2444.959615
1014.559204	2528.138654
1014.852380	2550.823846
1015.145521	2460.083077
1015.438628	2477.727115
1015.731699	2548.303269
1016.024736	2507.974038
1016.317737	2535.700385
1016.610703	2550.823846
1016.903635	2533.179808
1017.196531	2507.974038
1017.489393	2568.467885
1017.782219	2538.220962
1018.075011	2490.330000
1018.367768	2495.371154
1018.660490	2523.097500
1018.953177	2523.097500
1019.245829	2523.097500
