Dividing Wavelength (nm)	Counts (n)	Blue Motor Position (mm): 1.200000	Red Motor Position (mm): 0.000000	
326.493990	2087.037692
326.888308	2087.037692
327.282561	2087.037692
327.676750	1986.214615
328.070874	2079.475962
328.464933	1976.132308
328.858929	1991.255769
329.252859	2074.434808
329.646726	2076.955385
330.040528	2046.708462
330.434265	2092.078846
330.827938	2114.764038
331.221547	2145.010962
331.615091	2182.819615
332.008571	2202.984231
332.401986	2170.216731
332.795338	2190.381346
333.188625	2230.710577
333.581847	2240.792885
333.975006	2286.163269
334.368100	2213.066538
334.761129	2233.231154
335.154095	2354.218846
335.546996	2344.136538
335.939833	2336.574808
336.332606	2346.657115
336.725315	2356.739423
337.117960	2412.192115
337.510540	2462.603654
337.903056	2442.439038
338.295508	2356.739423
338.687896	2462.603654
339.080220	2384.465769
339.472480	2439.918462
339.864676	2500.412308
340.256807	2477.727115
340.648875	2495.371154
341.040879	2472.685962
341.432818	2460.083077
341.824694	2369.342308
342.216506	2497.891731
342.608253	2452.521346
342.999937	2429.836154
343.391557	2490.330000
343.783113	2495.371154
344.174605	2407.150962
344.566033	2444.959615
344.957397	2444.959615
345.348697	2434.877308
345.739934	2442.439038
346.131106	2392.027500
346.522215	2492.850577
346.913260	2412.192115
347.304241	2507.974038
347.695159	2490.330000
348.086012	2450.000769
348.476802	2535.700385
348.867528	2444.959615
349.258191	2371.862885
349.648789	2535.700385
350.039324	2399.589231
350.429796	2392.027500
350.820203	2563.426731
351.210548	2444.959615
351.600828	2427.315577
351.991045	2429.836154
352.381198	2520.576923
352.771288	2389.506923
353.161314	2392.027500
353.551276	2397.068654
353.941175	2505.453462
354.331010	2550.823846
354.720782	2419.753846
355.110490	2450.000769
355.500135	2477.727115
355.889717	2513.015192
356.279235	2434.877308
356.668689	2444.959615
357.058080	2414.712692
357.447408	2402.109808
357.836672	2545.782692
358.225873	2366.821731
358.615010	2432.356731
359.004084	2407.150962
359.393095	2480.247692
359.782043	2432.356731
360.170927	2452.521346
360.559748	2465.124231
360.948505	2442.439038
361.337199	2480.247692
361.725830	2404.630385
362.114398	2389.506923
362.502903	2472.685962
362.891344	2404.630385
363.279722	2470.165385
363.668037	2392.027500
364.056289	2450.000769
364.444478	2475.206538
364.832603	2452.521346
365.220665	2576.029615
365.608665	2369.342308
365.996601	2520.576923
366.384474	2457.562500
366.772284	2394.548077
367.160031	2487.809423
367.547715	2505.453462
367.935336	2429.836154
368.322893	2437.397885
368.710388	2392.027500
369.097820	2472.685962
369.485189	2407.150962
369.872495	2525.618077
370.259738	2507.974038
370.646918	2455.041923
371.034035	2475.206538
371.421090	2487.809423
371.808081	2518.056346
372.195010	2437.397885
372.581875	2482.768269
372.968678	2513.015192
373.355418	2467.644808
373.742096	2412.192115
374.128710	2533.179808
374.515262	2475.206538
374.901751	2404.630385
375.288177	2432.356731
375.674540	2369.342308
376.060841	2455.041923
376.447079	2492.850577
376.833254	2457.562500
377.219367	2429.836154
377.605417	2455.041923
377.991404	2487.809423
378.377329	2389.506923
378.763191	2402.109808
379.148991	2414.712692
379.534727	2427.315577
379.920402	2397.068654
380.306013	2404.630385
380.691563	2404.630385
381.077049	2462.603654
381.462474	2462.603654
381.847835	2457.562500
382.233134	2457.562500
382.618371	2467.644808
383.003545	2485.288846
383.388657	2460.083077
383.773706	2417.233269
384.158693	2472.685962
384.543618	2548.303269
384.928480	2467.644808
385.313280	2450.000769
385.698017	2392.027500
386.082692	2520.576923
386.467305	2437.397885
386.851856	2457.562500
387.236344	2460.083077
387.620770	2525.618077
388.005133	2450.000769
388.389435	2412.192115
388.773674	2487.809423
389.157851	2475.206538
389.541965	2502.932885
389.926018	2510.494615
390.310008	2444.959615
390.693936	2533.179808
391.077802	2482.768269
391.461606	2424.795000
391.845348	2591.153077
392.229027	2467.644808
392.612645	2500.412308
392.996200	2460.083077
393.379694	2427.315577
393.763125	2485.288846
394.146494	2432.356731
394.529801	2429.836154
394.913047	2450.000769
395.296230	2452.521346
395.679351	2447.480192
396.062410	2525.618077
396.445408	2520.576923
396.828343	2424.795000
397.211217	2475.206538
397.594028	2452.521346
397.976778	2477.727115
398.359466	2470.165385
398.742092	2427.315577
399.124656	2447.480192
399.507158	2434.877308
399.889598	2477.727115
400.271977	2515.535769
400.654294	2472.685962
401.036549	2361.780577
401.418742	2397.068654
401.800874	2528.138654
402.182944	2462.603654
402.564952	2495.371154
402.946898	2470.165385
403.328783	2523.097500
403.710606	2497.891731
404.092367	2500.412308
404.474067	2412.192115
404.855705	2465.124231
405.237282	2505.453462
405.618797	2437.397885
406.000250	2465.124231
406.381642	2455.041923
406.762972	2472.685962
407.144240	2462.603654
407.525447	2497.891731
407.906593	2462.603654
408.287677	2497.891731
408.668700	2535.700385
409.049661	2520.576923
409.430560	2513.015192
409.811399	2475.206538
410.192176	2492.850577
410.572891	2538.220962
410.953545	2414.712692
411.334138	2419.753846
411.714669	2437.397885
412.095139	2424.795000
412.475547	2487.809423
412.855894	2397.068654
413.236180	2455.041923
413.616405	2462.603654
413.996568	2492.850577
414.376670	2427.315577
414.756711	2507.974038
415.136691	2472.685962
415.516609	2540.741538
415.896466	2565.947308
416.276262	2457.562500
416.655997	2492.850577
417.035670	2505.453462
417.415283	2455.041923
417.794834	2462.603654
418.174324	2457.562500
418.553753	2535.700385
418.933121	2442.439038
419.312428	2558.385577
419.691674	2525.618077
420.070859	2497.891731
420.449983	2417.233269
420.829045	2379.424615
421.208047	2487.809423
421.586988	2427.315577
421.965867	2533.179808
422.344686	2563.426731
422.723444	2485.288846
423.102141	2452.521346
423.480777	2477.727115
423.859352	2530.659231
424.237866	2505.453462
424.616319	2492.850577
424.994712	2404.630385
425.373044	2507.974038
425.751314	2455.041923
426.129524	2487.809423
426.507673	2515.535769
426.885762	2437.397885
427.263789	2518.056346
427.641756	2497.891731
428.019662	2386.986346
428.397508	2392.027500
428.775292	2437.397885
429.153016	2442.439038
429.530679	2528.138654
429.908282	2407.150962
430.285824	2495.371154
430.663305	2422.274423
431.040726	2404.630385
431.418086	2467.644808
431.795385	2452.521346
432.172624	2482.768269
432.549802	2470.165385
432.926920	2502.932885
433.303977	2422.274423
433.680974	2394.548077
434.057910	2480.247692
434.434786	2475.206538
434.811601	2455.041923
435.188355	2434.877308
435.565050	2477.727115
435.941683	2444.959615
436.318257	2487.809423
436.694770	2452.521346
437.071222	2477.727115
437.447614	2472.685962
437.823946	2533.179808
438.200218	2467.644808
438.576429	2520.576923
438.952580	2482.768269
439.328670	2555.865000
439.704700	2515.535769
440.080670	2477.727115
440.456580	2520.576923
440.832429	2419.753846
441.208218	2507.974038
441.583947	2437.397885
441.959616	2432.356731
442.335224	2515.535769
442.710773	2530.659231
443.086261	2457.562500
443.461689	2442.439038
443.837057	2465.124231
444.212365	2518.056346
444.587612	2434.877308
444.962800	2492.850577
445.337927	2515.535769
445.712995	2452.521346
446.088002	2487.809423
446.462949	2487.809423
446.837837	2495.371154
447.212664	2588.632500
447.587431	2576.029615
447.962139	2482.768269
448.336786	2472.685962
448.711374	2432.356731
449.085901	2452.521346
449.460369	2407.150962
449.834776	2500.412308
450.209124	2505.453462
450.583412	2515.535769
450.957640	2520.576923
451.331808	2492.850577
451.705917	2550.823846
452.079965	2533.179808
452.453954	2467.644808
452.827883	2520.576923
453.201752	2419.753846
453.575562	2485.288846
453.949311	2560.906154
454.323001	2513.015192
454.696632	2444.959615
455.070202	2510.494615
455.443713	2518.056346
455.817164	2424.795000
456.190556	2480.247692
456.563888	2502.932885
456.937160	2429.836154
457.310373	2568.467885
457.683526	2462.603654
458.056619	2434.877308
458.429653	2439.918462
458.802628	2434.877308
459.175542	2467.644808
459.548398	2490.330000
459.921194	2452.521346
460.293930	2515.535769
460.666607	2442.439038
461.039224	2487.809423
461.411782	2495.371154
461.784280	2485.288846
462.156719	2376.904038
462.529099	2444.959615
462.901419	2507.974038
463.273680	2487.809423
463.645882	2432.356731
464.018024	2417.233269
464.390106	2518.056346
464.762130	2573.509038
465.134094	2492.850577
465.505999	2510.494615
465.877845	2477.727115
466.249631	2513.015192
466.621358	2450.000769
466.993026	2480.247692
467.364634	2515.535769
467.736184	2548.303269
468.107674	2480.247692
468.479105	2555.865000
468.850477	2505.453462
469.221790	2553.344423
469.593043	2457.562500
469.964238	2480.247692
470.335373	2447.480192
470.706449	2548.303269
471.077467	2455.041923
471.448425	2427.315577
471.819324	2439.918462
472.190164	2497.891731
472.560945	2518.056346
472.931667	2497.891731
473.302330	2533.179808
473.672934	2500.412308
474.043479	2422.274423
474.413965	2477.727115
474.784393	2386.986346
475.154761	2550.823846
475.525070	2480.247692
475.895321	2510.494615
476.265513	2447.480192
476.635645	2487.809423
477.005719	2505.453462
477.375734	2485.288846
477.745691	2576.029615
478.115588	2472.685962
478.485427	2412.192115
478.855207	2336.574808
479.224928	2513.015192
479.594591	2437.397885
479.964194	2399.589231
480.333739	2505.453462
480.703226	2528.138654
481.072653	2500.412308
481.442022	2603.755962
481.811333	2490.330000
482.180584	2502.932885
482.549777	2432.356731
482.918912	2530.659231
483.287988	2505.453462
483.657005	2450.000769
484.025964	2500.412308
484.394864	2500.412308
484.763706	2480.247692
485.132489	2452.521346
485.501213	2535.700385
485.869879	2535.700385
486.238487	2570.988462
486.607036	2540.741538
486.975527	2505.453462
487.343959	2427.315577
487.712333	2543.262115
488.080648	2530.659231
488.448905	2490.330000
488.817104	2447.480192
489.185244	2538.220962
489.553326	2460.083077
489.921350	2520.576923
490.289315	2485.288846
490.657222	2568.467885
491.025070	2538.220962
491.392861	2500.412308
491.760593	2434.877308
492.128267	2467.644808
492.495883	2492.850577
492.863440	2518.056346
493.230939	2535.700385
493.598380	2553.344423
493.965763	2492.850577
494.333088	2515.535769
494.700354	2472.685962
495.067563	2497.891731
495.434713	2460.083077
495.801805	2384.465769
496.168839	2442.439038
496.535815	2409.671538
496.902733	2502.932885
497.269593	2530.659231
497.636395	2467.644808
498.003139	2520.576923
498.369825	2535.700385
498.736453	2490.330000
499.103023	2470.165385
499.469535	2513.015192
499.835989	2434.877308
500.202385	2538.220962
500.568723	2465.124231
500.935003	2455.041923
501.301226	2505.453462
501.667390	2528.138654
502.033497	2482.768269
502.399546	2568.467885
502.765537	2457.562500
503.131470	2553.344423
503.497345	2492.850577
503.863163	2480.247692
504.228923	2422.274423
504.594625	2568.467885
504.960269	2500.412308
505.325856	2505.453462
505.691385	2450.000769
506.056856	2545.782692
506.422270	2472.685962
506.787625	2510.494615
507.152924	2548.303269
507.518164	2510.494615
507.883347	2502.932885
508.248472	2490.330000
508.613540	2490.330000
508.978550	2497.891731
509.343503	2384.465769
509.708398	2485.288846
510.073236	2560.906154
510.438016	2495.371154
510.802738	2538.220962
511.167403	2457.562500
511.532010	2432.356731
511.896561	2460.083077
512.261053	2528.138654
512.625488	2583.591346
512.989866	2467.644808
513.354186	2520.576923
513.718449	2490.330000
514.082655	2492.850577
514.446803	2510.494615
514.810894	2477.727115
515.174927	2465.124231
515.538904	2525.618077
515.902822	2485.288846
516.266684	2490.330000
516.630488	2507.974038
516.994235	2553.344423
517.357925	2422.274423
517.721558	2482.768269
518.085133	2560.906154
518.448651	2588.632500
518.812112	2475.206538
519.175516	2500.412308
519.538863	2460.083077
519.902152	2520.576923
520.265385	2487.809423
520.628560	2507.974038
520.991678	2550.823846
521.354739	2480.247692
521.717743	2525.618077
522.080690	2523.097500
522.443580	2437.397885
522.806413	2480.247692
523.169189	2500.412308
523.531908	2482.768269
523.894569	2586.111923
524.257174	2533.179808
524.619722	2495.371154
524.982213	2490.330000
525.344647	2485.288846
525.707025	2412.192115
526.069345	2485.288846
526.431608	2492.850577
526.793815	2409.671538
527.155964	2568.467885
527.518057	2470.165385
527.880093	2442.439038
528.242072	2500.412308
528.603995	2450.000769
528.965860	2538.220962
529.327669	2439.918462
529.689421	2626.441154
530.051117	2505.453462
530.412755	2510.494615
530.774337	2553.344423
531.135862	2465.124231
531.497331	2482.768269
531.858743	2513.015192
532.220098	2515.535769
532.581396	2470.165385
532.942638	2502.932885
533.303824	2510.494615
533.664953	2520.576923
534.026025	2432.356731
534.387040	2520.576923
534.747999	2444.959615
535.108902	2505.453462
535.469748	2465.124231
535.830537	2515.535769
536.191270	2399.589231
536.551947	2518.056346
536.912567	2533.179808
537.273131	2548.303269
537.633638	2482.768269
537.994089	2535.700385
538.354483	2447.480192
538.714821	2429.836154
539.075103	2528.138654
539.435328	2495.371154
539.795497	2598.714808
540.155609	2548.303269
540.515665	2525.618077
540.875665	2507.974038
541.235609	2492.850577
541.595496	2487.809423
541.955328	2518.056346
542.315102	2467.644808
542.674821	2482.768269
543.034483	2490.330000
543.394090	2563.426731
543.753640	2437.397885
544.113134	2543.262115
544.472571	2444.959615
544.831953	2510.494615
545.191278	2450.000769
545.550548	2502.932885
545.909761	2510.494615
546.268918	2497.891731
546.628019	2424.795000
546.987064	2475.206538
547.346053	2485.288846
547.704986	2540.741538
548.063863	2457.562500
548.422684	2548.303269
548.781449	2457.562500
549.140158	2482.768269
549.498811	2444.959615
549.857408	2487.809423
550.215949	2513.015192
550.574434	2432.356731
550.932864	2490.330000
551.291237	2492.850577
551.649555	2492.850577
552.007817	2444.959615
552.366022	2490.330000
552.724173	2490.330000
553.082267	2515.535769
553.440305	2550.823846
553.798288	2518.056346
554.156215	2480.247692
554.514086	2480.247692
554.871902	2472.685962
555.229661	2525.618077
555.587365	2523.097500
555.945014	2535.700385
556.302606	2505.453462
556.660143	2450.000769
557.017625	2462.603654
557.375050	2485.288846
557.732421	2518.056346
558.089735	2437.397885
558.446994	2530.659231
558.804197	2530.659231
559.161345	2497.891731
559.518437	2467.644808
559.875474	2502.932885
560.232455	2475.206538
560.589381	2576.029615
560.946251	2467.644808
561.303065	2457.562500
561.659825	2460.083077
562.016528	2482.768269
562.373177	2548.303269
562.729770	2523.097500
563.086307	2472.685962
563.442789	2465.124231
563.799216	2490.330000
564.155587	2497.891731
564.511904	2444.959615
564.868164	2490.330000
565.224370	2548.303269
565.580520	2480.247692
565.936615	2462.603654
566.292654	2502.932885
566.648638	2520.576923
567.004567	2427.315577
567.360441	2530.659231
567.716260	2565.947308
568.072023	2525.618077
568.427732	2495.371154
568.783385	2553.344423
569.138982	2545.782692
569.494525	2482.768269
569.850013	2553.344423
570.205445	2407.150962
570.560823	2515.535769
570.916145	2507.974038
571.271412	2444.959615
571.626625	2444.959615
571.981782	2462.603654
572.336884	2447.480192
572.691931	2507.974038
573.046923	2487.809423
573.401860	2482.768269
573.756743	2444.959615
574.111570	2523.097500
574.466342	2407.150962
574.821059	2543.262115
575.175722	2485.288846
575.530330	2513.015192
575.884882	2485.288846
576.239380	2523.097500
576.593823	2530.659231
576.948211	2467.644808
577.302544	2379.424615
577.656823	2497.891731
578.011047	2576.029615
578.365216	2490.330000
578.719330	2523.097500
579.073389	2535.700385
579.427394	2467.644808
579.781344	2432.356731
580.135239	2525.618077
580.489080	2434.877308
580.842866	2462.603654
581.196597	2492.850577
581.550273	2545.782692
581.903895	2472.685962
582.257463	2432.356731
582.610975	2520.576923
582.964434	2490.330000
583.317837	2573.509038
583.671186	2460.083077
584.024481	2460.083077
584.377721	2515.535769
584.730906	2485.288846
585.084037	2505.453462
585.437113	2490.330000
585.790135	2565.947308
586.143103	2487.809423
586.496016	2412.192115
586.848874	2417.233269
587.201679	2570.988462
587.554428	2507.974038
587.907124	2457.562500
588.259765	2515.535769
588.612352	2467.644808
588.964884	2500.412308
589.317362	2477.727115
589.669786	2477.727115
590.022155	2518.056346
590.374470	2402.109808
590.726731	2495.371154
591.078937	2467.644808
591.431090	2497.891731
591.783188	2477.727115
592.135232	2500.412308
592.487222	2462.603654
592.839157	2543.262115
593.191038	2492.850577
593.542866	2497.891731
593.894639	2465.124231
594.246358	2444.959615
594.598022	2515.535769
594.949633	2570.988462
595.301190	2492.850577
595.652692	2507.974038
596.004141	2492.850577
596.355535	2548.303269
596.706876	2470.165385
597.058162	2475.206538
597.409395	2548.303269
597.760573	2450.000769
598.111698	2533.179808
598.462768	2555.865000
598.813785	2477.727115
599.164748	2563.426731
599.515657	2455.041923
599.866511	2480.247692
600.217312	2422.274423
600.568060	2482.768269
600.918753	2515.535769
601.269392	2482.768269
601.619978	2470.165385
601.970510	2520.576923
602.320988	2485.288846
602.671412	2583.591346
603.021783	2470.165385
603.372100	2545.782692
603.722363	2475.206538
604.072572	2482.768269
604.422728	2439.918462
604.772830	2530.659231
605.122878	2447.480192
605.472872	2518.056346
605.822813	2550.823846
606.172701	2404.630385
606.522534	2450.000769
606.872314	2477.727115
607.222041	2497.891731
607.571714	2460.083077
607.921333	2518.056346
608.270899	2460.083077
608.620411	2523.097500
608.969870	2497.891731
609.319276	2495.371154
609.668627	2432.356731
610.017926	2470.165385
610.367171	2424.795000
610.716362	2427.315577
611.065500	2538.220962
611.414585	2560.906154
611.763616	2475.206538
612.112594	2442.439038
612.461518	2462.603654
612.810389	2533.179808
613.159207	2470.165385
613.507971	2528.138654
613.856682	2475.206538
614.205340	2429.836154
614.553945	2540.741538
614.902496	2444.959615
615.250994	2548.303269
615.599439	2447.480192
615.947830	2560.906154
616.296169	2505.453462
616.644454	2507.974038
616.992686	2442.439038
617.340864	2528.138654
617.688990	2510.494615
618.037063	2457.562500
618.385082	2492.850577
618.733048	2510.494615
619.080961	2381.945192
619.428821	2495.371154
619.776628	2502.932885
620.124382	2555.865000
620.472083	2429.836154
620.819731	2586.111923
621.167326	2482.768269
621.514868	2510.494615
621.862357	2518.056346
622.209793	2591.153077
622.557176	2497.891731
622.904506	2530.659231
623.251783	2450.000769
623.599007	2563.426731
623.946179	2465.124231
624.293297	2487.809423
624.640363	2525.618077
624.987376	2475.206538
625.334336	2490.330000
625.681243	2462.603654
626.028097	2462.603654
626.374899	2528.138654
626.721647	2553.344423
627.068343	2510.494615
627.414987	2465.124231
627.761577	2450.000769
628.108115	2472.685962
628.454600	2419.753846
628.801032	2379.424615
629.147412	2507.974038
629.493739	2495.371154
629.840014	2495.371154
630.186236	2530.659231
630.532405	2520.576923
630.878521	2518.056346
631.224585	2613.838269
631.570597	2482.768269
631.916556	2409.671538
632.262462	2520.576923
632.608316	2427.315577
632.954117	2500.412308
633.299866	2470.165385
633.645562	2480.247692
633.991206	2460.083077
634.336797	2507.974038
634.682336	2515.535769
635.027823	2535.700385
635.373257	2434.877308
635.718639	2455.041923
636.063968	2412.192115
636.409245	2538.220962
636.754470	2573.509038
637.099642	2472.685962
637.444762	2432.356731
637.789829	2500.412308
638.134845	2523.097500
638.479808	2515.535769
638.824719	2485.288846
639.169577	2515.535769
639.514383	2570.988462
639.859137	2495.371154
640.203839	2543.262115
640.548489	2467.644808
640.893086	2497.891731
641.237632	2570.988462
641.582125	2477.727115
641.926566	2399.589231
642.270955	2502.932885
642.615292	2523.097500
642.959576	2565.947308
643.303809	2507.974038
643.647990	2450.000769
643.992118	2525.618077
644.336195	2530.659231
644.680219	2538.220962
645.024192	2533.179808
645.368112	2455.041923
645.711981	2518.056346
646.055797	2470.165385
646.399562	2432.356731
646.743274	2530.659231
647.086935	2502.932885
647.430544	2437.397885
647.774101	2460.083077
648.117606	2500.412308
648.461059	2505.453462
648.804460	2505.453462
649.147810	2457.562500
649.491108	2601.235385
649.834354	2515.535769
650.177548	2523.097500
650.520690	2472.685962
650.863781	2452.521346
651.206820	2465.124231
651.549807	2487.809423
651.892742	2581.070769
652.235626	2490.330000
652.578458	2550.823846
652.921238	2543.262115
653.263967	2437.397885
653.606644	2515.535769
653.949269	2490.330000
654.291843	2591.153077
654.634365	2505.453462
654.976836	2472.685962
655.319255	2538.220962
655.661622	2495.371154
656.003938	2485.288846
656.346203	2533.179808
656.688416	2450.000769
657.030577	2553.344423
657.372687	2497.891731
657.714746	2492.850577
658.056753	2505.453462
658.398708	2470.165385
658.740612	2500.412308
659.082465	2563.426731
659.424266	2515.535769
659.766016	2492.850577
660.107715	2399.589231
660.449362	2495.371154
660.790958	2570.988462
661.132503	2462.603654
661.473996	2424.795000
661.815438	2560.906154
662.156829	2467.644808
662.498168	2455.041923
662.839456	2540.741538
663.180693	2568.467885
663.521879	2490.330000
663.863013	2502.932885
664.204097	2573.509038
664.545129	2480.247692
664.886110	2563.426731
665.227040	2545.782692
665.567918	2439.918462
665.908746	2530.659231
666.249522	2545.782692
666.590248	2460.083077
666.930922	2583.591346
667.271545	2384.465769
667.612118	2505.453462
667.952639	2538.220962
668.293109	2495.371154
668.633528	2525.618077
668.973896	2497.891731
669.314213	2528.138654
669.654480	2533.179808
669.994695	2507.974038
670.334859	2487.809423
670.674973	2477.727115
671.015035	2563.426731
671.355047	2424.795000
671.695008	2513.015192
672.034918	2447.480192
672.374777	2528.138654
672.714585	2429.836154
673.054342	2568.467885
673.394049	2525.618077
673.733705	2457.562500
674.073310	2477.727115
674.412864	2475.206538
674.752368	2386.986346
675.091820	2502.932885
675.431223	2482.768269
675.770574	2507.974038
676.109875	2497.891731
676.449125	2447.480192
676.788324	2505.453462
677.127473	2490.330000
677.466571	2467.644808
677.805619	2437.397885
678.144616	2412.192115
678.483562	2523.097500
678.822458	2444.959615
679.161303	2482.768269
679.500098	2593.673654
679.838842	2455.041923
680.177535	2495.371154
680.516179	2497.891731
680.854771	2515.535769
681.193314	2500.412308
681.531805	2477.727115
681.870247	2487.809423
682.208638	2487.809423
682.546978	2523.097500
682.885268	2550.823846
683.223508	2447.480192
683.561697	2513.015192
683.899836	2533.179808
684.237925	2424.795000
684.575963	2460.083077
684.913951	2477.727115
685.251889	2535.700385
685.589776	2545.782692
685.927614	2502.932885
686.265401	2525.618077
686.603137	2528.138654
686.940824	2467.644808
687.278460	2467.644808
687.616046	2540.741538
687.953582	2452.521346
688.291068	2497.891731
688.628504	2452.521346
688.965889	2447.480192
689.303224	2444.959615
689.640510	2490.330000
689.977745	2462.603654
690.314930	2500.412308
690.652065	2528.138654
690.989150	2487.809423
691.326185	2576.029615
691.663170	2444.959615
692.000105	2555.865000
692.336990	2492.850577
692.673825	2538.220962
693.010610	2513.015192
693.347345	2533.179808
693.684030	2427.315577
694.020665	2475.206538
694.357251	2492.850577
694.693786	2545.782692
695.030272	2550.823846
695.366707	2573.509038
695.703093	2578.550192
696.039429	2434.877308
696.375716	2482.768269
696.711952	2465.124231
697.048139	2525.618077
697.384276	2381.945192
697.720363	2432.356731
698.056400	2460.083077
698.392388	2492.850577
698.728326	2452.521346
699.064214	2485.288846
699.400053	2545.782692
699.735842	2510.494615
700.071581	2414.712692
700.407270	2530.659231
700.742910	2447.480192
701.078501	2568.467885
701.414042	2510.494615
701.749533	2407.150962
702.084974	2495.371154
702.420366	2432.356731
702.755709	2477.727115
703.091002	2525.618077
703.426246	2452.521346
703.761440	2447.480192
704.096584	2505.453462
704.431679	2608.797115
704.766725	2518.056346
705.101721	2500.412308
705.436668	2452.521346
705.771565	2558.385577
706.106413	2528.138654
706.441212	2462.603654
706.775961	2470.165385
707.110661	2535.700385
707.445311	2467.644808
707.779913	2502.932885
708.114465	2470.165385
708.448967	2535.700385
708.783421	2477.727115
709.117825	2407.150962
709.452180	2475.206538
709.786485	2505.453462
710.120742	2447.480192
710.454949	2558.385577
710.789107	2528.138654
711.123216	2447.480192
711.457275	2417.233269
711.791286	2563.426731
712.125247	2507.974038
712.459159	2502.932885
712.793023	2462.603654
713.126837	2548.303269
713.460602	2470.165385
713.794318	2507.974038
714.127985	2429.836154
714.461602	2515.535769
714.795171	2442.439038
715.128691	2525.618077
715.462162	2462.603654
715.795584	2525.618077
716.128957	2472.685962
716.462281	2450.000769
716.795556	2497.891731
717.128782	2424.795000
717.461960	2457.562500
717.795088	2434.877308
718.128167	2465.124231
718.461198	2518.056346
718.794180	2437.397885
719.127113	2523.097500
719.459997	2608.797115
719.792833	2523.097500
720.125619	2598.714808
720.458357	2477.727115
720.791046	2555.865000
721.123686	2452.521346
721.456278	2540.741538
721.788821	2462.603654
722.121315	2553.344423
722.453761	2482.768269
722.786158	2510.494615
723.118506	2490.330000
723.450805	2450.000769
723.783056	2424.795000
724.115259	2475.206538
724.447412	2480.247692
724.779518	2429.836154
725.111574	2535.700385
725.443582	2457.562500
725.775542	2518.056346
726.107453	2485.288846
726.439315	2500.412308
726.771129	2568.467885
727.102895	2644.085192
727.434612	2482.768269
727.766281	2407.150962
728.097901	2490.330000
728.429473	2583.591346
728.760996	2490.330000
729.092471	2470.165385
729.423897	2477.727115
729.755276	2515.535769
730.086606	2545.782692
730.417887	2515.535769
730.749120	2465.124231
731.080305	2513.015192
731.411442	2543.262115
731.742530	2467.644808
732.073570	2513.015192
732.404562	2497.891731
732.735506	2419.753846
733.066401	2540.741538
733.397249	2548.303269
733.728048	2450.000769
734.058798	2467.644808
734.389501	2470.165385
734.720156	2495.371154
735.050762	2457.562500
735.381320	2515.535769
735.711831	2528.138654
736.042293	2480.247692
736.372707	2477.727115
736.703073	2482.768269
737.033391	2513.015192
737.363661	2502.932885
737.693883	2414.712692
738.024056	2467.644808
738.354182	2470.165385
738.684260	2450.000769
739.014290	2444.959615
739.344272	2477.727115
739.674207	2533.179808
740.004093	2510.494615
740.333931	2455.041923
740.663722	2578.550192
740.993464	2457.562500
741.323159	2470.165385
741.652806	2520.576923
741.982405	2543.262115
742.311956	2518.056346
742.641460	2422.274423
742.970915	2495.371154
743.300323	2460.083077
743.629683	2485.288846
743.958996	2432.356731
744.288260	2495.371154
744.617477	2442.439038
744.946647	2510.494615
745.275768	2432.356731
745.604842	2455.041923
745.933869	2472.685962
746.262847	2555.865000
746.591778	2470.165385
746.920662	2485.288846
747.249498	2402.109808
747.578286	2434.877308
747.907027	2452.521346
748.235720	2470.165385
748.564365	2513.015192
748.892963	2510.494615
749.221514	2462.603654
749.550017	2550.823846
749.878473	2485.288846
750.206881	2560.906154
750.535242	2520.576923
750.863555	2490.330000
751.191821	2510.494615
751.520039	2462.603654
751.848210	2520.576923
752.176334	2545.782692
752.504411	2470.165385
752.832440	2530.659231
753.160421	2485.288846
753.488356	2500.412308
753.816243	2442.439038
754.144082	2570.988462
754.471875	2409.671538
754.799620	2482.768269
755.127318	2490.330000
755.454969	2475.206538
755.782572	2500.412308
756.110129	2424.795000
756.437638	2525.618077
756.765100	2444.959615
757.092515	2502.932885
757.419882	2586.111923
757.747203	2568.467885
758.074477	2462.603654
758.401703	2518.056346
758.728882	2475.206538
759.056014	2487.809423
759.383099	2492.850577
759.710138	2576.029615
760.037129	2487.809423
760.364073	2477.727115
760.690970	2497.891731
761.017820	2424.795000
761.344623	2472.685962
761.671379	2407.150962
761.998088	2487.809423
762.324751	2578.550192
762.651366	2442.439038
762.977935	2505.453462
763.304456	2523.097500
763.630931	2507.974038
763.957359	2523.097500
764.283740	2500.412308
764.610074	2578.550192
764.936362	2444.959615
765.262602	2558.385577
765.588796	2515.535769
765.914943	2424.795000
766.241044	2513.015192
766.567097	2422.274423
766.893104	2548.303269
767.219064	2548.303269
767.544978	2502.932885
767.870845	2475.206538
768.196665	2434.877308
768.522438	2482.768269
768.848165	2528.138654
769.173846	2485.288846
769.499479	2392.027500
769.825066	2533.179808
770.150607	2444.959615
770.476101	2543.262115
770.801548	2513.015192
771.126949	2450.000769
771.452303	2505.453462
771.777611	2507.974038
772.102872	2550.823846
772.428087	2480.247692
772.753256	2455.041923
773.078378	2538.220962
773.403453	2482.768269
773.728482	2510.494615
774.053465	2455.041923
774.378401	2502.932885
774.703291	2417.233269
775.028135	2555.865000
775.352932	2424.795000
775.677683	2538.220962
776.002388	2485.288846
776.327046	2578.550192
776.651658	2407.150962
776.976224	2492.850577
777.300743	2528.138654
777.625216	2497.891731
777.949643	2467.644808
778.274024	2472.685962
778.598359	2570.988462
778.922647	2543.262115
779.246889	2467.644808
779.571086	2502.932885
779.895236	2535.700385
780.219339	2500.412308
780.543397	2525.618077
780.867409	2452.521346
781.191374	2455.041923
781.515294	2447.480192
781.839167	2500.412308
782.162995	2487.809423
782.486776	2520.576923
782.810511	2497.891731
783.134201	2477.727115
783.457844	2565.947308
783.781441	2457.562500
784.104993	2530.659231
784.428498	2427.315577
784.751958	2497.891731
785.075372	2533.179808
785.398739	2543.262115
785.722061	2490.330000
786.045337	2472.685962
786.368568	2523.097500
786.691752	2545.782692
787.014891	2460.083077
787.337983	2520.576923
787.661030	2429.836154
787.984031	2419.753846
788.306987	2523.097500
788.629897	2455.041923
788.952760	2535.700385
789.275579	2485.288846
789.598351	2470.165385
789.921078	2510.494615
790.243759	2427.315577
790.566395	2523.097500
790.888984	2548.303269
791.211529	2460.083077
791.534027	2525.618077
791.856480	2427.315577
792.178888	2475.206538
792.501249	2432.356731
792.823566	2510.494615
793.145836	2447.480192
793.468062	2497.891731
793.790241	2502.932885
794.112375	2515.535769
794.434464	2465.124231
794.756507	2432.356731
795.078505	2507.974038
795.400457	2455.041923
795.722364	2472.685962
796.044226	2502.932885
796.366042	2359.260000
796.687812	2502.932885
797.009538	2502.932885
797.331218	2535.700385
797.652852	2555.865000
797.974442	2540.741538
798.295986	2450.000769
798.617484	2520.576923
798.938938	2467.644808
799.260346	2583.591346
799.581709	2460.083077
799.903026	2389.506923
800.224299	2404.630385
800.545526	2513.015192
800.866708	2465.124231
801.187845	2515.535769
801.508936	2505.453462
801.829983	2467.644808
802.150984	2455.041923
802.471940	2487.809423
802.792851	2497.891731
803.113717	2482.768269
803.434538	2523.097500
803.755314	2437.397885
804.076045	2447.480192
804.396731	2533.179808
804.717372	2399.589231
805.037967	2444.959615
805.358518	2502.932885
805.679024	2482.768269
805.999485	2439.918462
806.319901	2505.453462
806.640272	2477.727115
806.960598	2530.659231
807.280879	2550.823846
807.601115	2444.959615
807.921306	2553.344423
808.241453	2437.397885
808.561554	2530.659231
808.881611	2465.124231
809.201623	2578.550192
809.521590	2505.453462
809.841513	2437.397885
810.161390	2510.494615
810.481223	2482.768269
810.801011	2397.068654
811.120755	2593.673654
811.440453	2497.891731
811.760107	2480.247692
812.079716	2455.041923
812.399281	2497.891731
812.718801	2444.959615
813.038276	2442.439038
813.357707	2520.576923
813.677093	2492.850577
813.996434	2518.056346
814.315731	2462.603654
814.634983	2475.206538
814.954191	2505.453462
815.273354	2490.330000
815.592473	2573.509038
815.911547	2460.083077
816.230577	2467.644808
816.549562	2442.439038
816.868502	2545.782692
817.187399	2470.165385
817.506250	2460.083077
817.825058	2487.809423
818.143821	2424.795000
818.462539	2513.015192
818.781213	2409.671538
819.099843	2429.836154
819.418429	2407.150962
819.736970	2543.262115
820.055466	2389.506923
820.373919	2520.576923
820.692327	2429.836154
821.010691	2492.850577
821.329011	2434.877308
821.647286	2520.576923
821.965517	2424.795000
822.283704	2495.371154
822.601847	2439.918462
822.919945	2502.932885
823.237999	2450.000769
823.556010	2507.974038
823.873976	2523.097500
824.191897	2470.165385
824.509775	2424.795000
824.827609	2545.782692
825.145398	2442.439038
825.463144	2545.782692
825.780845	2470.165385
826.098502	2472.685962
826.416116	2462.603654
826.733685	2414.712692
827.051210	2518.056346
827.368692	2429.836154
827.686129	2505.453462
828.003522	2465.124231
828.320872	2452.521346
828.638177	2477.727115
828.955439	2560.906154
829.272656	2467.644808
829.589830	2477.727115
829.906960	2470.165385
830.224046	2603.755962
830.541088	2419.753846
830.858086	2518.056346
831.175041	2538.220962
831.491952	2424.795000
831.808819	2500.412308
832.125642	2495.371154
832.442421	2528.138654
832.759157	2462.603654
833.075849	2427.315577
833.392497	2500.412308
833.709101	2613.838269
834.025662	2563.426731
834.342179	2485.288846
834.658653	2427.315577
834.975083	2485.288846
835.291469	2475.206538
835.607811	2505.453462
835.924110	2462.603654
836.240366	2482.768269
836.556578	2477.727115
836.872746	2518.056346
837.188871	2533.179808
837.504952	2560.906154
837.820990	2570.988462
838.136984	2583.591346
838.452935	2452.521346
838.768842	2460.083077
839.084706	2586.111923
839.400526	2434.877308
839.716303	2444.959615
840.032037	2495.371154
840.347727	2470.165385
840.663373	2528.138654
840.978977	2603.755962
841.294537	2502.932885
841.610054	2513.015192
841.925527	2460.083077
842.240957	2507.974038
842.556344	2475.206538
842.871687	2520.576923
843.186987	2520.576923
843.502244	2576.029615
843.817458	2412.192115
844.132629	2528.138654
844.447756	2439.918462
844.762840	2429.836154
845.077881	2528.138654
845.392879	2515.535769
845.707833	2487.809423
846.022745	2470.165385
846.337613	2490.330000
846.652438	2482.768269
846.967221	2558.385577
847.281960	2583.591346
847.596656	2505.453462
847.911309	2510.494615
848.225919	2545.782692
848.540485	2432.356731
848.855009	2576.029615
849.169490	2442.439038
849.483928	2540.741538
849.798323	2588.632500
850.112675	2490.330000
850.426984	2598.714808
850.741251	2505.453462
851.055474	2419.753846
851.369654	2482.768269
851.683792	2485.288846
851.997887	2427.315577
852.311938	2513.015192
852.625947	2450.000769
852.939914	2450.000769
853.253837	2513.015192
853.567718	2482.768269
853.881555	2500.412308
854.195350	2495.371154
854.509103	2439.918462
854.822812	2540.741538
855.136479	2530.659231
855.450103	2439.918462
855.763685	2543.262115
856.077224	2510.494615
856.390720	2515.535769
856.704173	2475.206538
857.017584	2586.111923
857.330953	2550.823846
857.644278	2465.124231
857.957561	2427.315577
858.270802	2533.179808
858.584000	2417.233269
858.897155	2389.506923
859.210268	2477.727115
859.523339	2513.015192
859.836367	2530.659231
860.149352	2568.467885
860.462295	2485.288846
860.775195	2427.315577
861.088054	2591.153077
861.400869	2565.947308
861.713642	2618.879423
862.026373	2502.932885
862.339062	2528.138654
862.651708	2555.865000
862.964312	2457.562500
863.276873	2472.685962
863.589392	2581.070769
863.901869	2432.356731
864.214303	2452.521346
864.526696	2497.891731
864.839045	2515.535769
865.151353	2515.535769
865.463619	2535.700385
865.775842	2409.671538
866.088023	2462.603654
866.400162	2543.262115
866.712258	2528.138654
867.024313	2568.467885
867.336325	2450.000769
867.648296	2490.330000
867.960224	2439.918462
868.272110	2528.138654
868.583954	2477.727115
868.895755	2455.041923
869.207515	2505.453462
869.519233	2455.041923
869.830909	2543.262115
870.142542	2432.356731
870.454134	2462.603654
870.765684	2513.015192
871.077191	2487.809423
871.388657	2520.576923
871.700081	2470.165385
872.011463	2500.412308
872.322803	2495.371154
872.634101	2452.521346
872.945357	2439.918462
873.256571	2470.165385
873.567744	2450.000769
873.878874	2553.344423
874.189963	2455.041923
874.501010	2419.753846
874.812015	2480.247692
875.122979	2480.247692
875.433900	2480.247692
875.744780	2543.262115
876.055618	2505.453462
876.366415	2545.782692
876.677169	2500.412308
876.987882	2399.589231
877.298554	2490.330000
877.609183	2417.233269
877.919771	2533.179808
878.230317	2515.535769
878.540822	2444.959615
878.851285	2530.659231
879.161707	2442.439038
879.472087	2434.877308
879.782425	2497.891731
880.092722	2502.932885
880.402977	2565.947308
880.713191	2576.029615
881.023363	2533.179808
881.333494	2598.714808
881.643583	2465.124231
881.953631	2502.932885
882.263637	2457.562500
882.573602	2374.383462
882.883526	2462.603654
883.193408	2452.521346
883.503248	2515.535769
883.813048	2442.439038
884.122806	2563.426731
884.432522	2480.247692
884.742197	2444.959615
885.051831	2533.179808
885.361424	2545.782692
885.670975	2364.301154
885.980485	2540.741538
886.289954	2376.904038
886.599382	2540.741538
886.908768	2397.068654
887.218113	2548.303269
887.527417	2515.535769
887.836680	2447.480192
888.145901	2485.288846
888.455082	2467.644808
888.764221	2518.056346
889.073319	2447.480192
889.382376	2518.056346
889.691392	2487.809423
890.000366	2492.850577
890.309300	2477.727115
890.618193	2528.138654
890.927044	2497.891731
891.235855	2523.097500
891.544625	2439.918462
891.853353	2507.974038
892.162041	2472.685962
892.470687	2548.303269
892.779293	2455.041923
893.087858	2545.782692
893.396381	2432.356731
893.704864	2510.494615
894.013306	2518.056346
894.321707	2482.768269
894.630068	2447.480192
894.938387	2485.288846
895.246665	2444.959615
895.554903	2497.891731
895.863100	2475.206538
896.171256	2487.809423
896.479371	2467.644808
896.787446	2513.015192
897.095480	2477.727115
897.403473	2497.891731
897.711425	2492.850577
898.019336	2543.262115
898.327207	2550.823846
898.635038	2528.138654
898.942827	2497.891731
899.250576	2490.330000
899.558284	2525.618077
899.865952	2540.741538
900.173579	2482.768269
900.481165	2502.932885
900.788711	2576.029615
901.096216	2507.974038
901.403681	2480.247692
901.711105	2384.465769
902.018489	2429.836154
902.325832	2568.467885
902.633135	2447.480192
902.940397	2525.618077
903.247619	2467.644808
903.554800	2490.330000
903.861941	2427.315577
904.169041	2548.303269
904.476101	2568.467885
904.783121	2492.850577
905.090100	2500.412308
905.397039	2452.521346
905.703938	2462.603654
906.010796	2518.056346
906.317614	2586.111923
906.624391	2540.741538
906.931129	2535.700385
907.237826	2480.247692
907.544483	2492.850577
907.851099	2573.509038
908.157675	2545.782692
908.464211	2507.974038
908.770707	2460.083077
909.077163	2570.988462
909.383578	2434.877308
909.689954	2523.097500
909.996289	2467.644808
910.302584	2500.412308
910.608839	2475.206538
910.915054	2477.727115
911.221229	2490.330000
911.527363	2543.262115
911.833458	2460.083077
912.139513	2553.344423
912.445527	2467.644808
912.751502	2450.000769
913.057436	2490.330000
913.363331	2505.453462
913.669186	2555.865000
913.975000	2371.862885
914.280775	2455.041923
914.586510	2480.247692
914.892205	2472.685962
915.197859	2502.932885
915.503475	2455.041923
915.809050	2543.262115
916.114585	2535.700385
916.420081	2545.782692
916.725536	2450.000769
917.030952	2492.850577
917.336328	2460.083077
917.641665	2467.644808
917.946961	2507.974038
918.252218	2510.494615
918.557435	2540.741538
918.862612	2465.124231
919.167750	2452.521346
919.472848	2518.056346
919.777906	2515.535769
920.082925	2444.959615
920.387904	2523.097500
920.692843	2475.206538
920.997743	2507.974038
921.302603	2412.192115
921.607423	2407.150962
921.912204	2490.330000
922.216946	2533.179808
922.521647	2487.809423
922.826310	2490.330000
923.130932	2397.068654
923.435516	2434.877308
923.740059	2389.506923
924.044564	2462.603654
924.349028	2490.330000
924.653454	2472.685962
924.957840	2487.809423
925.262186	2480.247692
925.566493	2515.535769
925.870761	2465.124231
926.174989	2460.083077
926.479178	2467.644808
926.783328	2510.494615
927.087438	2442.439038
927.391509	2538.220962
927.695541	2475.206538
927.999533	2528.138654
928.303486	2495.371154
928.607400	2530.659231
928.911275	2467.644808
929.215110	2518.056346
929.518906	2507.974038
929.822663	2533.179808
930.126381	2555.865000
930.430060	2528.138654
930.733699	2583.591346
931.037299	2533.179808
931.340861	2455.041923
931.644383	2482.768269
931.947866	2427.315577
932.251309	2460.083077
932.554714	2374.383462
932.858080	2507.974038
933.161407	2515.535769
933.464694	2513.015192
933.767943	2434.877308
934.071153	2487.809423
934.374323	2392.027500
934.677455	2543.262115
934.980548	2475.206538
935.283602	2553.344423
935.586617	2487.809423
935.889593	2515.535769
936.192530	2500.412308
936.495428	2462.603654
936.798287	2465.124231
937.101108	2518.056346
937.403890	2548.303269
937.706632	2450.000769
938.009336	2606.276538
938.312002	2447.480192
938.614628	2533.179808
938.917216	2412.192115
939.219765	2490.330000
939.522275	2447.480192
939.824747	2472.685962
940.127179	2470.165385
940.429573	2495.371154
940.731929	2495.371154
941.034246	2477.727115
941.336524	2550.823846
941.638763	2455.041923
941.940964	2407.150962
942.243126	2502.932885
942.545250	2558.385577
942.847335	2515.535769
943.149381	2432.356731
943.451389	2507.974038
943.753359	2500.412308
944.055290	2482.768269
944.357182	2412.192115
944.659036	2495.371154
944.960851	2568.467885
945.262628	2475.206538
945.564367	2530.659231
945.866067	2480.247692
946.167729	2442.439038
946.469352	2487.809423
946.770937	2507.974038
947.072484	2505.453462
947.373992	2500.412308
947.675462	2490.330000
947.976893	2482.768269
948.278286	2467.644808
948.579641	2538.220962
948.880958	2475.206538
949.182236	2465.124231
949.483476	2525.618077
949.784678	2447.480192
950.085841	2457.562500
950.386967	2422.274423
950.688054	2588.632500
950.989103	2513.015192
951.290114	2442.439038
951.591087	2482.768269
951.892021	2409.671538
952.192917	2442.439038
952.493776	2520.576923
952.794596	2470.165385
953.095378	2500.412308
953.396122	2510.494615
953.696828	2530.659231
953.997496	2429.836154
954.298126	2510.494615
954.598718	2490.330000
954.899272	2480.247692
955.199788	2540.741538
955.500266	2450.000769
955.800706	2525.618077
956.101108	2495.371154
956.401472	2535.700385
956.701798	2475.206538
957.002087	2510.494615
957.302337	2487.809423
957.602550	2543.262115
957.902724	2467.644808
958.202861	2492.850577
958.502960	2555.865000
958.803022	2538.220962
959.103045	2555.865000
959.403031	2457.562500
959.702979	2505.453462
960.002889	2457.562500
960.302762	2477.727115
960.602596	2507.974038
960.902393	2487.809423
961.202153	2507.974038
961.501875	2487.809423
961.801559	2467.644808
962.101205	2487.809423
962.400814	2442.439038
962.700385	2452.521346
962.999918	2523.097500
963.299414	2507.974038
963.598873	2533.179808
963.898293	2424.795000
964.197677	2510.494615
964.497022	2439.918462
964.796331	2543.262115
965.095601	2419.753846
965.394835	2467.644808
965.694030	2470.165385
965.993189	2485.288846
966.292309	2515.535769
966.591393	2434.877308
966.890439	2427.315577
967.189447	2505.453462
967.488419	2467.644808
967.787353	2548.303269
968.086249	2507.974038
968.385108	2477.727115
968.683930	2417.233269
968.982714	2533.179808
969.281462	2573.509038
969.580172	2462.603654
969.878844	2492.850577
970.177480	2518.056346
970.476078	2450.000769
970.774639	2540.741538
971.073162	2455.041923
971.371649	2500.412308
971.670098	2507.974038
971.968510	2510.494615
972.266885	2586.111923
972.565223	2533.179808
972.863524	2525.618077
973.161788	2513.015192
973.460014	2505.453462
973.758204	2447.480192
974.056356	2555.865000
974.354471	2528.138654
974.652550	2424.795000
974.950591	2417.233269
975.248595	2528.138654
975.546563	2402.109808
975.844493	2502.932885
976.142386	2482.768269
976.440243	2507.974038
976.738062	2482.768269
977.035845	2485.288846
977.333590	2505.453462
977.631299	2565.947308
977.928971	2507.974038
978.226606	2570.988462
978.524204	2392.027500
978.821765	2513.015192
979.119290	2452.521346
979.416777	2513.015192
979.714228	2490.330000
980.011642	2540.741538
980.309020	2525.618077
980.606360	2530.659231
980.903664	2444.959615
981.200931	2505.453462
981.498162	2465.124231
981.795356	2528.138654
982.092513	2429.836154
982.389633	2452.521346
982.686717	2533.179808
982.983764	2482.768269
983.280775	2386.986346
983.577749	2510.494615
983.874686	2495.371154
984.171587	2439.918462
984.468451	2455.041923
984.765279	2533.179808
985.062070	2450.000769
985.358824	2392.027500
985.655543	2535.700385
985.952224	2497.891731
986.248869	2455.041923
986.545478	2354.218846
986.842050	2490.330000
987.138586	2497.891731
987.435086	2472.685962
987.731549	2558.385577
988.027975	2482.768269
988.324366	2525.618077
988.620719	2412.192115
988.917037	2460.083077
989.213318	2573.509038
989.509563	2465.124231
989.805772	2523.097500
990.101944	2505.453462
990.398080	2530.659231
990.694180	2490.330000
990.990244	2492.850577
991.286271	2429.836154
991.582262	2487.809423
991.878217	2450.000769
992.174136	2480.247692
992.470019	2419.753846
992.765865	2500.412308
993.061676	2507.974038
993.357450	2409.671538
993.653188	2545.782692
993.948890	2470.165385
994.244556	2450.000769
994.540186	2533.179808
994.835780	2480.247692
995.131337	2472.685962
995.426859	2545.782692
995.722345	2450.000769
996.017795	2429.836154
996.313208	2505.453462
996.608586	2490.330000
996.903928	2583.591346
997.199234	2414.712692
997.494504	2540.741538
997.789738	2477.727115
998.084936	2439.918462
998.380099	2424.795000
998.675225	2457.562500
998.970316	2470.165385
999.265371	2477.727115
999.560390	2510.494615
999.855373	2568.467885
1000.150320	2593.673654
1000.445232	2389.506923
1000.740108	2497.891731
1001.034948	2439.918462
1001.329752	2457.562500
1001.624521	2444.959615
1001.919254	2540.741538
1002.213951	2507.974038
1002.508613	2475.206538
1002.803239	2558.385577
1003.097829	2528.138654
1003.392384	2515.535769
1003.686903	2477.727115
1003.981386	2558.385577
1004.275834	2452.521346
1004.570246	2442.439038
1004.864623	2422.274423
1005.158964	2487.809423
1005.453270	2437.397885
1005.747540	2525.618077
1006.041775	2480.247692
1006.335974	2500.412308
1006.630138	2452.521346
1006.924266	2507.974038
1007.218359	2588.632500
1007.512416	2545.782692
1007.806438	2460.083077
1008.100425	2485.288846
1008.394376	2397.068654
1008.688292	2467.644808
1008.982172	2568.467885
1009.276017	2450.000769
1009.569827	2528.138654
1009.863602	2467.644808
1010.157341	2497.891731
1010.451045	2447.480192
1010.744714	2570.988462
1011.038347	2432.356731
1011.331945	2502.932885
1011.625508	2472.685962
1011.919036	2553.344423
1012.212528	2490.330000
1012.505986	2369.342308
1012.799408	2490.330000
1013.092795	2550.823846
1013.386147	2490.330000
1013.679464	2439.918462
1013.972745	2530.659231
1014.265992	2510.494615
1014.559204	2424.795000
1014.852380	2404.630385
1015.145521	2460.083077
1015.438628	2434.877308
1015.731699	2429.836154
1016.024736	2518.056346
1016.317737	2457.562500
1016.610703	2419.753846
1016.903635	2497.891731
1017.196531	2550.823846
1017.489393	2543.262115
1017.782219	2442.439038
1018.075011	2515.535769
1018.367768	2397.068654
1018.660490	2515.535769
1018.953177	2515.535769
1019.245829	2515.535769
