Dividing Wavelength (nm)	Counts (n)	Blue Motor Position (mm): 4.900000	Red Motor Position (mm): 0.000000	
326.493990	2114.764038
326.888308	2114.764038
327.282561	2114.764038
327.676750	2059.311346
328.070874	2041.667308
328.464933	2044.187885
328.858929	2112.243462
329.252859	2087.037692
329.646726	2061.831923
330.040528	2104.681731
330.434265	2165.175577
330.827938	2094.599423
331.221547	2157.613846
331.615091	2145.010962
332.008571	2240.792885
332.401986	2220.628269
332.795338	2250.875192
333.188625	2218.107692
333.581847	2215.587115
333.975006	2253.395769
334.368100	2344.136538
334.761129	2334.054231
335.154095	2359.260000
335.546996	2281.122115
335.939833	2437.397885
336.332606	2381.945192
336.725315	2351.698269
337.117960	2399.589231
337.510540	2379.424615
337.903056	2462.603654
338.295508	2404.630385
338.687896	2434.877308
339.080220	2450.000769
339.472480	2505.453462
339.864676	2460.083077
340.256807	2538.220962
340.648875	2523.097500
341.040879	2525.618077
341.432818	2452.521346
341.824694	2485.288846
342.216506	2452.521346
342.608253	2490.330000
342.999937	2472.685962
343.391557	2515.535769
343.783113	2432.356731
344.174605	2439.918462
344.566033	2414.712692
344.957397	2434.877308
345.348697	2457.562500
345.739934	2490.330000
346.131106	2505.453462
346.522215	2407.150962
346.913260	2502.932885
347.304241	2422.274423
347.695159	2434.877308
348.086012	2548.303269
348.476802	2462.603654
348.867528	2379.424615
349.258191	2530.659231
349.648789	2412.192115
350.039324	2392.027500
350.429796	2540.741538
350.820203	2409.671538
351.210548	2475.206538
351.600828	2419.753846
351.991045	2500.412308
352.381198	2424.795000
352.771288	2404.630385
353.161314	2467.644808
353.551276	2480.247692
353.941175	2409.671538
354.331010	2422.274423
354.720782	2497.891731
355.110490	2457.562500
355.500135	2505.453462
355.889717	2439.918462
356.279235	2444.959615
356.668689	2462.603654
357.058080	2477.727115
357.447408	2462.603654
357.836672	2450.000769
358.225873	2447.480192
358.615010	2424.795000
359.004084	2397.068654
359.393095	2374.383462
359.782043	2490.330000
360.170927	2437.397885
360.559748	2427.315577
360.948505	2427.315577
361.337199	2422.274423
361.725830	2470.165385
362.114398	2452.521346
362.502903	2442.439038
362.891344	2513.015192
363.279722	2460.083077
363.668037	2460.083077
364.056289	2520.576923
364.444478	2480.247692
364.832603	2444.959615
365.220665	2439.918462
365.608665	2460.083077
365.996601	2460.083077
366.384474	2465.124231
366.772284	2457.562500
367.160031	2470.165385
367.547715	2480.247692
367.935336	2475.206538
368.322893	2392.027500
368.710388	2437.397885
369.097820	2465.124231
369.485189	2450.000769
369.872495	2472.685962
370.259738	2409.671538
370.646918	2432.356731
371.034035	2477.727115
371.421090	2485.288846
371.808081	2495.371154
372.195010	2404.630385
372.581875	2495.371154
372.968678	2477.727115
373.355418	2402.109808
373.742096	2477.727115
374.128710	2497.891731
374.515262	2492.850577
374.901751	2361.780577
375.288177	2429.836154
375.674540	2477.727115
376.060841	2432.356731
376.447079	2424.795000
376.833254	2475.206538
377.219367	2470.165385
377.605417	2427.315577
377.991404	2535.700385
378.377329	2492.850577
378.763191	2422.274423
379.148991	2414.712692
379.534727	2392.027500
379.920402	2462.603654
380.306013	2409.671538
380.691563	2424.795000
381.077049	2487.809423
381.462474	2495.371154
381.847835	2399.589231
382.233134	2404.630385
382.618371	2497.891731
383.003545	2407.150962
383.388657	2452.521346
383.773706	2399.589231
384.158693	2513.015192
384.543618	2497.891731
384.928480	2422.274423
385.313280	2495.371154
385.698017	2444.959615
386.082692	2444.959615
386.467305	2467.644808
386.851856	2455.041923
387.236344	2452.521346
387.620770	2487.809423
388.005133	2487.809423
388.389435	2407.150962
388.773674	2422.274423
389.157851	2480.247692
389.541965	2442.439038
389.926018	2442.439038
390.310008	2462.603654
390.693936	2495.371154
391.077802	2535.700385
391.461606	2520.576923
391.845348	2429.836154
392.229027	2490.330000
392.612645	2452.521346
392.996200	2472.685962
393.379694	2465.124231
393.763125	2460.083077
394.146494	2444.959615
394.529801	2439.918462
394.913047	2505.453462
395.296230	2397.068654
395.679351	2460.083077
396.062410	2497.891731
396.445408	2434.877308
396.828343	2533.179808
397.211217	2482.768269
397.594028	2480.247692
397.976778	2563.426731
398.359466	2528.138654
398.742092	2424.795000
399.124656	2510.494615
399.507158	2450.000769
399.889598	2424.795000
400.271977	2482.768269
400.654294	2442.439038
401.036549	2475.206538
401.418742	2374.383462
401.800874	2381.945192
402.182944	2475.206538
402.564952	2460.083077
402.946898	2543.262115
403.328783	2381.945192
403.710606	2495.371154
404.092367	2417.233269
404.474067	2505.453462
404.855705	2515.535769
405.237282	2465.124231
405.618797	2482.768269
406.000250	2523.097500
406.381642	2528.138654
406.762972	2502.932885
407.144240	2472.685962
407.525447	2444.959615
407.906593	2450.000769
408.287677	2457.562500
408.668700	2565.947308
409.049661	2505.453462
409.430560	2487.809423
409.811399	2419.753846
410.192176	2538.220962
410.572891	2467.644808
410.953545	2402.109808
411.334138	2477.727115
411.714669	2550.823846
412.095139	2412.192115
412.475547	2513.015192
412.855894	2490.330000
413.236180	2558.385577
413.616405	2485.288846
413.996568	2429.836154
414.376670	2480.247692
414.756711	2606.276538
415.136691	2568.467885
415.516609	2487.809423
415.896466	2525.618077
416.276262	2525.618077
416.655997	2482.768269
417.035670	2477.727115
417.415283	2513.015192
417.794834	2477.727115
418.174324	2513.015192
418.553753	2545.782692
418.933121	2447.480192
419.312428	2475.206538
419.691674	2427.315577
420.070859	2389.506923
420.449983	2447.480192
420.829045	2543.262115
421.208047	2497.891731
421.586988	2442.439038
421.965867	2520.576923
422.344686	2477.727115
422.723444	2550.823846
423.102141	2447.480192
423.480777	2460.083077
423.859352	2439.918462
424.237866	2487.809423
424.616319	2444.959615
424.994712	2513.015192
425.373044	2414.712692
425.751314	2540.741538
426.129524	2432.356731
426.507673	2533.179808
426.885762	2439.918462
427.263789	2457.562500
427.641756	2450.000769
428.019662	2475.206538
428.397508	2470.165385
428.775292	2535.700385
429.153016	2452.521346
429.530679	2520.576923
429.908282	2472.685962
430.285824	2455.041923
430.663305	2487.809423
431.040726	2535.700385
431.418086	2530.659231
431.795385	2560.906154
432.172624	2528.138654
432.549802	2497.891731
432.926920	2502.932885
433.303977	2424.795000
433.680974	2545.782692
434.057910	2492.850577
434.434786	2437.397885
434.811601	2550.823846
435.188355	2507.974038
435.565050	2482.768269
435.941683	2505.453462
436.318257	2553.344423
436.694770	2540.741538
437.071222	2543.262115
437.447614	2510.494615
437.823946	2507.974038
438.200218	2439.918462
438.576429	2460.083077
438.952580	2500.412308
439.328670	2389.506923
439.704700	2442.439038
440.080670	2490.330000
440.456580	2465.124231
440.832429	2480.247692
441.208218	2495.371154
441.583947	2485.288846
441.959616	2414.712692
442.335224	2528.138654
442.710773	2495.371154
443.086261	2412.192115
443.461689	2392.027500
443.837057	2553.344423
444.212365	2482.768269
444.587612	2482.768269
444.962800	2515.535769
445.337927	2490.330000
445.712995	2455.041923
446.088002	2429.836154
446.462949	2455.041923
446.837837	2467.644808
447.212664	2460.083077
447.587431	2518.056346
447.962139	2535.700385
448.336786	2518.056346
448.711374	2432.356731
449.085901	2455.041923
449.460369	2543.262115
449.834776	2558.385577
450.209124	2513.015192
450.583412	2485.288846
450.957640	2497.891731
451.331808	2460.083077
451.705917	2482.768269
452.079965	2470.165385
452.453954	2507.974038
452.827883	2457.562500
453.201752	2530.659231
453.575562	2455.041923
453.949311	2439.918462
454.323001	2502.932885
454.696632	2523.097500
455.070202	2485.288846
455.443713	2588.632500
455.817164	2495.371154
456.190556	2485.288846
456.563888	2490.330000
456.937160	2452.521346
457.310373	2518.056346
457.683526	2432.356731
458.056619	2482.768269
458.429653	2550.823846
458.802628	2460.083077
459.175542	2457.562500
459.548398	2485.288846
459.921194	2480.247692
460.293930	2389.506923
460.666607	2439.918462
461.039224	2422.274423
461.411782	2548.303269
461.784280	2404.630385
462.156719	2439.918462
462.529099	2525.618077
462.901419	2510.494615
463.273680	2442.439038
463.645882	2452.521346
464.018024	2500.412308
464.390106	2497.891731
464.762130	2460.083077
465.134094	2500.412308
465.505999	2495.371154
465.877845	2576.029615
466.249631	2417.233269
466.621358	2460.083077
466.993026	2545.782692
467.364634	2492.850577
467.736184	2482.768269
468.107674	2457.562500
468.479105	2450.000769
468.850477	2543.262115
469.221790	2475.206538
469.593043	2530.659231
469.964238	2452.521346
470.335373	2515.535769
470.706449	2525.618077
471.077467	2452.521346
471.448425	2404.630385
471.819324	2480.247692
472.190164	2548.303269
472.560945	2573.509038
472.931667	2535.700385
473.302330	2568.467885
473.672934	2495.371154
474.043479	2523.097500
474.413965	2500.412308
474.784393	2452.521346
475.154761	2386.986346
475.525070	2573.509038
475.895321	2485.288846
476.265513	2545.782692
476.635645	2565.947308
477.005719	2538.220962
477.375734	2434.877308
477.745691	2558.385577
478.115588	2477.727115
478.485427	2477.727115
478.855207	2502.932885
479.224928	2518.056346
479.594591	2507.974038
479.964194	2452.521346
480.333739	2523.097500
480.703226	2500.412308
481.072653	2523.097500
481.442022	2447.480192
481.811333	2510.494615
482.180584	2470.165385
482.549777	2439.918462
482.918912	2460.083077
483.287988	2472.685962
483.657005	2485.288846
484.025964	2550.823846
484.394864	2485.288846
484.763706	2419.753846
485.132489	2434.877308
485.501213	2538.220962
485.869879	2434.877308
486.238487	2467.644808
486.607036	2465.124231
486.975527	2492.850577
487.343959	2467.644808
487.712333	2467.644808
488.080648	2467.644808
488.448905	2412.192115
488.817104	2490.330000
489.185244	2447.480192
489.553326	2442.439038
489.921350	2467.644808
490.289315	2515.535769
490.657222	2570.988462
491.025070	2417.233269
491.392861	2576.029615
491.760593	2482.768269
492.128267	2507.974038
492.495883	2510.494615
492.863440	2452.521346
493.230939	2573.509038
493.598380	2475.206538
493.965763	2472.685962
494.333088	2565.947308
494.700354	2545.782692
495.067563	2460.083077
495.434713	2528.138654
495.801805	2515.535769
496.168839	2462.603654
496.535815	2523.097500
496.902733	2530.659231
497.269593	2548.303269
497.636395	2487.809423
498.003139	2570.988462
498.369825	2505.453462
498.736453	2576.029615
499.103023	2447.480192
499.469535	2528.138654
499.835989	2374.383462
500.202385	2457.562500
500.568723	2553.344423
500.935003	2487.809423
501.301226	2492.850577
501.667390	2523.097500
502.033497	2497.891731
502.399546	2450.000769
502.765537	2538.220962
503.131470	2586.111923
503.497345	2465.124231
503.863163	2507.974038
504.228923	2565.947308
504.594625	2452.521346
504.960269	2583.591346
505.325856	2523.097500
505.691385	2543.262115
506.056856	2568.467885
506.422270	2475.206538
506.787625	2505.453462
507.152924	2419.753846
507.518164	2485.288846
507.883347	2477.727115
508.248472	2568.467885
508.613540	2523.097500
508.978550	2485.288846
509.343503	2533.179808
509.708398	2467.644808
510.073236	2497.891731
510.438016	2465.124231
510.802738	2543.262115
511.167403	2475.206538
511.532010	2442.439038
511.896561	2538.220962
512.261053	2487.809423
512.625488	2490.330000
512.989866	2402.109808
513.354186	2520.576923
513.718449	2417.233269
514.082655	2513.015192
514.446803	2460.083077
514.810894	2570.988462
515.174927	2480.247692
515.538904	2467.644808
515.902822	2455.041923
516.266684	2470.165385
516.630488	2480.247692
516.994235	2515.535769
517.357925	2502.932885
517.721558	2533.179808
518.085133	2465.124231
518.448651	2530.659231
518.812112	2462.603654
519.175516	2495.371154
519.538863	2480.247692
519.902152	2543.262115
520.265385	2434.877308
520.628560	2475.206538
520.991678	2482.768269
521.354739	2480.247692
521.717743	2500.412308
522.080690	2507.974038
522.443580	2568.467885
522.806413	2439.918462
523.169189	2444.959615
523.531908	2439.918462
523.894569	2563.426731
524.257174	2528.138654
524.619722	2480.247692
524.982213	2497.891731
525.344647	2525.618077
525.707025	2576.029615
526.069345	2497.891731
526.431608	2565.947308
526.793815	2538.220962
527.155964	2528.138654
527.518057	2467.644808
527.880093	2487.809423
528.242072	2427.315577
528.603995	2492.850577
528.965860	2518.056346
529.327669	2533.179808
529.689421	2573.509038
530.051117	2442.439038
530.412755	2470.165385
530.774337	2447.480192
531.135862	2535.700385
531.497331	2450.000769
531.858743	2475.206538
532.220098	2444.959615
532.581396	2538.220962
532.942638	2513.015192
533.303824	2515.535769
533.664953	2452.521346
534.026025	2538.220962
534.387040	2427.315577
534.747999	2535.700385
535.108902	2497.891731
535.469748	2485.288846
535.830537	2518.056346
536.191270	2558.385577
536.551947	2412.192115
536.912567	2407.150962
537.273131	2452.521346
537.633638	2518.056346
537.994089	2432.356731
538.354483	2555.865000
538.714821	2462.603654
539.075103	2480.247692
539.435328	2507.974038
539.795497	2565.947308
540.155609	2437.397885
540.515665	2581.070769
540.875665	2470.165385
541.235609	2447.480192
541.595496	2533.179808
541.955328	2422.274423
542.315102	2535.700385
542.674821	2510.494615
543.034483	2497.891731
543.394090	2565.947308
543.753640	2404.630385
544.113134	2528.138654
544.472571	2500.412308
544.831953	2518.056346
545.191278	2472.685962
545.550548	2533.179808
545.909761	2502.932885
546.268918	2550.823846
546.628019	2381.945192
546.987064	2495.371154
547.346053	2495.371154
547.704986	2611.317692
548.063863	2530.659231
548.422684	2560.906154
548.781449	2573.509038
549.140158	2507.974038
549.498811	2545.782692
549.857408	2515.535769
550.215949	2515.535769
550.574434	2485.288846
550.932864	2482.768269
551.291237	2497.891731
551.649555	2472.685962
552.007817	2427.315577
552.366022	2462.603654
552.724173	2455.041923
553.082267	2513.015192
553.440305	2555.865000
553.798288	2482.768269
554.156215	2525.618077
554.514086	2467.644808
554.871902	2460.083077
555.229661	2513.015192
555.587365	2495.371154
555.945014	2533.179808
556.302606	2472.685962
556.660143	2515.535769
557.017625	2490.330000
557.375050	2492.850577
557.732421	2470.165385
558.089735	2535.700385
558.446994	2558.385577
558.804197	2460.083077
559.161345	2424.795000
559.518437	2490.330000
559.875474	2533.179808
560.232455	2523.097500
560.589381	2530.659231
560.946251	2442.439038
561.303065	2540.741538
561.659825	2460.083077
562.016528	2510.494615
562.373177	2475.206538
562.729770	2495.371154
563.086307	2439.918462
563.442789	2565.947308
563.799216	2505.453462
564.155587	2497.891731
564.511904	2366.821731
564.868164	2535.700385
565.224370	2457.562500
565.580520	2412.192115
565.936615	2502.932885
566.292654	2583.591346
566.648638	2558.385577
567.004567	2548.303269
567.360441	2460.083077
567.716260	2505.453462
568.072023	2439.918462
568.427732	2538.220962
568.783385	2437.397885
569.138982	2455.041923
569.494525	2467.644808
569.850013	2535.700385
570.205445	2462.603654
570.560823	2533.179808
570.916145	2538.220962
571.271412	2437.397885
571.626625	2507.974038
571.981782	2570.988462
572.336884	2465.124231
572.691931	2497.891731
573.046923	2437.397885
573.401860	2523.097500
573.756743	2480.247692
574.111570	2492.850577
574.466342	2533.179808
574.821059	2492.850577
575.175722	2586.111923
575.530330	2475.206538
575.884882	2500.412308
576.239380	2480.247692
576.593823	2485.288846
576.948211	2472.685962
577.302544	2487.809423
577.656823	2525.618077
578.011047	2460.083077
578.365216	2533.179808
578.719330	2495.371154
579.073389	2523.097500
579.427394	2462.603654
579.781344	2480.247692
580.135239	2444.959615
580.489080	2467.644808
580.842866	2470.165385
581.196597	2460.083077
581.550273	2520.576923
581.903895	2452.521346
582.257463	2558.385577
582.610975	2444.959615
582.964434	2500.412308
583.317837	2450.000769
583.671186	2475.206538
584.024481	2492.850577
584.377721	2507.974038
584.730906	2444.959615
585.084037	2591.153077
585.437113	2467.644808
585.790135	2475.206538
586.143103	2472.685962
586.496016	2447.480192
586.848874	2475.206538
587.201679	2558.385577
587.554428	2502.932885
587.907124	2550.823846
588.259765	2462.603654
588.612352	2588.632500
588.964884	2502.932885
589.317362	2490.330000
589.669786	2495.371154
590.022155	2500.412308
590.374470	2513.015192
590.726731	2515.535769
591.078937	2520.576923
591.431090	2548.303269
591.783188	2505.453462
592.135232	2601.235385
592.487222	2497.891731
592.839157	2475.206538
593.191038	2467.644808
593.542866	2548.303269
593.894639	2515.535769
594.246358	2497.891731
594.598022	2548.303269
594.949633	2462.603654
595.301190	2513.015192
595.652692	2533.179808
596.004141	2573.509038
596.355535	2523.097500
596.706876	2515.535769
597.058162	2424.795000
597.409395	2394.548077
597.760573	2505.453462
598.111698	2455.041923
598.462768	2467.644808
598.813785	2578.550192
599.164748	2543.262115
599.515657	2457.562500
599.866511	2518.056346
600.217312	2538.220962
600.568060	2528.138654
600.918753	2520.576923
601.269392	2477.727115
601.619978	2518.056346
601.970510	2518.056346
602.320988	2568.467885
602.671412	2540.741538
603.021783	2543.262115
603.372100	2442.439038
603.722363	2386.986346
604.072572	2437.397885
604.422728	2490.330000
604.772830	2470.165385
605.122878	2530.659231
605.472872	2467.644808
605.822813	2467.644808
606.172701	2525.618077
606.522534	2455.041923
606.872314	2419.753846
607.222041	2427.315577
607.571714	2447.480192
607.921333	2442.439038
608.270899	2487.809423
608.620411	2520.576923
608.969870	2558.385577
609.319276	2518.056346
609.668627	2429.836154
610.017926	2477.727115
610.367171	2510.494615
610.716362	2513.015192
611.065500	2462.603654
611.414585	2490.330000
611.763616	2533.179808
612.112594	2485.288846
612.461518	2520.576923
612.810389	2480.247692
613.159207	2450.000769
613.507971	2490.330000
613.856682	2502.932885
614.205340	2475.206538
614.553945	2570.988462
614.902496	2616.358846
615.250994	2565.947308
615.599439	2525.618077
615.947830	2497.891731
616.296169	2540.741538
616.644454	2523.097500
616.992686	2477.727115
617.340864	2538.220962
617.688990	2467.644808
618.037063	2490.330000
618.385082	2444.959615
618.733048	2523.097500
619.080961	2477.727115
619.428821	2497.891731
619.776628	2550.823846
620.124382	2507.974038
620.472083	2465.124231
620.819731	2502.932885
621.167326	2437.397885
621.514868	2596.194231
621.862357	2513.015192
622.209793	2548.303269
622.557176	2460.083077
622.904506	2437.397885
623.251783	2422.274423
623.599007	2555.865000
623.946179	2553.344423
624.293297	2429.836154
624.640363	2487.809423
624.987376	2460.083077
625.334336	2533.179808
625.681243	2470.165385
626.028097	2465.124231
626.374899	2402.109808
626.721647	2560.906154
627.068343	2545.782692
627.414987	2505.453462
627.761577	2487.809423
628.108115	2364.301154
628.454600	2455.041923
628.801032	2507.974038
629.147412	2548.303269
629.493739	2427.315577
629.840014	2528.138654
630.186236	2442.439038
630.532405	2573.509038
630.878521	2452.521346
631.224585	2462.603654
631.570597	2492.850577
631.916556	2434.877308
632.262462	2455.041923
632.608316	2565.947308
632.954117	2475.206538
633.299866	2601.235385
633.645562	2462.603654
633.991206	2487.809423
634.336797	2457.562500
634.682336	2558.385577
635.027823	2540.741538
635.373257	2490.330000
635.718639	2518.056346
636.063968	2507.974038
636.409245	2518.056346
636.754470	2455.041923
637.099642	2455.041923
637.444762	2356.739423
637.789829	2462.603654
638.134845	2472.685962
638.479808	2482.768269
638.824719	2417.233269
639.169577	2528.138654
639.514383	2520.576923
639.859137	2470.165385
640.203839	2510.494615
640.548489	2628.961731
640.893086	2452.521346
641.237632	2480.247692
641.582125	2535.700385
641.926566	2550.823846
642.270955	2502.932885
642.615292	2520.576923
642.959576	2490.330000
643.303809	2417.233269
643.647990	2490.330000
643.992118	2520.576923
644.336195	2485.288846
644.680219	2475.206538
645.024192	2467.644808
645.368112	2530.659231
645.711981	2470.165385
646.055797	2513.015192
646.399562	2513.015192
646.743274	2502.932885
647.086935	2555.865000
647.430544	2470.165385
647.774101	2500.412308
648.117606	2399.589231
648.461059	2404.630385
648.804460	2518.056346
649.147810	2475.206538
649.491108	2525.618077
649.834354	2505.453462
650.177548	2513.015192
650.520690	2487.809423
650.863781	2452.521346
651.206820	2457.562500
651.549807	2427.315577
651.892742	2444.959615
652.235626	2452.521346
652.578458	2540.741538
652.921238	2472.685962
653.263967	2513.015192
653.606644	2492.850577
653.949269	2545.782692
654.291843	2444.959615
654.634365	2450.000769
654.976836	2505.453462
655.319255	2475.206538
655.661622	2452.521346
656.003938	2543.262115
656.346203	2540.741538
656.688416	2523.097500
657.030577	2487.809423
657.372687	2535.700385
657.714746	2500.412308
658.056753	2394.548077
658.398708	2470.165385
658.740612	2472.685962
659.082465	2487.809423
659.424266	2490.330000
659.766016	2573.509038
660.107715	2389.506923
660.449362	2560.906154
660.790958	2548.303269
661.132503	2465.124231
661.473996	2480.247692
661.815438	2510.494615
662.156829	2495.371154
662.498168	2497.891731
662.839456	2487.809423
663.180693	2555.865000
663.521879	2581.070769
663.863013	2442.439038
664.204097	2568.467885
664.545129	2482.768269
664.886110	2523.097500
665.227040	2444.959615
665.567918	2505.453462
665.908746	2513.015192
666.249522	2475.206538
666.590248	2495.371154
666.930922	2487.809423
667.271545	2487.809423
667.612118	2490.330000
667.952639	2457.562500
668.293109	2533.179808
668.633528	2502.932885
668.973896	2457.562500
669.314213	2530.659231
669.654480	2417.233269
669.994695	2540.741538
670.334859	2419.753846
670.674973	2518.056346
671.015035	2429.836154
671.355047	2462.603654
671.695008	2565.947308
672.034918	2434.877308
672.374777	2507.974038
672.714585	2475.206538
673.054342	2550.823846
673.394049	2538.220962
673.733705	2528.138654
674.073310	2538.220962
674.412864	2563.426731
674.752368	2485.288846
675.091820	2392.027500
675.431223	2497.891731
675.770574	2492.850577
676.109875	2475.206538
676.449125	2497.891731
676.788324	2515.535769
677.127473	2563.426731
677.466571	2470.165385
677.805619	2457.562500
678.144616	2447.480192
678.483562	2507.974038
678.822458	2535.700385
679.161303	2465.124231
679.500098	2492.850577
679.838842	2482.768269
680.177535	2558.385577
680.516179	2492.850577
680.854771	2548.303269
681.193314	2455.041923
681.531805	2470.165385
681.870247	2543.262115
682.208638	2525.618077
682.546978	2452.521346
682.885268	2523.097500
683.223508	2520.576923
683.561697	2429.836154
683.899836	2487.809423
684.237925	2540.741538
684.575963	2520.576923
684.913951	2500.412308
685.251889	2505.453462
685.589776	2583.591346
685.927614	2450.000769
686.265401	2515.535769
686.603137	2515.535769
686.940824	2523.097500
687.278460	2510.494615
687.616046	2465.124231
687.953582	2558.385577
688.291068	2533.179808
688.628504	2465.124231
688.965889	2414.712692
689.303224	2523.097500
689.640510	2518.056346
689.977745	2525.618077
690.314930	2507.974038
690.652065	2472.685962
690.989150	2545.782692
691.326185	2523.097500
691.663170	2417.233269
692.000105	2477.727115
692.336990	2480.247692
692.673825	2482.768269
693.010610	2596.194231
693.347345	2477.727115
693.684030	2528.138654
694.020665	2510.494615
694.357251	2515.535769
694.693786	2563.426731
695.030272	2487.809423
695.366707	2472.685962
695.703093	2495.371154
696.039429	2427.315577
696.375716	2495.371154
696.711952	2518.056346
697.048139	2515.535769
697.384276	2477.727115
697.720363	2513.015192
698.056400	2533.179808
698.392388	2376.904038
698.728326	2442.439038
699.064214	2502.932885
699.400053	2414.712692
699.735842	2475.206538
700.071581	2482.768269
700.407270	2444.959615
700.742910	2490.330000
701.078501	2523.097500
701.414042	2513.015192
701.749533	2525.618077
702.084974	2482.768269
702.420366	2540.741538
702.755709	2460.083077
703.091002	2601.235385
703.426246	2477.727115
703.761440	2540.741538
704.096584	2475.206538
704.431679	2505.453462
704.766725	2485.288846
705.101721	2533.179808
705.436668	2419.753846
705.771565	2477.727115
706.106413	2507.974038
706.441212	2548.303269
706.775961	2475.206538
707.110661	2480.247692
707.445311	2507.974038
707.779913	2497.891731
708.114465	2482.768269
708.448967	2467.644808
708.783421	2490.330000
709.117825	2482.768269
709.452180	2477.727115
709.786485	2545.782692
710.120742	2412.192115
710.454949	2424.795000
710.789107	2490.330000
711.123216	2457.562500
711.457275	2452.521346
711.791286	2434.877308
712.125247	2553.344423
712.459159	2419.753846
712.793023	2442.439038
713.126837	2485.288846
713.460602	2472.685962
713.794318	2540.741538
714.127985	2495.371154
714.461602	2480.247692
714.795171	2518.056346
715.128691	2455.041923
715.462162	2515.535769
715.795584	2548.303269
716.128957	2460.083077
716.462281	2467.644808
716.795556	2427.315577
717.128782	2482.768269
717.461960	2477.727115
717.795088	2545.782692
718.128167	2472.685962
718.461198	2492.850577
718.794180	2500.412308
719.127113	2533.179808
719.459997	2553.344423
719.792833	2525.618077
720.125619	2510.494615
720.458357	2510.494615
720.791046	2545.782692
721.123686	2525.618077
721.456278	2467.644808
721.788821	2505.453462
722.121315	2530.659231
722.453761	2487.809423
722.786158	2543.262115
723.118506	2447.480192
723.450805	2482.768269
723.783056	2495.371154
724.115259	2457.562500
724.447412	2444.959615
724.779518	2487.809423
725.111574	2495.371154
725.443582	2528.138654
725.775542	2492.850577
726.107453	2472.685962
726.439315	2447.480192
726.771129	2507.974038
727.102895	2452.521346
727.434612	2525.618077
727.766281	2475.206538
728.097901	2548.303269
728.429473	2482.768269
728.760996	2550.823846
729.092471	2487.809423
729.423897	2432.356731
729.755276	2487.809423
730.086606	2560.906154
730.417887	2450.000769
730.749120	2492.850577
731.080305	2470.165385
731.411442	2417.233269
731.742530	2460.083077
732.073570	2475.206538
732.404562	2515.535769
732.735506	2555.865000
733.066401	2472.685962
733.397249	2480.247692
733.728048	2538.220962
734.058798	2492.850577
734.389501	2397.068654
734.720156	2515.535769
735.050762	2495.371154
735.381320	2583.591346
735.711831	2560.906154
736.042293	2422.274423
736.372707	2437.397885
736.703073	2427.315577
737.033391	2490.330000
737.363661	2450.000769
737.693883	2475.206538
738.024056	2442.439038
738.354182	2497.891731
738.684260	2480.247692
739.014290	2565.947308
739.344272	2492.850577
739.674207	2485.288846
740.004093	2462.603654
740.333931	2439.918462
740.663722	2513.015192
740.993464	2465.124231
741.323159	2457.562500
741.652806	2520.576923
741.982405	2505.453462
742.311956	2570.988462
742.641460	2462.603654
742.970915	2513.015192
743.300323	2490.330000
743.629683	2543.262115
743.958996	2520.576923
744.288260	2505.453462
744.617477	2540.741538
744.946647	2475.206538
745.275768	2586.111923
745.604842	2530.659231
745.933869	2442.439038
746.262847	2550.823846
746.591778	2482.768269
746.920662	2371.862885
747.249498	2530.659231
747.578286	2535.700385
747.907027	2480.247692
748.235720	2470.165385
748.564365	2460.083077
748.892963	2465.124231
749.221514	2548.303269
749.550017	2460.083077
749.878473	2485.288846
750.206881	2530.659231
750.535242	2598.714808
750.863555	2457.562500
751.191821	2424.795000
751.520039	2422.274423
751.848210	2485.288846
752.176334	2432.356731
752.504411	2528.138654
752.832440	2447.480192
753.160421	2560.906154
753.488356	2492.850577
753.816243	2545.782692
754.144082	2467.644808
754.471875	2497.891731
754.799620	2500.412308
755.127318	2515.535769
755.454969	2457.562500
755.782572	2563.426731
756.110129	2492.850577
756.437638	2470.165385
756.765100	2487.809423
757.092515	2477.727115
757.419882	2399.589231
757.747203	2419.753846
758.074477	2495.371154
758.401703	2533.179808
758.728882	2553.344423
759.056014	2535.700385
759.383099	2409.671538
759.710138	2472.685962
760.037129	2475.206538
760.364073	2465.124231
760.690970	2492.850577
761.017820	2515.535769
761.344623	2470.165385
761.671379	2513.015192
761.998088	2603.755962
762.324751	2465.124231
762.651366	2477.727115
762.977935	2455.041923
763.304456	2439.918462
763.630931	2550.823846
763.957359	2472.685962
764.283740	2543.262115
764.610074	2477.727115
764.936362	2460.083077
765.262602	2434.877308
765.588796	2525.618077
765.914943	2535.700385
766.241044	2528.138654
766.567097	2515.535769
766.893104	2427.315577
767.219064	2507.974038
767.544978	2402.109808
767.870845	2497.891731
768.196665	2497.891731
768.522438	2472.685962
768.848165	2558.385577
769.173846	2540.741538
769.499479	2502.932885
769.825066	2523.097500
770.150607	2480.247692
770.476101	2432.356731
770.801548	2570.988462
771.126949	2460.083077
771.452303	2485.288846
771.777611	2520.576923
772.102872	2576.029615
772.428087	2530.659231
772.753256	2404.630385
773.078378	2472.685962
773.403453	2515.535769
773.728482	2477.727115
774.053465	2495.371154
774.378401	2457.562500
774.703291	2460.083077
775.028135	2578.550192
775.352932	2447.480192
775.677683	2548.303269
776.002388	2497.891731
776.327046	2530.659231
776.651658	2457.562500
776.976224	2452.521346
777.300743	2487.809423
777.625216	2558.385577
777.949643	2444.959615
778.274024	2397.068654
778.598359	2500.412308
778.922647	2487.809423
779.246889	2553.344423
779.571086	2472.685962
779.895236	2452.521346
780.219339	2439.918462
780.543397	2422.274423
780.867409	2475.206538
781.191374	2460.083077
781.515294	2384.465769
781.839167	2530.659231
782.162995	2555.865000
782.486776	2558.385577
782.810511	2530.659231
783.134201	2417.233269
783.457844	2490.330000
783.781441	2568.467885
784.104993	2492.850577
784.428498	2480.247692
784.751958	2558.385577
785.075372	2460.083077
785.398739	2477.727115
785.722061	2490.330000
786.045337	2555.865000
786.368568	2513.015192
786.691752	2465.124231
787.014891	2371.862885
787.337983	2555.865000
787.661030	2507.974038
787.984031	2510.494615
788.306987	2528.138654
788.629897	2460.083077
788.952760	2462.603654
789.275579	2583.591346
789.598351	2465.124231
789.921078	2538.220962
790.243759	2455.041923
790.566395	2570.988462
790.888984	2419.753846
791.211529	2502.932885
791.534027	2437.397885
791.856480	2487.809423
792.178888	2525.618077
792.501249	2490.330000
792.823566	2480.247692
793.145836	2452.521346
793.468062	2523.097500
793.790241	2442.439038
794.112375	2470.165385
794.434464	2510.494615
794.756507	2434.877308
795.078505	2535.700385
795.400457	2485.288846
795.722364	2560.906154
796.044226	2444.959615
796.366042	2523.097500
796.687812	2502.932885
797.009538	2523.097500
797.331218	2510.494615
797.652852	2462.603654
797.974442	2450.000769
798.295986	2439.918462
798.617484	2520.576923
798.938938	2450.000769
799.260346	2439.918462
799.581709	2560.906154
799.903026	2510.494615
800.224299	2439.918462
800.545526	2455.041923
800.866708	2495.371154
801.187845	2505.453462
801.508936	2525.618077
801.829983	2480.247692
802.150984	2482.768269
802.471940	2513.015192
802.792851	2502.932885
803.113717	2518.056346
803.434538	2490.330000
803.755314	2505.453462
804.076045	2500.412308
804.396731	2535.700385
804.717372	2507.974038
805.037967	2434.877308
805.358518	2538.220962
805.679024	2444.959615
805.999485	2477.727115
806.319901	2457.562500
806.640272	2467.644808
806.960598	2437.397885
807.280879	2588.632500
807.601115	2513.015192
807.921306	2502.932885
808.241453	2442.439038
808.561554	2558.385577
808.881611	2412.192115
809.201623	2540.741538
809.521590	2470.165385
809.841513	2545.782692
810.161390	2502.932885
810.481223	2535.700385
810.801011	2480.247692
811.120755	2510.494615
811.440453	2381.945192
811.760107	2545.782692
812.079716	2482.768269
812.399281	2505.453462
812.718801	2475.206538
813.038276	2465.124231
813.357707	2497.891731
813.677093	2475.206538
813.996434	2467.644808
814.315731	2397.068654
814.634983	2492.850577
814.954191	2432.356731
815.273354	2412.192115
815.592473	2452.521346
815.911547	2507.974038
816.230577	2414.712692
816.549562	2530.659231
816.868502	2540.741538
817.187399	2404.630385
817.506250	2533.179808
817.825058	2452.521346
818.143821	2444.959615
818.462539	2500.412308
818.781213	2502.932885
819.099843	2455.041923
819.418429	2439.918462
819.736970	2528.138654
820.055466	2500.412308
820.373919	2545.782692
820.692327	2507.974038
821.010691	2485.288846
821.329011	2538.220962
821.647286	2500.412308
821.965517	2533.179808
822.283704	2513.015192
822.601847	2457.562500
822.919945	2513.015192
823.237999	2470.165385
823.556010	2505.453462
823.873976	2460.083077
824.191897	2528.138654
824.509775	2525.618077
824.827609	2555.865000
825.145398	2477.727115
825.463144	2424.795000
825.780845	2497.891731
826.098502	2507.974038
826.416116	2457.562500
826.733685	2462.603654
827.051210	2502.932885
827.368692	2553.344423
827.686129	2528.138654
828.003522	2462.603654
828.320872	2384.465769
828.638177	2480.247692
828.955439	2470.165385
829.272656	2533.179808
829.589830	2530.659231
829.906960	2518.056346
830.224046	2475.206538
830.541088	2444.959615
830.858086	2515.535769
831.175041	2450.000769
831.491952	2497.891731
831.808819	2543.262115
832.125642	2487.809423
832.442421	2437.397885
832.759157	2485.288846
833.075849	2467.644808
833.392497	2495.371154
833.709101	2432.356731
834.025662	2513.015192
834.342179	2422.274423
834.658653	2442.439038
834.975083	2447.480192
835.291469	2540.741538
835.607811	2510.494615
835.924110	2495.371154
836.240366	2540.741538
836.556578	2467.644808
836.872746	2520.576923
837.188871	2550.823846
837.504952	2462.603654
837.820990	2374.383462
838.136984	2603.755962
838.452935	2444.959615
838.768842	2500.412308
839.084706	2530.659231
839.400526	2507.974038
839.716303	2510.494615
840.032037	2548.303269
840.347727	2455.041923
840.663373	2510.494615
840.978977	2492.850577
841.294537	2490.330000
841.610054	2467.644808
841.925527	2472.685962
842.240957	2565.947308
842.556344	2475.206538
842.871687	2444.959615
843.186987	2487.809423
843.502244	2460.083077
843.817458	2482.768269
844.132629	2447.480192
844.447756	2513.015192
844.762840	2442.439038
845.077881	2505.453462
845.392879	2450.000769
845.707833	2482.768269
846.022745	2465.124231
846.337613	2424.795000
846.652438	2376.904038
846.967221	2500.412308
847.281960	2515.535769
847.596656	2538.220962
847.911309	2462.603654
848.225919	2533.179808
848.540485	2470.165385
848.855009	2528.138654
849.169490	2523.097500
849.483928	2414.712692
849.798323	2500.412308
850.112675	2455.041923
850.426984	2502.932885
850.741251	2480.247692
851.055474	2447.480192
851.369654	2455.041923
851.683792	2477.727115
851.997887	2475.206538
852.311938	2535.700385
852.625947	2457.562500
852.939914	2588.632500
853.253837	2452.521346
853.567718	2543.262115
853.881555	2492.850577
854.195350	2538.220962
854.509103	2457.562500
854.822812	2465.124231
855.136479	2460.083077
855.450103	2419.753846
855.763685	2563.426731
856.077224	2487.809423
856.390720	2392.027500
856.704173	2460.083077
857.017584	2570.988462
857.330953	2570.988462
857.644278	2487.809423
857.957561	2525.618077
858.270802	2570.988462
858.584000	2480.247692
858.897155	2505.453462
859.210268	2407.150962
859.523339	2568.467885
859.836367	2525.618077
860.149352	2460.083077
860.462295	2513.015192
860.775195	2523.097500
861.088054	2502.932885
861.400869	2432.356731
861.713642	2530.659231
862.026373	2409.671538
862.339062	2460.083077
862.651708	2480.247692
862.964312	2530.659231
863.276873	2465.124231
863.589392	2596.194231
863.901869	2460.083077
864.214303	2404.630385
864.526696	2480.247692
864.839045	2492.850577
865.151353	2487.809423
865.463619	2470.165385
865.775842	2477.727115
866.088023	2399.589231
866.400162	2540.741538
866.712258	2447.480192
867.024313	2560.906154
867.336325	2523.097500
867.648296	2490.330000
867.960224	2455.041923
868.272110	2497.891731
868.583954	2424.795000
868.895755	2535.700385
869.207515	2424.795000
869.519233	2447.480192
869.830909	2457.562500
870.142542	2593.673654
870.454134	2462.603654
870.765684	2497.891731
871.077191	2477.727115
871.388657	2472.685962
871.700081	2404.630385
872.011463	2515.535769
872.322803	2457.562500
872.634101	2553.344423
872.945357	2490.330000
873.256571	2437.397885
873.567744	2487.809423
873.878874	2487.809423
874.189963	2505.453462
874.501010	2530.659231
874.812015	2533.179808
875.122979	2492.850577
875.433900	2422.274423
875.744780	2477.727115
876.055618	2495.371154
876.366415	2434.877308
876.677169	2414.712692
876.987882	2500.412308
877.298554	2563.426731
877.609183	2528.138654
877.919771	2533.179808
878.230317	2518.056346
878.540822	2465.124231
878.851285	2465.124231
879.161707	2472.685962
879.472087	2450.000769
879.782425	2523.097500
880.092722	2528.138654
880.402977	2452.521346
880.713191	2570.988462
881.023363	2465.124231
881.333494	2389.506923
881.643583	2543.262115
881.953631	2520.576923
882.263637	2465.124231
882.573602	2533.179808
882.883526	2530.659231
883.193408	2550.823846
883.503248	2455.041923
883.813048	2513.015192
884.122806	2500.412308
884.432522	2475.206538
884.742197	2424.795000
885.051831	2543.262115
885.361424	2434.877308
885.670975	2550.823846
885.980485	2543.262115
886.289954	2462.603654
886.599382	2570.988462
886.908768	2482.768269
887.218113	2465.124231
887.527417	2434.877308
887.836680	2495.371154
888.145901	2434.877308
888.455082	2515.535769
888.764221	2482.768269
889.073319	2502.932885
889.382376	2487.809423
889.691392	2467.644808
890.000366	2462.603654
890.309300	2510.494615
890.618193	2444.959615
890.927044	2467.644808
891.235855	2437.397885
891.544625	2510.494615
891.853353	2485.288846
892.162041	2507.974038
892.470687	2482.768269
892.779293	2447.480192
893.087858	2490.330000
893.396381	2538.220962
893.704864	2487.809423
894.013306	2500.412308
894.321707	2573.509038
894.630068	2480.247692
894.938387	2568.467885
895.246665	2507.974038
895.554903	2480.247692
895.863100	2460.083077
896.171256	2515.535769
896.479371	2452.521346
896.787446	2467.644808
897.095480	2540.741538
897.403473	2525.618077
897.711425	2482.768269
898.019336	2460.083077
898.327207	2502.932885
898.635038	2485.288846
898.942827	2518.056346
899.250576	2565.947308
899.558284	2495.371154
899.865952	2419.753846
900.173579	2472.685962
900.481165	2528.138654
900.788711	2467.644808
901.096216	2523.097500
901.403681	2429.836154
901.711105	2439.918462
902.018489	2452.521346
902.325832	2497.891731
902.633135	2429.836154
902.940397	2444.959615
903.247619	2515.535769
903.554800	2520.576923
903.861941	2553.344423
904.169041	2510.494615
904.476101	2553.344423
904.783121	2397.068654
905.090100	2460.083077
905.397039	2500.412308
905.703938	2490.330000
906.010796	2581.070769
906.317614	2397.068654
906.624391	2540.741538
906.931129	2500.412308
907.237826	2545.782692
907.544483	2560.906154
907.851099	2518.056346
908.157675	2480.247692
908.464211	2470.165385
908.770707	2447.480192
909.077163	2490.330000
909.383578	2477.727115
909.689954	2480.247692
909.996289	2495.371154
910.302584	2467.644808
910.608839	2490.330000
910.915054	2452.521346
911.221229	2374.383462
911.527363	2402.109808
911.833458	2507.974038
912.139513	2545.782692
912.445527	2530.659231
912.751502	2447.480192
913.057436	2470.165385
913.363331	2497.891731
913.669186	2568.467885
913.975000	2465.124231
914.280775	2487.809423
914.586510	2520.576923
914.892205	2492.850577
915.197859	2528.138654
915.503475	2407.150962
915.809050	2548.303269
916.114585	2490.330000
916.420081	2500.412308
916.725536	2452.521346
917.030952	2487.809423
917.336328	2477.727115
917.641665	2510.494615
917.946961	2505.453462
918.252218	2505.453462
918.557435	2533.179808
918.862612	2477.727115
919.167750	2535.700385
919.472848	2558.385577
919.777906	2523.097500
920.082925	2490.330000
920.387904	2497.891731
920.692843	2523.097500
920.997743	2497.891731
921.302603	2510.494615
921.607423	2500.412308
921.912204	2528.138654
922.216946	2510.494615
922.521647	2543.262115
922.826310	2510.494615
923.130932	2470.165385
923.435516	2412.192115
923.740059	2480.247692
924.044564	2500.412308
924.349028	2545.782692
924.653454	2525.618077
924.957840	2535.700385
925.262186	2384.465769
925.566493	2515.535769
925.870761	2457.562500
926.174989	2442.439038
926.479178	2452.521346
926.783328	2482.768269
927.087438	2467.644808
927.391509	2487.809423
927.695541	2480.247692
927.999533	2530.659231
928.303486	2565.947308
928.607400	2437.397885
928.911275	2497.891731
929.215110	2465.124231
929.518906	2470.165385
929.822663	2518.056346
930.126381	2467.644808
930.430060	2417.233269
930.733699	2497.891731
931.037299	2429.836154
931.340861	2432.356731
931.644383	2502.932885
931.947866	2497.891731
932.251309	2467.644808
932.554714	2495.371154
932.858080	2591.153077
933.161407	2419.753846
933.464694	2543.262115
933.767943	2442.439038
934.071153	2543.262115
934.374323	2414.712692
934.677455	2490.330000
934.980548	2475.206538
935.283602	2450.000769
935.586617	2460.083077
935.889593	2407.150962
936.192530	2450.000769
936.495428	2487.809423
936.798287	2495.371154
937.101108	2601.235385
937.403890	2487.809423
937.706632	2460.083077
938.009336	2553.344423
938.312002	2492.850577
938.614628	2480.247692
938.917216	2533.179808
939.219765	2510.494615
939.522275	2570.988462
939.824747	2409.671538
940.127179	2520.576923
940.429573	2485.288846
940.731929	2465.124231
941.034246	2550.823846
941.336524	2455.041923
941.638763	2470.165385
941.940964	2472.685962
942.243126	2558.385577
942.545250	2495.371154
942.847335	2497.891731
943.149381	2439.918462
943.451389	2586.111923
943.753359	2548.303269
944.055290	2528.138654
944.357182	2432.356731
944.659036	2495.371154
944.960851	2442.439038
945.262628	2568.467885
945.564367	2386.986346
945.866067	2475.206538
946.167729	2437.397885
946.469352	2475.206538
946.770937	2528.138654
947.072484	2583.591346
947.373992	2472.685962
947.675462	2528.138654
947.976893	2558.385577
948.278286	2533.179808
948.579641	2586.111923
948.880958	2505.453462
949.182236	2513.015192
949.483476	2513.015192
949.784678	2480.247692
950.085841	2417.233269
950.386967	2467.644808
950.688054	2429.836154
950.989103	2480.247692
951.290114	2404.630385
951.591087	2492.850577
951.892021	2523.097500
952.192917	2485.288846
952.493776	2460.083077
952.794596	2497.891731
953.095378	2444.959615
953.396122	2545.782692
953.696828	2502.932885
953.997496	2520.576923
954.298126	2518.056346
954.598718	2492.850577
954.899272	2497.891731
955.199788	2525.618077
955.500266	2475.206538
955.800706	2518.056346
956.101108	2429.836154
956.401472	2462.603654
956.701798	2452.521346
957.002087	2523.097500
957.302337	2558.385577
957.602550	2500.412308
957.902724	2505.453462
958.202861	2485.288846
958.502960	2505.453462
958.803022	2487.809423
959.103045	2525.618077
959.403031	2583.591346
959.702979	2598.714808
960.002889	2482.768269
960.302762	2502.932885
960.602596	2513.015192
960.902393	2525.618077
961.202153	2477.727115
961.501875	2470.165385
961.801559	2525.618077
962.101205	2439.918462
962.400814	2528.138654
962.700385	2523.097500
962.999918	2399.589231
963.299414	2462.603654
963.598873	2525.618077
963.898293	2533.179808
964.197677	2485.288846
964.497022	2540.741538
964.796331	2505.453462
965.095601	2502.932885
965.394835	2485.288846
965.694030	2457.562500
965.993189	2470.165385
966.292309	2447.480192
966.591393	2550.823846
966.890439	2467.644808
967.189447	2432.356731
967.488419	2510.494615
967.787353	2462.603654
968.086249	2525.618077
968.385108	2507.974038
968.683930	2470.165385
968.982714	2490.330000
969.281462	2460.083077
969.580172	2497.891731
969.878844	2432.356731
970.177480	2540.741538
970.476078	2444.959615
970.774639	2480.247692
971.073162	2513.015192
971.371649	2510.494615
971.670098	2480.247692
971.968510	2543.262115
972.266885	2485.288846
972.565223	2485.288846
972.863524	2495.371154
973.161788	2520.576923
973.460014	2490.330000
973.758204	2492.850577
974.056356	2437.397885
974.354471	2502.932885
974.652550	2560.906154
974.950591	2450.000769
975.248595	2515.535769
975.546563	2523.097500
975.844493	2470.165385
976.142386	2490.330000
976.440243	2495.371154
976.738062	2558.385577
977.035845	2545.782692
977.333590	2414.712692
977.631299	2515.535769
977.928971	2472.685962
978.226606	2397.068654
978.524204	2376.904038
978.821765	2482.768269
979.119290	2462.603654
979.416777	2460.083077
979.714228	2543.262115
980.011642	2412.192115
980.309020	2510.494615
980.606360	2470.165385
980.903664	2475.206538
981.200931	2485.288846
981.498162	2540.741538
981.795356	2510.494615
982.092513	2505.453462
982.389633	2447.480192
982.686717	2553.344423
982.983764	2490.330000
983.280775	2470.165385
983.577749	2412.192115
983.874686	2427.315577
984.171587	2444.959615
984.468451	2560.906154
984.765279	2414.712692
985.062070	2465.124231
985.358824	2397.068654
985.655543	2472.685962
985.952224	2460.083077
986.248869	2507.974038
986.545478	2578.550192
986.842050	2558.385577
987.138586	2394.548077
987.435086	2399.589231
987.731549	2422.274423
988.027975	2528.138654
988.324366	2472.685962
988.620719	2538.220962
988.917037	2530.659231
989.213318	2465.124231
989.509563	2523.097500
989.805772	2500.412308
990.101944	2457.562500
990.398080	2439.918462
990.694180	2462.603654
990.990244	2545.782692
991.286271	2495.371154
991.582262	2487.809423
991.878217	2439.918462
992.174136	2470.165385
992.470019	2492.850577
992.765865	2507.974038
993.061676	2513.015192
993.357450	2470.165385
993.653188	2606.276538
993.948890	2540.741538
994.244556	2502.932885
994.540186	2414.712692
994.835780	2565.947308
995.131337	2452.521346
995.426859	2510.494615
995.722345	2439.918462
996.017795	2412.192115
996.313208	2457.562500
996.608586	2525.618077
996.903928	2475.206538
997.199234	2434.877308
997.494504	2434.877308
997.789738	2523.097500
998.084936	2371.862885
998.380099	2492.850577
998.675225	2462.603654
998.970316	2412.192115
999.265371	2460.083077
999.560390	2485.288846
999.855373	2465.124231
1000.150320	2475.206538
1000.445232	2485.288846
1000.740108	2555.865000
1001.034948	2467.644808
1001.329752	2432.356731
1001.624521	2497.891731
1001.919254	2513.015192
1002.213951	2402.109808
1002.508613	2548.303269
1002.803239	2470.165385
1003.097829	2492.850577
1003.392384	2480.247692
1003.686903	2424.795000
1003.981386	2457.562500
1004.275834	2500.412308
1004.570246	2520.576923
1004.864623	2510.494615
1005.158964	2386.986346
1005.453270	2538.220962
1005.747540	2485.288846
1006.041775	2530.659231
1006.335974	2510.494615
1006.630138	2533.179808
1006.924266	2477.727115
1007.218359	2477.727115
1007.512416	2424.795000
1007.806438	2500.412308
1008.100425	2535.700385
1008.394376	2412.192115
1008.688292	2528.138654
1008.982172	2487.809423
1009.276017	2475.206538
1009.569827	2507.974038
1009.863602	2510.494615
1010.157341	2472.685962
1010.451045	2502.932885
1010.744714	2437.397885
1011.038347	2513.015192
1011.331945	2510.494615
1011.625508	2520.576923
1011.919036	2550.823846
1012.212528	2482.768269
1012.505986	2450.000769
1012.799408	2550.823846
1013.092795	2470.165385
1013.386147	2490.330000
1013.679464	2490.330000
1013.972745	2560.906154
1014.265992	2480.247692
1014.559204	2424.795000
1014.852380	2510.494615
1015.145521	2429.836154
1015.438628	2374.383462
1015.731699	2591.153077
1016.024736	2507.974038
1016.317737	2520.576923
1016.610703	2419.753846
1016.903635	2472.685962
1017.196531	2389.506923
1017.489393	2497.891731
1017.782219	2505.453462
1018.075011	2470.165385
1018.367768	2495.371154
1018.660490	2525.618077
1018.953177	2525.618077
1019.245829	2525.618077
