Dividing Wavelength (nm)	Counts (n)	Blue Motor Position (mm): 9.500000	Red Motor Position (mm): 0.000000	
326.493990	2119.805192
326.888308	2119.805192
327.282561	2119.805192
327.676750	2034.105577
328.070874	2041.667308
328.464933	2021.502692
328.858929	1988.735192
329.252859	2081.996538
329.646726	2044.187885
330.040528	2139.969808
330.434265	2084.517115
330.827938	2112.243462
331.221547	2175.257885
331.615091	2180.299038
332.008571	2162.655000
332.401986	2155.093269
332.795338	2225.669423
333.188625	2205.504808
333.581847	2288.683846
333.975006	2296.245577
334.368100	2306.327885
334.761129	2361.780577
335.154095	2311.369038
335.546996	2354.218846
335.939833	2417.233269
336.332606	2371.862885
336.725315	2414.712692
337.117960	2450.000769
337.510540	2402.109808
337.903056	2437.397885
338.295508	2384.465769
338.687896	2457.562500
339.080220	2495.371154
339.472480	2505.453462
339.864676	2543.262115
340.256807	2452.521346
340.648875	2518.056346
341.040879	2507.974038
341.432818	2492.850577
341.824694	2495.371154
342.216506	2520.576923
342.608253	2407.150962
342.999937	2417.233269
343.391557	2465.124231
343.783113	2432.356731
344.174605	2485.288846
344.566033	2472.685962
344.957397	2507.974038
345.348697	2497.891731
345.739934	2510.494615
346.131106	2497.891731
346.522215	2424.795000
346.913260	2462.603654
347.304241	2523.097500
347.695159	2465.124231
348.086012	2447.480192
348.476802	2432.356731
348.867528	2439.918462
349.258191	2465.124231
349.648789	2422.274423
350.039324	2457.562500
350.429796	2424.795000
350.820203	2439.918462
351.210548	2553.344423
351.600828	2384.465769
351.991045	2472.685962
352.381198	2462.603654
352.771288	2505.453462
353.161314	2530.659231
353.551276	2502.932885
353.941175	2485.288846
354.331010	2465.124231
354.720782	2427.315577
355.110490	2404.630385
355.500135	2444.959615
355.889717	2422.274423
356.279235	2497.891731
356.668689	2361.780577
357.058080	2427.315577
357.447408	2482.768269
357.836672	2444.959615
358.225873	2376.904038
358.615010	2429.836154
359.004084	2356.739423
359.393095	2434.877308
359.782043	2462.603654
360.170927	2407.150962
360.559748	2495.371154
360.948505	2467.644808
361.337199	2467.644808
361.725830	2424.795000
362.114398	2417.233269
362.502903	2507.974038
362.891344	2402.109808
363.279722	2472.685962
363.668037	2427.315577
364.056289	2407.150962
364.444478	2432.356731
364.832603	2394.548077
365.220665	2490.330000
365.608665	2452.521346
365.996601	2412.192115
366.384474	2439.918462
366.772284	2356.739423
367.160031	2434.877308
367.547715	2475.206538
367.935336	2485.288846
368.322893	2455.041923
368.710388	2497.891731
369.097820	2477.727115
369.485189	2381.945192
369.872495	2447.480192
370.259738	2457.562500
370.646918	2427.315577
371.034035	2518.056346
371.421090	2460.083077
371.808081	2422.274423
372.195010	2497.891731
372.581875	2442.439038
372.968678	2467.644808
373.355418	2414.712692
373.742096	2450.000769
374.128710	2417.233269
374.515262	2470.165385
374.901751	2427.315577
375.288177	2513.015192
375.674540	2460.083077
376.060841	2462.603654
376.447079	2394.548077
376.833254	2538.220962
377.219367	2424.795000
377.605417	2374.383462
377.991404	2450.000769
378.377329	2487.809423
378.763191	2507.974038
379.148991	2452.521346
379.534727	2346.657115
379.920402	2439.918462
380.306013	2442.439038
380.691563	2447.480192
381.077049	2485.288846
381.462474	2462.603654
381.847835	2424.795000
382.233134	2485.288846
382.618371	2487.809423
383.003545	2452.521346
383.388657	2379.424615
383.773706	2381.945192
384.158693	2427.315577
384.543618	2523.097500
384.928480	2500.412308
385.313280	2500.412308
385.698017	2409.671538
386.082692	2457.562500
386.467305	2379.424615
386.851856	2444.959615
387.236344	2394.548077
387.620770	2475.206538
388.005133	2487.809423
388.389435	2460.083077
388.773674	2467.644808
389.157851	2497.891731
389.541965	2402.109808
389.926018	2507.974038
390.310008	2444.959615
390.693936	2528.138654
391.077802	2462.603654
391.461606	2429.836154
391.845348	2513.015192
392.229027	2432.356731
392.612645	2482.768269
392.996200	2414.712692
393.379694	2515.535769
393.763125	2550.823846
394.146494	2555.865000
394.529801	2500.412308
394.913047	2497.891731
395.296230	2442.439038
395.679351	2505.453462
396.062410	2452.521346
396.445408	2505.453462
396.828343	2482.768269
397.211217	2465.124231
397.594028	2528.138654
397.976778	2455.041923
398.359466	2457.562500
398.742092	2475.206538
399.124656	2492.850577
399.507158	2492.850577
399.889598	2502.932885
400.271977	2472.685962
400.654294	2417.233269
401.036549	2434.877308
401.418742	2540.741538
401.800874	2510.494615
402.182944	2565.947308
402.564952	2467.644808
402.946898	2513.015192
403.328783	2450.000769
403.710606	2500.412308
404.092367	2462.603654
404.474067	2462.603654
404.855705	2570.988462
405.237282	2359.260000
405.618797	2460.083077
406.000250	2465.124231
406.381642	2439.918462
406.762972	2444.959615
407.144240	2465.124231
407.525447	2470.165385
407.906593	2513.015192
408.287677	2530.659231
408.668700	2497.891731
409.049661	2502.932885
409.430560	2570.988462
409.811399	2444.959615
410.192176	2439.918462
410.572891	2548.303269
410.953545	2470.165385
411.334138	2475.206538
411.714669	2482.768269
412.095139	2460.083077
412.475547	2548.303269
412.855894	2465.124231
413.236180	2477.727115
413.616405	2455.041923
413.996568	2485.288846
414.376670	2502.932885
414.756711	2427.315577
415.136691	2462.603654
415.516609	2497.891731
415.896466	2497.891731
416.276262	2439.918462
416.655997	2482.768269
417.035670	2500.412308
417.415283	2477.727115
417.794834	2528.138654
418.174324	2545.782692
418.553753	2434.877308
418.933121	2490.330000
419.312428	2472.685962
419.691674	2452.521346
420.070859	2472.685962
420.449983	2487.809423
420.829045	2515.535769
421.208047	2560.906154
421.586988	2530.659231
421.965867	2555.865000
422.344686	2558.385577
422.723444	2472.685962
423.102141	2434.877308
423.480777	2480.247692
423.859352	2381.945192
424.237866	2558.385577
424.616319	2495.371154
424.994712	2502.932885
425.373044	2470.165385
425.751314	2500.412308
426.129524	2462.603654
426.507673	2371.862885
426.885762	2444.959615
427.263789	2429.836154
427.641756	2490.330000
428.019662	2480.247692
428.397508	2485.288846
428.775292	2492.850577
429.153016	2480.247692
429.530679	2434.877308
429.908282	2490.330000
430.285824	2457.562500
430.663305	2460.083077
431.040726	2455.041923
431.418086	2528.138654
431.795385	2460.083077
432.172624	2467.644808
432.549802	2505.453462
432.926920	2553.344423
433.303977	2568.467885
433.680974	2429.836154
434.057910	2523.097500
434.434786	2477.727115
434.811601	2555.865000
435.188355	2523.097500
435.565050	2455.041923
435.941683	2394.548077
436.318257	2492.850577
436.694770	2462.603654
437.071222	2525.618077
437.447614	2497.891731
437.823946	2487.809423
438.200218	2475.206538
438.576429	2470.165385
438.952580	2432.356731
439.328670	2492.850577
439.704700	2437.397885
440.080670	2548.303269
440.456580	2535.700385
440.832429	2505.453462
441.208218	2505.453462
441.583947	2477.727115
441.959616	2452.521346
442.335224	2518.056346
442.710773	2518.056346
443.086261	2442.439038
443.461689	2437.397885
443.837057	2455.041923
444.212365	2507.974038
444.587612	2568.467885
444.962800	2450.000769
445.337927	2558.385577
445.712995	2492.850577
446.088002	2482.768269
446.462949	2467.644808
446.837837	2439.918462
447.212664	2502.932885
447.587431	2480.247692
447.962139	2480.247692
448.336786	2452.521346
448.711374	2570.988462
449.085901	2485.288846
449.460369	2596.194231
449.834776	2525.618077
450.209124	2540.741538
450.583412	2444.959615
450.957640	2477.727115
451.331808	2457.562500
451.705917	2487.809423
452.079965	2444.959615
452.453954	2563.426731
452.827883	2487.809423
453.201752	2402.109808
453.575562	2538.220962
453.949311	2482.768269
454.323001	2424.795000
454.696632	2518.056346
455.070202	2475.206538
455.443713	2386.986346
455.817164	2550.823846
456.190556	2427.315577
456.563888	2467.644808
456.937160	2437.397885
457.310373	2422.274423
457.683526	2460.083077
458.056619	2472.685962
458.429653	2432.356731
458.802628	2528.138654
459.175542	2434.877308
459.548398	2450.000769
459.921194	2394.548077
460.293930	2525.618077
460.666607	2533.179808
461.039224	2568.467885
461.411782	2490.330000
461.784280	2553.344423
462.156719	2442.439038
462.529099	2500.412308
462.901419	2548.303269
463.273680	2480.247692
463.645882	2515.535769
464.018024	2490.330000
464.390106	2465.124231
464.762130	2447.480192
465.134094	2510.494615
465.505999	2523.097500
465.877845	2450.000769
466.249631	2533.179808
466.621358	2538.220962
466.993026	2470.165385
467.364634	2500.412308
467.736184	2515.535769
468.107674	2384.465769
468.479105	2497.891731
468.850477	2485.288846
469.221790	2444.959615
469.593043	2513.015192
469.964238	2497.891731
470.335373	2603.755962
470.706449	2457.562500
471.077467	2502.932885
471.448425	2424.795000
471.819324	2523.097500
472.190164	2560.906154
472.560945	2543.262115
472.931667	2535.700385
473.302330	2507.974038
473.672934	2470.165385
474.043479	2470.165385
474.413965	2434.877308
474.784393	2513.015192
475.154761	2477.727115
475.525070	2384.465769
475.895321	2475.206538
476.265513	2472.685962
476.635645	2500.412308
477.005719	2528.138654
477.375734	2507.974038
477.745691	2502.932885
478.115588	2545.782692
478.485427	2510.494615
478.855207	2543.262115
479.224928	2432.356731
479.594591	2439.918462
479.964194	2482.768269
480.333739	2535.700385
480.703226	2490.330000
481.072653	2500.412308
481.442022	2460.083077
481.811333	2535.700385
482.180584	2523.097500
482.549777	2444.959615
482.918912	2505.453462
483.287988	2429.836154
483.657005	2497.891731
484.025964	2490.330000
484.394864	2543.262115
484.763706	2422.274423
485.132489	2515.535769
485.501213	2513.015192
485.869879	2485.288846
486.238487	2485.288846
486.607036	2500.412308
486.975527	2487.809423
487.343959	2581.070769
487.712333	2477.727115
488.080648	2487.809423
488.448905	2500.412308
488.817104	2528.138654
489.185244	2565.947308
489.553326	2523.097500
489.921350	2492.850577
490.289315	2545.782692
490.657222	2502.932885
491.025070	2497.891731
491.392861	2485.288846
491.760593	2515.535769
492.128267	2472.685962
492.495883	2495.371154
492.863440	2533.179808
493.230939	2492.850577
493.598380	2548.303269
493.965763	2520.576923
494.333088	2558.385577
494.700354	2424.795000
495.067563	2505.453462
495.434713	2553.344423
495.801805	2490.330000
496.168839	2548.303269
496.535815	2437.397885
496.902733	2447.480192
497.269593	2434.877308
497.636395	2485.288846
498.003139	2432.356731
498.369825	2447.480192
498.736453	2477.727115
499.103023	2492.850577
499.469535	2457.562500
499.835989	2500.412308
500.202385	2492.850577
500.568723	2528.138654
500.935003	2450.000769
501.301226	2487.809423
501.667390	2485.288846
502.033497	2485.288846
502.399546	2442.439038
502.765537	2455.041923
503.131470	2513.015192
503.497345	2482.768269
503.863163	2533.179808
504.228923	2465.124231
504.594625	2533.179808
504.960269	2480.247692
505.325856	2455.041923
505.691385	2505.453462
506.056856	2533.179808
506.422270	2505.453462
506.787625	2485.288846
507.152924	2477.727115
507.518164	2477.727115
507.883347	2520.576923
508.248472	2497.891731
508.613540	2568.467885
508.978550	2548.303269
509.343503	2523.097500
509.708398	2535.700385
510.073236	2543.262115
510.438016	2432.356731
510.802738	2528.138654
511.167403	2530.659231
511.532010	2507.974038
511.896561	2500.412308
512.261053	2490.330000
512.625488	2467.644808
512.989866	2525.618077
513.354186	2477.727115
513.718449	2490.330000
514.082655	2444.959615
514.446803	2397.068654
514.810894	2457.562500
515.174927	2432.356731
515.538904	2505.453462
515.902822	2462.603654
516.266684	2497.891731
516.630488	2578.550192
516.994235	2429.836154
517.357925	2482.768269
517.721558	2475.206538
518.085133	2502.932885
518.448651	2457.562500
518.812112	2414.712692
519.175516	2505.453462
519.538863	2543.262115
519.902152	2429.836154
520.265385	2538.220962
520.628560	2497.891731
520.991678	2543.262115
521.354739	2439.918462
521.717743	2510.494615
522.080690	2447.480192
522.443580	2538.220962
522.806413	2470.165385
523.169189	2530.659231
523.531908	2535.700385
523.894569	2513.015192
524.257174	2492.850577
524.619722	2505.453462
524.982213	2455.041923
525.344647	2573.509038
525.707025	2485.288846
526.069345	2555.865000
526.431608	2442.439038
526.793815	2477.727115
527.155964	2540.741538
527.518057	2492.850577
527.880093	2472.685962
528.242072	2495.371154
528.603995	2442.439038
528.965860	2475.206538
529.327669	2540.741538
529.689421	2570.988462
530.051117	2482.768269
530.412755	2490.330000
530.774337	2518.056346
531.135862	2490.330000
531.497331	2555.865000
531.858743	2545.782692
532.220098	2485.288846
532.581396	2518.056346
532.942638	2450.000769
533.303824	2548.303269
533.664953	2497.891731
534.026025	2437.397885
534.387040	2497.891731
534.747999	2485.288846
535.108902	2553.344423
535.469748	2507.974038
535.830537	2452.521346
536.191270	2412.192115
536.551947	2427.315577
536.912567	2540.741538
537.273131	2462.603654
537.633638	2475.206538
537.994089	2470.165385
538.354483	2548.303269
538.714821	2450.000769
539.075103	2424.795000
539.435328	2513.015192
539.795497	2565.947308
540.155609	2553.344423
540.515665	2515.535769
540.875665	2523.097500
541.235609	2515.535769
541.595496	2477.727115
541.955328	2520.576923
542.315102	2487.809423
542.674821	2525.618077
543.034483	2523.097500
543.394090	2417.233269
543.753640	2470.165385
544.113134	2568.467885
544.472571	2608.797115
544.831953	2535.700385
545.191278	2487.809423
545.550548	2485.288846
545.909761	2447.480192
546.268918	2462.603654
546.628019	2442.439038
546.987064	2533.179808
547.346053	2553.344423
547.704986	2553.344423
548.063863	2490.330000
548.422684	2540.741538
548.781449	2591.153077
549.140158	2490.330000
549.498811	2394.548077
549.857408	2424.795000
550.215949	2646.605769
550.574434	2455.041923
550.932864	2414.712692
551.291237	2497.891731
551.649555	2513.015192
552.007817	2432.356731
552.366022	2518.056346
552.724173	2442.439038
553.082267	2538.220962
553.440305	2576.029615
553.798288	2475.206538
554.156215	2513.015192
554.514086	2500.412308
554.871902	2533.179808
555.229661	2487.809423
555.587365	2548.303269
555.945014	2444.959615
556.302606	2555.865000
556.660143	2455.041923
557.017625	2528.138654
557.375050	2523.097500
557.732421	2523.097500
558.089735	2462.603654
558.446994	2588.632500
558.804197	2467.644808
559.161345	2586.111923
559.518437	2560.906154
559.875474	2409.671538
560.232455	2548.303269
560.589381	2477.727115
560.946251	2573.509038
561.303065	2505.453462
561.659825	2429.836154
562.016528	2543.262115
562.373177	2402.109808
562.729770	2500.412308
563.086307	2462.603654
563.442789	2480.247692
563.799216	2560.906154
564.155587	2505.453462
564.511904	2434.877308
564.868164	2545.782692
565.224370	2480.247692
565.580520	2470.165385
565.936615	2492.850577
566.292654	2462.603654
566.648638	2563.426731
567.004567	2460.083077
567.360441	2419.753846
567.716260	2530.659231
568.072023	2434.877308
568.427732	2560.906154
568.783385	2485.288846
569.138982	2485.288846
569.494525	2450.000769
569.850013	2507.974038
570.205445	2490.330000
570.560823	2467.644808
570.916145	2487.809423
571.271412	2455.041923
571.626625	2427.315577
571.981782	2490.330000
572.336884	2432.356731
572.691931	2462.603654
573.046923	2563.426731
573.401860	2482.768269
573.756743	2439.918462
574.111570	2374.383462
574.466342	2434.877308
574.821059	2515.535769
575.175722	2515.535769
575.530330	2505.453462
575.884882	2452.521346
576.239380	2548.303269
576.593823	2523.097500
576.948211	2417.233269
577.302544	2497.891731
577.656823	2515.535769
578.011047	2533.179808
578.365216	2470.165385
578.719330	2467.644808
579.073389	2472.685962
579.427394	2447.480192
579.781344	2530.659231
580.135239	2560.906154
580.489080	2462.603654
580.842866	2505.453462
581.196597	2548.303269
581.550273	2626.441154
581.903895	2530.659231
582.257463	2520.576923
582.610975	2442.439038
582.964434	2507.974038
583.317837	2467.644808
583.671186	2550.823846
584.024481	2455.041923
584.377721	2490.330000
584.730906	2492.850577
585.084037	2457.562500
585.437113	2520.576923
585.790135	2482.768269
586.143103	2510.494615
586.496016	2515.535769
586.848874	2477.727115
587.201679	2480.247692
587.554428	2429.836154
587.907124	2455.041923
588.259765	2513.015192
588.612352	2452.521346
588.964884	2530.659231
589.317362	2510.494615
589.669786	2462.603654
590.022155	2520.576923
590.374470	2429.836154
590.726731	2490.330000
591.078937	2530.659231
591.431090	2525.618077
591.783188	2444.959615
592.135232	2490.330000
592.487222	2535.700385
592.839157	2576.029615
593.191038	2518.056346
593.542866	2376.904038
593.894639	2520.576923
594.246358	2452.521346
594.598022	2422.274423
594.949633	2417.233269
595.301190	2432.356731
595.652692	2455.041923
596.004141	2505.453462
596.355535	2475.206538
596.706876	2513.015192
597.058162	2444.959615
597.409395	2548.303269
597.760573	2558.385577
598.111698	2518.056346
598.462768	2535.700385
598.813785	2548.303269
599.164748	2533.179808
599.515657	2492.850577
599.866511	2487.809423
600.217312	2608.797115
600.568060	2447.480192
600.918753	2570.988462
601.269392	2465.124231
601.619978	2513.015192
601.970510	2442.439038
602.320988	2543.262115
602.671412	2439.918462
603.021783	2518.056346
603.372100	2550.823846
603.722363	2545.782692
604.072572	2500.412308
604.422728	2570.988462
604.772830	2497.891731
605.122878	2495.371154
605.472872	2482.768269
605.822813	2505.453462
606.172701	2444.959615
606.522534	2518.056346
606.872314	2513.015192
607.222041	2480.247692
607.571714	2447.480192
607.921333	2492.850577
608.270899	2523.097500
608.620411	2480.247692
608.969870	2576.029615
609.319276	2462.603654
609.668627	2485.288846
610.017926	2490.330000
610.367171	2455.041923
610.716362	2543.262115
611.065500	2485.288846
611.414585	2452.521346
611.763616	2480.247692
612.112594	2467.644808
612.461518	2455.041923
612.810389	2502.932885
613.159207	2455.041923
613.507971	2404.630385
613.856682	2497.891731
614.205340	2442.439038
614.553945	2460.083077
614.902496	2402.109808
615.250994	2538.220962
615.599439	2628.961731
615.947830	2475.206538
616.296169	2520.576923
616.644454	2439.918462
616.992686	2497.891731
617.340864	2523.097500
617.688990	2462.603654
618.037063	2560.906154
618.385082	2470.165385
618.733048	2482.768269
619.080961	2510.494615
619.428821	2404.630385
619.776628	2505.453462
620.124382	2520.576923
620.472083	2485.288846
620.819731	2444.959615
621.167326	2528.138654
621.514868	2472.685962
621.862357	2581.070769
622.209793	2502.932885
622.557176	2472.685962
622.904506	2523.097500
623.251783	2460.083077
623.599007	2439.918462
623.946179	2560.906154
624.293297	2480.247692
624.640363	2535.700385
624.987376	2485.288846
625.334336	2495.371154
625.681243	2460.083077
626.028097	2545.782692
626.374899	2487.809423
626.721647	2487.809423
627.068343	2523.097500
627.414987	2510.494615
627.761577	2407.150962
628.108115	2518.056346
628.454600	2507.974038
628.801032	2520.576923
629.147412	2429.836154
629.493739	2513.015192
629.840014	2583.591346
630.186236	2528.138654
630.532405	2414.712692
630.878521	2586.111923
631.224585	2576.029615
631.570597	2515.535769
631.916556	2548.303269
632.262462	2553.344423
632.608316	2523.097500
632.954117	2482.768269
633.299866	2472.685962
633.645562	2518.056346
633.991206	2495.371154
634.336797	2520.576923
634.682336	2530.659231
635.027823	2530.659231
635.373257	2437.397885
635.718639	2452.521346
636.063968	2429.836154
636.409245	2460.083077
636.754470	2460.083077
637.099642	2462.603654
637.444762	2485.288846
637.789829	2450.000769
638.134845	2470.165385
638.479808	2560.906154
638.824719	2475.206538
639.169577	2467.644808
639.514383	2465.124231
639.859137	2550.823846
640.203839	2520.576923
640.548489	2492.850577
640.893086	2548.303269
641.237632	2482.768269
641.582125	2439.918462
641.926566	2535.700385
642.270955	2480.247692
642.615292	2502.932885
642.959576	2500.412308
643.303809	2586.111923
643.647990	2538.220962
643.992118	2429.836154
644.336195	2475.206538
644.680219	2515.535769
645.024192	2543.262115
645.368112	2467.644808
645.711981	2505.453462
646.055797	2513.015192
646.399562	2553.344423
646.743274	2510.494615
647.086935	2462.603654
647.430544	2543.262115
647.774101	2500.412308
648.117606	2500.412308
648.461059	2450.000769
648.804460	2475.206538
649.147810	2515.535769
649.491108	2455.041923
649.834354	2485.288846
650.177548	2424.795000
650.520690	2371.862885
650.863781	2462.603654
651.206820	2543.262115
651.549807	2477.727115
651.892742	2467.644808
652.235626	2515.535769
652.578458	2495.371154
652.921238	2495.371154
653.263967	2467.644808
653.606644	2497.891731
653.949269	2502.932885
654.291843	2543.262115
654.634365	2417.233269
654.976836	2457.562500
655.319255	2417.233269
655.661622	2485.288846
656.003938	2525.618077
656.346203	2502.932885
656.688416	2442.439038
657.030577	2533.179808
657.372687	2558.385577
657.714746	2528.138654
658.056753	2470.165385
658.398708	2500.412308
658.740612	2439.918462
659.082465	2513.015192
659.424266	2442.439038
659.766016	2520.576923
660.107715	2576.029615
660.449362	2616.358846
660.790958	2515.535769
661.132503	2505.453462
661.473996	2500.412308
661.815438	2492.850577
662.156829	2477.727115
662.498168	2563.426731
662.839456	2523.097500
663.180693	2495.371154
663.521879	2465.124231
663.863013	2472.685962
664.204097	2540.741538
664.545129	2510.494615
664.886110	2543.262115
665.227040	2523.097500
665.567918	2555.865000
665.908746	2419.753846
666.249522	2480.247692
666.590248	2475.206538
666.930922	2515.535769
667.271545	2507.974038
667.612118	2439.918462
667.952639	2450.000769
668.293109	2533.179808
668.633528	2507.974038
668.973896	2482.768269
669.314213	2581.070769
669.654480	2404.630385
669.994695	2364.301154
670.334859	2457.562500
670.674973	2545.782692
671.015035	2540.741538
671.355047	2467.644808
671.695008	2543.262115
672.034918	2513.015192
672.374777	2538.220962
672.714585	2485.288846
673.054342	2513.015192
673.394049	2444.959615
673.733705	2545.782692
674.073310	2477.727115
674.412864	2432.356731
674.752368	2490.330000
675.091820	2543.262115
675.431223	2523.097500
675.770574	2472.685962
676.109875	2500.412308
676.449125	2505.453462
676.788324	2515.535769
677.127473	2515.535769
677.466571	2500.412308
677.805619	2540.741538
678.144616	2497.891731
678.483562	2553.344423
678.822458	2477.727115
679.161303	2480.247692
679.500098	2444.959615
679.838842	2507.974038
680.177535	2591.153077
680.516179	2538.220962
680.854771	2555.865000
681.193314	2447.480192
681.531805	2462.603654
681.870247	2439.918462
682.208638	2442.439038
682.546978	2492.850577
682.885268	2437.397885
683.223508	2444.959615
683.561697	2465.124231
683.899836	2409.671538
684.237925	2550.823846
684.575963	2492.850577
684.913951	2513.015192
685.251889	2452.521346
685.589776	2465.124231
685.927614	2394.548077
686.265401	2540.741538
686.603137	2621.400000
686.940824	2591.153077
687.278460	2457.562500
687.616046	2538.220962
687.953582	2555.865000
688.291068	2565.947308
688.628504	2470.165385
688.965889	2533.179808
689.303224	2472.685962
689.640510	2553.344423
689.977745	2417.233269
690.314930	2470.165385
690.652065	2520.576923
690.989150	2560.906154
691.326185	2570.988462
691.663170	2452.521346
692.000105	2439.918462
692.336990	2485.288846
692.673825	2465.124231
693.010610	2480.247692
693.347345	2591.153077
693.684030	2576.029615
694.020665	2472.685962
694.357251	2613.838269
694.693786	2510.494615
695.030272	2450.000769
695.366707	2533.179808
695.703093	2495.371154
696.039429	2439.918462
696.375716	2450.000769
696.711952	2460.083077
697.048139	2545.782692
697.384276	2422.274423
697.720363	2465.124231
698.056400	2535.700385
698.392388	2510.494615
698.728326	2397.068654
699.064214	2525.618077
699.400053	2497.891731
699.735842	2543.262115
700.071581	2490.330000
700.407270	2467.644808
700.742910	2513.015192
701.078501	2528.138654
701.414042	2455.041923
701.749533	2455.041923
702.084974	2381.945192
702.420366	2455.041923
702.755709	2558.385577
703.091002	2442.439038
703.426246	2487.809423
703.761440	2485.288846
704.096584	2482.768269
704.431679	2523.097500
704.766725	2535.700385
705.101721	2482.768269
705.436668	2518.056346
705.771565	2495.371154
706.106413	2404.630385
706.441212	2528.138654
706.775961	2520.576923
707.110661	2402.109808
707.445311	2492.850577
707.779913	2427.315577
708.114465	2467.644808
708.448967	2490.330000
708.783421	2495.371154
709.117825	2520.576923
709.452180	2472.685962
709.786485	2427.315577
710.120742	2555.865000
710.454949	2528.138654
710.789107	2444.959615
711.123216	2444.959615
711.457275	2467.644808
711.791286	2563.426731
712.125247	2447.480192
712.459159	2477.727115
712.793023	2543.262115
713.126837	2437.397885
713.460602	2379.424615
713.794318	2487.809423
714.127985	2502.932885
714.461602	2530.659231
714.795171	2482.768269
715.128691	2500.412308
715.462162	2482.768269
715.795584	2555.865000
716.128957	2465.124231
716.462281	2540.741538
716.795556	2495.371154
717.128782	2475.206538
717.461960	2573.509038
717.795088	2442.439038
718.128167	2586.111923
718.461198	2437.397885
718.794180	2467.644808
719.127113	2500.412308
719.459997	2555.865000
719.792833	2518.056346
720.125619	2568.467885
720.458357	2568.467885
720.791046	2560.906154
721.123686	2482.768269
721.456278	2513.015192
721.788821	2507.974038
722.121315	2553.344423
722.453761	2515.535769
722.786158	2535.700385
723.118506	2510.494615
723.450805	2502.932885
723.783056	2424.795000
724.115259	2507.974038
724.447412	2578.550192
724.779518	2475.206538
725.111574	2500.412308
725.443582	2457.562500
725.775542	2543.262115
726.107453	2533.179808
726.439315	2462.603654
726.771129	2535.700385
727.102895	2518.056346
727.434612	2520.576923
727.766281	2434.877308
728.097901	2359.260000
728.429473	2502.932885
728.760996	2452.521346
729.092471	2460.083077
729.423897	2407.150962
729.755276	2500.412308
730.086606	2475.206538
730.417887	2475.206538
730.749120	2520.576923
731.080305	2588.632500
731.411442	2500.412308
731.742530	2513.015192
732.073570	2447.480192
732.404562	2470.165385
732.735506	2507.974038
733.066401	2439.918462
733.397249	2515.535769
733.728048	2442.439038
734.058798	2500.412308
734.389501	2482.768269
734.720156	2475.206538
735.050762	2548.303269
735.381320	2550.823846
735.711831	2475.206538
736.042293	2560.906154
736.372707	2477.727115
736.703073	2502.932885
737.033391	2515.535769
737.363661	2422.274423
737.693883	2525.618077
738.024056	2568.467885
738.354182	2465.124231
738.684260	2472.685962
739.014290	2495.371154
739.344272	2467.644808
739.674207	2548.303269
740.004093	2472.685962
740.333931	2480.247692
740.663722	2523.097500
740.993464	2613.838269
741.323159	2457.562500
741.652806	2439.918462
741.982405	2490.330000
742.311956	2510.494615
742.641460	2455.041923
742.970915	2467.644808
743.300323	2510.494615
743.629683	2581.070769
743.958996	2439.918462
744.288260	2472.685962
744.617477	2462.603654
744.946647	2460.083077
745.275768	2424.795000
745.604842	2460.083077
745.933869	2480.247692
746.262847	2475.206538
746.591778	2465.124231
746.920662	2462.603654
747.249498	2490.330000
747.578286	2510.494615
747.907027	2412.192115
748.235720	2528.138654
748.564365	2419.753846
748.892963	2434.877308
749.221514	2515.535769
749.550017	2490.330000
749.878473	2502.932885
750.206881	2450.000769
750.535242	2467.644808
750.863555	2502.932885
751.191821	2510.494615
751.520039	2434.877308
751.848210	2444.959615
752.176334	2447.480192
752.504411	2500.412308
752.832440	2555.865000
753.160421	2507.974038
753.488356	2467.644808
753.816243	2543.262115
754.144082	2455.041923
754.471875	2472.685962
754.799620	2502.932885
755.127318	2507.974038
755.454969	2581.070769
755.782572	2548.303269
756.110129	2520.576923
756.437638	2455.041923
756.765100	2467.644808
757.092515	2490.330000
757.419882	2432.356731
757.747203	2560.906154
758.074477	2477.727115
758.401703	2528.138654
758.728882	2576.029615
759.056014	2510.494615
759.383099	2419.753846
759.710138	2492.850577
760.037129	2467.644808
760.364073	2548.303269
760.690970	2550.823846
761.017820	2591.153077
761.344623	2525.618077
761.671379	2502.932885
761.998088	2518.056346
762.324751	2455.041923
762.651366	2455.041923
762.977935	2412.192115
763.304456	2510.494615
763.630931	2462.603654
763.957359	2507.974038
764.283740	2518.056346
764.610074	2550.823846
764.936362	2490.330000
765.262602	2409.671538
765.588796	2523.097500
765.914943	2402.109808
766.241044	2560.906154
766.567097	2470.165385
766.893104	2470.165385
767.219064	2500.412308
767.544978	2480.247692
767.870845	2525.618077
768.196665	2540.741538
768.522438	2555.865000
768.848165	2495.371154
769.173846	2570.988462
769.499479	2447.480192
769.825066	2560.906154
770.150607	2523.097500
770.476101	2482.768269
770.801548	2510.494615
771.126949	2523.097500
771.452303	2500.412308
771.777611	2515.535769
772.102872	2500.412308
772.428087	2490.330000
772.753256	2495.371154
773.078378	2485.288846
773.403453	2518.056346
773.728482	2586.111923
774.053465	2505.453462
774.378401	2487.809423
774.703291	2487.809423
775.028135	2482.768269
775.352932	2467.644808
775.677683	2482.768269
776.002388	2467.644808
776.327046	2507.974038
776.651658	2434.877308
776.976224	2462.603654
777.300743	2424.795000
777.625216	2502.932885
777.949643	2417.233269
778.274024	2447.480192
778.598359	2465.124231
778.922647	2482.768269
779.246889	2465.124231
779.571086	2548.303269
779.895236	2477.727115
780.219339	2482.768269
780.543397	2550.823846
780.867409	2457.562500
781.191374	2447.480192
781.515294	2407.150962
781.839167	2505.453462
782.162995	2460.083077
782.486776	2467.644808
782.810511	2543.262115
783.134201	2523.097500
783.457844	2538.220962
783.781441	2419.753846
784.104993	2553.344423
784.428498	2505.453462
784.751958	2560.906154
785.075372	2593.673654
785.398739	2475.206538
785.722061	2439.918462
786.045337	2452.521346
786.368568	2444.959615
786.691752	2455.041923
787.014891	2462.603654
787.337983	2530.659231
787.661030	2570.988462
787.984031	2457.562500
788.306987	2502.932885
788.629897	2520.576923
788.952760	2465.124231
789.275579	2560.906154
789.598351	2538.220962
789.921078	2520.576923
790.243759	2434.877308
790.566395	2528.138654
790.888984	2485.288846
791.211529	2467.644808
791.534027	2424.795000
791.856480	2457.562500
792.178888	2558.385577
792.501249	2548.303269
792.823566	2507.974038
793.145836	2528.138654
793.468062	2528.138654
793.790241	2492.850577
794.112375	2558.385577
794.434464	2452.521346
794.756507	2482.768269
795.078505	2442.439038
795.400457	2455.041923
795.722364	2477.727115
796.044226	2505.453462
796.366042	2465.124231
796.687812	2510.494615
797.009538	2513.015192
797.331218	2543.262115
797.652852	2457.562500
797.974442	2523.097500
798.295986	2535.700385
798.617484	2495.371154
798.938938	2444.959615
799.260346	2548.303269
799.581709	2444.959615
799.903026	2497.891731
800.224299	2528.138654
800.545526	2447.480192
800.866708	2593.673654
801.187845	2497.891731
801.508936	2573.509038
801.829983	2548.303269
802.150984	2513.015192
802.471940	2520.576923
802.792851	2472.685962
803.113717	2530.659231
803.434538	2467.644808
803.755314	2490.330000
804.076045	2560.906154
804.396731	2450.000769
804.717372	2530.659231
805.037967	2407.150962
805.358518	2560.906154
805.679024	2465.124231
805.999485	2520.576923
806.319901	2535.700385
806.640272	2538.220962
806.960598	2444.959615
807.280879	2518.056346
807.601115	2394.548077
807.921306	2533.179808
808.241453	2548.303269
808.561554	2563.426731
808.881611	2553.344423
809.201623	2573.509038
809.521590	2444.959615
809.841513	2452.521346
810.161390	2555.865000
810.481223	2439.918462
810.801011	2565.947308
811.120755	2518.056346
811.440453	2470.165385
811.760107	2538.220962
812.079716	2490.330000
812.399281	2538.220962
812.718801	2432.356731
813.038276	2520.576923
813.357707	2462.603654
813.677093	2495.371154
813.996434	2482.768269
814.315731	2555.865000
814.634983	2505.453462
814.954191	2490.330000
815.273354	2457.562500
815.592473	2480.247692
815.911547	2336.574808
816.230577	2502.932885
816.549562	2570.988462
816.868502	2518.056346
817.187399	2470.165385
817.506250	2472.685962
817.825058	2520.576923
818.143821	2525.618077
818.462539	2447.480192
818.781213	2515.535769
819.099843	2439.918462
819.418429	2419.753846
819.736970	2553.344423
820.055466	2558.385577
820.373919	2472.685962
820.692327	2510.494615
821.010691	2444.959615
821.329011	2470.165385
821.647286	2507.974038
821.965517	2565.947308
822.283704	2475.206538
822.601847	2432.356731
822.919945	2500.412308
823.237999	2472.685962
823.556010	2487.809423
823.873976	2477.727115
824.191897	2455.041923
824.509775	2414.712692
824.827609	2389.506923
825.145398	2432.356731
825.463144	2533.179808
825.780845	2442.439038
826.098502	2533.179808
826.416116	2560.906154
826.733685	2500.412308
827.051210	2570.988462
827.368692	2495.371154
827.686129	2465.124231
828.003522	2384.465769
828.320872	2525.618077
828.638177	2490.330000
828.955439	2477.727115
829.272656	2452.521346
829.589830	2502.932885
829.906960	2492.850577
830.224046	2429.836154
830.541088	2432.356731
830.858086	2500.412308
831.175041	2460.083077
831.491952	2485.288846
831.808819	2490.330000
832.125642	2450.000769
832.442421	2389.506923
832.759157	2475.206538
833.075849	2578.550192
833.392497	2414.712692
833.709101	2495.371154
834.025662	2475.206538
834.342179	2502.932885
834.658653	2533.179808
834.975083	2553.344423
835.291469	2518.056346
835.607811	2482.768269
835.924110	2475.206538
836.240366	2429.836154
836.556578	2515.535769
836.872746	2432.356731
837.188871	2475.206538
837.504952	2467.644808
837.820990	2424.795000
838.136984	2528.138654
838.452935	2490.330000
838.768842	2548.303269
839.084706	2487.809423
839.400526	2513.015192
839.716303	2482.768269
840.032037	2510.494615
840.347727	2452.521346
840.663373	2467.644808
840.978977	2444.959615
841.294537	2560.906154
841.610054	2530.659231
841.925527	2480.247692
842.240957	2563.426731
842.556344	2417.233269
842.871687	2429.836154
843.186987	2520.576923
843.502244	2490.330000
843.817458	2530.659231
844.132629	2452.521346
844.447756	2455.041923
844.762840	2460.083077
845.077881	2515.535769
845.392879	2480.247692
845.707833	2414.712692
846.022745	2437.397885
846.337613	2495.371154
846.652438	2442.439038
846.967221	2500.412308
847.281960	2467.644808
847.596656	2513.015192
847.911309	2543.262115
848.225919	2525.618077
848.540485	2460.083077
848.855009	2523.097500
849.169490	2434.877308
849.483928	2540.741538
849.798323	2538.220962
850.112675	2394.548077
850.426984	2550.823846
850.741251	2518.056346
851.055474	2565.947308
851.369654	2432.356731
851.683792	2497.891731
851.997887	2470.165385
852.311938	2523.097500
852.625947	2472.685962
852.939914	2465.124231
853.253837	2573.509038
853.567718	2490.330000
853.881555	2490.330000
854.195350	2545.782692
854.509103	2467.644808
854.822812	2515.535769
855.136479	2505.453462
855.450103	2545.782692
855.763685	2518.056346
856.077224	2518.056346
856.390720	2528.138654
856.704173	2523.097500
857.017584	2507.974038
857.330953	2507.974038
857.644278	2467.644808
857.957561	2447.480192
858.270802	2444.959615
858.584000	2487.809423
858.897155	2513.015192
859.210268	2467.644808
859.523339	2543.262115
859.836367	2502.932885
860.149352	2497.891731
860.462295	2505.453462
860.775195	2472.685962
861.088054	2520.576923
861.400869	2450.000769
861.713642	2533.179808
862.026373	2538.220962
862.339062	2545.782692
862.651708	2465.124231
862.964312	2565.947308
863.276873	2475.206538
863.589392	2553.344423
863.901869	2467.644808
864.214303	2497.891731
864.526696	2502.932885
864.839045	2497.891731
865.151353	2465.124231
865.463619	2477.727115
865.775842	2523.097500
866.088023	2545.782692
866.400162	2432.356731
866.712258	2608.797115
867.024313	2528.138654
867.336325	2500.412308
867.648296	2467.644808
867.960224	2510.494615
868.272110	2523.097500
868.583954	2528.138654
868.895755	2490.330000
869.207515	2492.850577
869.519233	2409.671538
869.830909	2475.206538
870.142542	2588.632500
870.454134	2520.576923
870.765684	2455.041923
871.077191	2505.453462
871.388657	2447.480192
871.700081	2497.891731
872.011463	2545.782692
872.322803	2442.439038
872.634101	2462.603654
872.945357	2558.385577
873.256571	2533.179808
873.567744	2573.509038
873.878874	2505.453462
874.189963	2485.288846
874.501010	2558.385577
874.812015	2450.000769
875.122979	2455.041923
875.433900	2467.644808
875.744780	2507.974038
876.055618	2467.644808
876.366415	2540.741538
876.677169	2452.521346
876.987882	2492.850577
877.298554	2477.727115
877.609183	2437.397885
877.919771	2475.206538
878.230317	2510.494615
878.540822	2465.124231
878.851285	2538.220962
879.161707	2472.685962
879.472087	2432.356731
879.782425	2424.795000
880.092722	2538.220962
880.402977	2538.220962
880.713191	2495.371154
881.023363	2490.330000
881.333494	2523.097500
881.643583	2472.685962
881.953631	2507.974038
882.263637	2477.727115
882.573602	2530.659231
882.883526	2505.453462
883.193408	2490.330000
883.503248	2482.768269
883.813048	2492.850577
884.122806	2429.836154
884.432522	2553.344423
884.742197	2490.330000
885.051831	2540.741538
885.361424	2525.618077
885.670975	2495.371154
885.980485	2434.877308
886.289954	2540.741538
886.599382	2535.700385
886.908768	2533.179808
887.218113	2422.274423
887.527417	2538.220962
887.836680	2480.247692
888.145901	2492.850577
888.455082	2419.753846
888.764221	2530.659231
889.073319	2513.015192
889.382376	2505.453462
889.691392	2545.782692
890.000366	2520.576923
890.309300	2545.782692
890.618193	2530.659231
890.927044	2477.727115
891.235855	2457.562500
891.544625	2515.535769
891.853353	2538.220962
892.162041	2379.424615
892.470687	2533.179808
892.779293	2502.932885
893.087858	2543.262115
893.396381	2487.809423
893.704864	2520.576923
894.013306	2404.630385
894.321707	2475.206538
894.630068	2515.535769
894.938387	2417.233269
895.246665	2530.659231
895.554903	2457.562500
895.863100	2588.632500
896.171256	2442.439038
896.479371	2523.097500
896.787446	2515.535769
897.095480	2507.974038
897.403473	2442.439038
897.711425	2500.412308
898.019336	2475.206538
898.327207	2482.768269
898.635038	2558.385577
898.942827	2520.576923
899.250576	2570.988462
899.558284	2462.603654
899.865952	2515.535769
900.173579	2482.768269
900.481165	2465.124231
900.788711	2520.576923
901.096216	2535.700385
901.403681	2513.015192
901.711105	2525.618077
902.018489	2482.768269
902.325832	2555.865000
902.633135	2407.150962
902.940397	2485.288846
903.247619	2553.344423
903.554800	2444.959615
903.861941	2482.768269
904.169041	2497.891731
904.476101	2452.521346
904.783121	2434.877308
905.090100	2578.550192
905.397039	2409.671538
905.703938	2472.685962
906.010796	2535.700385
906.317614	2543.262115
906.624391	2482.768269
906.931129	2535.700385
907.237826	2480.247692
907.544483	2472.685962
907.851099	2369.342308
908.157675	2510.494615
908.464211	2462.603654
908.770707	2520.576923
909.077163	2500.412308
909.383578	2535.700385
909.689954	2439.918462
909.996289	2550.823846
910.302584	2444.959615
910.608839	2490.330000
910.915054	2452.521346
911.221229	2530.659231
911.527363	2490.330000
911.833458	2538.220962
912.139513	2495.371154
912.445527	2540.741538
912.751502	2545.782692
913.057436	2515.535769
913.363331	2477.727115
913.669186	2528.138654
913.975000	2455.041923
914.280775	2507.974038
914.586510	2472.685962
914.892205	2467.644808
915.197859	2538.220962
915.503475	2477.727115
915.809050	2487.809423
916.114585	2450.000769
916.420081	2497.891731
916.725536	2447.480192
917.030952	2366.821731
917.336328	2497.891731
917.641665	2495.371154
917.946961	2573.509038
918.252218	2487.809423
918.557435	2462.603654
918.862612	2523.097500
919.167750	2417.233269
919.472848	2495.371154
919.777906	2487.809423
920.082925	2591.153077
920.387904	2515.535769
920.692843	2487.809423
920.997743	2558.385577
921.302603	2533.179808
921.607423	2455.041923
921.912204	2457.562500
922.216946	2462.603654
922.521647	2518.056346
922.826310	2510.494615
923.130932	2487.809423
923.435516	2467.644808
923.740059	2460.083077
924.044564	2528.138654
924.349028	2535.700385
924.653454	2523.097500
924.957840	2346.657115
925.262186	2530.659231
925.566493	2497.891731
925.870761	2427.315577
926.174989	2530.659231
926.479178	2452.521346
926.783328	2480.247692
927.087438	2528.138654
927.391509	2487.809423
927.695541	2460.083077
927.999533	2460.083077
928.303486	2475.206538
928.607400	2477.727115
928.911275	2507.974038
929.215110	2384.465769
929.518906	2510.494615
929.822663	2432.356731
930.126381	2487.809423
930.430060	2548.303269
930.733699	2497.891731
931.037299	2545.782692
931.340861	2525.618077
931.644383	2518.056346
931.947866	2543.262115
932.251309	2502.932885
932.554714	2397.068654
932.858080	2578.550192
933.161407	2543.262115
933.464694	2480.247692
933.767943	2429.836154
934.071153	2432.356731
934.374323	2427.315577
934.677455	2601.235385
934.980548	2465.124231
935.283602	2510.494615
935.586617	2450.000769
935.889593	2518.056346
936.192530	2379.424615
936.495428	2553.344423
936.798287	2465.124231
937.101108	2550.823846
937.403890	2513.015192
937.706632	2555.865000
938.009336	2515.535769
938.312002	2487.809423
938.614628	2510.494615
938.917216	2470.165385
939.219765	2518.056346
939.522275	2563.426731
939.824747	2518.056346
940.127179	2560.906154
940.429573	2540.741538
940.731929	2457.562500
941.034246	2530.659231
941.336524	2507.974038
941.638763	2500.412308
941.940964	2470.165385
942.243126	2518.056346
942.545250	2525.618077
942.847335	2477.727115
943.149381	2455.041923
943.451389	2525.618077
943.753359	2457.562500
944.055290	2447.480192
944.357182	2497.891731
944.659036	2573.509038
944.960851	2442.439038
945.262628	2452.521346
945.564367	2492.850577
945.866067	2548.303269
946.167729	2576.029615
946.469352	2490.330000
946.770937	2470.165385
947.072484	2555.865000
947.373992	2376.904038
947.675462	2518.056346
947.976893	2490.330000
948.278286	2439.918462
948.579641	2467.644808
948.880958	2437.397885
949.182236	2502.932885
949.483476	2560.906154
949.784678	2525.618077
950.085841	2528.138654
950.386967	2457.562500
950.688054	2495.371154
950.989103	2505.453462
951.290114	2412.192115
951.591087	2462.603654
951.892021	2442.439038
952.192917	2518.056346
952.493776	2513.015192
952.794596	2490.330000
953.095378	2515.535769
953.396122	2460.083077
953.696828	2548.303269
953.997496	2409.671538
954.298126	2500.412308
954.598718	2472.685962
954.899272	2540.741538
955.199788	2477.727115
955.500266	2490.330000
955.800706	2404.630385
956.101108	2470.165385
956.401472	2515.535769
956.701798	2422.274423
957.002087	2500.412308
957.302337	2457.562500
957.602550	2485.288846
957.902724	2563.426731
958.202861	2500.412308
958.502960	2419.753846
958.803022	2523.097500
959.103045	2447.480192
959.403031	2555.865000
959.702979	2535.700385
960.002889	2444.959615
960.302762	2490.330000
960.602596	2432.356731
960.902393	2578.550192
961.202153	2543.262115
961.501875	2507.974038
961.801559	2570.988462
962.101205	2505.453462
962.400814	2533.179808
962.700385	2429.836154
962.999918	2482.768269
963.299414	2560.906154
963.598873	2447.480192
963.898293	2565.947308
964.197677	2560.906154
964.497022	2485.288846
964.796331	2490.330000
965.095601	2472.685962
965.394835	2538.220962
965.694030	2500.412308
965.993189	2492.850577
966.292309	2460.083077
966.591393	2515.535769
966.890439	2543.262115
967.189447	2439.918462
967.488419	2515.535769
967.787353	2414.712692
968.086249	2533.179808
968.385108	2581.070769
968.683930	2480.247692
968.982714	2452.521346
969.281462	2497.891731
969.580172	2510.494615
969.878844	2505.453462
970.177480	2470.165385
970.476078	2480.247692
970.774639	2548.303269
971.073162	2535.700385
971.371649	2472.685962
971.670098	2394.548077
971.968510	2545.782692
972.266885	2497.891731
972.565223	2538.220962
972.863524	2530.659231
973.161788	2472.685962
973.460014	2507.974038
973.758204	2487.809423
974.056356	2417.233269
974.354471	2591.153077
974.652550	2475.206538
974.950591	2462.603654
975.248595	2492.850577
975.546563	2447.480192
975.844493	2450.000769
976.142386	2427.315577
976.440243	2480.247692
976.738062	2500.412308
977.035845	2437.397885
977.333590	2404.630385
977.631299	2492.850577
977.928971	2465.124231
978.226606	2455.041923
978.524204	2578.550192
978.821765	2452.521346
979.119290	2444.959615
979.416777	2472.685962
979.714228	2462.603654
980.011642	2497.891731
980.309020	2470.165385
980.606360	2523.097500
980.903664	2429.836154
981.200931	2555.865000
981.498162	2513.015192
981.795356	2525.618077
982.092513	2565.947308
982.389633	2455.041923
982.686717	2543.262115
982.983764	2460.083077
983.280775	2437.397885
983.577749	2548.303269
983.874686	2533.179808
984.171587	2545.782692
984.468451	2576.029615
984.765279	2487.809423
985.062070	2523.097500
985.358824	2510.494615
985.655543	2487.809423
985.952224	2472.685962
986.248869	2528.138654
986.545478	2465.124231
986.842050	2444.959615
987.138586	2507.974038
987.435086	2480.247692
987.731549	2533.179808
988.027975	2497.891731
988.324366	2432.356731
988.620719	2487.809423
988.917037	2500.412308
989.213318	2439.918462
989.509563	2523.097500
989.805772	2485.288846
990.101944	2502.932885
990.398080	2485.288846
990.694180	2515.535769
990.990244	2434.877308
991.286271	2513.015192
991.582262	2480.247692
991.878217	2452.521346
992.174136	2507.974038
992.470019	2548.303269
992.765865	2470.165385
993.061676	2555.865000
993.357450	2439.918462
993.653188	2518.056346
993.948890	2523.097500
994.244556	2500.412308
994.540186	2568.467885
994.835780	2586.111923
995.131337	2492.850577
995.426859	2520.576923
995.722345	2565.947308
996.017795	2472.685962
996.313208	2422.274423
996.608586	2465.124231
996.903928	2510.494615
997.199234	2507.974038
997.494504	2450.000769
997.789738	2530.659231
998.084936	2553.344423
998.380099	2470.165385
998.675225	2452.521346
998.970316	2560.906154
999.265371	2434.877308
999.560390	2525.618077
999.855373	2470.165385
1000.150320	2460.083077
1000.445232	2510.494615
1000.740108	2487.809423
1001.034948	2447.480192
1001.329752	2500.412308
1001.624521	2586.111923
1001.919254	2530.659231
1002.213951	2507.974038
1002.508613	2578.550192
1002.803239	2475.206538
1003.097829	2507.974038
1003.392384	2465.124231
1003.686903	2513.015192
1003.981386	2422.274423
1004.275834	2397.068654
1004.570246	2492.850577
1004.864623	2467.644808
1005.158964	2515.535769
1005.453270	2444.959615
1005.747540	2553.344423
1006.041775	2530.659231
1006.335974	2356.739423
1006.630138	2432.356731
1006.924266	2452.521346
1007.218359	2429.836154
1007.512416	2530.659231
1007.806438	2538.220962
1008.100425	2565.947308
1008.394376	2500.412308
1008.688292	2621.400000
1008.982172	2475.206538
1009.276017	2523.097500
1009.569827	2518.056346
1009.863602	2535.700385
1010.157341	2500.412308
1010.451045	2523.097500
1010.744714	2434.877308
1011.038347	2538.220962
1011.331945	2543.262115
1011.625508	2434.877308
1011.919036	2429.836154
1012.212528	2452.521346
1012.505986	2462.603654
1012.799408	2505.453462
1013.092795	2457.562500
1013.386147	2515.535769
1013.679464	2439.918462
1013.972745	2515.535769
1014.265992	2563.426731
1014.559204	2492.850577
1014.852380	2467.644808
1015.145521	2550.823846
1015.438628	2528.138654
1015.731699	2485.288846
1016.024736	2510.494615
1016.317737	2487.809423
1016.610703	2586.111923
1016.903635	2502.932885
1017.196531	2457.562500
1017.489393	2550.823846
1017.782219	2407.150962
1018.075011	2487.809423
1018.367768	2470.165385
1018.660490	2518.056346
1018.953177	2518.056346
1019.245829	2518.056346
