Dividing Wavelength (nm)	Counts (n)	Blue Motor Position (mm): 9.300000	Red Motor Position (mm): 0.000000	
326.493990	2044.187885
326.888308	2044.187885
327.282561	2044.187885
327.676750	2003.858654
328.070874	2054.270192
328.464933	2139.969808
328.858929	2064.352500
329.252859	2064.352500
329.646726	2074.434808
330.040528	2084.517115
330.434265	2102.161154
330.827938	2155.093269
331.221547	2119.805192
331.615091	2210.545962
332.008571	2225.669423
332.401986	2185.340192
332.795338	2190.381346
333.188625	2273.560385
333.581847	2273.560385
333.975006	2255.916346
334.368100	2255.916346
334.761129	2293.725000
335.154095	2265.998654
335.546996	2376.904038
335.939833	2356.739423
336.332606	2346.657115
336.725315	2437.397885
337.117960	2402.109808
337.510540	2407.150962
337.903056	2386.986346
338.295508	2392.027500
338.687896	2457.562500
339.080220	2434.877308
339.472480	2507.974038
339.864676	2442.439038
340.256807	2460.083077
340.648875	2518.056346
341.040879	2492.850577
341.432818	2487.809423
341.824694	2525.618077
342.216506	2465.124231
342.608253	2533.179808
342.999937	2465.124231
343.391557	2477.727115
343.783113	2487.809423
344.174605	2437.397885
344.566033	2414.712692
344.957397	2437.397885
345.348697	2457.562500
345.739934	2513.015192
346.131106	2437.397885
346.522215	2386.986346
346.913260	2487.809423
347.304241	2447.480192
347.695159	2475.206538
348.086012	2392.027500
348.476802	2513.015192
348.867528	2462.603654
349.258191	2477.727115
349.648789	2487.809423
350.039324	2480.247692
350.429796	2424.795000
350.820203	2419.753846
351.210548	2513.015192
351.600828	2397.068654
351.991045	2505.453462
352.381198	2402.109808
352.771288	2455.041923
353.161314	2444.959615
353.551276	2477.727115
353.941175	2497.891731
354.331010	2540.741538
354.720782	2487.809423
355.110490	2427.315577
355.500135	2351.698269
355.889717	2507.974038
356.279235	2495.371154
356.668689	2452.521346
357.058080	2392.027500
357.447408	2450.000769
357.836672	2422.274423
358.225873	2412.192115
358.615010	2495.371154
359.004084	2424.795000
359.393095	2450.000769
359.782043	2414.712692
360.170927	2374.383462
360.559748	2422.274423
360.948505	2538.220962
361.337199	2414.712692
361.725830	2497.891731
362.114398	2412.192115
362.502903	2404.630385
362.891344	2402.109808
363.279722	2386.986346
363.668037	2356.739423
364.056289	2505.453462
364.444478	2397.068654
364.832603	2465.124231
365.220665	2386.986346
365.608665	2523.097500
365.996601	2432.356731
366.384474	2518.056346
366.772284	2427.315577
367.160031	2381.945192
367.547715	2349.177692
367.935336	2485.288846
368.322893	2487.809423
368.710388	2447.480192
369.097820	2485.288846
369.485189	2475.206538
369.872495	2467.644808
370.259738	2482.768269
370.646918	2392.027500
371.034035	2457.562500
371.421090	2573.509038
371.808081	2422.274423
372.195010	2404.630385
372.581875	2379.424615
372.968678	2397.068654
373.355418	2465.124231
373.742096	2424.795000
374.128710	2533.179808
374.515262	2369.342308
374.901751	2447.480192
375.288177	2432.356731
375.674540	2487.809423
376.060841	2490.330000
376.447079	2434.877308
376.833254	2402.109808
377.219367	2520.576923
377.605417	2407.150962
377.991404	2576.029615
378.377329	2477.727115
378.763191	2379.424615
379.148991	2490.330000
379.534727	2386.986346
379.920402	2397.068654
380.306013	2487.809423
380.691563	2434.877308
381.077049	2414.712692
381.462474	2482.768269
381.847835	2437.397885
382.233134	2492.850577
382.618371	2543.262115
383.003545	2392.027500
383.388657	2384.465769
383.773706	2417.233269
384.158693	2510.494615
384.543618	2369.342308
384.928480	2520.576923
385.313280	2553.344423
385.698017	2417.233269
386.082692	2455.041923
386.467305	2409.671538
386.851856	2460.083077
387.236344	2429.836154
387.620770	2452.521346
388.005133	2437.397885
388.389435	2500.412308
388.773674	2480.247692
389.157851	2485.288846
389.541965	2555.865000
389.926018	2462.603654
390.310008	2424.795000
390.693936	2480.247692
391.077802	2497.891731
391.461606	2412.192115
391.845348	2409.671538
392.229027	2452.521346
392.612645	2485.288846
392.996200	2523.097500
393.379694	2500.412308
393.763125	2404.630385
394.146494	2480.247692
394.529801	2452.521346
394.913047	2505.453462
395.296230	2429.836154
395.679351	2482.768269
396.062410	2495.371154
396.445408	2470.165385
396.828343	2437.397885
397.211217	2455.041923
397.594028	2495.371154
397.976778	2502.932885
398.359466	2455.041923
398.742092	2487.809423
399.124656	2462.603654
399.507158	2502.932885
399.889598	2460.083077
400.271977	2447.480192
400.654294	2402.109808
401.036549	2510.494615
401.418742	2485.288846
401.800874	2475.206538
402.182944	2356.739423
402.564952	2465.124231
402.946898	2475.206538
403.328783	2457.562500
403.710606	2507.974038
404.092367	2548.303269
404.474067	2447.480192
404.855705	2457.562500
405.237282	2442.439038
405.618797	2477.727115
406.000250	2603.755962
406.381642	2442.439038
406.762972	2467.644808
407.144240	2444.959615
407.525447	2487.809423
407.906593	2460.083077
408.287677	2520.576923
408.668700	2553.344423
409.049661	2497.891731
409.430560	2497.891731
409.811399	2515.535769
410.192176	2429.836154
410.572891	2409.671538
410.953545	2487.809423
411.334138	2467.644808
411.714669	2558.385577
412.095139	2465.124231
412.475547	2505.453462
412.855894	2467.644808
413.236180	2477.727115
413.616405	2482.768269
413.996568	2538.220962
414.376670	2513.015192
414.756711	2518.056346
415.136691	2477.727115
415.516609	2520.576923
415.896466	2462.603654
416.276262	2530.659231
416.655997	2613.838269
417.035670	2492.850577
417.415283	2520.576923
417.794834	2429.836154
418.174324	2510.494615
418.553753	2460.083077
418.933121	2500.412308
419.312428	2434.877308
419.691674	2500.412308
420.070859	2480.247692
420.449983	2525.618077
420.829045	2485.288846
421.208047	2447.480192
421.586988	2475.206538
421.965867	2490.330000
422.344686	2507.974038
422.723444	2402.109808
423.102141	2442.439038
423.480777	2457.562500
423.859352	2455.041923
424.237866	2452.521346
424.616319	2470.165385
424.994712	2495.371154
425.373044	2497.891731
425.751314	2487.809423
426.129524	2444.959615
426.507673	2444.959615
426.885762	2417.233269
427.263789	2376.904038
427.641756	2462.603654
428.019662	2437.397885
428.397508	2386.986346
428.775292	2477.727115
429.153016	2412.192115
429.530679	2510.494615
429.908282	2417.233269
430.285824	2452.521346
430.663305	2457.562500
431.040726	2460.083077
431.418086	2505.453462
431.795385	2427.315577
432.172624	2510.494615
432.549802	2427.315577
432.926920	2510.494615
433.303977	2518.056346
433.680974	2472.685962
434.057910	2429.836154
434.434786	2457.562500
434.811601	2565.947308
435.188355	2477.727115
435.565050	2394.548077
435.941683	2530.659231
436.318257	2467.644808
436.694770	2548.303269
437.071222	2442.439038
437.447614	2523.097500
437.823946	2520.576923
438.200218	2477.727115
438.576429	2518.056346
438.952580	2500.412308
439.328670	2490.330000
439.704700	2460.083077
440.080670	2427.315577
440.456580	2538.220962
440.832429	2586.111923
441.208218	2530.659231
441.583947	2540.741538
441.959616	2472.685962
442.335224	2427.315577
442.710773	2417.233269
443.086261	2460.083077
443.461689	2480.247692
443.837057	2576.029615
444.212365	2462.603654
444.587612	2507.974038
444.962800	2455.041923
445.337927	2475.206538
445.712995	2533.179808
446.088002	2601.235385
446.462949	2462.603654
446.837837	2442.439038
447.212664	2477.727115
447.587431	2500.412308
447.962139	2500.412308
448.336786	2540.741538
448.711374	2520.576923
449.085901	2412.192115
449.460369	2429.836154
449.834776	2560.906154
450.209124	2429.836154
450.583412	2520.576923
450.957640	2490.330000
451.331808	2485.288846
451.705917	2500.412308
452.079965	2404.630385
452.453954	2434.877308
452.827883	2490.330000
453.201752	2427.315577
453.575562	2560.906154
453.949311	2422.274423
454.323001	2482.768269
454.696632	2450.000769
455.070202	2497.891731
455.443713	2450.000769
455.817164	2475.206538
456.190556	2495.371154
456.563888	2500.412308
456.937160	2447.480192
457.310373	2444.959615
457.683526	2497.891731
458.056619	2427.315577
458.429653	2414.712692
458.802628	2568.467885
459.175542	2497.891731
459.548398	2452.521346
459.921194	2477.727115
460.293930	2513.015192
460.666607	2437.397885
461.039224	2497.891731
461.411782	2475.206538
461.784280	2573.509038
462.156719	2495.371154
462.529099	2422.274423
462.901419	2427.315577
463.273680	2482.768269
463.645882	2515.535769
464.018024	2462.603654
464.390106	2414.712692
464.762130	2407.150962
465.134094	2505.453462
465.505999	2457.562500
465.877845	2500.412308
466.249631	2477.727115
466.621358	2477.727115
466.993026	2487.809423
467.364634	2548.303269
467.736184	2460.083077
468.107674	2477.727115
468.479105	2502.932885
468.850477	2432.356731
469.221790	2518.056346
469.593043	2470.165385
469.964238	2452.521346
470.335373	2444.959615
470.706449	2510.494615
471.077467	2452.521346
471.448425	2439.918462
471.819324	2540.741538
472.190164	2412.192115
472.560945	2550.823846
472.931667	2444.959615
473.302330	2500.412308
473.672934	2586.111923
474.043479	2550.823846
474.413965	2535.700385
474.784393	2437.397885
475.154761	2520.576923
475.525070	2487.809423
475.895321	2399.589231
476.265513	2467.644808
476.635645	2492.850577
477.005719	2495.371154
477.375734	2497.891731
477.745691	2505.453462
478.115588	2507.974038
478.485427	2475.206538
478.855207	2507.974038
479.224928	2457.562500
479.594591	2492.850577
479.964194	2507.974038
480.333739	2447.480192
480.703226	2417.233269
481.072653	2482.768269
481.442022	2535.700385
481.811333	2482.768269
482.180584	2462.603654
482.549777	2513.015192
482.918912	2485.288846
483.287988	2507.974038
483.657005	2515.535769
484.025964	2480.247692
484.394864	2450.000769
484.763706	2523.097500
485.132489	2502.932885
485.501213	2437.397885
485.869879	2550.823846
486.238487	2616.358846
486.607036	2434.877308
486.975527	2586.111923
487.343959	2538.220962
487.712333	2470.165385
488.080648	2457.562500
488.448905	2497.891731
488.817104	2442.439038
489.185244	2523.097500
489.553326	2444.959615
489.921350	2502.932885
490.289315	2568.467885
490.657222	2530.659231
491.025070	2480.247692
491.392861	2502.932885
491.760593	2530.659231
492.128267	2452.521346
492.495883	2520.576923
492.863440	2450.000769
493.230939	2485.288846
493.598380	2550.823846
493.965763	2505.453462
494.333088	2460.083077
494.700354	2444.959615
495.067563	2472.685962
495.434713	2555.865000
495.801805	2462.603654
496.168839	2525.618077
496.535815	2477.727115
496.902733	2535.700385
497.269593	2412.192115
497.636395	2465.124231
498.003139	2477.727115
498.369825	2523.097500
498.736453	2573.509038
499.103023	2434.877308
499.469535	2573.509038
499.835989	2457.562500
500.202385	2424.795000
500.568723	2495.371154
500.935003	2548.303269
501.301226	2480.247692
501.667390	2578.550192
502.033497	2482.768269
502.399546	2482.768269
502.765537	2492.850577
503.131470	2601.235385
503.497345	2533.179808
503.863163	2560.906154
504.228923	2570.988462
504.594625	2455.041923
504.960269	2520.576923
505.325856	2550.823846
505.691385	2495.371154
506.056856	2576.029615
506.422270	2548.303269
506.787625	2560.906154
507.152924	2465.124231
507.518164	2487.809423
507.883347	2422.274423
508.248472	2518.056346
508.613540	2510.494615
508.978550	2528.138654
509.343503	2462.603654
509.708398	2495.371154
510.073236	2553.344423
510.438016	2515.535769
510.802738	2533.179808
511.167403	2515.535769
511.532010	2477.727115
511.896561	2545.782692
512.261053	2507.974038
512.625488	2480.247692
512.989866	2467.644808
513.354186	2467.644808
513.718449	2558.385577
514.082655	2513.015192
514.446803	2450.000769
514.810894	2412.192115
515.174927	2518.056346
515.538904	2487.809423
515.902822	2434.877308
516.266684	2565.947308
516.630488	2540.741538
516.994235	2402.109808
517.357925	2462.603654
517.721558	2402.109808
518.085133	2442.439038
518.448651	2450.000769
518.812112	2480.247692
519.175516	2540.741538
519.538863	2455.041923
519.902152	2570.988462
520.265385	2545.782692
520.628560	2460.083077
520.991678	2505.453462
521.354739	2467.644808
521.717743	2490.330000
522.080690	2462.603654
522.443580	2500.412308
522.806413	2523.097500
523.169189	2573.509038
523.531908	2510.494615
523.894569	2500.412308
524.257174	2495.371154
524.619722	2520.576923
524.982213	2581.070769
525.344647	2439.918462
525.707025	2606.276538
526.069345	2538.220962
526.431608	2424.795000
526.793815	2515.535769
527.155964	2455.041923
527.518057	2492.850577
527.880093	2507.974038
528.242072	2513.015192
528.603995	2492.850577
528.965860	2482.768269
529.327669	2414.712692
529.689421	2487.809423
530.051117	2450.000769
530.412755	2540.741538
530.774337	2596.194231
531.135862	2497.891731
531.497331	2578.550192
531.858743	2525.618077
532.220098	2540.741538
532.581396	2518.056346
532.942638	2457.562500
533.303824	2452.521346
533.664953	2513.015192
534.026025	2550.823846
534.387040	2482.768269
534.747999	2507.974038
535.108902	2535.700385
535.469748	2490.330000
535.830537	2444.959615
536.191270	2570.988462
536.551947	2528.138654
536.912567	2543.262115
537.273131	2490.330000
537.633638	2482.768269
537.994089	2505.453462
538.354483	2462.603654
538.714821	2505.453462
539.075103	2399.589231
539.435328	2490.330000
539.795497	2608.797115
540.155609	2490.330000
540.515665	2538.220962
540.875665	2455.041923
541.235609	2545.782692
541.595496	2563.426731
541.955328	2510.494615
542.315102	2507.974038
542.674821	2502.932885
543.034483	2492.850577
543.394090	2545.782692
543.753640	2465.124231
544.113134	2492.850577
544.472571	2500.412308
544.831953	2550.823846
545.191278	2437.397885
545.550548	2533.179808
545.909761	2520.576923
546.268918	2525.618077
546.628019	2520.576923
546.987064	2513.015192
547.346053	2525.618077
547.704986	2586.111923
548.063863	2568.467885
548.422684	2540.741538
548.781449	2515.535769
549.140158	2462.603654
549.498811	2482.768269
549.857408	2603.755962
550.215949	2374.383462
550.574434	2538.220962
550.932864	2475.206538
551.291237	2495.371154
551.649555	2530.659231
552.007817	2497.891731
552.366022	2472.685962
552.724173	2593.673654
553.082267	2412.192115
553.440305	2495.371154
553.798288	2528.138654
554.156215	2545.782692
554.514086	2475.206538
554.871902	2515.535769
555.229661	2538.220962
555.587365	2543.262115
555.945014	2472.685962
556.302606	2482.768269
556.660143	2518.056346
557.017625	2442.439038
557.375050	2444.959615
557.732421	2490.330000
558.089735	2540.741538
558.446994	2482.768269
558.804197	2460.083077
559.161345	2507.974038
559.518437	2490.330000
559.875474	2525.618077
560.232455	2419.753846
560.589381	2505.453462
560.946251	2452.521346
561.303065	2520.576923
561.659825	2452.521346
562.016528	2520.576923
562.373177	2507.974038
562.729770	2555.865000
563.086307	2495.371154
563.442789	2470.165385
563.799216	2490.330000
564.155587	2523.097500
564.511904	2523.097500
564.868164	2477.727115
565.224370	2510.494615
565.580520	2470.165385
565.936615	2515.535769
566.292654	2601.235385
566.648638	2528.138654
567.004567	2581.070769
567.360441	2505.453462
567.716260	2462.603654
568.072023	2591.153077
568.427732	2442.439038
568.783385	2560.906154
569.138982	2608.797115
569.494525	2460.083077
569.850013	2424.795000
570.205445	2470.165385
570.560823	2439.918462
570.916145	2533.179808
571.271412	2419.753846
571.626625	2513.015192
571.981782	2601.235385
572.336884	2475.206538
572.691931	2439.918462
573.046923	2545.782692
573.401860	2495.371154
573.756743	2535.700385
574.111570	2528.138654
574.466342	2450.000769
574.821059	2523.097500
575.175722	2462.603654
575.530330	2543.262115
575.884882	2467.644808
576.239380	2480.247692
576.593823	2465.124231
576.948211	2530.659231
577.302544	2545.782692
577.656823	2543.262115
578.011047	2520.576923
578.365216	2457.562500
578.719330	2570.988462
579.073389	2528.138654
579.427394	2555.865000
579.781344	2455.041923
580.135239	2543.262115
580.489080	2515.535769
580.842866	2422.274423
581.196597	2528.138654
581.550273	2502.932885
581.903895	2525.618077
582.257463	2482.768269
582.610975	2510.494615
582.964434	2482.768269
583.317837	2495.371154
583.671186	2553.344423
584.024481	2515.535769
584.377721	2500.412308
584.730906	2530.659231
585.084037	2553.344423
585.437113	2520.576923
585.790135	2518.056346
586.143103	2525.618077
586.496016	2525.618077
586.848874	2520.576923
587.201679	2555.865000
587.554428	2513.015192
587.907124	2422.274423
588.259765	2578.550192
588.612352	2591.153077
588.964884	2452.521346
589.317362	2500.412308
589.669786	2470.165385
590.022155	2371.862885
590.374470	2475.206538
590.726731	2460.083077
591.078937	2399.589231
591.431090	2475.206538
591.783188	2450.000769
592.135232	2462.603654
592.487222	2434.877308
592.839157	2429.836154
593.191038	2497.891731
593.542866	2450.000769
593.894639	2490.330000
594.246358	2533.179808
594.598022	2550.823846
594.949633	2507.974038
595.301190	2450.000769
595.652692	2545.782692
596.004141	2525.618077
596.355535	2535.700385
596.706876	2497.891731
597.058162	2480.247692
597.409395	2417.233269
597.760573	2548.303269
598.111698	2553.344423
598.462768	2568.467885
598.813785	2495.371154
599.164748	2528.138654
599.515657	2447.480192
599.866511	2485.288846
600.217312	2568.467885
600.568060	2477.727115
600.918753	2533.179808
601.269392	2452.521346
601.619978	2507.974038
601.970510	2472.685962
602.320988	2598.714808
602.671412	2520.576923
603.021783	2475.206538
603.372100	2553.344423
603.722363	2444.959615
604.072572	2492.850577
604.422728	2525.618077
604.772830	2452.521346
605.122878	2565.947308
605.472872	2467.644808
605.822813	2434.877308
606.172701	2618.879423
606.522534	2495.371154
606.872314	2482.768269
607.222041	2427.315577
607.571714	2457.562500
607.921333	2507.974038
608.270899	2528.138654
608.620411	2581.070769
608.969870	2482.768269
609.319276	2467.644808
609.668627	2507.974038
610.017926	2462.603654
610.367171	2470.165385
610.716362	2450.000769
611.065500	2533.179808
611.414585	2523.097500
611.763616	2530.659231
612.112594	2500.412308
612.461518	2409.671538
612.810389	2470.165385
613.159207	2495.371154
613.507971	2550.823846
613.856682	2465.124231
614.205340	2485.288846
614.553945	2510.494615
614.902496	2538.220962
615.250994	2485.288846
615.599439	2553.344423
615.947830	2518.056346
616.296169	2500.412308
616.644454	2563.426731
616.992686	2518.056346
617.340864	2470.165385
617.688990	2467.644808
618.037063	2490.330000
618.385082	2450.000769
618.733048	2518.056346
619.080961	2475.206538
619.428821	2598.714808
619.776628	2495.371154
620.124382	2596.194231
620.472083	2568.467885
620.819731	2482.768269
621.167326	2487.809423
621.514868	2482.768269
621.862357	2487.809423
622.209793	2477.727115
622.557176	2586.111923
622.904506	2497.891731
623.251783	2495.371154
623.599007	2558.385577
623.946179	2462.603654
624.293297	2538.220962
624.640363	2376.904038
624.987376	2548.303269
625.334336	2462.603654
625.681243	2550.823846
626.028097	2528.138654
626.374899	2477.727115
626.721647	2472.685962
627.068343	2450.000769
627.414987	2525.618077
627.761577	2497.891731
628.108115	2487.809423
628.454600	2520.576923
628.801032	2455.041923
629.147412	2543.262115
629.493739	2533.179808
629.840014	2497.891731
630.186236	2450.000769
630.532405	2518.056346
630.878521	2485.288846
631.224585	2444.959615
631.570597	2492.850577
631.916556	2495.371154
632.262462	2467.644808
632.608316	2553.344423
632.954117	2513.015192
633.299866	2510.494615
633.645562	2447.480192
633.991206	2492.850577
634.336797	2545.782692
634.682336	2540.741538
635.027823	2586.111923
635.373257	2472.685962
635.718639	2470.165385
636.063968	2462.603654
636.409245	2535.700385
636.754470	2462.603654
637.099642	2515.535769
637.444762	2505.453462
637.789829	2374.383462
638.134845	2502.932885
638.479808	2434.877308
638.824719	2462.603654
639.169577	2523.097500
639.514383	2507.974038
639.859137	2535.700385
640.203839	2467.644808
640.548489	2429.836154
640.893086	2490.330000
641.237632	2452.521346
641.582125	2497.891731
641.926566	2482.768269
642.270955	2510.494615
642.615292	2530.659231
642.959576	2389.506923
643.303809	2477.727115
643.647990	2530.659231
643.992118	2490.330000
644.336195	2495.371154
644.680219	2611.317692
645.024192	2447.480192
645.368112	2520.576923
645.711981	2520.576923
646.055797	2538.220962
646.399562	2540.741538
646.743274	2507.974038
647.086935	2505.453462
647.430544	2550.823846
647.774101	2583.591346
648.117606	2439.918462
648.461059	2563.426731
648.804460	2513.015192
649.147810	2520.576923
649.491108	2515.535769
649.834354	2535.700385
650.177548	2500.412308
650.520690	2495.371154
650.863781	2520.576923
651.206820	2487.809423
651.549807	2538.220962
651.892742	2525.618077
652.235626	2467.644808
652.578458	2510.494615
652.921238	2442.439038
653.263967	2528.138654
653.606644	2467.644808
653.949269	2477.727115
654.291843	2510.494615
654.634365	2424.795000
654.976836	2477.727115
655.319255	2482.768269
655.661622	2502.932885
656.003938	2515.535769
656.346203	2507.974038
656.688416	2487.809423
657.030577	2450.000769
657.372687	2379.424615
657.714746	2507.974038
658.056753	2497.891731
658.398708	2533.179808
658.740612	2450.000769
659.082465	2475.206538
659.424266	2502.932885
659.766016	2548.303269
660.107715	2490.330000
660.449362	2520.576923
660.790958	2397.068654
661.132503	2510.494615
661.473996	2523.097500
661.815438	2530.659231
662.156829	2565.947308
662.498168	2427.315577
662.839456	2525.618077
663.180693	2450.000769
663.521879	2535.700385
663.863013	2523.097500
664.204097	2492.850577
664.545129	2502.932885
664.886110	2581.070769
665.227040	2548.303269
665.567918	2540.741538
665.908746	2475.206538
666.249522	2460.083077
666.590248	2455.041923
666.930922	2497.891731
667.271545	2550.823846
667.612118	2543.262115
667.952639	2424.795000
668.293109	2477.727115
668.633528	2487.809423
668.973896	2525.618077
669.314213	2591.153077
669.654480	2533.179808
669.994695	2523.097500
670.334859	2583.591346
670.674973	2462.603654
671.015035	2505.453462
671.355047	2460.083077
671.695008	2596.194231
672.034918	2439.918462
672.374777	2515.535769
672.714585	2412.192115
673.054342	2475.206538
673.394049	2573.509038
673.733705	2540.741538
674.073310	2482.768269
674.412864	2465.124231
674.752368	2417.233269
675.091820	2540.741538
675.431223	2535.700385
675.770574	2480.247692
676.109875	2513.015192
676.449125	2487.809423
676.788324	2460.083077
677.127473	2553.344423
677.466571	2500.412308
677.805619	2465.124231
678.144616	2457.562500
678.483562	2429.836154
678.822458	2515.535769
679.161303	2500.412308
679.500098	2502.932885
679.838842	2381.945192
680.177535	2550.823846
680.516179	2442.439038
680.854771	2510.494615
681.193314	2495.371154
681.531805	2470.165385
681.870247	2510.494615
682.208638	2601.235385
682.546978	2455.041923
682.885268	2538.220962
683.223508	2490.330000
683.561697	2434.877308
683.899836	2505.453462
684.237925	2457.562500
684.575963	2397.068654
684.913951	2581.070769
685.251889	2553.344423
685.589776	2462.603654
685.927614	2467.644808
686.265401	2558.385577
686.603137	2520.576923
686.940824	2576.029615
687.278460	2450.000769
687.616046	2477.727115
687.953582	2507.974038
688.291068	2485.288846
688.628504	2502.932885
688.965889	2515.535769
689.303224	2447.480192
689.640510	2563.426731
689.977745	2502.932885
690.314930	2510.494615
690.652065	2467.644808
690.989150	2518.056346
691.326185	2515.535769
691.663170	2520.576923
692.000105	2515.535769
692.336990	2392.027500
692.673825	2482.768269
693.010610	2523.097500
693.347345	2500.412308
693.684030	2533.179808
694.020665	2545.782692
694.357251	2465.124231
694.693786	2550.823846
695.030272	2500.412308
695.366707	2505.453462
695.703093	2593.673654
696.039429	2553.344423
696.375716	2535.700385
696.711952	2576.029615
697.048139	2518.056346
697.384276	2500.412308
697.720363	2409.671538
698.056400	2462.603654
698.392388	2553.344423
698.728326	2543.262115
699.064214	2439.918462
699.400053	2485.288846
699.735842	2490.330000
700.071581	2475.206538
700.407270	2480.247692
700.742910	2465.124231
701.078501	2507.974038
701.414042	2520.576923
701.749533	2573.509038
702.084974	2505.453462
702.420366	2472.685962
702.755709	2467.644808
703.091002	2515.535769
703.426246	2606.276538
703.761440	2407.150962
704.096584	2490.330000
704.431679	2442.439038
704.766725	2533.179808
705.101721	2492.850577
705.436668	2492.850577
705.771565	2535.700385
706.106413	2465.124231
706.441212	2515.535769
706.775961	2480.247692
707.110661	2586.111923
707.445311	2593.673654
707.779913	2613.838269
708.114465	2492.850577
708.448967	2576.029615
708.783421	2518.056346
709.117825	2560.906154
709.452180	2455.041923
709.786485	2465.124231
710.120742	2502.932885
710.454949	2568.467885
710.789107	2520.576923
711.123216	2518.056346
711.457275	2442.439038
711.791286	2470.165385
712.125247	2513.015192
712.459159	2505.453462
712.793023	2518.056346
713.126837	2439.918462
713.460602	2550.823846
713.794318	2550.823846
714.127985	2533.179808
714.461602	2558.385577
714.795171	2510.494615
715.128691	2455.041923
715.462162	2510.494615
715.795584	2490.330000
716.128957	2492.850577
716.462281	2495.371154
716.795556	2467.644808
717.128782	2485.288846
717.461960	2465.124231
717.795088	2606.276538
718.128167	2462.603654
718.461198	2442.439038
718.794180	2492.850577
719.127113	2487.809423
719.459997	2563.426731
719.792833	2450.000769
720.125619	2550.823846
720.458357	2424.795000
720.791046	2502.932885
721.123686	2530.659231
721.456278	2565.947308
721.788821	2439.918462
722.121315	2427.315577
722.453761	2439.918462
722.786158	2591.153077
723.118506	2507.974038
723.450805	2490.330000
723.783056	2482.768269
724.115259	2460.083077
724.447412	2460.083077
724.779518	2548.303269
725.111574	2455.041923
725.443582	2480.247692
725.775542	2480.247692
726.107453	2490.330000
726.439315	2482.768269
726.771129	2497.891731
727.102895	2434.877308
727.434612	2520.576923
727.766281	2490.330000
728.097901	2565.947308
728.429473	2538.220962
728.760996	2568.467885
729.092471	2505.453462
729.423897	2510.494615
729.755276	2513.015192
730.086606	2548.303269
730.417887	2507.974038
730.749120	2507.974038
731.080305	2465.124231
731.411442	2480.247692
731.742530	2407.150962
732.073570	2402.109808
732.404562	2442.439038
732.735506	2497.891731
733.066401	2439.918462
733.397249	2482.768269
733.728048	2475.206538
734.058798	2581.070769
734.389501	2502.932885
734.720156	2495.371154
735.050762	2429.836154
735.381320	2497.891731
735.711831	2470.165385
736.042293	2460.083077
736.372707	2507.974038
736.703073	2480.247692
737.033391	2533.179808
737.363661	2434.877308
737.693883	2530.659231
738.024056	2482.768269
738.354182	2465.124231
738.684260	2500.412308
739.014290	2457.562500
739.344272	2450.000769
739.674207	2525.618077
740.004093	2447.480192
740.333931	2475.206538
740.663722	2568.467885
740.993464	2535.700385
741.323159	2467.644808
741.652806	2467.644808
741.982405	2518.056346
742.311956	2487.809423
742.641460	2452.521346
742.970915	2492.850577
743.300323	2588.632500
743.629683	2427.315577
743.958996	2497.891731
744.288260	2434.877308
744.617477	2565.947308
744.946647	2437.397885
745.275768	2477.727115
745.604842	2437.397885
745.933869	2558.385577
746.262847	2472.685962
746.591778	2412.192115
746.920662	2543.262115
747.249498	2437.397885
747.578286	2472.685962
747.907027	2535.700385
748.235720	2505.453462
748.564365	2535.700385
748.892963	2578.550192
749.221514	2475.206538
749.550017	2518.056346
749.878473	2573.509038
750.206881	2492.850577
750.535242	2497.891731
750.863555	2502.932885
751.191821	2603.755962
751.520039	2465.124231
751.848210	2495.371154
752.176334	2528.138654
752.504411	2555.865000
752.832440	2565.947308
753.160421	2477.727115
753.488356	2523.097500
753.816243	2563.426731
754.144082	2543.262115
754.471875	2563.426731
754.799620	2538.220962
755.127318	2530.659231
755.454969	2495.371154
755.782572	2490.330000
756.110129	2616.358846
756.437638	2467.644808
756.765100	2485.288846
757.092515	2482.768269
757.419882	2540.741538
757.747203	2477.727115
758.074477	2487.809423
758.401703	2427.315577
758.728882	2495.371154
759.056014	2490.330000
759.383099	2523.097500
759.710138	2497.891731
760.037129	2457.562500
760.364073	2477.727115
760.690970	2520.576923
761.017820	2480.247692
761.344623	2523.097500
761.671379	2518.056346
761.998088	2472.685962
762.324751	2565.947308
762.651366	2460.083077
762.977935	2500.412308
763.304456	2442.439038
763.630931	2455.041923
763.957359	2513.015192
764.283740	2480.247692
764.610074	2439.918462
764.936362	2535.700385
765.262602	2462.603654
765.588796	2399.589231
765.914943	2545.782692
766.241044	2500.412308
766.567097	2482.768269
766.893104	2434.877308
767.219064	2490.330000
767.544978	2452.521346
767.870845	2510.494615
768.196665	2399.589231
768.522438	2432.356731
768.848165	2591.153077
769.173846	2586.111923
769.499479	2530.659231
769.825066	2439.918462
770.150607	2515.535769
770.476101	2530.659231
770.801548	2452.521346
771.126949	2535.700385
771.452303	2475.206538
771.777611	2533.179808
772.102872	2550.823846
772.428087	2505.453462
772.753256	2477.727115
773.078378	2518.056346
773.403453	2485.288846
773.728482	2424.795000
774.053465	2477.727115
774.378401	2528.138654
774.703291	2588.632500
775.028135	2452.521346
775.352932	2467.644808
775.677683	2427.315577
776.002388	2528.138654
776.327046	2553.344423
776.651658	2444.959615
776.976224	2528.138654
777.300743	2477.727115
777.625216	2548.303269
777.949643	2475.206538
778.274024	2497.891731
778.598359	2563.426731
778.922647	2477.727115
779.246889	2442.439038
779.571086	2497.891731
779.895236	2553.344423
780.219339	2490.330000
780.543397	2507.974038
780.867409	2455.041923
781.191374	2528.138654
781.515294	2525.618077
781.839167	2495.371154
782.162995	2492.850577
782.486776	2457.562500
782.810511	2467.644808
783.134201	2442.439038
783.457844	2452.521346
783.781441	2535.700385
784.104993	2477.727115
784.428498	2492.850577
784.751958	2565.947308
785.075372	2424.795000
785.398739	2417.233269
785.722061	2492.850577
786.045337	2485.288846
786.368568	2492.850577
786.691752	2452.521346
787.014891	2513.015192
787.337983	2525.618077
787.661030	2447.480192
787.984031	2530.659231
788.306987	2409.671538
788.629897	2485.288846
788.952760	2437.397885
789.275579	2462.603654
789.598351	2485.288846
789.921078	2535.700385
790.243759	2507.974038
790.566395	2523.097500
790.888984	2465.124231
791.211529	2462.603654
791.534027	2518.056346
791.856480	2447.480192
792.178888	2485.288846
792.501249	2492.850577
792.823566	2530.659231
793.145836	2467.644808
793.468062	2422.274423
793.790241	2507.974038
794.112375	2510.494615
794.434464	2510.494615
794.756507	2523.097500
795.078505	2434.877308
795.400457	2502.932885
795.722364	2515.535769
796.044226	2520.576923
796.366042	2475.206538
796.687812	2497.891731
797.009538	2485.288846
797.331218	2563.426731
797.652852	2550.823846
797.974442	2477.727115
798.295986	2472.685962
798.617484	2462.603654
798.938938	2414.712692
799.260346	2470.165385
799.581709	2533.179808
799.903026	2429.836154
800.224299	2535.700385
800.545526	2417.233269
800.866708	2460.083077
801.187845	2470.165385
801.508936	2354.218846
801.829983	2402.109808
802.150984	2502.932885
802.471940	2576.029615
802.792851	2540.741538
803.113717	2422.274423
803.434538	2490.330000
803.755314	2434.877308
804.076045	2613.838269
804.396731	2510.494615
804.717372	2510.494615
805.037967	2495.371154
805.358518	2538.220962
805.679024	2505.453462
805.999485	2424.795000
806.319901	2495.371154
806.640272	2437.397885
806.960598	2462.603654
807.280879	2482.768269
807.601115	2472.685962
807.921306	2558.385577
808.241453	2472.685962
808.561554	2525.618077
808.881611	2495.371154
809.201623	2495.371154
809.521590	2558.385577
809.841513	2596.194231
810.161390	2578.550192
810.481223	2472.685962
810.801011	2533.179808
811.120755	2477.727115
811.440453	2497.891731
811.760107	2412.192115
812.079716	2480.247692
812.399281	2490.330000
812.718801	2513.015192
813.038276	2437.397885
813.357707	2565.947308
813.677093	2434.877308
813.996434	2520.576923
814.315731	2560.906154
814.634983	2573.509038
814.954191	2482.768269
815.273354	2477.727115
815.592473	2460.083077
815.911547	2485.288846
816.230577	2510.494615
816.549562	2455.041923
816.868502	2528.138654
817.187399	2485.288846
817.506250	2502.932885
817.825058	2460.083077
818.143821	2497.891731
818.462539	2492.850577
818.781213	2497.891731
819.099843	2450.000769
819.418429	2560.906154
819.736970	2497.891731
820.055466	2500.412308
820.373919	2442.439038
820.692327	2480.247692
821.010691	2399.589231
821.329011	2482.768269
821.647286	2520.576923
821.965517	2485.288846
822.283704	2500.412308
822.601847	2495.371154
822.919945	2550.823846
823.237999	2470.165385
823.556010	2573.509038
823.873976	2424.795000
824.191897	2502.932885
824.509775	2460.083077
824.827609	2560.906154
825.145398	2495.371154
825.463144	2538.220962
825.780845	2510.494615
826.098502	2470.165385
826.416116	2535.700385
826.733685	2477.727115
827.051210	2558.385577
827.368692	2505.453462
827.686129	2490.330000
828.003522	2518.056346
828.320872	2447.480192
828.638177	2538.220962
828.955439	2563.426731
829.272656	2455.041923
829.589830	2502.932885
829.906960	2523.097500
830.224046	2497.891731
830.541088	2490.330000
830.858086	2492.850577
831.175041	2424.795000
831.491952	2505.453462
831.808819	2593.673654
832.125642	2490.330000
832.442421	2510.494615
832.759157	2457.562500
833.075849	2482.768269
833.392497	2555.865000
833.709101	2560.906154
834.025662	2500.412308
834.342179	2467.644808
834.658653	2439.918462
834.975083	2467.644808
835.291469	2444.959615
835.607811	2530.659231
835.924110	2462.603654
836.240366	2576.029615
836.556578	2533.179808
836.872746	2417.233269
837.188871	2505.453462
837.504952	2586.111923
837.820990	2507.974038
838.136984	2545.782692
838.452935	2422.274423
838.768842	2528.138654
839.084706	2472.685962
839.400526	2553.344423
839.716303	2462.603654
840.032037	2444.959615
840.347727	2502.932885
840.663373	2500.412308
840.978977	2555.865000
841.294537	2515.535769
841.610054	2507.974038
841.925527	2500.412308
842.240957	2505.453462
842.556344	2558.385577
842.871687	2533.179808
843.186987	2417.233269
843.502244	2465.124231
843.817458	2502.932885
844.132629	2497.891731
844.447756	2510.494615
844.762840	2467.644808
845.077881	2578.550192
845.392879	2520.576923
845.707833	2507.974038
846.022745	2520.576923
846.337613	2427.315577
846.652438	2523.097500
846.967221	2520.576923
847.281960	2528.138654
847.596656	2465.124231
847.911309	2437.397885
848.225919	2530.659231
848.540485	2510.494615
848.855009	2492.850577
849.169490	2528.138654
849.483928	2518.056346
849.798323	2565.947308
850.112675	2525.618077
850.426984	2455.041923
850.741251	2427.315577
851.055474	2457.562500
851.369654	2603.755962
851.683792	2482.768269
851.997887	2457.562500
852.311938	2447.480192
852.625947	2528.138654
852.939914	2500.412308
853.253837	2510.494615
853.567718	2482.768269
853.881555	2477.727115
854.195350	2457.562500
854.509103	2570.988462
854.822812	2409.671538
855.136479	2409.671538
855.450103	2412.192115
855.763685	2523.097500
856.077224	2550.823846
856.390720	2470.165385
856.704173	2470.165385
857.017584	2404.630385
857.330953	2455.041923
857.644278	2444.959615
857.957561	2394.548077
858.270802	2530.659231
858.584000	2472.685962
858.897155	2487.809423
859.210268	2482.768269
859.523339	2502.932885
859.836367	2460.083077
860.149352	2510.494615
860.462295	2432.356731
860.775195	2490.330000
861.088054	2510.494615
861.400869	2495.371154
861.713642	2450.000769
862.026373	2570.988462
862.339062	2424.795000
862.651708	2515.535769
862.964312	2528.138654
863.276873	2525.618077
863.589392	2545.782692
863.901869	2452.521346
864.214303	2492.850577
864.526696	2482.768269
864.839045	2397.068654
865.151353	2422.274423
865.463619	2460.083077
865.775842	2505.453462
866.088023	2424.795000
866.400162	2497.891731
866.712258	2450.000769
867.024313	2455.041923
867.336325	2528.138654
867.648296	2528.138654
867.960224	2507.974038
868.272110	2450.000769
868.583954	2487.809423
868.895755	2447.480192
869.207515	2447.480192
869.519233	2492.850577
869.830909	2560.906154
870.142542	2477.727115
870.454134	2477.727115
870.765684	2462.603654
871.077191	2520.576923
871.388657	2550.823846
871.700081	2543.262115
872.011463	2497.891731
872.322803	2586.111923
872.634101	2505.453462
872.945357	2510.494615
873.256571	2540.741538
873.567744	2402.109808
873.878874	2538.220962
874.189963	2578.550192
874.501010	2570.988462
874.812015	2374.383462
875.122979	2540.741538
875.433900	2437.397885
875.744780	2558.385577
876.055618	2530.659231
876.366415	2523.097500
876.677169	2490.330000
876.987882	2447.480192
877.298554	2492.850577
877.609183	2505.453462
877.919771	2490.330000
878.230317	2480.247692
878.540822	2518.056346
878.851285	2540.741538
879.161707	2462.603654
879.472087	2490.330000
879.782425	2470.165385
880.092722	2523.097500
880.402977	2470.165385
880.713191	2550.823846
881.023363	2409.671538
881.333494	2525.618077
881.643583	2495.371154
881.953631	2530.659231
882.263637	2480.247692
882.573602	2485.288846
882.883526	2457.562500
883.193408	2392.027500
883.503248	2470.165385
883.813048	2429.836154
884.122806	2518.056346
884.432522	2533.179808
884.742197	2419.753846
885.051831	2505.453462
885.361424	2485.288846
885.670975	2538.220962
885.980485	2505.453462
886.289954	2450.000769
886.599382	2417.233269
886.908768	2528.138654
887.218113	2437.397885
887.527417	2528.138654
887.836680	2465.124231
888.145901	2492.850577
888.455082	2492.850577
888.764221	2507.974038
889.073319	2502.932885
889.382376	2447.480192
889.691392	2520.576923
890.000366	2465.124231
890.309300	2432.356731
890.618193	2450.000769
890.927044	2492.850577
891.235855	2515.535769
891.544625	2507.974038
891.853353	2515.535769
892.162041	2591.153077
892.470687	2581.070769
892.779293	2548.303269
893.087858	2452.521346
893.396381	2558.385577
893.704864	2485.288846
894.013306	2480.247692
894.321707	2417.233269
894.630068	2535.700385
894.938387	2502.932885
895.246665	2502.932885
895.554903	2384.465769
895.863100	2538.220962
896.171256	2392.027500
896.479371	2399.589231
896.787446	2540.741538
897.095480	2502.932885
897.403473	2538.220962
897.711425	2470.165385
898.019336	2530.659231
898.327207	2460.083077
898.635038	2439.918462
898.942827	2492.850577
899.250576	2389.506923
899.558284	2434.877308
899.865952	2505.453462
900.173579	2520.576923
900.481165	2475.206538
900.788711	2434.877308
901.096216	2467.644808
901.403681	2447.480192
901.711105	2485.288846
902.018489	2613.838269
902.325832	2487.809423
902.633135	2513.015192
902.940397	2467.644808
903.247619	2422.274423
903.554800	2510.494615
903.861941	2467.644808
904.169041	2480.247692
904.476101	2487.809423
904.783121	2485.288846
905.090100	2581.070769
905.397039	2507.974038
905.703938	2495.371154
906.010796	2487.809423
906.317614	2432.356731
906.624391	2470.165385
906.931129	2447.480192
907.237826	2558.385577
907.544483	2507.974038
907.851099	2450.000769
908.157675	2565.947308
908.464211	2437.397885
908.770707	2482.768269
909.077163	2457.562500
909.383578	2450.000769
909.689954	2502.932885
909.996289	2462.603654
910.302584	2505.453462
910.608839	2538.220962
910.915054	2475.206538
911.221229	2520.576923
911.527363	2444.959615
911.833458	2528.138654
912.139513	2427.315577
912.445527	2457.562500
912.751502	2500.412308
913.057436	2533.179808
913.363331	2432.356731
913.669186	2467.644808
913.975000	2513.015192
914.280775	2550.823846
914.586510	2439.918462
914.892205	2434.877308
915.197859	2487.809423
915.503475	2455.041923
915.809050	2525.618077
916.114585	2429.836154
916.420081	2497.891731
916.725536	2513.015192
917.030952	2482.768269
917.336328	2563.426731
917.641665	2550.823846
917.946961	2563.426731
918.252218	2515.535769
918.557435	2465.124231
918.862612	2460.083077
919.167750	2465.124231
919.472848	2450.000769
919.777906	2472.685962
920.082925	2543.262115
920.387904	2450.000769
920.692843	2437.397885
920.997743	2525.618077
921.302603	2570.988462
921.607423	2510.494615
921.912204	2530.659231
922.216946	2452.521346
922.521647	2588.632500
922.826310	2450.000769
923.130932	2555.865000
923.435516	2480.247692
923.740059	2525.618077
924.044564	2472.685962
924.349028	2505.453462
924.653454	2487.809423
924.957840	2530.659231
925.262186	2402.109808
925.566493	2485.288846
925.870761	2477.727115
926.174989	2513.015192
926.479178	2475.206538
926.783328	2480.247692
927.087438	2538.220962
927.391509	2452.521346
927.695541	2540.741538
927.999533	2427.315577
928.303486	2480.247692
928.607400	2502.932885
928.911275	2535.700385
929.215110	2500.412308
929.518906	2538.220962
929.822663	2470.165385
930.126381	2460.083077
930.430060	2452.521346
930.733699	2429.836154
931.037299	2422.274423
931.340861	2485.288846
931.644383	2505.453462
931.947866	2500.412308
932.251309	2444.959615
932.554714	2399.589231
932.858080	2518.056346
933.161407	2588.632500
933.464694	2450.000769
933.767943	2392.027500
934.071153	2500.412308
934.374323	2568.467885
934.677455	2518.056346
934.980548	2475.206538
935.283602	2485.288846
935.586617	2495.371154
935.889593	2477.727115
936.192530	2502.932885
936.495428	2502.932885
936.798287	2477.727115
937.101108	2472.685962
937.403890	2528.138654
937.706632	2485.288846
938.009336	2450.000769
938.312002	2452.521346
938.614628	2485.288846
938.917216	2528.138654
939.219765	2513.015192
939.522275	2470.165385
939.824747	2515.535769
940.127179	2467.644808
940.429573	2482.768269
940.731929	2530.659231
941.034246	2460.083077
941.336524	2442.439038
941.638763	2422.274423
941.940964	2545.782692
942.243126	2394.548077
942.545250	2485.288846
942.847335	2419.753846
943.149381	2560.906154
943.451389	2487.809423
943.753359	2487.809423
944.055290	2482.768269
944.357182	2565.947308
944.659036	2444.959615
944.960851	2392.027500
945.262628	2427.315577
945.564367	2389.506923
945.866067	2457.562500
946.167729	2523.097500
946.469352	2515.535769
946.770937	2462.603654
947.072484	2485.288846
947.373992	2533.179808
947.675462	2470.165385
947.976893	2528.138654
948.278286	2455.041923
948.579641	2543.262115
948.880958	2409.671538
949.182236	2470.165385
949.483476	2371.862885
949.784678	2482.768269
950.085841	2495.371154
950.386967	2510.494615
950.688054	2485.288846
950.989103	2384.465769
951.290114	2525.618077
951.591087	2366.821731
951.892021	2555.865000
952.192917	2462.603654
952.493776	2573.509038
952.794596	2523.097500
953.095378	2472.685962
953.396122	2392.027500
953.696828	2460.083077
953.997496	2480.247692
954.298126	2525.618077
954.598718	2515.535769
954.899272	2429.836154
955.199788	2515.535769
955.500266	2429.836154
955.800706	2472.685962
956.101108	2507.974038
956.401472	2444.959615
956.701798	2492.850577
957.002087	2455.041923
957.302337	2409.671538
957.602550	2497.891731
957.902724	2452.521346
958.202861	2475.206538
958.502960	2538.220962
958.803022	2490.330000
959.103045	2442.439038
959.403031	2530.659231
959.702979	2487.809423
960.002889	2397.068654
960.302762	2455.041923
960.602596	2485.288846
960.902393	2450.000769
961.202153	2442.439038
961.501875	2487.809423
961.801559	2528.138654
962.101205	2402.109808
962.400814	2535.700385
962.700385	2455.041923
962.999918	2492.850577
963.299414	2487.809423
963.598873	2495.371154
963.898293	2442.439038
964.197677	2482.768269
964.497022	2520.576923
964.796331	2412.192115
965.095601	2457.562500
965.394835	2576.029615
965.694030	2450.000769
965.993189	2510.494615
966.292309	2581.070769
966.591393	2462.603654
966.890439	2472.685962
967.189447	2434.877308
967.488419	2570.988462
967.787353	2379.424615
968.086249	2444.959615
968.385108	2460.083077
968.683930	2497.891731
968.982714	2515.535769
969.281462	2586.111923
969.580172	2548.303269
969.878844	2495.371154
970.177480	2528.138654
970.476078	2457.562500
970.774639	2472.685962
971.073162	2402.109808
971.371649	2568.467885
971.670098	2513.015192
971.968510	2462.603654
972.266885	2545.782692
972.565223	2510.494615
972.863524	2492.850577
973.161788	2424.795000
973.460014	2485.288846
973.758204	2553.344423
974.056356	2455.041923
974.354471	2576.029615
974.652550	2507.974038
974.950591	2497.891731
975.248595	2601.235385
975.546563	2467.644808
975.844493	2502.932885
976.142386	2467.644808
976.440243	2568.467885
976.738062	2424.795000
977.035845	2497.891731
977.333590	2409.671538
977.631299	2533.179808
977.928971	2417.233269
978.226606	2417.233269
978.524204	2467.644808
978.821765	2485.288846
979.119290	2434.877308
979.416777	2487.809423
979.714228	2558.385577
980.011642	2472.685962
980.309020	2507.974038
980.606360	2477.727115
980.903664	2427.315577
981.200931	2442.439038
981.498162	2495.371154
981.795356	2452.521346
982.092513	2467.644808
982.389633	2482.768269
982.686717	2439.918462
982.983764	2457.562500
983.280775	2500.412308
983.577749	2457.562500
983.874686	2470.165385
984.171587	2530.659231
984.468451	2467.644808
984.765279	2470.165385
985.062070	2583.591346
985.358824	2434.877308
985.655543	2515.535769
985.952224	2427.315577
986.248869	2505.453462
986.545478	2550.823846
986.842050	2518.056346
987.138586	2477.727115
987.435086	2452.521346
987.731549	2482.768269
988.027975	2485.288846
988.324366	2472.685962
988.620719	2412.192115
988.917037	2560.906154
989.213318	2495.371154
989.509563	2477.727115
989.805772	2555.865000
990.101944	2439.918462
990.398080	2510.494615
990.694180	2528.138654
990.990244	2467.644808
991.286271	2427.315577
991.582262	2555.865000
991.878217	2485.288846
992.174136	2482.768269
992.470019	2543.262115
992.765865	2447.480192
993.061676	2482.768269
993.357450	2528.138654
993.653188	2596.194231
993.948890	2444.959615
994.244556	2442.439038
994.540186	2525.618077
994.835780	2487.809423
995.131337	2538.220962
995.426859	2492.850577
995.722345	2550.823846
996.017795	2482.768269
996.313208	2533.179808
996.608586	2482.768269
996.903928	2560.906154
997.199234	2444.959615
997.494504	2490.330000
997.789738	2470.165385
998.084936	2545.782692
998.380099	2475.206538
998.675225	2462.603654
998.970316	2460.083077
999.265371	2515.535769
999.560390	2568.467885
999.855373	2452.521346
1000.150320	2565.947308
1000.445232	2369.342308
1000.740108	2533.179808
1001.034948	2487.809423
1001.329752	2515.535769
1001.624521	2492.850577
1001.919254	2429.836154
1002.213951	2409.671538
1002.508613	2472.685962
1002.803239	2437.397885
1003.097829	2455.041923
1003.392384	2485.288846
1003.686903	2510.494615
1003.981386	2455.041923
1004.275834	2497.891731
1004.570246	2457.562500
1004.864623	2492.850577
1005.158964	2455.041923
1005.453270	2472.685962
1005.747540	2548.303269
1006.041775	2422.274423
1006.335974	2404.630385
1006.630138	2507.974038
1006.924266	2470.165385
1007.218359	2507.974038
1007.512416	2414.712692
1007.806438	2482.768269
1008.100425	2497.891731
1008.394376	2450.000769
1008.688292	2482.768269
1008.982172	2568.467885
1009.276017	2510.494615
1009.569827	2432.356731
1009.863602	2560.906154
1010.157341	2530.659231
1010.451045	2457.562500
1010.744714	2444.959615
1011.038347	2500.412308
1011.331945	2480.247692
1011.625508	2495.371154
1011.919036	2482.768269
1012.212528	2492.850577
1012.505986	2500.412308
1012.799408	2439.918462
1013.092795	2487.809423
1013.386147	2545.782692
1013.679464	2434.877308
1013.972745	2515.535769
1014.265992	2525.618077
1014.559204	2558.385577
1014.852380	2482.768269
1015.145521	2518.056346
1015.438628	2467.644808
1015.731699	2497.891731
1016.024736	2528.138654
1016.317737	2490.330000
1016.610703	2447.480192
1016.903635	2492.850577
1017.196531	2442.439038
1017.489393	2397.068654
1017.782219	2490.330000
1018.075011	2477.727115
1018.367768	2505.453462
1018.660490	2465.124231
1018.953177	2465.124231
1019.245829	2465.124231
