Dividing Wavelength (nm)	Counts (n)	Blue Motor Position (mm): 0.500000	Red Motor Position (mm): 0.000000	
326.493990	2074.434808
326.888308	2074.434808
327.282561	2074.434808
327.676750	2167.696154
328.070874	2018.982115
328.464933	2084.517115
328.858929	2041.667308
329.252859	1958.488269
329.646726	2102.161154
330.040528	2031.585000
330.434265	2139.969808
330.827938	2220.628269
331.221547	2117.284615
331.615091	2195.422500
332.008571	2190.381346
332.401986	2228.190000
332.795338	2172.737308
333.188625	2278.601538
333.581847	2245.834038
333.975006	2293.725000
334.368100	2288.683846
334.761129	2240.792885
335.154095	2344.136538
335.546996	2386.986346
335.939833	2306.327885
336.332606	2318.930769
336.725315	2455.041923
337.117960	2397.068654
337.510540	2331.533654
337.903056	2467.644808
338.295508	2465.124231
338.687896	2467.644808
339.080220	2487.809423
339.472480	2470.165385
339.864676	2492.850577
340.256807	2442.439038
340.648875	2457.562500
341.040879	2467.644808
341.432818	2515.535769
341.824694	2434.877308
342.216506	2540.741538
342.608253	2407.150962
342.999937	2427.315577
343.391557	2523.097500
343.783113	2437.397885
344.174605	2480.247692
344.566033	2472.685962
344.957397	2472.685962
345.348697	2354.218846
345.739934	2558.385577
346.131106	2505.453462
346.522215	2465.124231
346.913260	2505.453462
347.304241	2412.192115
347.695159	2417.233269
348.086012	2452.521346
348.476802	2452.521346
348.867528	2412.192115
349.258191	2399.589231
349.648789	2472.685962
350.039324	2389.506923
350.429796	2455.041923
350.820203	2520.576923
351.210548	2424.795000
351.600828	2505.453462
351.991045	2394.548077
352.381198	2487.809423
352.771288	2500.412308
353.161314	2407.150962
353.551276	2392.027500
353.941175	2422.274423
354.331010	2462.603654
354.720782	2419.753846
355.110490	2407.150962
355.500135	2414.712692
355.889717	2419.753846
356.279235	2434.877308
356.668689	2399.589231
357.058080	2447.480192
357.447408	2482.768269
357.836672	2384.465769
358.225873	2538.220962
358.615010	2455.041923
359.004084	2331.533654
359.393095	2465.124231
359.782043	2392.027500
360.170927	2477.727115
360.559748	2412.192115
360.948505	2404.630385
361.337199	2432.356731
361.725830	2414.712692
362.114398	2472.685962
362.502903	2334.054231
362.891344	2452.521346
363.279722	2485.288846
363.668037	2452.521346
364.056289	2450.000769
364.444478	2538.220962
364.832603	2465.124231
365.220665	2482.768269
365.608665	2419.753846
365.996601	2480.247692
366.384474	2452.521346
366.772284	2518.056346
367.160031	2460.083077
367.547715	2490.330000
367.935336	2434.877308
368.322893	2439.918462
368.710388	2462.603654
369.097820	2490.330000
369.485189	2439.918462
369.872495	2402.109808
370.259738	2490.330000
370.646918	2470.165385
371.034035	2530.659231
371.421090	2480.247692
371.808081	2520.576923
372.195010	2520.576923
372.581875	2465.124231
372.968678	2515.535769
373.355418	2399.589231
373.742096	2434.877308
374.128710	2460.083077
374.515262	2472.685962
374.901751	2518.056346
375.288177	2490.330000
375.674540	2457.562500
376.060841	2424.795000
376.447079	2444.959615
376.833254	2467.644808
377.219367	2434.877308
377.605417	2502.932885
377.991404	2467.644808
378.377329	2507.974038
378.763191	2538.220962
379.148991	2507.974038
379.534727	2444.959615
379.920402	2487.809423
380.306013	2447.480192
380.691563	2497.891731
381.077049	2523.097500
381.462474	2432.356731
381.847835	2457.562500
382.233134	2356.739423
382.618371	2492.850577
383.003545	2465.124231
383.388657	2505.453462
383.773706	2467.644808
384.158693	2452.521346
384.543618	2505.453462
384.928480	2502.932885
385.313280	2497.891731
385.698017	2457.562500
386.082692	2439.918462
386.467305	2397.068654
386.851856	2434.877308
387.236344	2523.097500
387.620770	2427.315577
388.005133	2404.630385
388.389435	2467.644808
388.773674	2467.644808
389.157851	2455.041923
389.541965	2502.932885
389.926018	2422.274423
390.310008	2397.068654
390.693936	2452.521346
391.077802	2417.233269
391.461606	2414.712692
391.845348	2475.206538
392.229027	2452.521346
392.612645	2470.165385
392.996200	2528.138654
393.379694	2563.426731
393.763125	2422.274423
394.146494	2535.700385
394.529801	2495.371154
394.913047	2487.809423
395.296230	2455.041923
395.679351	2394.548077
396.062410	2568.467885
396.445408	2477.727115
396.828343	2402.109808
397.211217	2457.562500
397.594028	2477.727115
397.976778	2412.192115
398.359466	2452.521346
398.742092	2495.371154
399.124656	2548.303269
399.507158	2432.356731
399.889598	2434.877308
400.271977	2500.412308
400.654294	2482.768269
401.036549	2513.015192
401.418742	2404.630385
401.800874	2447.480192
402.182944	2465.124231
402.564952	2616.358846
402.946898	2490.330000
403.328783	2553.344423
403.710606	2497.891731
404.092367	2467.644808
404.474067	2447.480192
404.855705	2455.041923
405.237282	2480.247692
405.618797	2528.138654
406.000250	2518.056346
406.381642	2477.727115
406.762972	2533.179808
407.144240	2475.206538
407.525447	2492.850577
407.906593	2528.138654
408.287677	2568.467885
408.668700	2510.494615
409.049661	2467.644808
409.430560	2480.247692
409.811399	2412.192115
410.192176	2412.192115
410.572891	2520.576923
410.953545	2376.904038
411.334138	2490.330000
411.714669	2540.741538
412.095139	2495.371154
412.475547	2540.741538
412.855894	2533.179808
413.236180	2394.548077
413.616405	2480.247692
413.996568	2487.809423
414.376670	2525.618077
414.756711	2399.589231
415.136691	2402.109808
415.516609	2525.618077
415.896466	2472.685962
416.276262	2533.179808
416.655997	2424.795000
417.035670	2414.712692
417.415283	2407.150962
417.794834	2480.247692
418.174324	2475.206538
418.553753	2472.685962
418.933121	2487.809423
419.312428	2412.192115
419.691674	2475.206538
420.070859	2437.397885
420.449983	2535.700385
420.829045	2447.480192
421.208047	2485.288846
421.586988	2417.233269
421.965867	2467.644808
422.344686	2462.603654
422.723444	2507.974038
423.102141	2507.974038
423.480777	2533.179808
423.859352	2457.562500
424.237866	2434.877308
424.616319	2447.480192
424.994712	2518.056346
425.373044	2520.576923
425.751314	2432.356731
426.129524	2482.768269
426.507673	2548.303269
426.885762	2422.274423
427.263789	2510.494615
427.641756	2450.000769
428.019662	2439.918462
428.397508	2437.397885
428.775292	2460.083077
429.153016	2545.782692
429.530679	2545.782692
429.908282	2465.124231
430.285824	2407.150962
430.663305	2510.494615
431.040726	2518.056346
431.418086	2457.562500
431.795385	2457.562500
432.172624	2497.891731
432.549802	2505.453462
432.926920	2442.439038
433.303977	2507.974038
433.680974	2442.439038
434.057910	2523.097500
434.434786	2462.603654
434.811601	2450.000769
435.188355	2356.739423
435.565050	2515.535769
435.941683	2510.494615
436.318257	2444.959615
436.694770	2480.247692
437.071222	2427.315577
437.447614	2472.685962
437.823946	2465.124231
438.200218	2502.932885
438.576429	2475.206538
438.952580	2553.344423
439.328670	2515.535769
439.704700	2538.220962
440.080670	2500.412308
440.456580	2528.138654
440.832429	2414.712692
441.208218	2513.015192
441.583947	2518.056346
441.959616	2591.153077
442.335224	2457.562500
442.710773	2502.932885
443.086261	2455.041923
443.461689	2492.850577
443.837057	2409.671538
444.212365	2507.974038
444.587612	2465.124231
444.962800	2492.850577
445.337927	2450.000769
445.712995	2510.494615
446.088002	2502.932885
446.462949	2553.344423
446.837837	2520.576923
447.212664	2480.247692
447.587431	2460.083077
447.962139	2444.959615
448.336786	2475.206538
448.711374	2475.206538
449.085901	2535.700385
449.460369	2495.371154
449.834776	2487.809423
450.209124	2472.685962
450.583412	2472.685962
450.957640	2543.262115
451.331808	2462.603654
451.705917	2482.768269
452.079965	2555.865000
452.453954	2424.795000
452.827883	2450.000769
453.201752	2525.618077
453.575562	2470.165385
453.949311	2563.426731
454.323001	2487.809423
454.696632	2414.712692
455.070202	2548.303269
455.443713	2545.782692
455.817164	2495.371154
456.190556	2432.356731
456.563888	2402.109808
456.937160	2513.015192
457.310373	2578.550192
457.683526	2427.315577
458.056619	2465.124231
458.429653	2500.412308
458.802628	2470.165385
459.175542	2452.521346
459.548398	2477.727115
459.921194	2497.891731
460.293930	2560.906154
460.666607	2570.988462
461.039224	2414.712692
461.411782	2507.974038
461.784280	2543.262115
462.156719	2586.111923
462.529099	2485.288846
462.901419	2563.426731
463.273680	2472.685962
463.645882	2495.371154
464.018024	2447.480192
464.390106	2392.027500
464.762130	2520.576923
465.134094	2500.412308
465.505999	2513.015192
465.877845	2412.192115
466.249631	2439.918462
466.621358	2550.823846
466.993026	2540.741538
467.364634	2510.494615
467.736184	2510.494615
468.107674	2480.247692
468.479105	2475.206538
468.850477	2520.576923
469.221790	2576.029615
469.593043	2581.070769
469.964238	2444.959615
470.335373	2528.138654
470.706449	2414.712692
471.077467	2518.056346
471.448425	2480.247692
471.819324	2467.644808
472.190164	2533.179808
472.560945	2518.056346
472.931667	2502.932885
473.302330	2500.412308
473.672934	2518.056346
474.043479	2475.206538
474.413965	2528.138654
474.784393	2545.782692
475.154761	2505.453462
475.525070	2487.809423
475.895321	2487.809423
476.265513	2548.303269
476.635645	2472.685962
477.005719	2528.138654
477.375734	2523.097500
477.745691	2462.603654
478.115588	2422.274423
478.485427	2465.124231
478.855207	2492.850577
479.224928	2444.959615
479.594591	2480.247692
479.964194	2424.795000
480.333739	2442.439038
480.703226	2450.000769
481.072653	2513.015192
481.442022	2515.535769
481.811333	2477.727115
482.180584	2439.918462
482.549777	2490.330000
482.918912	2465.124231
483.287988	2598.714808
483.657005	2538.220962
484.025964	2475.206538
484.394864	2535.700385
484.763706	2492.850577
485.132489	2538.220962
485.501213	2452.521346
485.869879	2457.562500
486.238487	2502.932885
486.607036	2470.165385
486.975527	2558.385577
487.343959	2560.906154
487.712333	2432.356731
488.080648	2439.918462
488.448905	2520.576923
488.817104	2497.891731
489.185244	2560.906154
489.553326	2439.918462
489.921350	2570.988462
490.289315	2475.206538
490.657222	2442.439038
491.025070	2525.618077
491.392861	2520.576923
491.760593	2530.659231
492.128267	2487.809423
492.495883	2515.535769
492.863440	2482.768269
493.230939	2455.041923
493.598380	2510.494615
493.965763	2553.344423
494.333088	2492.850577
494.700354	2475.206538
495.067563	2467.644808
495.434713	2465.124231
495.801805	2475.206538
496.168839	2429.836154
496.535815	2477.727115
496.902733	2553.344423
497.269593	2467.644808
497.636395	2518.056346
498.003139	2480.247692
498.369825	2563.426731
498.736453	2535.700385
499.103023	2573.509038
499.469535	2462.603654
499.835989	2565.947308
500.202385	2475.206538
500.568723	2513.015192
500.935003	2424.795000
501.301226	2384.465769
501.667390	2513.015192
502.033497	2477.727115
502.399546	2439.918462
502.765537	2462.603654
503.131470	2533.179808
503.497345	2480.247692
503.863163	2568.467885
504.228923	2591.153077
504.594625	2555.865000
504.960269	2570.988462
505.325856	2490.330000
505.691385	2477.727115
506.056856	2475.206538
506.422270	2492.850577
506.787625	2505.453462
507.152924	2424.795000
507.518164	2477.727115
507.883347	2447.480192
508.248472	2510.494615
508.613540	2538.220962
508.978550	2467.644808
509.343503	2507.974038
509.708398	2477.727115
510.073236	2414.712692
510.438016	2593.673654
510.802738	2558.385577
511.167403	2472.685962
511.532010	2497.891731
511.896561	2502.932885
512.261053	2505.453462
512.625488	2482.768269
512.989866	2500.412308
513.354186	2568.467885
513.718449	2475.206538
514.082655	2523.097500
514.446803	2535.700385
514.810894	2545.782692
515.174927	2497.891731
515.538904	2482.768269
515.902822	2525.618077
516.266684	2533.179808
516.630488	2457.562500
516.994235	2407.150962
517.357925	2450.000769
517.721558	2457.562500
518.085133	2505.453462
518.448651	2462.603654
518.812112	2487.809423
519.175516	2520.576923
519.538863	2553.344423
519.902152	2533.179808
520.265385	2470.165385
520.628560	2523.097500
520.991678	2565.947308
521.354739	2485.288846
521.717743	2470.165385
522.080690	2515.535769
522.443580	2444.959615
522.806413	2538.220962
523.169189	2452.521346
523.531908	2520.576923
523.894569	2457.562500
524.257174	2513.015192
524.619722	2613.838269
524.982213	2475.206538
525.344647	2475.206538
525.707025	2427.315577
526.069345	2465.124231
526.431608	2434.877308
526.793815	2507.974038
527.155964	2553.344423
527.518057	2427.315577
527.880093	2502.932885
528.242072	2417.233269
528.603995	2467.644808
528.965860	2450.000769
529.327669	2533.179808
529.689421	2424.795000
530.051117	2457.562500
530.412755	2437.397885
530.774337	2480.247692
531.135862	2409.671538
531.497331	2482.768269
531.858743	2497.891731
532.220098	2477.727115
532.581396	2565.947308
532.942638	2586.111923
533.303824	2510.494615
533.664953	2412.192115
534.026025	2467.644808
534.387040	2507.974038
534.747999	2366.821731
535.108902	2510.494615
535.469748	2465.124231
535.830537	2472.685962
536.191270	2543.262115
536.551947	2528.138654
536.912567	2465.124231
537.273131	2492.850577
537.633638	2485.288846
537.994089	2490.330000
538.354483	2472.685962
538.714821	2502.932885
539.075103	2480.247692
539.435328	2543.262115
539.795497	2510.494615
540.155609	2480.247692
540.515665	2490.330000
540.875665	2444.959615
541.235609	2530.659231
541.595496	2540.741538
541.955328	2545.782692
542.315102	2470.165385
542.674821	2502.932885
543.034483	2570.988462
543.394090	2434.877308
543.753640	2513.015192
544.113134	2414.712692
544.472571	2465.124231
544.831953	2560.906154
545.191278	2528.138654
545.550548	2485.288846
545.909761	2543.262115
546.268918	2487.809423
546.628019	2480.247692
546.987064	2427.315577
547.346053	2538.220962
547.704986	2596.194231
548.063863	2507.974038
548.422684	2525.618077
548.781449	2563.426731
549.140158	2487.809423
549.498811	2538.220962
549.857408	2477.727115
550.215949	2487.809423
550.574434	2545.782692
550.932864	2442.439038
551.291237	2482.768269
551.649555	2427.315577
552.007817	2513.015192
552.366022	2628.961731
552.724173	2525.618077
553.082267	2434.877308
553.440305	2518.056346
553.798288	2475.206538
554.156215	2497.891731
554.514086	2593.673654
554.871902	2523.097500
555.229661	2538.220962
555.587365	2462.603654
555.945014	2497.891731
556.302606	2465.124231
556.660143	2500.412308
557.017625	2467.644808
557.375050	2515.535769
557.732421	2472.685962
558.089735	2477.727115
558.446994	2475.206538
558.804197	2492.850577
559.161345	2432.356731
559.518437	2455.041923
559.875474	2578.550192
560.232455	2533.179808
560.589381	2576.029615
560.946251	2450.000769
561.303065	2467.644808
561.659825	2497.891731
562.016528	2535.700385
562.373177	2523.097500
562.729770	2510.494615
563.086307	2518.056346
563.442789	2487.809423
563.799216	2432.356731
564.155587	2535.700385
564.511904	2535.700385
564.868164	2467.644808
565.224370	2507.974038
565.580520	2545.782692
565.936615	2447.480192
566.292654	2427.315577
566.648638	2507.974038
567.004567	2513.015192
567.360441	2497.891731
567.716260	2442.439038
568.072023	2487.809423
568.427732	2437.397885
568.783385	2480.247692
569.138982	2462.603654
569.494525	2394.548077
569.850013	2492.850577
570.205445	2563.426731
570.560823	2520.576923
570.916145	2495.371154
571.271412	2502.932885
571.626625	2505.453462
571.981782	2586.111923
572.336884	2485.288846
572.691931	2543.262115
573.046923	2424.795000
573.401860	2477.727115
573.756743	2538.220962
574.111570	2528.138654
574.466342	2515.535769
574.821059	2533.179808
575.175722	2578.550192
575.530330	2492.850577
575.884882	2533.179808
576.239380	2477.727115
576.593823	2525.618077
576.948211	2452.521346
577.302544	2485.288846
577.656823	2455.041923
578.011047	2477.727115
578.365216	2513.015192
578.719330	2419.753846
579.073389	2528.138654
579.427394	2422.274423
579.781344	2487.809423
580.135239	2510.494615
580.489080	2490.330000
580.842866	2457.562500
581.196597	2495.371154
581.550273	2422.274423
581.903895	2465.124231
582.257463	2555.865000
582.610975	2563.426731
582.964434	2487.809423
583.317837	2560.906154
583.671186	2497.891731
584.024481	2507.974038
584.377721	2460.083077
584.730906	2497.891731
585.084037	2434.877308
585.437113	2528.138654
585.790135	2402.109808
586.143103	2429.836154
586.496016	2533.179808
586.848874	2528.138654
587.201679	2487.809423
587.554428	2601.235385
587.907124	2480.247692
588.259765	2465.124231
588.612352	2538.220962
588.964884	2513.015192
589.317362	2455.041923
589.669786	2525.618077
590.022155	2507.974038
590.374470	2548.303269
590.726731	2465.124231
591.078937	2472.685962
591.431090	2513.015192
591.783188	2487.809423
592.135232	2447.480192
592.487222	2487.809423
592.839157	2505.453462
593.191038	2591.153077
593.542866	2452.521346
593.894639	2462.603654
594.246358	2452.521346
594.598022	2452.521346
594.949633	2490.330000
595.301190	2515.535769
595.652692	2470.165385
596.004141	2515.535769
596.355535	2429.836154
596.706876	2545.782692
597.058162	2447.480192
597.409395	2505.453462
597.760573	2533.179808
598.111698	2505.453462
598.462768	2497.891731
598.813785	2563.426731
599.164748	2452.521346
599.515657	2555.865000
599.866511	2482.768269
600.217312	2563.426731
600.568060	2434.877308
600.918753	2419.753846
601.269392	2543.262115
601.619978	2510.494615
601.970510	2475.206538
602.320988	2427.315577
602.671412	2485.288846
603.021783	2550.823846
603.372100	2485.288846
603.722363	2543.262115
604.072572	2452.521346
604.422728	2472.685962
604.772830	2505.453462
605.122878	2452.521346
605.472872	2510.494615
605.822813	2505.453462
606.172701	2596.194231
606.522534	2518.056346
606.872314	2581.070769
607.222041	2525.618077
607.571714	2467.644808
607.921333	2528.138654
608.270899	2507.974038
608.620411	2444.959615
608.969870	2467.644808
609.319276	2502.932885
609.668627	2492.850577
610.017926	2533.179808
610.367171	2482.768269
610.716362	2523.097500
611.065500	2495.371154
611.414585	2439.918462
611.763616	2545.782692
612.112594	2540.741538
612.461518	2520.576923
612.810389	2538.220962
613.159207	2505.453462
613.507971	2487.809423
613.856682	2490.330000
614.205340	2490.330000
614.553945	2462.603654
614.902496	2528.138654
615.250994	2538.220962
615.599439	2510.494615
615.947830	2495.371154
616.296169	2545.782692
616.644454	2538.220962
616.992686	2492.850577
617.340864	2500.412308
617.688990	2533.179808
618.037063	2528.138654
618.385082	2507.974038
618.733048	2409.671538
619.080961	2525.618077
619.428821	2560.906154
619.776628	2422.274423
620.124382	2467.644808
620.472083	2475.206538
620.819731	2533.179808
621.167326	2480.247692
621.514868	2510.494615
621.862357	2472.685962
622.209793	2533.179808
622.557176	2591.153077
622.904506	2530.659231
623.251783	2424.795000
623.599007	2485.288846
623.946179	2444.959615
624.293297	2480.247692
624.640363	2439.918462
624.987376	2422.274423
625.334336	2452.521346
625.681243	2462.603654
626.028097	2480.247692
626.374899	2606.276538
626.721647	2535.700385
627.068343	2560.906154
627.414987	2495.371154
627.761577	2495.371154
628.108115	2492.850577
628.454600	2548.303269
628.801032	2460.083077
629.147412	2502.932885
629.493739	2477.727115
629.840014	2495.371154
630.186236	2518.056346
630.532405	2555.865000
630.878521	2389.506923
631.224585	2442.439038
631.570597	2502.932885
631.916556	2543.262115
632.262462	2462.603654
632.608316	2500.412308
632.954117	2495.371154
633.299866	2535.700385
633.645562	2515.535769
633.991206	2500.412308
634.336797	2510.494615
634.682336	2457.562500
635.027823	2386.986346
635.373257	2427.315577
635.718639	2475.206538
636.063968	2444.959615
636.409245	2442.439038
636.754470	2477.727115
637.099642	2548.303269
637.444762	2472.685962
637.789829	2533.179808
638.134845	2495.371154
638.479808	2513.015192
638.824719	2462.603654
639.169577	2560.906154
639.514383	2505.453462
639.859137	2507.974038
640.203839	2525.618077
640.548489	2450.000769
640.893086	2500.412308
641.237632	2462.603654
641.582125	2482.768269
641.926566	2502.932885
642.270955	2586.111923
642.615292	2470.165385
642.959576	2560.906154
643.303809	2495.371154
643.647990	2565.947308
643.992118	2543.262115
644.336195	2525.618077
644.680219	2475.206538
645.024192	2487.809423
645.368112	2472.685962
645.711981	2515.535769
646.055797	2568.467885
646.399562	2548.303269
646.743274	2412.192115
647.086935	2520.576923
647.430544	2442.439038
647.774101	2513.015192
648.117606	2593.673654
648.461059	2570.988462
648.804460	2480.247692
649.147810	2545.782692
649.491108	2485.288846
649.834354	2460.083077
650.177548	2535.700385
650.520690	2465.124231
650.863781	2507.974038
651.206820	2482.768269
651.549807	2475.206538
651.892742	2548.303269
652.235626	2538.220962
652.578458	2462.603654
652.921238	2510.494615
653.263967	2477.727115
653.606644	2608.797115
653.949269	2402.109808
654.291843	2550.823846
654.634365	2570.988462
654.976836	2543.262115
655.319255	2447.480192
655.661622	2515.535769
656.003938	2505.453462
656.346203	2465.124231
656.688416	2490.330000
657.030577	2573.509038
657.372687	2477.727115
657.714746	2528.138654
658.056753	2407.150962
658.398708	2480.247692
658.740612	2480.247692
659.082465	2507.974038
659.424266	2457.562500
659.766016	2513.015192
660.107715	2399.589231
660.449362	2500.412308
660.790958	2518.056346
661.132503	2543.262115
661.473996	2576.029615
661.815438	2520.576923
662.156829	2460.083077
662.498168	2518.056346
662.839456	2419.753846
663.180693	2442.439038
663.521879	2460.083077
663.863013	2515.535769
664.204097	2432.356731
664.545129	2520.576923
664.886110	2495.371154
665.227040	2570.988462
665.567918	2442.439038
665.908746	2550.823846
666.249522	2530.659231
666.590248	2427.315577
666.930922	2480.247692
667.271545	2515.535769
667.612118	2550.823846
667.952639	2530.659231
668.293109	2492.850577
668.633528	2586.111923
668.973896	2442.439038
669.314213	2490.330000
669.654480	2414.712692
669.994695	2505.453462
670.334859	2447.480192
670.674973	2455.041923
671.015035	2470.165385
671.355047	2492.850577
671.695008	2467.644808
672.034918	2518.056346
672.374777	2497.891731
672.714585	2586.111923
673.054342	2465.124231
673.394049	2422.274423
673.733705	2487.809423
674.073310	2472.685962
674.412864	2397.068654
674.752368	2482.768269
675.091820	2460.083077
675.431223	2538.220962
675.770574	2439.918462
676.109875	2513.015192
676.449125	2475.206538
676.788324	2555.865000
677.127473	2457.562500
677.466571	2439.918462
677.805619	2450.000769
678.144616	2548.303269
678.483562	2593.673654
678.822458	2482.768269
679.161303	2475.206538
679.500098	2550.823846
679.838842	2462.603654
680.177535	2424.795000
680.516179	2565.947308
680.854771	2462.603654
681.193314	2555.865000
681.531805	2500.412308
681.870247	2533.179808
682.208638	2482.768269
682.546978	2475.206538
682.885268	2467.644808
683.223508	2475.206538
683.561697	2535.700385
683.899836	2434.877308
684.237925	2513.015192
684.575963	2482.768269
684.913951	2593.673654
685.251889	2502.932885
685.589776	2467.644808
685.927614	2455.041923
686.265401	2475.206538
686.603137	2485.288846
686.940824	2535.700385
687.278460	2507.974038
687.616046	2447.480192
687.953582	2543.262115
688.291068	2457.562500
688.628504	2497.891731
688.965889	2523.097500
689.303224	2507.974038
689.640510	2480.247692
689.977745	2482.768269
690.314930	2492.850577
690.652065	2470.165385
690.989150	2548.303269
691.326185	2576.029615
691.663170	2439.918462
692.000105	2530.659231
692.336990	2470.165385
692.673825	2598.714808
693.010610	2603.755962
693.347345	2500.412308
693.684030	2520.576923
694.020665	2455.041923
694.357251	2568.467885
694.693786	2434.877308
695.030272	2495.371154
695.366707	2510.494615
695.703093	2558.385577
696.039429	2487.809423
696.375716	2548.303269
696.711952	2487.809423
697.048139	2560.906154
697.384276	2437.397885
697.720363	2492.850577
698.056400	2437.397885
698.392388	2543.262115
698.728326	2520.576923
699.064214	2548.303269
699.400053	2581.070769
699.735842	2533.179808
700.071581	2550.823846
700.407270	2465.124231
700.742910	2437.397885
701.078501	2510.494615
701.414042	2460.083077
701.749533	2480.247692
702.084974	2452.521346
702.420366	2528.138654
702.755709	2550.823846
703.091002	2465.124231
703.426246	2495.371154
703.761440	2470.165385
704.096584	2518.056346
704.431679	2450.000769
704.766725	2507.974038
705.101721	2513.015192
705.436668	2470.165385
705.771565	2523.097500
706.106413	2525.618077
706.441212	2487.809423
706.775961	2555.865000
707.110661	2505.453462
707.445311	2581.070769
707.779913	2533.179808
708.114465	2492.850577
708.448967	2447.480192
708.783421	2543.262115
709.117825	2419.753846
709.452180	2414.712692
709.786485	2530.659231
710.120742	2497.891731
710.454949	2490.330000
710.789107	2545.782692
711.123216	2457.562500
711.457275	2444.959615
711.791286	2502.932885
712.125247	2490.330000
712.459159	2583.591346
712.793023	2487.809423
713.126837	2513.015192
713.460602	2530.659231
713.794318	2450.000769
714.127985	2550.823846
714.461602	2497.891731
714.795171	2540.741538
715.128691	2510.494615
715.462162	2490.330000
715.795584	2490.330000
716.128957	2507.974038
716.462281	2515.535769
716.795556	2444.959615
717.128782	2475.206538
717.461960	2490.330000
717.795088	2442.439038
718.128167	2553.344423
718.461198	2487.809423
718.794180	2482.768269
719.127113	2520.576923
719.459997	2500.412308
719.792833	2510.494615
720.125619	2543.262115
720.458357	2465.124231
720.791046	2394.548077
721.123686	2470.165385
721.456278	2555.865000
721.788821	2540.741538
722.121315	2487.809423
722.453761	2558.385577
722.786158	2490.330000
723.118506	2437.397885
723.450805	2480.247692
723.783056	2442.439038
724.115259	2472.685962
724.447412	2475.206538
724.779518	2422.274423
725.111574	2470.165385
725.443582	2500.412308
725.775542	2490.330000
726.107453	2538.220962
726.439315	2465.124231
726.771129	2480.247692
727.102895	2455.041923
727.434612	2525.618077
727.766281	2523.097500
728.097901	2543.262115
728.429473	2424.795000
728.760996	2477.727115
729.092471	2482.768269
729.423897	2520.576923
729.755276	2394.548077
730.086606	2548.303269
730.417887	2417.233269
730.749120	2530.659231
731.080305	2596.194231
731.411442	2513.015192
731.742530	2462.603654
732.073570	2518.056346
732.404562	2404.630385
732.735506	2502.932885
733.066401	2475.206538
733.397249	2581.070769
733.728048	2482.768269
734.058798	2507.974038
734.389501	2505.453462
734.720156	2558.385577
735.050762	2495.371154
735.381320	2490.330000
735.711831	2497.891731
736.042293	2412.192115
736.372707	2497.891731
736.703073	2482.768269
737.033391	2565.947308
737.363661	2573.509038
737.693883	2450.000769
738.024056	2513.015192
738.354182	2515.535769
738.684260	2462.603654
739.014290	2535.700385
739.344272	2505.453462
739.674207	2450.000769
740.004093	2497.891731
740.333931	2475.206538
740.663722	2502.932885
740.993464	2477.727115
741.323159	2485.288846
741.652806	2432.356731
741.982405	2513.015192
742.311956	2475.206538
742.641460	2432.356731
742.970915	2518.056346
743.300323	2520.576923
743.629683	2490.330000
743.958996	2523.097500
744.288260	2510.494615
744.617477	2452.521346
744.946647	2495.371154
745.275768	2389.506923
745.604842	2560.906154
745.933869	2606.276538
746.262847	2560.906154
746.591778	2487.809423
746.920662	2384.465769
747.249498	2565.947308
747.578286	2558.385577
747.907027	2555.865000
748.235720	2467.644808
748.564365	2467.644808
748.892963	2518.056346
749.221514	2462.603654
749.550017	2538.220962
749.878473	2518.056346
750.206881	2533.179808
750.535242	2513.015192
750.863555	2545.782692
751.191821	2523.097500
751.520039	2538.220962
751.848210	2495.371154
752.176334	2500.412308
752.504411	2538.220962
752.832440	2475.206538
753.160421	2467.644808
753.488356	2457.562500
753.816243	2510.494615
754.144082	2507.974038
754.471875	2573.509038
754.799620	2447.480192
755.127318	2507.974038
755.454969	2495.371154
755.782572	2497.891731
756.110129	2505.453462
756.437638	2593.673654
756.765100	2538.220962
757.092515	2558.385577
757.419882	2538.220962
757.747203	2543.262115
758.074477	2535.700385
758.401703	2487.809423
758.728882	2513.015192
759.056014	2437.397885
759.383099	2515.535769
759.710138	2518.056346
760.037129	2568.467885
760.364073	2560.906154
760.690970	2397.068654
761.017820	2492.850577
761.344623	2497.891731
761.671379	2523.097500
761.998088	2520.576923
762.324751	2518.056346
762.651366	2480.247692
762.977935	2558.385577
763.304456	2444.959615
763.630931	2480.247692
763.957359	2437.397885
764.283740	2525.618077
764.610074	2533.179808
764.936362	2442.439038
765.262602	2434.877308
765.588796	2538.220962
765.914943	2538.220962
766.241044	2485.288846
766.567097	2384.465769
766.893104	2482.768269
767.219064	2447.480192
767.544978	2513.015192
767.870845	2497.891731
768.196665	2573.509038
768.522438	2480.247692
768.848165	2583.591346
769.173846	2505.453462
769.499479	2487.809423
769.825066	2505.453462
770.150607	2429.836154
770.476101	2555.865000
770.801548	2528.138654
771.126949	2558.385577
771.452303	2457.562500
771.777611	2535.700385
772.102872	2442.439038
772.428087	2528.138654
772.753256	2523.097500
773.078378	2462.603654
773.403453	2548.303269
773.728482	2515.535769
774.053465	2432.356731
774.378401	2606.276538
774.703291	2460.083077
775.028135	2502.932885
775.352932	2523.097500
775.677683	2495.371154
776.002388	2492.850577
776.327046	2520.576923
776.651658	2409.671538
776.976224	2439.918462
777.300743	2573.509038
777.625216	2475.206538
777.949643	2515.535769
778.274024	2439.918462
778.598359	2545.782692
778.922647	2515.535769
779.246889	2553.344423
779.571086	2588.632500
779.895236	2570.988462
780.219339	2497.891731
780.543397	2477.727115
780.867409	2500.412308
781.191374	2477.727115
781.515294	2576.029615
781.839167	2513.015192
782.162995	2437.397885
782.486776	2530.659231
782.810511	2482.768269
783.134201	2588.632500
783.457844	2434.877308
783.781441	2502.932885
784.104993	2535.700385
784.428498	2525.618077
784.751958	2452.521346
785.075372	2543.262115
785.398739	2475.206538
785.722061	2487.809423
786.045337	2437.397885
786.368568	2505.453462
786.691752	2404.630385
787.014891	2543.262115
787.337983	2492.850577
787.661030	2528.138654
787.984031	2497.891731
788.306987	2417.233269
788.629897	2545.782692
788.952760	2505.453462
789.275579	2417.233269
789.598351	2482.768269
789.921078	2487.809423
790.243759	2548.303269
790.566395	2452.521346
790.888984	2518.056346
791.211529	2535.700385
791.534027	2457.562500
791.856480	2447.480192
792.178888	2540.741538
792.501249	2528.138654
792.823566	2513.015192
793.145836	2543.262115
793.468062	2497.891731
793.790241	2515.535769
794.112375	2563.426731
794.434464	2480.247692
794.756507	2475.206538
795.078505	2513.015192
795.400457	2432.356731
795.722364	2465.124231
796.044226	2475.206538
796.366042	2538.220962
796.687812	2540.741538
797.009538	2515.535769
797.331218	2447.480192
797.652852	2507.974038
797.974442	2507.974038
798.295986	2535.700385
798.617484	2502.932885
798.938938	2548.303269
799.260346	2432.356731
799.581709	2487.809423
799.903026	2472.685962
800.224299	2586.111923
800.545526	2497.891731
800.866708	2510.494615
801.187845	2578.550192
801.508936	2611.317692
801.829983	2507.974038
802.150984	2447.480192
802.471940	2596.194231
802.792851	2487.809423
803.113717	2510.494615
803.434538	2533.179808
803.755314	2513.015192
804.076045	2447.480192
804.396731	2538.220962
804.717372	2470.165385
805.037967	2515.535769
805.358518	2525.618077
805.679024	2492.850577
805.999485	2497.891731
806.319901	2389.506923
806.640272	2472.685962
806.960598	2492.850577
807.280879	2510.494615
807.601115	2507.974038
807.921306	2424.795000
808.241453	2414.712692
808.561554	2510.494615
808.881611	2520.576923
809.201623	2427.315577
809.521590	2553.344423
809.841513	2487.809423
810.161390	2570.988462
810.481223	2530.659231
810.801011	2543.262115
811.120755	2419.753846
811.440453	2543.262115
811.760107	2455.041923
812.079716	2424.795000
812.399281	2394.548077
812.718801	2495.371154
813.038276	2515.535769
813.357707	2553.344423
813.677093	2518.056346
813.996434	2533.179808
814.315731	2487.809423
814.634983	2523.097500
814.954191	2490.330000
815.273354	2543.262115
815.592473	2510.494615
815.911547	2513.015192
816.230577	2465.124231
816.549562	2525.618077
816.868502	2439.918462
817.187399	2419.753846
817.506250	2525.618077
817.825058	2523.097500
818.143821	2437.397885
818.462539	2475.206538
818.781213	2439.918462
819.099843	2543.262115
819.418429	2480.247692
819.736970	2457.562500
820.055466	2548.303269
820.373919	2550.823846
820.692327	2525.618077
821.010691	2419.753846
821.329011	2543.262115
821.647286	2492.850577
821.965517	2505.453462
822.283704	2472.685962
822.601847	2495.371154
822.919945	2455.041923
823.237999	2500.412308
823.556010	2432.356731
823.873976	2576.029615
824.191897	2502.932885
824.509775	2447.480192
824.827609	2515.535769
825.145398	2450.000769
825.463144	2528.138654
825.780845	2505.453462
826.098502	2482.768269
826.416116	2452.521346
826.733685	2500.412308
827.051210	2452.521346
827.368692	2467.644808
827.686129	2565.947308
828.003522	2581.070769
828.320872	2586.111923
828.638177	2470.165385
828.955439	2502.932885
829.272656	2507.974038
829.589830	2490.330000
829.906960	2487.809423
830.224046	2455.041923
830.541088	2480.247692
830.858086	2497.891731
831.175041	2465.124231
831.491952	2422.274423
831.808819	2477.727115
832.125642	2505.453462
832.442421	2507.974038
832.759157	2497.891731
833.075849	2444.959615
833.392497	2573.509038
833.709101	2432.356731
834.025662	2518.056346
834.342179	2482.768269
834.658653	2462.603654
834.975083	2545.782692
835.291469	2465.124231
835.607811	2432.356731
835.924110	2485.288846
836.240366	2444.959615
836.556578	2447.480192
836.872746	2482.768269
837.188871	2475.206538
837.504952	2528.138654
837.820990	2457.562500
838.136984	2507.974038
838.452935	2586.111923
838.768842	2376.904038
839.084706	2528.138654
839.400526	2523.097500
839.716303	2528.138654
840.032037	2477.727115
840.347727	2472.685962
840.663373	2462.603654
840.978977	2475.206538
841.294537	2467.644808
841.610054	2467.644808
841.925527	2485.288846
842.240957	2530.659231
842.556344	2447.480192
842.871687	2548.303269
843.186987	2507.974038
843.502244	2482.768269
843.817458	2480.247692
844.132629	2497.891731
844.447756	2507.974038
844.762840	2462.603654
845.077881	2485.288846
845.392879	2495.371154
845.707833	2507.974038
846.022745	2497.891731
846.337613	2439.918462
846.652438	2518.056346
846.967221	2507.974038
847.281960	2477.727115
847.596656	2452.521346
847.911309	2475.206538
848.225919	2472.685962
848.540485	2452.521346
848.855009	2417.233269
849.169490	2490.330000
849.483928	2538.220962
849.798323	2444.959615
850.112675	2450.000769
850.426984	2472.685962
850.741251	2500.412308
851.055474	2507.974038
851.369654	2402.109808
851.683792	2505.453462
851.997887	2485.288846
852.311938	2565.947308
852.625947	2462.603654
852.939914	2495.371154
853.253837	2492.850577
853.567718	2538.220962
853.881555	2447.480192
854.195350	2540.741538
854.509103	2563.426731
854.822812	2434.877308
855.136479	2502.932885
855.450103	2457.562500
855.763685	2525.618077
856.077224	2455.041923
856.390720	2523.097500
856.704173	2434.877308
857.017584	2397.068654
857.330953	2533.179808
857.644278	2482.768269
857.957561	2520.576923
858.270802	2548.303269
858.584000	2513.015192
858.897155	2555.865000
859.210268	2480.247692
859.523339	2500.412308
859.836367	2608.797115
860.149352	2540.741538
860.462295	2502.932885
860.775195	2535.700385
861.088054	2444.959615
861.400869	2472.685962
861.713642	2434.877308
862.026373	2465.124231
862.339062	2442.439038
862.651708	2497.891731
862.964312	2510.494615
863.276873	2533.179808
863.589392	2417.233269
863.901869	2515.535769
864.214303	2538.220962
864.526696	2510.494615
864.839045	2470.165385
865.151353	2523.097500
865.463619	2507.974038
865.775842	2523.097500
866.088023	2510.494615
866.400162	2414.712692
866.712258	2384.465769
867.024313	2487.809423
867.336325	2465.124231
867.648296	2485.288846
867.960224	2472.685962
868.272110	2487.809423
868.583954	2427.315577
868.895755	2437.397885
869.207515	2447.480192
869.519233	2465.124231
869.830909	2553.344423
870.142542	2497.891731
870.454134	2477.727115
870.765684	2513.015192
871.077191	2513.015192
871.388657	2540.741538
871.700081	2432.356731
872.011463	2482.768269
872.322803	2520.576923
872.634101	2475.206538
872.945357	2444.959615
873.256571	2404.630385
873.567744	2490.330000
873.878874	2450.000769
874.189963	2497.891731
874.501010	2457.562500
874.812015	2412.192115
875.122979	2465.124231
875.433900	2535.700385
875.744780	2513.015192
876.055618	2528.138654
876.366415	2364.301154
876.677169	2523.097500
876.987882	2518.056346
877.298554	2455.041923
877.609183	2467.644808
877.919771	2472.685962
878.230317	2429.836154
878.540822	2507.974038
878.851285	2518.056346
879.161707	2518.056346
879.472087	2470.165385
879.782425	2429.836154
880.092722	2492.850577
880.402977	2462.603654
880.713191	2533.179808
881.023363	2455.041923
881.333494	2480.247692
881.643583	2475.206538
881.953631	2465.124231
882.263637	2475.206538
882.573602	2518.056346
882.883526	2485.288846
883.193408	2507.974038
883.503248	2417.233269
883.813048	2538.220962
884.122806	2467.644808
884.432522	2513.015192
884.742197	2462.603654
885.051831	2482.768269
885.361424	2437.397885
885.670975	2472.685962
885.980485	2379.424615
886.289954	2510.494615
886.599382	2520.576923
886.908768	2523.097500
887.218113	2515.535769
887.527417	2505.453462
887.836680	2530.659231
888.145901	2394.548077
888.455082	2510.494615
888.764221	2447.480192
889.073319	2513.015192
889.382376	2424.795000
889.691392	2507.974038
890.000366	2626.441154
890.309300	2518.056346
890.618193	2434.877308
890.927044	2487.809423
891.235855	2361.780577
891.544625	2462.603654
891.853353	2533.179808
892.162041	2523.097500
892.470687	2558.385577
892.779293	2495.371154
893.087858	2500.412308
893.396381	2434.877308
893.704864	2414.712692
894.013306	2513.015192
894.321707	2513.015192
894.630068	2555.865000
894.938387	2487.809423
895.246665	2523.097500
895.554903	2540.741538
895.863100	2450.000769
896.171256	2513.015192
896.479371	2487.809423
896.787446	2490.330000
897.095480	2525.618077
897.403473	2475.206538
897.711425	2505.453462
898.019336	2402.109808
898.327207	2490.330000
898.635038	2442.439038
898.942827	2507.974038
899.250576	2452.521346
899.558284	2510.494615
899.865952	2465.124231
900.173579	2505.453462
900.481165	2397.068654
900.788711	2495.371154
901.096216	2540.741538
901.403681	2447.480192
901.711105	2553.344423
902.018489	2578.550192
902.325832	2513.015192
902.633135	2409.671538
902.940397	2467.644808
903.247619	2480.247692
903.554800	2528.138654
903.861941	2500.412308
904.169041	2444.959615
904.476101	2492.850577
904.783121	2450.000769
905.090100	2422.274423
905.397039	2550.823846
905.703938	2492.850577
906.010796	2485.288846
906.317614	2485.288846
906.624391	2515.535769
906.931129	2530.659231
907.237826	2480.247692
907.544483	2467.644808
907.851099	2432.356731
908.157675	2477.727115
908.464211	2460.083077
908.770707	2500.412308
909.077163	2462.603654
909.383578	2525.618077
909.689954	2457.562500
909.996289	2444.959615
910.302584	2480.247692
910.608839	2550.823846
910.915054	2472.685962
911.221229	2422.274423
911.527363	2417.233269
911.833458	2550.823846
912.139513	2485.288846
912.445527	2485.288846
912.751502	2460.083077
913.057436	2533.179808
913.363331	2490.330000
913.669186	2422.274423
913.975000	2513.015192
914.280775	2465.124231
914.586510	2485.288846
914.892205	2450.000769
915.197859	2530.659231
915.503475	2444.959615
915.809050	2442.439038
916.114585	2492.850577
916.420081	2490.330000
916.725536	2530.659231
917.030952	2472.685962
917.336328	2450.000769
917.641665	2460.083077
917.946961	2535.700385
918.252218	2500.412308
918.557435	2555.865000
918.862612	2450.000769
919.167750	2485.288846
919.472848	2477.727115
919.777906	2399.589231
920.082925	2492.850577
920.387904	2505.453462
920.692843	2497.891731
920.997743	2573.509038
921.302603	2490.330000
921.607423	2424.795000
921.912204	2422.274423
922.216946	2548.303269
922.521647	2485.288846
922.826310	2414.712692
923.130932	2452.521346
923.435516	2545.782692
923.740059	2548.303269
924.044564	2578.550192
924.349028	2477.727115
924.653454	2581.070769
924.957840	2588.632500
925.262186	2472.685962
925.566493	2392.027500
925.870761	2472.685962
926.174989	2535.700385
926.479178	2548.303269
926.783328	2510.494615
927.087438	2505.453462
927.391509	2560.906154
927.695541	2507.974038
927.999533	2472.685962
928.303486	2565.947308
928.607400	2487.809423
928.911275	2490.330000
929.215110	2477.727115
929.518906	2470.165385
929.822663	2472.685962
930.126381	2457.562500
930.430060	2495.371154
930.733699	2432.356731
931.037299	2485.288846
931.340861	2470.165385
931.644383	2558.385577
931.947866	2452.521346
932.251309	2475.206538
932.554714	2432.356731
932.858080	2520.576923
933.161407	2502.932885
933.464694	2545.782692
933.767943	2427.315577
934.071153	2520.576923
934.374323	2490.330000
934.677455	2520.576923
934.980548	2543.262115
935.283602	2447.480192
935.586617	2515.535769
935.889593	2525.618077
936.192530	2520.576923
936.495428	2505.453462
936.798287	2518.056346
937.101108	2462.603654
937.403890	2467.644808
937.706632	2545.782692
938.009336	2482.768269
938.312002	2462.603654
938.614628	2429.836154
938.917216	2472.685962
939.219765	2513.015192
939.522275	2434.877308
939.824747	2530.659231
940.127179	2439.918462
940.429573	2560.906154
940.731929	2485.288846
941.034246	2482.768269
941.336524	2530.659231
941.638763	2515.535769
941.940964	2550.823846
942.243126	2533.179808
942.545250	2540.741538
942.847335	2490.330000
943.149381	2417.233269
943.451389	2374.383462
943.753359	2485.288846
944.055290	2444.959615
944.357182	2455.041923
944.659036	2427.315577
944.960851	2553.344423
945.262628	2422.274423
945.564367	2518.056346
945.866067	2497.891731
946.167729	2472.685962
946.469352	2455.041923
946.770937	2565.947308
947.072484	2442.439038
947.373992	2533.179808
947.675462	2495.371154
947.976893	2568.467885
948.278286	2407.150962
948.579641	2515.535769
948.880958	2485.288846
949.182236	2553.344423
949.483476	2467.644808
949.784678	2523.097500
950.085841	2432.356731
950.386967	2412.192115
950.688054	2576.029615
950.989103	2487.809423
951.290114	2434.877308
951.591087	2520.576923
951.892021	2480.247692
952.192917	2618.879423
952.493776	2482.768269
952.794596	2477.727115
953.095378	2505.453462
953.396122	2525.618077
953.696828	2487.809423
953.997496	2530.659231
954.298126	2558.385577
954.598718	2392.027500
954.899272	2513.015192
955.199788	2518.056346
955.500266	2495.371154
955.800706	2502.932885
956.101108	2485.288846
956.401472	2460.083077
956.701798	2548.303269
957.002087	2432.356731
957.302337	2570.988462
957.602550	2563.426731
957.902724	2419.753846
958.202861	2472.685962
958.502960	2510.494615
958.803022	2535.700385
959.103045	2555.865000
959.403031	2560.906154
959.702979	2525.618077
960.002889	2520.576923
960.302762	2427.315577
960.602596	2533.179808
960.902393	2485.288846
961.202153	2623.920577
961.501875	2495.371154
961.801559	2407.150962
962.101205	2540.741538
962.400814	2397.068654
962.700385	2495.371154
962.999918	2432.356731
963.299414	2573.509038
963.598873	2399.589231
963.898293	2427.315577
964.197677	2442.439038
964.497022	2495.371154
964.796331	2515.535769
965.095601	2465.124231
965.394835	2523.097500
965.694030	2480.247692
965.993189	2417.233269
966.292309	2588.632500
966.591393	2502.932885
966.890439	2530.659231
967.189447	2460.083077
967.488419	2412.192115
967.787353	2482.768269
968.086249	2591.153077
968.385108	2465.124231
968.683930	2505.453462
968.982714	2525.618077
969.281462	2424.795000
969.580172	2475.206538
969.878844	2432.356731
970.177480	2543.262115
970.476078	2472.685962
970.774639	2528.138654
971.073162	2492.850577
971.371649	2555.865000
971.670098	2470.165385
971.968510	2540.741538
972.266885	2563.426731
972.565223	2424.795000
972.863524	2392.027500
973.161788	2495.371154
973.460014	2429.836154
973.758204	2460.083077
974.056356	2588.632500
974.354471	2434.877308
974.652550	2507.974038
974.950591	2480.247692
975.248595	2429.836154
975.546563	2482.768269
975.844493	2457.562500
976.142386	2487.809423
976.440243	2480.247692
976.738062	2480.247692
977.035845	2520.576923
977.333590	2543.262115
977.631299	2518.056346
977.928971	2439.918462
978.226606	2490.330000
978.524204	2555.865000
978.821765	2530.659231
979.119290	2412.192115
979.416777	2455.041923
979.714228	2429.836154
980.011642	2422.274423
980.309020	2465.124231
980.606360	2505.453462
980.903664	2432.356731
981.200931	2409.671538
981.498162	2409.671538
981.795356	2462.603654
982.092513	2472.685962
982.389633	2480.247692
982.686717	2480.247692
982.983764	2505.453462
983.280775	2510.494615
983.577749	2490.330000
983.874686	2505.453462
984.171587	2480.247692
984.468451	2487.809423
984.765279	2485.288846
985.062070	2505.453462
985.358824	2538.220962
985.655543	2545.782692
985.952224	2447.480192
986.248869	2507.974038
986.545478	2386.986346
986.842050	2568.467885
987.138586	2452.521346
987.435086	2507.974038
987.731549	2492.850577
988.027975	2482.768269
988.324366	2497.891731
988.620719	2374.383462
988.917037	2507.974038
989.213318	2444.959615
989.509563	2429.836154
989.805772	2528.138654
990.101944	2487.809423
990.398080	2507.974038
990.694180	2457.562500
990.990244	2540.741538
991.286271	2437.397885
991.582262	2543.262115
991.878217	2507.974038
992.174136	2447.480192
992.470019	2424.795000
992.765865	2467.644808
993.061676	2485.288846
993.357450	2467.644808
993.653188	2502.932885
993.948890	2457.562500
994.244556	2533.179808
994.540186	2467.644808
994.835780	2528.138654
995.131337	2560.906154
995.426859	2482.768269
995.722345	2444.959615
996.017795	2523.097500
996.313208	2558.385577
996.608586	2455.041923
996.903928	2460.083077
997.199234	2507.974038
997.494504	2490.330000
997.789738	2528.138654
998.084936	2472.685962
998.380099	2450.000769
998.675225	2518.056346
998.970316	2480.247692
999.265371	2467.644808
999.560390	2505.453462
999.855373	2545.782692
1000.150320	2432.356731
1000.445232	2525.618077
1000.740108	2533.179808
1001.034948	2513.015192
1001.329752	2548.303269
1001.624521	2495.371154
1001.919254	2533.179808
1002.213951	2555.865000
1002.508613	2495.371154
1002.803239	2492.850577
1003.097829	2467.644808
1003.392384	2495.371154
1003.686903	2437.397885
1003.981386	2543.262115
1004.275834	2480.247692
1004.570246	2482.768269
1004.864623	2437.397885
1005.158964	2457.562500
1005.453270	2545.782692
1005.747540	2460.083077
1006.041775	2576.029615
1006.335974	2422.274423
1006.630138	2533.179808
1006.924266	2407.150962
1007.218359	2540.741538
1007.512416	2457.562500
1007.806438	2495.371154
1008.100425	2439.918462
1008.394376	2427.315577
1008.688292	2505.453462
1008.982172	2487.809423
1009.276017	2467.644808
1009.569827	2515.535769
1009.863602	2507.974038
1010.157341	2402.109808
1010.451045	2432.356731
1010.744714	2442.439038
1011.038347	2513.015192
1011.331945	2472.685962
1011.625508	2379.424615
1011.919036	2470.165385
1012.212528	2450.000769
1012.505986	2505.453462
1012.799408	2520.576923
1013.092795	2525.618077
1013.386147	2444.959615
1013.679464	2485.288846
1013.972745	2492.850577
1014.265992	2424.795000
1014.559204	2528.138654
1014.852380	2437.397885
1015.145521	2487.809423
1015.438628	2429.836154
1015.731699	2518.056346
1016.024736	2528.138654
1016.317737	2487.809423
1016.610703	2402.109808
1016.903635	2429.836154
1017.196531	2492.850577
1017.489393	2477.727115
1017.782219	2538.220962
1018.075011	2475.206538
1018.367768	2414.712692
1018.660490	2465.124231
1018.953177	2465.124231
1019.245829	2465.124231
