Dividing Wavelength (nm)	Counts (n)	Blue Motor Position (mm): 2.000000	Red Motor Position (mm): 0.000000	
326.493990	2213.066538
326.888308	2213.066538
327.282561	2213.066538
327.676750	2170.216731
328.070874	2202.984231
328.464933	2139.969808
328.858929	2187.860769
329.252859	2124.846346
329.646726	2192.901923
330.040528	2165.175577
330.434265	2253.395769
330.827938	2197.943077
331.221547	2235.751731
331.615091	2210.545962
332.008571	2220.628269
332.401986	2301.286731
332.795338	2263.478077
333.188625	2311.369038
333.581847	2354.218846
333.975006	2379.424615
334.368100	2480.247692
334.761129	2402.109808
335.154095	2475.206538
335.546996	2472.685962
335.939833	2460.083077
336.332606	2540.741538
336.725315	2429.836154
337.117960	2543.262115
337.510540	2525.618077
337.903056	2515.535769
338.295508	2450.000769
338.687896	2510.494615
339.080220	2616.358846
339.472480	2573.509038
339.864676	2518.056346
340.256807	2581.070769
340.648875	2555.865000
341.040879	2623.920577
341.432818	2470.165385
341.824694	2628.961731
342.216506	2601.235385
342.608253	2492.850577
342.999937	2596.194231
343.391557	2550.823846
343.783113	2593.673654
344.174605	2545.782692
344.566033	2646.605769
344.957397	2472.685962
345.348697	2565.947308
345.739934	2616.358846
346.131106	2603.755962
346.522215	2583.591346
346.913260	2596.194231
347.304241	2593.673654
347.695159	2578.550192
348.086012	2596.194231
348.476802	2631.482308
348.867528	2523.097500
349.258191	2601.235385
349.648789	2553.344423
350.039324	2548.303269
350.429796	2475.206538
350.820203	2545.782692
351.210548	2525.618077
351.600828	2475.206538
351.991045	2548.303269
352.381198	2518.056346
352.771288	2548.303269
353.161314	2502.932885
353.551276	2588.632500
353.941175	2568.467885
354.331010	2528.138654
354.720782	2477.727115
355.110490	2540.741538
355.500135	2548.303269
355.889717	2578.550192
356.279235	2543.262115
356.668689	2568.467885
357.058080	2586.111923
357.447408	2603.755962
357.836672	2634.002885
358.225873	2465.124231
358.615010	2583.591346
359.004084	2553.344423
359.393095	2560.906154
359.782043	2465.124231
360.170927	2578.550192
360.559748	2606.276538
360.948505	2545.782692
361.337199	2616.358846
361.725830	2573.509038
362.114398	2618.879423
362.502903	2649.126346
362.891344	2533.179808
363.279722	2548.303269
363.668037	2520.576923
364.056289	2518.056346
364.444478	2598.714808
364.832603	2505.453462
365.220665	2538.220962
365.608665	2475.206538
365.996601	2598.714808
366.384474	2533.179808
366.772284	2538.220962
367.160031	2518.056346
367.547715	2578.550192
367.935336	2452.521346
368.322893	2550.823846
368.710388	2613.838269
369.097820	2513.015192
369.485189	2639.044038
369.872495	2606.276538
370.259738	2581.070769
370.646918	2676.852692
371.034035	2586.111923
371.421090	2568.467885
371.808081	2437.397885
372.195010	2510.494615
372.581875	2533.179808
372.968678	2568.467885
373.355418	2593.673654
373.742096	2588.632500
374.128710	2565.947308
374.515262	2495.371154
374.901751	2573.509038
375.288177	2636.523462
375.674540	2649.126346
376.060841	2623.920577
376.447079	2603.755962
376.833254	2560.906154
377.219367	2553.344423
377.605417	2507.974038
377.991404	2550.823846
378.377329	2560.906154
378.763191	2636.523462
379.148991	2565.947308
379.534727	2588.632500
379.920402	2621.400000
380.306013	2555.865000
380.691563	2664.249808
381.077049	2583.591346
381.462474	2538.220962
381.847835	2515.535769
382.233134	2603.755962
382.618371	2626.441154
383.003545	2510.494615
383.388657	2634.002885
383.773706	2608.797115
384.158693	2545.782692
384.543618	2598.714808
384.928480	2581.070769
385.313280	2570.988462
385.698017	2618.879423
386.082692	2553.344423
386.467305	2558.385577
386.851856	2596.194231
387.236344	2576.029615
387.620770	2704.579038
388.005133	2611.317692
388.389435	2553.344423
388.773674	2588.632500
389.157851	2654.167500
389.541965	2636.523462
389.926018	2565.947308
390.310008	2591.153077
390.693936	2568.467885
391.077802	2525.618077
391.461606	2563.426731
391.845348	2588.632500
392.229027	2586.111923
392.612645	2623.920577
392.996200	2613.838269
393.379694	2631.482308
393.763125	2523.097500
394.146494	2548.303269
394.529801	2606.276538
394.913047	2510.494615
395.296230	2545.782692
395.679351	2581.070769
396.062410	2593.673654
396.445408	2543.262115
396.828343	2631.482308
397.211217	2634.002885
397.594028	2606.276538
397.976778	2621.400000
398.359466	2576.029615
398.742092	2535.700385
399.124656	2555.865000
399.507158	2467.644808
399.889598	2535.700385
400.271977	2608.797115
400.654294	2548.303269
401.036549	2507.974038
401.418742	2583.591346
401.800874	2603.755962
402.182944	2598.714808
402.564952	2623.920577
402.946898	2634.002885
403.328783	2697.017308
403.710606	2545.782692
404.092367	2613.838269
404.474067	2646.605769
404.855705	2601.235385
405.237282	2538.220962
405.618797	2538.220962
406.000250	2540.741538
406.381642	2588.632500
406.762972	2570.988462
407.144240	2558.385577
407.525447	2634.002885
407.906593	2535.700385
408.287677	2588.632500
408.668700	2596.194231
409.049661	2659.208654
409.430560	2586.111923
409.811399	2593.673654
410.192176	2513.015192
410.572891	2618.879423
410.953545	2709.620192
411.334138	2618.879423
411.714669	2586.111923
412.095139	2520.576923
412.475547	2578.550192
412.855894	2659.208654
413.236180	2563.426731
413.616405	2644.085192
413.996568	2525.618077
414.376670	2689.455577
414.756711	2558.385577
415.136691	2591.153077
415.516609	2661.729231
415.896466	2573.509038
416.276262	2573.509038
416.655997	2568.467885
417.035670	2560.906154
417.415283	2485.288846
417.794834	2626.441154
418.174324	2611.317692
418.553753	2563.426731
418.933121	2576.029615
419.312428	2543.262115
419.691674	2563.426731
420.070859	2666.770385
420.449983	2570.988462
420.829045	2628.961731
421.208047	2606.276538
421.586988	2646.605769
421.965867	2644.085192
422.344686	2606.276538
422.723444	2563.426731
423.102141	2523.097500
423.480777	2573.509038
423.859352	2591.153077
424.237866	2523.097500
424.616319	2616.358846
424.994712	2661.729231
425.373044	2475.206538
425.751314	2550.823846
426.129524	2576.029615
426.507673	2679.373269
426.885762	2641.564615
427.263789	2598.714808
427.641756	2697.017308
428.019662	2608.797115
428.397508	2598.714808
428.775292	2697.017308
429.153016	2634.002885
429.530679	2709.620192
429.908282	2674.332115
430.285824	2603.755962
430.663305	2588.632500
431.040726	2601.235385
431.418086	2689.455577
431.795385	2611.317692
432.172624	2505.453462
432.549802	2618.879423
432.926920	2691.976154
433.303977	2628.961731
433.680974	2671.811538
434.057910	2613.838269
434.434786	2593.673654
434.811601	2707.099615
435.188355	2669.290962
435.565050	2646.605769
435.941683	2586.111923
436.318257	2591.153077
436.694770	2608.797115
437.071222	2649.126346
437.447614	2634.002885
437.823946	2669.290962
438.200218	2691.976154
438.576429	2618.879423
438.952580	2689.455577
439.328670	2666.770385
439.704700	2684.414423
440.080670	2661.729231
440.456580	2694.496731
440.832429	2699.537885
441.208218	2790.278654
441.583947	2807.922692
441.959616	2712.140769
442.335224	2747.428846
442.710773	2765.072885
443.086261	2714.661346
443.461689	2785.237500
443.837057	2802.881538
444.212365	2840.690192
444.587612	2772.634615
444.962800	2979.321923
445.337927	2838.169615
445.712995	2868.416538
446.088002	2971.760192
446.462949	3034.774615
446.837837	3067.542115
447.212664	3072.583269
447.587431	3178.447500
447.962139	3329.682115
448.336786	3589.301538
448.711374	3690.124615
449.085901	3410.340577
449.460369	3438.066923
449.834776	3548.972308
450.209124	3700.206923
450.583412	3836.318077
450.957640	3982.511538
451.331808	3896.811923
451.705917	4012.758462
452.079965	3876.647308
452.453954	3985.032115
452.827883	4118.622692
453.201752	4227.007500
453.575562	4179.116538
453.949311	4418.571346
454.323001	4542.079615
454.696632	4781.534423
455.070202	4900.001538
455.443713	4968.057115
455.817164	5227.676538
456.190556	5482.254808
456.563888	5545.269231
456.937160	5681.380385
457.310373	5764.559423
457.683526	5925.876346
458.056619	5925.876346
458.429653	6114.919615
458.802628	5890.588269
459.175542	6339.250962
459.548398	6878.654423
459.921194	7221.452885
460.293930	7392.852115
460.666607	7884.364615
461.039224	8622.893654
461.411782	9074.076923
461.784280	9265.640769
462.156719	9356.381538
462.529099	9195.064615
462.901419	9074.076923
463.273680	8988.377308
463.645882	9169.858846
464.018024	9437.040000
464.390106	9709.262308
464.762130	10415.023846
465.134094	11027.524038
465.505999	12902.833269
465.877845	14891.568462
466.249631	16691.260385
466.621358	16610.601923
466.993026	15993.060577
467.364634	15715.797115
467.736184	15103.296923
468.107674	15161.270192
468.479105	15317.545962
468.850477	15098.255769
469.221790	15262.093269
469.593043	14493.317308
469.964238	14465.590962
470.335373	14594.140385
470.706449	15393.163269
471.077467	15574.644808
471.448425	17797.793654
471.819324	20963.638269
472.190164	21785.346346
472.560945	18362.402885
472.931667	17213.019808
473.302330	17321.404615
473.672934	17129.840769
474.043479	17621.353269
474.413965	17276.034231
474.784393	17336.528077
475.154761	18314.511923
475.525070	18415.335000
475.895321	18191.003654
476.265513	19118.575962
476.635645	19592.444423
477.005719	19612.609038
477.375734	19839.460962
477.745691	20416.673077
478.115588	21409.780385
478.485427	21813.072692
478.855207	23557.311923
479.224928	24961.273269
479.594591	27534.782308
479.964194	26559.319038
480.333739	27249.957115
480.703226	27108.804808
481.072653	26776.088654
481.442022	27645.687692
481.811333	28537.971923
482.180584	28192.652885
482.549777	27456.644423
482.918912	27033.187500
483.287988	27267.601154
483.657005	27018.064038
484.025964	26859.267692
484.394864	26697.950769
484.763706	25770.378462
485.132489	26050.162500
485.501213	25762.816731
485.869879	25785.501923
486.238487	25094.863846
486.607036	25331.798077
486.975527	25359.524423
487.343959	25311.633462
487.712333	25127.631346
488.080648	24893.217692
488.448905	25283.907115
488.817104	25094.863846
489.185244	25319.195192
489.553326	25387.250769
489.921350	26662.662692
490.289315	28716.932885
490.657222	29868.836538
491.025070	29924.289231
491.392861	29460.503077
491.760593	28152.323654
492.128267	26733.238846
492.495883	25692.240577
492.863440	25104.946154
493.230939	24217.703077
493.598380	24071.509615
493.965763	23332.980577
494.333088	22291.982308
494.700354	22181.076923
495.067563	21707.208462
495.434713	21467.753654
495.801805	21394.656923
496.168839	20996.405769
496.535815	20431.796538
496.902733	20381.385000
497.269593	20220.068077
497.636395	20094.039231
498.003139	19491.621346
498.369825	19355.510192
498.736453	19168.987500
499.103023	19189.152115
499.469535	18798.462692
499.835989	18289.306154
500.202385	18180.921346
500.568723	17840.643462
500.935003	17538.174231
501.301226	17253.349038
501.667390	17805.355385
502.033497	17185.293462
502.399546	16935.756346
502.765537	16224.953654
503.131470	16126.651154
503.497345	15995.581154
503.863163	15665.385577
504.228923	15710.755962
504.594625	15153.708462
504.960269	14490.796731
505.325856	14727.730962
505.691385	14147.998269
506.056856	14397.535385
506.422270	14059.778077
506.787625	13293.522692
507.152924	13346.454808
507.518164	13122.123462
507.883347	12880.148077
508.248472	12469.294038
508.613540	12630.610962
508.978550	12131.536731
509.343503	11955.096346
509.708398	11990.384423
510.073236	11773.614808
510.438016	11375.363654
510.802738	11085.497308
511.167403	11209.005577
511.532010	10843.521923
511.896561	10578.861346
512.261053	10576.340769
512.625488	10155.404423
512.989866	9933.593654
513.354186	9731.947500
513.718449	9361.422692
514.082655	9411.834231
514.446803	9119.447308
514.810894	9124.488462
515.174927	8832.101538
515.538904	8718.675577
515.902822	8496.864808
516.266684	8083.490192
516.630488	8191.875000
516.994235	7874.282308
517.357925	7841.514808
517.721558	7453.345962
518.085133	7544.086731
518.448651	7261.782115
518.812112	7108.026923
519.175516	7045.012500
519.538863	6936.627692
519.902152	6724.899231
520.265385	6573.664615
520.628560	6472.841538
520.991678	6188.016346
521.354739	6225.825000
521.717743	6099.796154
522.080690	5958.643846
522.443580	5696.503846
522.806413	5578.036731
523.169189	5517.542885
523.531908	5348.664231
523.894569	5293.211538
524.257174	5182.306154
524.619722	5056.277308
524.982213	4960.495385
525.344647	4947.892500
525.707025	4889.919231
526.069345	4733.643462
526.431608	4741.205192
526.793815	4562.244231
527.155964	4398.406731
527.518057	4310.186538
527.880093	4252.213269
528.242072	4325.310000
528.603995	4272.377885
528.965860	4184.157692
529.327669	4045.525962
529.689421	3899.332500
530.051117	4012.758462
530.412755	3944.702885
530.774337	3735.495000
531.135862	3735.495000
531.497331	3823.715192
531.858743	3654.836538
532.220098	3584.260385
532.581396	3576.698654
532.942638	3425.464038
533.303824	3438.066923
533.664953	3309.517500
534.026025	3339.764423
534.387040	3289.352885
534.747999	3359.929038
535.108902	3306.996923
535.469748	3276.750000
535.830537	3281.791154
536.191270	3140.638846
536.551947	3221.297308
536.912567	3115.433077
537.273131	3140.638846
537.633638	3102.830192
537.994089	3082.665577
538.354483	3072.583269
538.714821	3039.815769
539.075103	2966.719038
539.435328	3002.007115
539.795497	2941.513269
540.155609	3042.336346
540.515665	2956.636731
540.875665	2918.828077
541.235609	2906.225192
541.595496	2785.237500
541.955328	2845.731346
542.315102	2858.334231
542.674821	2860.854808
543.034483	2868.416538
543.394090	2797.840385
543.753640	2762.552308
544.113134	2835.649038
544.472571	2805.402115
544.831953	2845.731346
545.191278	2860.854808
545.550548	2777.675769
545.909761	2762.552308
546.268918	2838.169615
546.628019	2797.840385
546.987064	2795.319808
547.346053	2760.031731
547.704986	2767.593462
548.063863	2704.579038
548.422684	2785.237500
548.781449	2757.511154
549.140158	2664.249808
549.498811	2719.702500
549.857408	2732.305385
550.215949	2762.552308
550.574434	2734.825962
550.932864	2661.729231
551.291237	2689.455577
551.649555	2702.058462
552.007817	2722.223077
552.366022	2661.729231
552.724173	2757.511154
553.082267	2694.496731
553.440305	2712.140769
553.798288	2697.017308
554.156215	2686.935000
554.514086	2780.196346
554.871902	2727.264231
555.229661	2737.346538
555.587365	2729.784808
555.945014	2729.784808
556.302606	2654.167500
556.660143	2749.949423
557.017625	2719.702500
557.375050	2684.414423
557.732421	2654.167500
558.089735	2697.017308
558.446994	2704.579038
558.804197	2689.455577
559.161345	2621.400000
559.518437	2666.770385
559.875474	2649.126346
560.232455	2641.564615
560.589381	2613.838269
560.946251	2676.852692
561.303065	2699.537885
561.659825	2608.797115
562.016528	2631.482308
562.373177	2661.729231
562.729770	2699.537885
563.086307	2598.714808
563.442789	2628.961731
563.799216	2717.181923
564.155587	2752.470000
564.511904	2649.126346
564.868164	2639.044038
565.224370	2669.290962
565.580520	2634.002885
565.936615	2656.688077
566.292654	2689.455577
566.648638	2684.414423
567.004567	2634.002885
567.360441	2611.317692
567.716260	2628.961731
568.072023	2679.373269
568.427732	2581.070769
568.783385	2747.428846
569.138982	2681.893846
569.494525	2664.249808
569.850013	2623.920577
570.205445	2651.646923
570.560823	2669.290962
570.916145	2691.976154
571.271412	2651.646923
571.626625	2636.523462
571.981782	2681.893846
572.336884	2628.961731
572.691931	2606.276538
573.046923	2691.976154
573.401860	2684.414423
573.756743	2717.181923
574.111570	2618.879423
574.466342	2588.632500
574.821059	2691.976154
575.175722	2681.893846
575.530330	2664.249808
575.884882	2674.332115
576.239380	2618.879423
576.593823	2586.111923
576.948211	2651.646923
577.302544	2646.605769
577.656823	2722.223077
578.011047	2639.044038
578.365216	2543.262115
578.719330	2686.935000
579.073389	2639.044038
579.427394	2666.770385
579.781344	2618.879423
580.135239	2631.482308
580.489080	2649.126346
580.842866	2639.044038
581.196597	2634.002885
581.550273	2618.879423
581.903895	2651.646923
582.257463	2714.661346
582.610975	2644.085192
582.964434	2570.988462
583.317837	2644.085192
583.671186	2686.935000
584.024481	2601.235385
584.377721	2540.741538
584.730906	2616.358846
585.084037	2626.441154
585.437113	2654.167500
585.790135	2702.058462
586.143103	2661.729231
586.496016	2634.002885
586.848874	2669.290962
587.201679	2611.317692
587.554428	2616.358846
587.907124	2621.400000
588.259765	2646.605769
588.612352	2568.467885
588.964884	2616.358846
589.317362	2588.632500
589.669786	2621.400000
590.022155	2679.373269
590.374470	2644.085192
590.726731	2598.714808
591.078937	2689.455577
591.431090	2661.729231
591.783188	2679.373269
592.135232	2656.688077
592.487222	2558.385577
592.839157	2593.673654
593.191038	2596.194231
593.542866	2644.085192
593.894639	2583.591346
594.246358	2618.879423
594.598022	2591.153077
594.949633	2709.620192
595.301190	2641.564615
595.652692	2691.976154
596.004141	2634.002885
596.355535	2666.770385
596.706876	2613.838269
597.058162	2697.017308
597.409395	2681.893846
597.760573	2636.523462
598.111698	2623.920577
598.462768	2621.400000
598.813785	2618.879423
599.164748	2646.605769
599.515657	2558.385577
599.866511	2646.605769
600.217312	2661.729231
600.568060	2654.167500
600.918753	2659.208654
601.269392	2664.249808
601.619978	2628.961731
601.970510	2606.276538
602.320988	2626.441154
602.671412	2623.920577
603.021783	2661.729231
603.372100	2669.290962
603.722363	2634.002885
604.072572	2644.085192
604.422728	2676.852692
604.772830	2601.235385
605.122878	2634.002885
605.472872	2722.223077
605.822813	2621.400000
606.172701	2588.632500
606.522534	2525.618077
606.872314	2611.317692
607.222041	2722.223077
607.571714	2626.441154
607.921333	2634.002885
608.270899	2684.414423
608.620411	2596.194231
608.969870	2646.605769
609.319276	2664.249808
609.668627	2697.017308
610.017926	2560.906154
610.367171	2694.496731
610.716362	2724.743654
611.065500	2727.264231
611.414585	2628.961731
611.763616	2666.770385
612.112594	2656.688077
612.461518	2606.276538
612.810389	2679.373269
613.159207	2674.332115
613.507971	2618.879423
613.856682	2583.591346
614.205340	2654.167500
614.553945	2618.879423
614.902496	2641.564615
615.250994	2628.961731
615.599439	2646.605769
615.947830	2666.770385
616.296169	2669.290962
616.644454	2651.646923
616.992686	2669.290962
617.340864	2628.961731
617.688990	2644.085192
618.037063	2669.290962
618.385082	2611.317692
618.733048	2634.002885
619.080961	2634.002885
619.428821	2641.564615
619.776628	2558.385577
620.124382	2626.441154
620.472083	2636.523462
620.819731	2621.400000
621.167326	2707.099615
621.514868	2654.167500
621.862357	2568.467885
622.209793	2729.784808
622.557176	2646.605769
622.904506	2533.179808
623.251783	2656.688077
623.599007	2634.002885
623.946179	2679.373269
624.293297	2634.002885
624.640363	2515.535769
624.987376	2649.126346
625.334336	2636.523462
625.681243	2628.961731
626.028097	2560.906154
626.374899	2588.632500
626.721647	2694.496731
627.068343	2628.961731
627.414987	2644.085192
627.761577	2641.564615
628.108115	2513.015192
628.454600	2570.988462
628.801032	2649.126346
629.147412	2601.235385
629.493739	2621.400000
629.840014	2626.441154
630.186236	2611.317692
630.532405	2664.249808
630.878521	2666.770385
631.224585	2691.976154
631.570597	2593.673654
631.916556	2681.893846
632.262462	2641.564615
632.608316	2649.126346
632.954117	2621.400000
633.299866	2636.523462
633.645562	2691.976154
633.991206	2626.441154
634.336797	2583.591346
634.682336	2651.646923
635.027823	2634.002885
635.373257	2686.935000
635.718639	2593.673654
636.063968	2626.441154
636.409245	2671.811538
636.754470	2606.276538
637.099642	2548.303269
637.444762	2646.605769
637.789829	2699.537885
638.134845	2636.523462
638.479808	2588.632500
638.824719	2558.385577
639.169577	2578.550192
639.514383	2623.920577
639.859137	2588.632500
640.203839	2623.920577
640.548489	2598.714808
640.893086	2593.673654
641.237632	2611.317692
641.582125	2573.509038
641.926566	2681.893846
642.270955	2649.126346
642.615292	2641.564615
642.959576	2631.482308
643.303809	2656.688077
643.647990	2550.823846
643.992118	2644.085192
644.336195	2671.811538
644.680219	2626.441154
645.024192	2644.085192
645.368112	2676.852692
645.711981	2596.194231
646.055797	2586.111923
646.399562	2618.879423
646.743274	2596.194231
647.086935	2634.002885
647.430544	2669.290962
647.774101	2694.496731
648.117606	2583.591346
648.461059	2724.743654
648.804460	2697.017308
649.147810	2583.591346
649.491108	2616.358846
649.834354	2752.470000
650.177548	2656.688077
650.520690	2679.373269
650.863781	2676.852692
651.206820	2659.208654
651.549807	2676.852692
651.892742	2674.332115
652.235626	2724.743654
652.578458	2699.537885
652.921238	2674.332115
653.263967	2628.961731
653.606644	2691.976154
653.949269	2596.194231
654.291843	2689.455577
654.634365	2621.400000
654.976836	2639.044038
655.319255	2621.400000
655.661622	2659.208654
656.003938	2664.249808
656.346203	2661.729231
656.688416	2608.797115
657.030577	2611.317692
657.372687	2634.002885
657.714746	2641.564615
658.056753	2686.935000
658.398708	2644.085192
658.740612	2626.441154
659.082465	2636.523462
659.424266	2661.729231
659.766016	2573.509038
660.107715	2697.017308
660.449362	2679.373269
660.790958	2613.838269
661.132503	2611.317692
661.473996	2631.482308
661.815438	2628.961731
662.156829	2578.550192
662.498168	2646.605769
662.839456	2631.482308
663.180693	2581.070769
663.521879	2623.920577
663.863013	2659.208654
664.204097	2628.961731
664.545129	2626.441154
664.886110	2565.947308
665.227040	2681.893846
665.567918	2744.908269
665.908746	2618.879423
666.249522	2623.920577
666.590248	2649.126346
666.930922	2656.688077
667.271545	2702.058462
667.612118	2639.044038
667.952639	2671.811538
668.293109	2639.044038
668.633528	2613.838269
668.973896	2560.906154
669.314213	2704.579038
669.654480	2570.988462
669.994695	2573.509038
670.334859	2651.646923
670.674973	2671.811538
671.015035	2651.646923
671.355047	2611.317692
671.695008	2651.646923
672.034918	2581.070769
672.374777	2596.194231
672.714585	2581.070769
673.054342	2651.646923
673.394049	2656.688077
673.733705	2565.947308
674.073310	2553.344423
674.412864	2656.688077
674.752368	2636.523462
675.091820	2639.044038
675.431223	2543.262115
675.770574	2631.482308
676.109875	2593.673654
676.449125	2588.632500
676.788324	2674.332115
677.127473	2676.852692
677.466571	2656.688077
677.805619	2666.770385
678.144616	2659.208654
678.483562	2656.688077
678.822458	2649.126346
679.161303	2628.961731
679.500098	2639.044038
679.838842	2644.085192
680.177535	2659.208654
680.516179	2578.550192
680.854771	2588.632500
681.193314	2563.426731
681.531805	2616.358846
681.870247	2608.797115
682.208638	2568.467885
682.546978	2724.743654
682.885268	2611.317692
683.223508	2603.755962
683.561697	2654.167500
683.899836	2644.085192
684.237925	2666.770385
684.575963	2651.646923
684.913951	2616.358846
685.251889	2712.140769
685.589776	2646.605769
685.927614	2598.714808
686.265401	2596.194231
686.603137	2558.385577
686.940824	2636.523462
687.278460	2664.249808
687.616046	2628.961731
687.953582	2618.879423
688.291068	2593.673654
688.628504	2694.496731
688.965889	2697.017308
689.303224	2639.044038
689.640510	2573.509038
689.977745	2631.482308
690.314930	2651.646923
690.652065	2644.085192
690.989150	2719.702500
691.326185	2666.770385
691.663170	2621.400000
692.000105	2646.605769
692.336990	2631.482308
692.673825	2563.426731
693.010610	2583.591346
693.347345	2686.935000
693.684030	2644.085192
694.020665	2697.017308
694.357251	2636.523462
694.693786	2651.646923
695.030272	2628.961731
695.366707	2646.605769
695.703093	2598.714808
696.039429	2603.755962
696.375716	2656.688077
696.711952	2654.167500
697.048139	2618.879423
697.384276	2613.838269
697.720363	2520.576923
698.056400	2618.879423
698.392388	2601.235385
698.728326	2583.591346
699.064214	2636.523462
699.400053	2666.770385
699.735842	2613.838269
700.071581	2586.111923
700.407270	2671.811538
700.742910	2613.838269
701.078501	2719.702500
701.414042	2570.988462
701.749533	2528.138654
702.084974	2606.276538
702.420366	2596.194231
702.755709	2628.961731
703.091002	2671.811538
703.426246	2674.332115
703.761440	2669.290962
704.096584	2623.920577
704.431679	2634.002885
704.766725	2641.564615
705.101721	2596.194231
705.436668	2679.373269
705.771565	2616.358846
706.106413	2596.194231
706.441212	2656.688077
706.775961	2593.673654
707.110661	2608.797115
707.445311	2639.044038
707.779913	2613.838269
708.114465	2608.797115
708.448967	2656.688077
708.783421	2739.867115
709.117825	2563.426731
709.452180	2656.688077
709.786485	2644.085192
710.120742	2588.632500
710.454949	2563.426731
710.789107	2651.646923
711.123216	2618.879423
711.457275	2596.194231
711.791286	2608.797115
712.125247	2591.153077
712.459159	2601.235385
712.793023	2644.085192
713.126837	2593.673654
713.460602	2618.879423
713.794318	2576.029615
714.127985	2621.400000
714.461602	2576.029615
714.795171	2596.194231
715.128691	2669.290962
715.462162	2598.714808
715.795584	2626.441154
716.128957	2644.085192
716.462281	2623.920577
716.795556	2679.373269
717.128782	2664.249808
717.461960	2573.509038
717.795088	2621.400000
718.128167	2586.111923
718.461198	2507.974038
718.794180	2661.729231
719.127113	2621.400000
719.459997	2560.906154
719.792833	2603.755962
720.125619	2724.743654
720.458357	2656.688077
720.791046	2530.659231
721.123686	2651.646923
721.456278	2586.111923
721.788821	2626.441154
722.121315	2669.290962
722.453761	2601.235385
722.786158	2646.605769
723.118506	2649.126346
723.450805	2623.920577
723.783056	2674.332115
724.115259	2666.770385
724.447412	2538.220962
724.779518	2608.797115
725.111574	2570.988462
725.443582	2510.494615
725.775542	2634.002885
726.107453	2669.290962
726.439315	2603.755962
726.771129	2611.317692
727.102895	2626.441154
727.434612	2586.111923
727.766281	2543.262115
728.097901	2626.441154
728.429473	2707.099615
728.760996	2659.208654
729.092471	2664.249808
729.423897	2611.317692
729.755276	2533.179808
730.086606	2628.961731
730.417887	2588.632500
730.749120	2606.276538
731.080305	2540.741538
731.411442	2697.017308
731.742530	2684.414423
732.073570	2634.002885
732.404562	2603.755962
732.735506	2560.906154
733.066401	2684.414423
733.397249	2631.482308
733.728048	2606.276538
734.058798	2626.441154
734.389501	2576.029615
734.720156	2560.906154
735.050762	2626.441154
735.381320	2649.126346
735.711831	2649.126346
736.042293	2502.932885
736.372707	2631.482308
736.703073	2583.591346
737.033391	2603.755962
737.363661	2623.920577
737.693883	2591.153077
738.024056	2560.906154
738.354182	2611.317692
738.684260	2646.605769
739.014290	2661.729231
739.344272	2596.194231
739.674207	2651.646923
740.004093	2666.770385
740.333931	2659.208654
740.663722	2616.358846
740.993464	2623.920577
741.323159	2581.070769
741.652806	2613.838269
741.982405	2664.249808
742.311956	2608.797115
742.641460	2626.441154
742.970915	2621.400000
743.300323	2651.646923
743.629683	2530.659231
743.958996	2533.179808
744.288260	2649.126346
744.617477	2586.111923
744.946647	2676.852692
745.275768	2545.782692
745.604842	2616.358846
745.933869	2583.591346
746.262847	2639.044038
746.591778	2623.920577
746.920662	2553.344423
747.249498	2664.249808
747.578286	2616.358846
747.907027	2583.591346
748.235720	2661.729231
748.564365	2641.564615
748.892963	2581.070769
749.221514	2538.220962
749.550017	2581.070769
749.878473	2540.741538
750.206881	2636.523462
750.535242	2560.906154
750.863555	2654.167500
751.191821	2606.276538
751.520039	2591.153077
751.848210	2634.002885
752.176334	2651.646923
752.504411	2606.276538
752.832440	2659.208654
753.160421	2641.564615
753.488356	2626.441154
753.816243	2540.741538
754.144082	2639.044038
754.471875	2634.002885
754.799620	2611.317692
755.127318	2639.044038
755.454969	2616.358846
755.782572	2664.249808
756.110129	2565.947308
756.437638	2661.729231
756.765100	2538.220962
757.092515	2628.961731
757.419882	2576.029615
757.747203	2598.714808
758.074477	2616.358846
758.401703	2578.550192
758.728882	2558.385577
759.056014	2608.797115
759.383099	2684.414423
759.710138	2603.755962
760.037129	2573.509038
760.364073	2649.126346
760.690970	2608.797115
761.017820	2621.400000
761.344623	2661.729231
761.671379	2550.823846
761.998088	2639.044038
762.324751	2588.632500
762.651366	2611.317692
762.977935	2646.605769
763.304456	2686.935000
763.630931	2724.743654
763.957359	2684.414423
764.283740	2606.276538
764.610074	2613.838269
764.936362	2558.385577
765.262602	2596.194231
765.588796	2596.194231
765.914943	2558.385577
766.241044	2656.688077
766.567097	2603.755962
766.893104	2704.579038
767.219064	2694.496731
767.544978	2644.085192
767.870845	2613.838269
768.196665	2636.523462
768.522438	2530.659231
768.848165	2621.400000
769.173846	2661.729231
769.499479	2671.811538
769.825066	2689.455577
770.150607	2596.194231
770.476101	2535.700385
770.801548	2636.523462
771.126949	2500.412308
771.452303	2608.797115
771.777611	2568.467885
772.102872	2674.332115
772.428087	2528.138654
772.753256	2581.070769
773.078378	2588.632500
773.403453	2639.044038
773.728482	2621.400000
774.053465	2664.249808
774.378401	2581.070769
774.703291	2578.550192
775.028135	2669.290962
775.352932	2530.659231
775.677683	2586.111923
776.002388	2656.688077
776.327046	2563.426731
776.651658	2588.632500
776.976224	2641.564615
777.300743	2623.920577
777.625216	2603.755962
777.949643	2596.194231
778.274024	2563.426731
778.598359	2616.358846
778.922647	2596.194231
779.246889	2616.358846
779.571086	2628.961731
779.895236	2651.646923
780.219339	2694.496731
780.543397	2628.961731
780.867409	2558.385577
781.191374	2533.179808
781.515294	2641.564615
781.839167	2581.070769
782.162995	2674.332115
782.486776	2639.044038
782.810511	2646.605769
783.134201	2606.276538
783.457844	2606.276538
783.781441	2606.276538
784.104993	2654.167500
784.428498	2618.879423
784.751958	2654.167500
785.075372	2502.932885
785.398739	2588.632500
785.722061	2671.811538
786.045337	2679.373269
786.368568	2611.317692
786.691752	2535.700385
787.014891	2573.509038
787.337983	2611.317692
787.661030	2598.714808
787.984031	2621.400000
788.306987	2608.797115
788.629897	2591.153077
788.952760	2570.988462
789.275579	2588.632500
789.598351	2581.070769
789.921078	2613.838269
790.243759	2631.482308
790.566395	2606.276538
790.888984	2719.702500
791.211529	2601.235385
791.534027	2596.194231
791.856480	2601.235385
792.178888	2618.879423
792.501249	2709.620192
792.823566	2606.276538
793.145836	2634.002885
793.468062	2631.482308
793.790241	2583.591346
794.112375	2674.332115
794.434464	2538.220962
794.756507	2555.865000
795.078505	2636.523462
795.400457	2621.400000
795.722364	2601.235385
796.044226	2598.714808
796.366042	2618.879423
796.687812	2548.303269
797.009538	2576.029615
797.331218	2581.070769
797.652852	2563.426731
797.974442	2603.755962
798.295986	2618.879423
798.617484	2608.797115
798.938938	2691.976154
799.260346	2681.893846
799.581709	2586.111923
799.903026	2583.591346
800.224299	2634.002885
800.545526	2591.153077
800.866708	2550.823846
801.187845	2588.632500
801.508936	2631.482308
801.829983	2530.659231
802.150984	2621.400000
802.471940	2661.729231
802.792851	2533.179808
803.113717	2636.523462
803.434538	2591.153077
803.755314	2611.317692
804.076045	2666.770385
804.396731	2581.070769
804.717372	2623.920577
805.037967	2621.400000
805.358518	2611.317692
805.679024	2664.249808
805.999485	2606.276538
806.319901	2611.317692
806.640272	2626.441154
806.960598	2576.029615
807.280879	2596.194231
807.601115	2623.920577
807.921306	2606.276538
808.241453	2623.920577
808.561554	2628.961731
808.881611	2578.550192
809.201623	2651.646923
809.521590	2659.208654
809.841513	2545.782692
810.161390	2694.496731
810.481223	2659.208654
810.801011	2646.605769
811.120755	2568.467885
811.440453	2659.208654
811.760107	2636.523462
812.079716	2613.838269
812.399281	2618.879423
812.718801	2649.126346
813.038276	2603.755962
813.357707	2588.632500
813.677093	2550.823846
813.996434	2548.303269
814.315731	2573.509038
814.634983	2611.317692
814.954191	2568.467885
815.273354	2611.317692
815.592473	2543.262115
815.911547	2576.029615
816.230577	2626.441154
816.549562	2649.126346
816.868502	2596.194231
817.187399	2646.605769
817.506250	2709.620192
817.825058	2548.303269
818.143821	2573.509038
818.462539	2649.126346
818.781213	2659.208654
819.099843	2613.838269
819.418429	2699.537885
819.736970	2576.029615
820.055466	2598.714808
820.373919	2649.126346
820.692327	2691.976154
821.010691	2644.085192
821.329011	2694.496731
821.647286	2699.537885
821.965517	2659.208654
822.283704	2606.276538
822.601847	2727.264231
822.919945	2787.758077
823.237999	2714.661346
823.556010	2634.002885
823.873976	2588.632500
824.191897	2639.044038
824.509775	2659.208654
824.827609	2586.111923
825.145398	2591.153077
825.463144	2639.044038
825.780845	2578.550192
826.098502	2548.303269
826.416116	2639.044038
826.733685	2646.605769
827.051210	2634.002885
827.368692	2628.961731
827.686129	2603.755962
828.003522	2754.990577
828.320872	2573.509038
828.638177	2621.400000
828.955439	2573.509038
829.272656	2631.482308
829.589830	2555.865000
829.906960	2545.782692
830.224046	2631.482308
830.541088	2560.906154
830.858086	2596.194231
831.175041	2603.755962
831.491952	2674.332115
831.808819	2626.441154
832.125642	2581.070769
832.442421	2689.455577
832.759157	2515.535769
833.075849	2651.646923
833.392497	2689.455577
833.709101	2666.770385
834.025662	2573.509038
834.342179	2628.961731
834.658653	2762.552308
834.975083	2679.373269
835.291469	2593.673654
835.607811	2555.865000
835.924110	2749.949423
836.240366	2666.770385
836.556578	2603.755962
836.872746	2591.153077
837.188871	2639.044038
837.504952	2644.085192
837.820990	2507.974038
838.136984	2505.453462
838.452935	2576.029615
838.768842	2518.056346
839.084706	2535.700385
839.400526	2583.591346
839.716303	2669.290962
840.032037	2588.632500
840.347727	2528.138654
840.663373	2659.208654
840.978977	2636.523462
841.294537	2628.961731
841.610054	2593.673654
841.925527	2593.673654
842.240957	2623.920577
842.556344	2593.673654
842.871687	2628.961731
843.186987	2581.070769
843.502244	2530.659231
843.817458	2641.564615
844.132629	2656.688077
844.447756	2518.056346
844.762840	2581.070769
845.077881	2666.770385
845.392879	2691.976154
845.707833	2608.797115
846.022745	2669.290962
846.337613	2591.153077
846.652438	2618.879423
846.967221	2646.605769
847.281960	2664.249808
847.596656	2548.303269
847.911309	2555.865000
848.225919	2598.714808
848.540485	2583.591346
848.855009	2621.400000
849.169490	2583.591346
849.483928	2608.797115
849.798323	2583.591346
850.112675	2636.523462
850.426984	2636.523462
850.741251	2591.153077
851.055474	2593.673654
851.369654	2621.400000
851.683792	2578.550192
851.997887	2608.797115
852.311938	2631.482308
852.625947	2621.400000
852.939914	2616.358846
853.253837	2649.126346
853.567718	2598.714808
853.881555	2555.865000
854.195350	2636.523462
854.509103	2578.550192
854.822812	2588.632500
855.136479	2654.167500
855.450103	2603.755962
855.763685	2603.755962
856.077224	2603.755962
856.390720	2623.920577
856.704173	2616.358846
857.017584	2550.823846
857.330953	2636.523462
857.644278	2626.441154
857.957561	2581.070769
858.270802	2644.085192
858.584000	2641.564615
858.897155	2593.673654
859.210268	2598.714808
859.523339	2581.070769
859.836367	2606.276538
860.149352	2641.564615
860.462295	2651.646923
860.775195	2679.373269
861.088054	2606.276538
861.400869	2578.550192
861.713642	2495.371154
862.026373	2611.317692
862.339062	2593.673654
862.651708	2613.838269
862.964312	2608.797115
863.276873	2628.961731
863.589392	2560.906154
863.901869	2606.276538
864.214303	2601.235385
864.526696	2618.879423
864.839045	2558.385577
865.151353	2661.729231
865.463619	2593.673654
865.775842	2565.947308
866.088023	2623.920577
866.400162	2679.373269
866.712258	2560.906154
867.024313	2611.317692
867.336325	2588.632500
867.648296	2576.029615
867.960224	2694.496731
868.272110	2651.646923
868.583954	2616.358846
868.895755	2593.673654
869.207515	2603.755962
869.519233	2570.988462
869.830909	2621.400000
870.142542	2634.002885
870.454134	2525.618077
870.765684	2656.688077
871.077191	2570.988462
871.388657	2591.153077
871.700081	2565.947308
872.011463	2507.974038
872.322803	2613.838269
872.634101	2616.358846
872.945357	2596.194231
873.256571	2644.085192
873.567744	2603.755962
873.878874	2626.441154
874.189963	2659.208654
874.501010	2613.838269
874.812015	2646.605769
875.122979	2631.482308
875.433900	2578.550192
875.744780	2578.550192
876.055618	2555.865000
876.366415	2623.920577
876.677169	2656.688077
876.987882	2608.797115
877.298554	2593.673654
877.609183	2583.591346
877.919771	2626.441154
878.230317	2634.002885
878.540822	2588.632500
878.851285	2601.235385
879.161707	2636.523462
879.472087	2598.714808
879.782425	2616.358846
880.092722	2669.290962
880.402977	2540.741538
880.713191	2639.044038
881.023363	2593.673654
881.333494	2780.196346
881.643583	2628.961731
881.953631	2661.729231
882.263637	2704.579038
882.573602	2737.346538
882.883526	2674.332115
883.193408	2634.002885
883.503248	2686.935000
883.813048	2586.111923
884.122806	2598.714808
884.432522	2601.235385
884.742197	2586.111923
885.051831	2558.385577
885.361424	2523.097500
885.670975	2583.591346
885.980485	2621.400000
886.289954	2598.714808
886.599382	2623.920577
886.908768	2606.276538
887.218113	2601.235385
887.527417	2586.111923
887.836680	2573.509038
888.145901	2631.482308
888.455082	2649.126346
888.764221	2596.194231
889.073319	2634.002885
889.382376	2535.700385
889.691392	2565.947308
890.000366	2588.632500
890.309300	2618.879423
890.618193	2591.153077
890.927044	2563.426731
891.235855	2593.673654
891.544625	2618.879423
891.853353	2598.714808
892.162041	2626.441154
892.470687	2641.564615
892.779293	2651.646923
893.087858	2553.344423
893.396381	2608.797115
893.704864	2684.414423
894.013306	2570.988462
894.321707	2621.400000
894.630068	2651.646923
894.938387	2618.879423
895.246665	2616.358846
895.554903	2601.235385
895.863100	2525.618077
896.171256	2565.947308
896.479371	2588.632500
896.787446	2583.591346
897.095480	2616.358846
897.403473	2613.838269
897.711425	2603.755962
898.019336	2593.673654
898.327207	2651.646923
898.635038	2593.673654
898.942827	2651.646923
899.250576	2601.235385
899.558284	2611.317692
899.865952	2591.153077
900.173579	2611.317692
900.481165	2576.029615
900.788711	2606.276538
901.096216	2621.400000
901.403681	2576.029615
901.711105	2611.317692
902.018489	2623.920577
902.325832	2628.961731
902.633135	2555.865000
902.940397	2588.632500
903.247619	2631.482308
903.554800	2570.988462
903.861941	2608.797115
904.169041	2654.167500
904.476101	2679.373269
904.783121	2591.153077
905.090100	2626.441154
905.397039	2608.797115
905.703938	2636.523462
906.010796	2649.126346
906.317614	2636.523462
906.624391	2659.208654
906.931129	2598.714808
907.237826	2513.015192
907.544483	2523.097500
907.851099	2528.138654
908.157675	2558.385577
908.464211	2613.838269
908.770707	2596.194231
909.077163	2525.618077
909.383578	2613.838269
909.689954	2553.344423
909.996289	2601.235385
910.302584	2613.838269
910.608839	2558.385577
910.915054	2616.358846
911.221229	2601.235385
911.527363	2631.482308
911.833458	2550.823846
912.139513	2598.714808
912.445527	2502.932885
912.751502	2636.523462
913.057436	2576.029615
913.363331	2576.029615
913.669186	2699.537885
913.975000	2631.482308
914.280775	2543.262115
914.586510	2659.208654
914.892205	2644.085192
915.197859	2588.632500
915.503475	2545.782692
915.809050	2666.770385
916.114585	2588.632500
916.420081	2540.741538
916.725536	2533.179808
917.030952	2608.797115
917.336328	2543.262115
917.641665	2593.673654
917.946961	2626.441154
918.252218	2581.070769
918.557435	2543.262115
918.862612	2530.659231
919.167750	2646.605769
919.472848	2603.755962
919.777906	2565.947308
920.082925	2661.729231
920.387904	2596.194231
920.692843	2634.002885
920.997743	2591.153077
921.302603	2618.879423
921.607423	2555.865000
921.912204	2533.179808
922.216946	2535.700385
922.521647	2581.070769
922.826310	2608.797115
923.130932	2603.755962
923.435516	2550.823846
923.740059	2558.385577
924.044564	2555.865000
924.349028	2649.126346
924.653454	2596.194231
924.957840	2596.194231
925.262186	2608.797115
925.566493	2613.838269
925.870761	2623.920577
926.174989	2568.467885
926.479178	2603.755962
926.783328	2644.085192
927.087438	2581.070769
927.391509	2581.070769
927.695541	2649.126346
927.999533	2606.276538
928.303486	2621.400000
928.607400	2646.605769
928.911275	2535.700385
929.215110	2593.673654
929.518906	2613.838269
929.822663	2641.564615
930.126381	2548.303269
930.430060	2588.632500
930.733699	2510.494615
931.037299	2591.153077
931.340861	2626.441154
931.644383	2598.714808
931.947866	2628.961731
932.251309	2601.235385
932.554714	2591.153077
932.858080	2538.220962
933.161407	2538.220962
933.464694	2608.797115
933.767943	2570.988462
934.071153	2596.194231
934.374323	2623.920577
934.677455	2634.002885
934.980548	2558.385577
935.283602	2555.865000
935.586617	2598.714808
935.889593	2596.194231
936.192530	2470.165385
936.495428	2533.179808
936.798287	2583.591346
937.101108	2502.932885
937.403890	2649.126346
937.706632	2601.235385
938.009336	2606.276538
938.312002	2560.906154
938.614628	2651.646923
938.917216	2684.414423
939.219765	2570.988462
939.522275	2588.632500
939.824747	2591.153077
940.127179	2621.400000
940.429573	2621.400000
940.731929	2525.618077
941.034246	2593.673654
941.336524	2586.111923
941.638763	2606.276538
941.940964	2631.482308
942.243126	2603.755962
942.545250	2596.194231
942.847335	2613.838269
943.149381	2634.002885
943.451389	2581.070769
943.753359	2616.358846
944.055290	2603.755962
944.357182	2666.770385
944.659036	2621.400000
944.960851	2601.235385
945.262628	2507.974038
945.564367	2641.564615
945.866067	2639.044038
946.167729	2570.988462
946.469352	2616.358846
946.770937	2588.632500
947.072484	2631.482308
947.373992	2694.496731
947.675462	2666.770385
947.976893	2634.002885
948.278286	2578.550192
948.579641	2646.605769
948.880958	2581.070769
949.182236	2558.385577
949.483476	2525.618077
949.784678	2578.550192
950.085841	2553.344423
950.386967	2681.893846
950.688054	2618.879423
950.989103	2583.591346
951.290114	2613.838269
951.591087	2596.194231
951.892021	2616.358846
952.192917	2628.961731
952.493776	2681.893846
952.794596	2550.823846
953.095378	2593.673654
953.396122	2659.208654
953.696828	2578.550192
953.997496	2631.482308
954.298126	2576.029615
954.598718	2535.700385
954.899272	2553.344423
955.199788	2588.632500
955.500266	2586.111923
955.800706	2528.138654
956.101108	2568.467885
956.401472	2611.317692
956.701798	2623.920577
957.002087	2644.085192
957.302337	2639.044038
957.602550	2528.138654
957.902724	2565.947308
958.202861	2616.358846
958.502960	2651.646923
958.803022	2634.002885
959.103045	2543.262115
959.403031	2623.920577
959.702979	2553.344423
960.002889	2651.646923
960.302762	2601.235385
960.602596	2626.441154
960.902393	2596.194231
961.202153	2525.618077
961.501875	2626.441154
961.801559	2626.441154
962.101205	2639.044038
962.400814	2664.249808
962.700385	2558.385577
962.999918	2563.426731
963.299414	2623.920577
963.598873	2583.591346
963.898293	2550.823846
964.197677	2634.002885
964.497022	2611.317692
964.796331	2535.700385
965.095601	2611.317692
965.394835	2570.988462
965.694030	2611.317692
965.993189	2586.111923
966.292309	2628.961731
966.591393	2626.441154
966.890439	2646.605769
967.189447	2591.153077
967.488419	2553.344423
967.787353	2603.755962
968.086249	2578.550192
968.385108	2628.961731
968.683930	2606.276538
968.982714	2490.330000
969.281462	2636.523462
969.580172	2613.838269
969.878844	2568.467885
970.177480	2593.673654
970.476078	2555.865000
970.774639	2568.467885
971.073162	2626.441154
971.371649	2573.509038
971.670098	2565.947308
971.968510	2568.467885
972.266885	2523.097500
972.565223	2603.755962
972.863524	2570.988462
973.161788	2543.262115
973.460014	2507.974038
973.758204	2591.153077
974.056356	2591.153077
974.354471	2591.153077
974.652550	2621.400000
974.950591	2603.755962
975.248595	2601.235385
975.546563	2591.153077
975.844493	2586.111923
976.142386	2621.400000
976.440243	2601.235385
976.738062	2581.070769
977.035845	2641.564615
977.333590	2659.208654
977.631299	2641.564615
977.928971	2661.729231
978.226606	2535.700385
978.524204	2596.194231
978.821765	2639.044038
979.119290	2661.729231
979.416777	2601.235385
979.714228	2608.797115
980.011642	2644.085192
980.309020	2588.632500
980.606360	2576.029615
980.903664	2581.070769
981.200931	2548.303269
981.498162	2606.276538
981.795356	2669.290962
982.092513	2598.714808
982.389633	2550.823846
982.686717	2639.044038
982.983764	2588.632500
983.280775	2553.344423
983.577749	2588.632500
983.874686	2570.988462
984.171587	2608.797115
984.468451	2608.797115
984.765279	2565.947308
985.062070	2613.838269
985.358824	2621.400000
985.655543	2644.085192
985.952224	2644.085192
986.248869	2669.290962
986.545478	2565.947308
986.842050	2560.906154
987.138586	2586.111923
987.435086	2656.688077
987.731549	2659.208654
988.027975	2548.303269
988.324366	2601.235385
988.620719	2568.467885
988.917037	2593.673654
989.213318	2628.961731
989.509563	2568.467885
989.805772	2636.523462
990.101944	2628.961731
990.398080	2671.811538
990.694180	2543.262115
990.990244	2659.208654
991.286271	2644.085192
991.582262	2563.426731
991.878217	2591.153077
992.174136	2601.235385
992.470019	2588.632500
992.765865	2581.070769
993.061676	2560.906154
993.357450	2697.017308
993.653188	2626.441154
993.948890	2628.961731
994.244556	2560.906154
994.540186	2545.782692
994.835780	2593.673654
995.131337	2528.138654
995.426859	2563.426731
995.722345	2591.153077
996.017795	2639.044038
996.313208	2621.400000
996.608586	2628.961731
996.903928	2611.317692
997.199234	2540.741538
997.494504	2548.303269
997.789738	2535.700385
998.084936	2598.714808
998.380099	2581.070769
998.675225	2545.782692
998.970316	2664.249808
999.265371	2588.632500
999.560390	2598.714808
999.855373	2606.276538
1000.150320	2623.920577
1000.445232	2581.070769
1000.740108	2674.332115
1001.034948	2548.303269
1001.329752	2623.920577
1001.624521	2641.564615
1001.919254	2550.823846
1002.213951	2646.605769
1002.508613	2618.879423
1002.803239	2525.618077
1003.097829	2601.235385
1003.392384	2581.070769
1003.686903	2558.385577
1003.981386	2568.467885
1004.275834	2634.002885
1004.570246	2641.564615
1004.864623	2641.564615
1005.158964	2598.714808
1005.453270	2603.755962
1005.747540	2601.235385
1006.041775	2626.441154
1006.335974	2581.070769
1006.630138	2563.426731
1006.924266	2601.235385
1007.218359	2631.482308
1007.512416	2613.838269
1007.806438	2555.865000
1008.100425	2565.947308
1008.394376	2671.811538
1008.688292	2631.482308
1008.982172	2611.317692
1009.276017	2634.002885
1009.569827	2563.426731
1009.863602	2570.988462
1010.157341	2586.111923
1010.451045	2651.646923
1010.744714	2616.358846
1011.038347	2661.729231
1011.331945	2611.317692
1011.625508	2603.755962
1011.919036	2525.618077
1012.212528	2588.632500
1012.505986	2535.700385
1012.799408	2646.605769
1013.092795	2616.358846
1013.386147	2593.673654
1013.679464	2578.550192
1013.972745	2598.714808
1014.265992	2613.838269
1014.559204	2603.755962
1014.852380	2636.523462
1015.145521	2543.262115
1015.438628	2593.673654
1015.731699	2606.276538
1016.024736	2576.029615
1016.317737	2608.797115
1016.610703	2570.988462
1016.903635	2626.441154
1017.196531	2553.344423
1017.489393	2533.179808
1017.782219	2628.961731
1018.075011	2560.906154
1018.367768	2684.414423
1018.660490	2681.893846
1018.953177	2681.893846
1019.245829	2681.893846
