Dividing Wavelength (nm)	Counts (n)	Blue Motor Position (mm): 0.200000	Red Motor Position (mm): 0.000000	
326.493990	2119.805192
326.888308	2119.805192
327.282561	2119.805192
327.676750	2117.284615
328.070874	2119.805192
328.464933	2056.790769
328.858929	2064.352500
329.252859	2069.393654
329.646726	2132.408077
330.040528	2132.408077
330.434265	2107.202308
330.827938	2119.805192
331.221547	2061.831923
331.615091	2170.216731
332.008571	2119.805192
332.401986	2177.778462
332.795338	2233.231154
333.188625	2265.998654
333.581847	2263.478077
333.975006	2187.860769
334.368100	2248.354615
334.761129	2331.533654
335.154095	2336.574808
335.546996	2422.274423
335.939833	2323.971923
336.332606	2374.383462
336.725315	2419.753846
337.117960	2412.192115
337.510540	2379.424615
337.903056	2417.233269
338.295508	2422.274423
338.687896	2455.041923
339.080220	2515.535769
339.472480	2460.083077
339.864676	2407.150962
340.256807	2444.959615
340.648875	2427.315577
341.040879	2553.344423
341.432818	2480.247692
341.824694	2513.015192
342.216506	2442.439038
342.608253	2502.932885
342.999937	2419.753846
343.391557	2429.836154
343.783113	2510.494615
344.174605	2525.618077
344.566033	2500.412308
344.957397	2505.453462
345.348697	2465.124231
345.739934	2500.412308
346.131106	2371.862885
346.522215	2379.424615
346.913260	2366.821731
347.304241	2492.850577
347.695159	2455.041923
348.086012	2475.206538
348.476802	2444.959615
348.867528	2487.809423
349.258191	2359.260000
349.648789	2412.192115
350.039324	2422.274423
350.429796	2412.192115
350.820203	2437.397885
351.210548	2475.206538
351.600828	2414.712692
351.991045	2485.288846
352.381198	2475.206538
352.771288	2482.768269
353.161314	2407.150962
353.551276	2371.862885
353.941175	2447.480192
354.331010	2437.397885
354.720782	2480.247692
355.110490	2381.945192
355.500135	2419.753846
355.889717	2346.657115
356.279235	2472.685962
356.668689	2424.795000
357.058080	2470.165385
357.447408	2394.548077
357.836672	2402.109808
358.225873	2439.918462
358.615010	2392.027500
359.004084	2495.371154
359.393095	2422.274423
359.782043	2490.330000
360.170927	2429.836154
360.559748	2394.548077
360.948505	2407.150962
361.337199	2510.494615
361.725830	2384.465769
362.114398	2500.412308
362.502903	2412.192115
362.891344	2427.315577
363.279722	2465.124231
363.668037	2502.932885
364.056289	2399.589231
364.444478	2520.576923
364.832603	2417.233269
365.220665	2472.685962
365.608665	2439.918462
365.996601	2470.165385
366.384474	2389.506923
366.772284	2427.315577
367.160031	2450.000769
367.547715	2520.576923
367.935336	2475.206538
368.322893	2394.548077
368.710388	2502.932885
369.097820	2379.424615
369.485189	2419.753846
369.872495	2457.562500
370.259738	2467.644808
370.646918	2450.000769
371.034035	2404.630385
371.421090	2475.206538
371.808081	2422.274423
372.195010	2528.138654
372.581875	2439.918462
372.968678	2442.439038
373.355418	2432.356731
373.742096	2535.700385
374.128710	2548.303269
374.515262	2470.165385
374.901751	2424.795000
375.288177	2439.918462
375.674540	2528.138654
376.060841	2427.315577
376.447079	2394.548077
376.833254	2402.109808
377.219367	2424.795000
377.605417	2452.521346
377.991404	2482.768269
378.377329	2513.015192
378.763191	2510.494615
379.148991	2447.480192
379.534727	2424.795000
379.920402	2525.618077
380.306013	2505.453462
380.691563	2495.371154
381.077049	2472.685962
381.462474	2477.727115
381.847835	2371.862885
382.233134	2442.439038
382.618371	2412.192115
383.003545	2475.206538
383.388657	2417.233269
383.773706	2419.753846
384.158693	2460.083077
384.543618	2465.124231
384.928480	2482.768269
385.313280	2442.439038
385.698017	2404.630385
386.082692	2439.918462
386.467305	2467.644808
386.851856	2520.576923
387.236344	2404.630385
387.620770	2381.945192
388.005133	2439.918462
388.389435	2412.192115
388.773674	2414.712692
389.157851	2457.562500
389.541965	2419.753846
389.926018	2535.700385
390.310008	2429.836154
390.693936	2477.727115
391.077802	2422.274423
391.461606	2399.589231
391.845348	2462.603654
392.229027	2424.795000
392.612645	2402.109808
392.996200	2455.041923
393.379694	2485.288846
393.763125	2475.206538
394.146494	2487.809423
394.529801	2404.630385
394.913047	2563.426731
395.296230	2442.439038
395.679351	2513.015192
396.062410	2412.192115
396.445408	2437.397885
396.828343	2429.836154
397.211217	2470.165385
397.594028	2429.836154
397.976778	2495.371154
398.359466	2366.821731
398.742092	2470.165385
399.124656	2480.247692
399.507158	2460.083077
399.889598	2437.397885
400.271977	2513.015192
400.654294	2510.494615
401.036549	2535.700385
401.418742	2480.247692
401.800874	2457.562500
402.182944	2409.671538
402.564952	2465.124231
402.946898	2427.315577
403.328783	2480.247692
403.710606	2553.344423
404.092367	2429.836154
404.474067	2487.809423
404.855705	2442.439038
405.237282	2455.041923
405.618797	2394.548077
406.000250	2520.576923
406.381642	2462.603654
406.762972	2470.165385
407.144240	2497.891731
407.525447	2472.685962
407.906593	2540.741538
408.287677	2490.330000
408.668700	2475.206538
409.049661	2568.467885
409.430560	2495.371154
409.811399	2434.877308
410.192176	2490.330000
410.572891	2452.521346
410.953545	2502.932885
411.334138	2366.821731
411.714669	2507.974038
412.095139	2429.836154
412.475547	2500.412308
412.855894	2460.083077
413.236180	2467.644808
413.616405	2533.179808
413.996568	2444.959615
414.376670	2515.535769
414.756711	2550.823846
415.136691	2492.850577
415.516609	2520.576923
415.896466	2568.467885
416.276262	2487.809423
416.655997	2460.083077
417.035670	2429.836154
417.415283	2460.083077
417.794834	2462.603654
418.174324	2477.727115
418.553753	2470.165385
418.933121	2439.918462
419.312428	2460.083077
419.691674	2419.753846
420.070859	2492.850577
420.449983	2414.712692
420.829045	2500.412308
421.208047	2409.671538
421.586988	2409.671538
421.965867	2535.700385
422.344686	2472.685962
422.723444	2485.288846
423.102141	2475.206538
423.480777	2450.000769
423.859352	2533.179808
424.237866	2510.494615
424.616319	2422.274423
424.994712	2427.315577
425.373044	2480.247692
425.751314	2409.671538
426.129524	2505.453462
426.507673	2419.753846
426.885762	2417.233269
427.263789	2485.288846
427.641756	2450.000769
428.019662	2437.397885
428.397508	2555.865000
428.775292	2523.097500
429.153016	2528.138654
429.530679	2475.206538
429.908282	2442.439038
430.285824	2523.097500
430.663305	2465.124231
431.040726	2482.768269
431.418086	2447.480192
431.795385	2535.700385
432.172624	2450.000769
432.549802	2422.274423
432.926920	2414.712692
433.303977	2492.850577
433.680974	2467.644808
434.057910	2455.041923
434.434786	2455.041923
434.811601	2467.644808
435.188355	2520.576923
435.565050	2528.138654
435.941683	2457.562500
436.318257	2507.974038
436.694770	2467.644808
437.071222	2586.111923
437.447614	2407.150962
437.823946	2487.809423
438.200218	2548.303269
438.576429	2482.768269
438.952580	2467.644808
439.328670	2588.632500
439.704700	2482.768269
440.080670	2427.315577
440.456580	2384.465769
440.832429	2492.850577
441.208218	2477.727115
441.583947	2434.877308
441.959616	2472.685962
442.335224	2518.056346
442.710773	2510.494615
443.086261	2538.220962
443.461689	2482.768269
443.837057	2424.795000
444.212365	2467.644808
444.587612	2470.165385
444.962800	2447.480192
445.337927	2525.618077
445.712995	2477.727115
446.088002	2588.632500
446.462949	2495.371154
446.837837	2513.015192
447.212664	2397.068654
447.587431	2477.727115
447.962139	2548.303269
448.336786	2487.809423
448.711374	2465.124231
449.085901	2487.809423
449.460369	2457.562500
449.834776	2487.809423
450.209124	2568.467885
450.583412	2507.974038
450.957640	2482.768269
451.331808	2502.932885
451.705917	2523.097500
452.079965	2412.192115
452.453954	2467.644808
452.827883	2565.947308
453.201752	2485.288846
453.575562	2485.288846
453.949311	2470.165385
454.323001	2497.891731
454.696632	2568.467885
455.070202	2482.768269
455.443713	2467.644808
455.817164	2555.865000
456.190556	2533.179808
456.563888	2487.809423
456.937160	2495.371154
457.310373	2447.480192
457.683526	2497.891731
458.056619	2444.959615
458.429653	2477.727115
458.802628	2437.397885
459.175542	2543.262115
459.548398	2502.932885
459.921194	2513.015192
460.293930	2467.644808
460.666607	2513.015192
461.039224	2470.165385
461.411782	2540.741538
461.784280	2505.453462
462.156719	2452.521346
462.529099	2515.535769
462.901419	2455.041923
463.273680	2444.959615
463.645882	2528.138654
464.018024	2434.877308
464.390106	2497.891731
464.762130	2568.467885
465.134094	2497.891731
465.505999	2543.262115
465.877845	2558.385577
466.249631	2497.891731
466.621358	2538.220962
466.993026	2497.891731
467.364634	2530.659231
467.736184	2523.097500
468.107674	2432.356731
468.479105	2422.274423
468.850477	2487.809423
469.221790	2455.041923
469.593043	2470.165385
469.964238	2460.083077
470.335373	2475.206538
470.706449	2442.439038
471.077467	2528.138654
471.448425	2540.741538
471.819324	2525.618077
472.190164	2417.233269
472.560945	2455.041923
472.931667	2497.891731
473.302330	2465.124231
473.672934	2533.179808
474.043479	2386.986346
474.413965	2467.644808
474.784393	2452.521346
475.154761	2487.809423
475.525070	2520.576923
475.895321	2452.521346
476.265513	2462.603654
476.635645	2485.288846
477.005719	2452.521346
477.375734	2470.165385
477.745691	2515.535769
478.115588	2510.494615
478.485427	2457.562500
478.855207	2495.371154
479.224928	2470.165385
479.594591	2452.521346
479.964194	2470.165385
480.333739	2397.068654
480.703226	2452.521346
481.072653	2434.877308
481.442022	2444.959615
481.811333	2520.576923
482.180584	2457.562500
482.549777	2495.371154
482.918912	2507.974038
483.287988	2397.068654
483.657005	2500.412308
484.025964	2427.315577
484.394864	2513.015192
484.763706	2523.097500
485.132489	2397.068654
485.501213	2565.947308
485.869879	2457.562500
486.238487	2495.371154
486.607036	2500.412308
486.975527	2578.550192
487.343959	2497.891731
487.712333	2502.932885
488.080648	2523.097500
488.448905	2460.083077
488.817104	2467.644808
489.185244	2482.768269
489.553326	2394.548077
489.921350	2475.206538
490.289315	2535.700385
490.657222	2477.727115
491.025070	2470.165385
491.392861	2447.480192
491.760593	2523.097500
492.128267	2558.385577
492.495883	2422.274423
492.863440	2434.877308
493.230939	2548.303269
493.598380	2500.412308
493.965763	2462.603654
494.333088	2465.124231
494.700354	2543.262115
495.067563	2487.809423
495.434713	2576.029615
495.801805	2495.371154
496.168839	2482.768269
496.535815	2540.741538
496.902733	2452.521346
497.269593	2507.974038
497.636395	2533.179808
498.003139	2505.453462
498.369825	2470.165385
498.736453	2525.618077
499.103023	2553.344423
499.469535	2525.618077
499.835989	2462.603654
500.202385	2490.330000
500.568723	2553.344423
500.935003	2450.000769
501.301226	2558.385577
501.667390	2515.535769
502.033497	2490.330000
502.399546	2505.453462
502.765537	2535.700385
503.131470	2472.685962
503.497345	2497.891731
503.863163	2520.576923
504.228923	2472.685962
504.594625	2543.262115
504.960269	2460.083077
505.325856	2543.262115
505.691385	2505.453462
506.056856	2611.317692
506.422270	2409.671538
506.787625	2530.659231
507.152924	2409.671538
507.518164	2543.262115
507.883347	2470.165385
508.248472	2495.371154
508.613540	2500.412308
508.978550	2434.877308
509.343503	2490.330000
509.708398	2470.165385
510.073236	2497.891731
510.438016	2576.029615
510.802738	2487.809423
511.167403	2576.029615
511.532010	2485.288846
511.896561	2482.768269
512.261053	2477.727115
512.625488	2432.356731
512.989866	2497.891731
513.354186	2457.562500
513.718449	2429.836154
514.082655	2457.562500
514.446803	2555.865000
514.810894	2583.591346
515.174927	2467.644808
515.538904	2535.700385
515.902822	2487.809423
516.266684	2513.015192
516.630488	2545.782692
516.994235	2543.262115
517.357925	2472.685962
517.721558	2507.974038
518.085133	2465.124231
518.448651	2513.015192
518.812112	2490.330000
519.175516	2525.618077
519.538863	2497.891731
519.902152	2523.097500
520.265385	2485.288846
520.628560	2540.741538
520.991678	2422.274423
521.354739	2618.879423
521.717743	2465.124231
522.080690	2518.056346
522.443580	2455.041923
522.806413	2555.865000
523.169189	2427.315577
523.531908	2467.644808
523.894569	2533.179808
524.257174	2533.179808
524.619722	2447.480192
524.982213	2462.603654
525.344647	2477.727115
525.707025	2465.124231
526.069345	2470.165385
526.431608	2467.644808
526.793815	2570.988462
527.155964	2477.727115
527.518057	2533.179808
527.880093	2485.288846
528.242072	2427.315577
528.603995	2490.330000
528.965860	2407.150962
529.327669	2444.959615
529.689421	2523.097500
530.051117	2452.521346
530.412755	2404.630385
530.774337	2507.974038
531.135862	2548.303269
531.497331	2495.371154
531.858743	2530.659231
532.220098	2513.015192
532.581396	2477.727115
532.942638	2528.138654
533.303824	2563.426731
533.664953	2475.206538
534.026025	2535.700385
534.387040	2528.138654
534.747999	2482.768269
535.108902	2480.247692
535.469748	2452.521346
535.830537	2573.509038
536.191270	2598.714808
536.551947	2495.371154
536.912567	2434.877308
537.273131	2565.947308
537.633638	2545.782692
537.994089	2583.591346
538.354483	2467.644808
538.714821	2422.274423
539.075103	2492.850577
539.435328	2538.220962
539.795497	2490.330000
540.155609	2492.850577
540.515665	2475.206538
540.875665	2460.083077
541.235609	2437.397885
541.595496	2525.618077
541.955328	2495.371154
542.315102	2492.850577
542.674821	2450.000769
543.034483	2452.521346
543.394090	2482.768269
543.753640	2447.480192
544.113134	2500.412308
544.472571	2480.247692
544.831953	2601.235385
545.191278	2475.206538
545.550548	2538.220962
545.909761	2409.671538
546.268918	2545.782692
546.628019	2460.083077
546.987064	2528.138654
547.346053	2497.891731
547.704986	2535.700385
548.063863	2457.562500
548.422684	2465.124231
548.781449	2518.056346
549.140158	2502.932885
549.498811	2477.727115
549.857408	2482.768269
550.215949	2543.262115
550.574434	2513.015192
550.932864	2570.988462
551.291237	2477.727115
551.649555	2530.659231
552.007817	2485.288846
552.366022	2576.029615
552.724173	2581.070769
553.082267	2533.179808
553.440305	2500.412308
553.798288	2518.056346
554.156215	2457.562500
554.514086	2470.165385
554.871902	2510.494615
555.229661	2465.124231
555.587365	2422.274423
555.945014	2518.056346
556.302606	2505.453462
556.660143	2555.865000
557.017625	2482.768269
557.375050	2576.029615
557.732421	2442.439038
558.089735	2528.138654
558.446994	2482.768269
558.804197	2485.288846
559.161345	2492.850577
559.518437	2455.041923
559.875474	2543.262115
560.232455	2505.453462
560.589381	2437.397885
560.946251	2570.988462
561.303065	2452.521346
561.659825	2500.412308
562.016528	2422.274423
562.373177	2497.891731
562.729770	2500.412308
563.086307	2475.206538
563.442789	2505.453462
563.799216	2540.741538
564.155587	2598.714808
564.511904	2480.247692
564.868164	2533.179808
565.224370	2457.562500
565.580520	2540.741538
565.936615	2502.932885
566.292654	2500.412308
566.648638	2560.906154
567.004567	2573.509038
567.360441	2470.165385
567.716260	2480.247692
568.072023	2490.330000
568.427732	2495.371154
568.783385	2606.276538
569.138982	2480.247692
569.494525	2540.741538
569.850013	2505.453462
570.205445	2492.850577
570.560823	2467.644808
570.916145	2510.494615
571.271412	2515.535769
571.626625	2538.220962
571.981782	2495.371154
572.336884	2502.932885
572.691931	2465.124231
573.046923	2407.150962
573.401860	2518.056346
573.756743	2477.727115
574.111570	2530.659231
574.466342	2447.480192
574.821059	2477.727115
575.175722	2507.974038
575.530330	2447.480192
575.884882	2455.041923
576.239380	2462.603654
576.593823	2523.097500
576.948211	2487.809423
577.302544	2462.603654
577.656823	2467.644808
578.011047	2525.618077
578.365216	2530.659231
578.719330	2452.521346
579.073389	2540.741538
579.427394	2386.986346
579.781344	2523.097500
580.135239	2510.494615
580.489080	2535.700385
580.842866	2525.618077
581.196597	2492.850577
581.550273	2495.371154
581.903895	2409.671538
582.257463	2497.891731
582.610975	2447.480192
582.964434	2460.083077
583.317837	2568.467885
583.671186	2545.782692
584.024481	2462.603654
584.377721	2533.179808
584.730906	2424.795000
585.084037	2497.891731
585.437113	2412.192115
585.790135	2515.535769
586.143103	2475.206538
586.496016	2432.356731
586.848874	2452.521346
587.201679	2540.741538
587.554428	2487.809423
587.907124	2528.138654
588.259765	2455.041923
588.612352	2490.330000
588.964884	2434.877308
589.317362	2568.467885
589.669786	2432.356731
590.022155	2553.344423
590.374470	2424.795000
590.726731	2528.138654
591.078937	2477.727115
591.431090	2535.700385
591.783188	2505.453462
592.135232	2533.179808
592.487222	2477.727115
592.839157	2553.344423
593.191038	2417.233269
593.542866	2538.220962
593.894639	2434.877308
594.246358	2588.632500
594.598022	2550.823846
594.949633	2442.439038
595.301190	2513.015192
595.652692	2472.685962
596.004141	2513.015192
596.355535	2450.000769
596.706876	2545.782692
597.058162	2505.453462
597.409395	2535.700385
597.760573	2450.000769
598.111698	2465.124231
598.462768	2452.521346
598.813785	2492.850577
599.164748	2568.467885
599.515657	2495.371154
599.866511	2513.015192
600.217312	2434.877308
600.568060	2429.836154
600.918753	2472.685962
601.269392	2507.974038
601.619978	2409.671538
601.970510	2477.727115
602.320988	2540.741538
602.671412	2429.836154
603.021783	2392.027500
603.372100	2555.865000
603.722363	2467.644808
604.072572	2475.206538
604.422728	2470.165385
604.772830	2520.576923
605.122878	2492.850577
605.472872	2523.097500
605.822813	2477.727115
606.172701	2540.741538
606.522534	2505.453462
606.872314	2515.535769
607.222041	2460.083077
607.571714	2487.809423
607.921333	2555.865000
608.270899	2452.521346
608.620411	2487.809423
608.969870	2475.206538
609.319276	2497.891731
609.668627	2492.850577
610.017926	2550.823846
610.367171	2518.056346
610.716362	2513.015192
611.065500	2543.262115
611.414585	2510.494615
611.763616	2470.165385
612.112594	2502.932885
612.461518	2480.247692
612.810389	2419.753846
613.159207	2515.535769
613.507971	2550.823846
613.856682	2384.465769
614.205340	2530.659231
614.553945	2515.535769
614.902496	2538.220962
615.250994	2495.371154
615.599439	2538.220962
615.947830	2505.453462
616.296169	2457.562500
616.644454	2417.233269
616.992686	2472.685962
617.340864	2432.356731
617.688990	2513.015192
618.037063	2407.150962
618.385082	2608.797115
618.733048	2515.535769
619.080961	2490.330000
619.428821	2515.535769
619.776628	2548.303269
620.124382	2447.480192
620.472083	2477.727115
620.819731	2470.165385
621.167326	2568.467885
621.514868	2523.097500
621.862357	2381.945192
622.209793	2513.015192
622.557176	2485.288846
622.904506	2452.521346
623.251783	2495.371154
623.599007	2545.782692
623.946179	2455.041923
624.293297	2507.974038
624.640363	2480.247692
624.987376	2523.097500
625.334336	2482.768269
625.681243	2543.262115
626.028097	2502.932885
626.374899	2520.576923
626.721647	2490.330000
627.068343	2495.371154
627.414987	2505.453462
627.761577	2581.070769
628.108115	2384.465769
628.454600	2460.083077
628.801032	2467.644808
629.147412	2452.521346
629.493739	2565.947308
629.840014	2513.015192
630.186236	2601.235385
630.532405	2528.138654
630.878521	2490.330000
631.224585	2518.056346
631.570597	2570.988462
631.916556	2565.947308
632.262462	2513.015192
632.608316	2409.671538
632.954117	2482.768269
633.299866	2475.206538
633.645562	2518.056346
633.991206	2576.029615
634.336797	2444.959615
634.682336	2530.659231
635.027823	2492.850577
635.373257	2538.220962
635.718639	2467.644808
636.063968	2543.262115
636.409245	2550.823846
636.754470	2560.906154
637.099642	2502.932885
637.444762	2492.850577
637.789829	2525.618077
638.134845	2485.288846
638.479808	2455.041923
638.824719	2429.836154
639.169577	2450.000769
639.514383	2492.850577
639.859137	2533.179808
640.203839	2507.974038
640.548489	2540.741538
640.893086	2480.247692
641.237632	2480.247692
641.582125	2500.412308
641.926566	2578.550192
642.270955	2560.906154
642.615292	2480.247692
642.959576	2475.206538
643.303809	2460.083077
643.647990	2477.727115
643.992118	2601.235385
644.336195	2450.000769
644.680219	2528.138654
645.024192	2394.548077
645.368112	2442.439038
645.711981	2409.671538
646.055797	2560.906154
646.399562	2523.097500
646.743274	2492.850577
647.086935	2490.330000
647.430544	2495.371154
647.774101	2480.247692
648.117606	2444.959615
648.461059	2525.618077
648.804460	2550.823846
649.147810	2487.809423
649.491108	2490.330000
649.834354	2417.233269
650.177548	2528.138654
650.520690	2535.700385
650.863781	2528.138654
651.206820	2530.659231
651.549807	2513.015192
651.892742	2477.727115
652.235626	2447.480192
652.578458	2543.262115
652.921238	2505.453462
653.263967	2450.000769
653.606644	2573.509038
653.949269	2538.220962
654.291843	2495.371154
654.634365	2558.385577
654.976836	2460.083077
655.319255	2535.700385
655.661622	2472.685962
656.003938	2487.809423
656.346203	2507.974038
656.688416	2515.535769
657.030577	2513.015192
657.372687	2450.000769
657.714746	2528.138654
658.056753	2553.344423
658.398708	2447.480192
658.740612	2500.412308
659.082465	2490.330000
659.424266	2538.220962
659.766016	2581.070769
660.107715	2437.397885
660.449362	2434.877308
660.790958	2480.247692
661.132503	2497.891731
661.473996	2465.124231
661.815438	2523.097500
662.156829	2482.768269
662.498168	2500.412308
662.839456	2467.644808
663.180693	2502.932885
663.521879	2480.247692
663.863013	2455.041923
664.204097	2480.247692
664.545129	2392.027500
664.886110	2460.083077
665.227040	2465.124231
665.567918	2538.220962
665.908746	2470.165385
666.249522	2480.247692
666.590248	2475.206538
666.930922	2457.562500
667.271545	2467.644808
667.612118	2530.659231
667.952639	2616.358846
668.293109	2578.550192
668.633528	2467.644808
668.973896	2407.150962
669.314213	2555.865000
669.654480	2432.356731
669.994695	2533.179808
670.334859	2472.685962
670.674973	2538.220962
671.015035	2507.974038
671.355047	2424.795000
671.695008	2465.124231
672.034918	2444.959615
672.374777	2462.603654
672.714585	2452.521346
673.054342	2513.015192
673.394049	2497.891731
673.733705	2523.097500
674.073310	2576.029615
674.412864	2490.330000
674.752368	2510.494615
675.091820	2432.356731
675.431223	2545.782692
675.770574	2477.727115
676.109875	2510.494615
676.449125	2535.700385
676.788324	2434.877308
677.127473	2533.179808
677.466571	2502.932885
677.805619	2480.247692
678.144616	2482.768269
678.483562	2573.509038
678.822458	2480.247692
679.161303	2465.124231
679.500098	2444.959615
679.838842	2470.165385
680.177535	2480.247692
680.516179	2460.083077
680.854771	2523.097500
681.193314	2568.467885
681.531805	2480.247692
681.870247	2591.153077
682.208638	2424.795000
682.546978	2460.083077
682.885268	2513.015192
683.223508	2540.741538
683.561697	2505.453462
683.899836	2497.891731
684.237925	2495.371154
684.575963	2485.288846
684.913951	2450.000769
685.251889	2583.591346
685.589776	2628.961731
685.927614	2497.891731
686.265401	2487.809423
686.603137	2439.918462
686.940824	2500.412308
687.278460	2457.562500
687.616046	2563.426731
687.953582	2502.932885
688.291068	2505.453462
688.628504	2550.823846
688.965889	2477.727115
689.303224	2586.111923
689.640510	2434.877308
689.977745	2457.562500
690.314930	2465.124231
690.652065	2502.932885
690.989150	2502.932885
691.326185	2492.850577
691.663170	2523.097500
692.000105	2477.727115
692.336990	2510.494615
692.673825	2480.247692
693.010610	2485.288846
693.347345	2520.576923
693.684030	2513.015192
694.020665	2439.918462
694.357251	2480.247692
694.693786	2477.727115
695.030272	2525.618077
695.366707	2485.288846
695.703093	2535.700385
696.039429	2434.877308
696.375716	2513.015192
696.711952	2457.562500
697.048139	2452.521346
697.384276	2487.809423
697.720363	2467.644808
698.056400	2460.083077
698.392388	2553.344423
698.728326	2510.494615
699.064214	2447.480192
699.400053	2502.932885
699.735842	2485.288846
700.071581	2535.700385
700.407270	2515.535769
700.742910	2467.644808
701.078501	2485.288846
701.414042	2523.097500
701.749533	2447.480192
702.084974	2392.027500
702.420366	2482.768269
702.755709	2613.838269
703.091002	2515.535769
703.426246	2386.986346
703.761440	2550.823846
704.096584	2525.618077
704.431679	2570.988462
704.766725	2452.521346
705.101721	2598.714808
705.436668	2485.288846
705.771565	2513.015192
706.106413	2570.988462
706.441212	2510.494615
706.775961	2578.550192
707.110661	2432.356731
707.445311	2424.795000
707.779913	2480.247692
708.114465	2535.700385
708.448967	2528.138654
708.783421	2480.247692
709.117825	2528.138654
709.452180	2560.906154
709.786485	2568.467885
710.120742	2543.262115
710.454949	2419.753846
710.789107	2412.192115
711.123216	2475.206538
711.457275	2457.562500
711.791286	2460.083077
712.125247	2475.206538
712.459159	2444.959615
712.793023	2482.768269
713.126837	2487.809423
713.460602	2480.247692
713.794318	2523.097500
714.127985	2502.932885
714.461602	2525.618077
714.795171	2432.356731
715.128691	2490.330000
715.462162	2450.000769
715.795584	2565.947308
716.128957	2477.727115
716.462281	2485.288846
716.795556	2460.083077
717.128782	2429.836154
717.461960	2492.850577
717.795088	2427.315577
718.128167	2502.932885
718.461198	2540.741538
718.794180	2409.671538
719.127113	2485.288846
719.459997	2447.480192
719.792833	2424.795000
720.125619	2505.453462
720.458357	2535.700385
720.791046	2442.439038
721.123686	2457.562500
721.456278	2563.426731
721.788821	2513.015192
722.121315	2467.644808
722.453761	2485.288846
722.786158	2523.097500
723.118506	2510.494615
723.450805	2470.165385
723.783056	2492.850577
724.115259	2533.179808
724.447412	2429.836154
724.779518	2550.823846
725.111574	2450.000769
725.443582	2505.453462
725.775542	2424.795000
726.107453	2540.741538
726.439315	2490.330000
726.771129	2480.247692
727.102895	2381.945192
727.434612	2507.974038
727.766281	2455.041923
728.097901	2570.988462
728.429473	2505.453462
728.760996	2581.070769
729.092471	2457.562500
729.423897	2477.727115
729.755276	2510.494615
730.086606	2497.891731
730.417887	2540.741538
730.749120	2482.768269
731.080305	2528.138654
731.411442	2475.206538
731.742530	2528.138654
732.073570	2455.041923
732.404562	2475.206538
732.735506	2482.768269
733.066401	2543.262115
733.397249	2487.809423
733.728048	2402.109808
734.058798	2361.780577
734.389501	2455.041923
734.720156	2520.576923
735.050762	2452.521346
735.381320	2465.124231
735.711831	2515.535769
736.042293	2502.932885
736.372707	2611.317692
736.703073	2515.535769
737.033391	2528.138654
737.363661	2518.056346
737.693883	2520.576923
738.024056	2455.041923
738.354182	2497.891731
738.684260	2452.521346
739.014290	2543.262115
739.344272	2434.877308
739.674207	2568.467885
740.004093	2462.603654
740.333931	2460.083077
740.663722	2515.535769
740.993464	2558.385577
741.323159	2467.644808
741.652806	2646.605769
741.982405	2485.288846
742.311956	2548.303269
742.641460	2497.891731
742.970915	2492.850577
743.300323	2457.562500
743.629683	2502.932885
743.958996	2477.727115
744.288260	2432.356731
744.617477	2419.753846
744.946647	2492.850577
745.275768	2495.371154
745.604842	2417.233269
745.933869	2555.865000
746.262847	2460.083077
746.591778	2485.288846
746.920662	2482.768269
747.249498	2457.562500
747.578286	2502.932885
747.907027	2414.712692
748.235720	2513.015192
748.564365	2480.247692
748.892963	2518.056346
749.221514	2555.865000
749.550017	2528.138654
749.878473	2495.371154
750.206881	2500.412308
750.535242	2447.480192
750.863555	2533.179808
751.191821	2513.015192
751.520039	2442.439038
751.848210	2505.453462
752.176334	2563.426731
752.504411	2409.671538
752.832440	2540.741538
753.160421	2540.741538
753.488356	2402.109808
753.816243	2596.194231
754.144082	2520.576923
754.471875	2480.247692
754.799620	2470.165385
755.127318	2530.659231
755.454969	2533.179808
755.782572	2545.782692
756.110129	2495.371154
756.437638	2429.836154
756.765100	2510.494615
757.092515	2475.206538
757.419882	2583.591346
757.747203	2518.056346
758.074477	2409.671538
758.401703	2485.288846
758.728882	2502.932885
759.056014	2510.494615
759.383099	2538.220962
759.710138	2505.453462
760.037129	2502.932885
760.364073	2535.700385
760.690970	2515.535769
761.017820	2523.097500
761.344623	2447.480192
761.671379	2535.700385
761.998088	2492.850577
762.324751	2427.315577
762.651366	2495.371154
762.977935	2573.509038
763.304456	2482.768269
763.630931	2535.700385
763.957359	2412.192115
764.283740	2457.562500
764.610074	2414.712692
764.936362	2581.070769
765.262602	2573.509038
765.588796	2500.412308
765.914943	2523.097500
766.241044	2497.891731
766.567097	2495.371154
766.893104	2520.576923
767.219064	2515.535769
767.544978	2404.630385
767.870845	2487.809423
768.196665	2477.727115
768.522438	2475.206538
768.848165	2497.891731
769.173846	2568.467885
769.499479	2507.974038
769.825066	2467.644808
770.150607	2457.562500
770.476101	2563.426731
770.801548	2487.809423
771.126949	2457.562500
771.452303	2513.015192
771.777611	2518.056346
772.102872	2444.959615
772.428087	2523.097500
772.753256	2513.015192
773.078378	2495.371154
773.403453	2462.603654
773.728482	2583.591346
774.053465	2414.712692
774.378401	2475.206538
774.703291	2518.056346
775.028135	2540.741538
775.352932	2535.700385
775.677683	2447.480192
776.002388	2437.397885
776.327046	2528.138654
776.651658	2505.453462
776.976224	2497.891731
777.300743	2548.303269
777.625216	2533.179808
777.949643	2507.974038
778.274024	2528.138654
778.598359	2507.974038
778.922647	2437.397885
779.246889	2424.795000
779.571086	2548.303269
779.895236	2492.850577
780.219339	2477.727115
780.543397	2437.397885
780.867409	2487.809423
781.191374	2447.480192
781.515294	2581.070769
781.839167	2502.932885
782.162995	2553.344423
782.486776	2457.562500
782.810511	2538.220962
783.134201	2500.412308
783.457844	2424.795000
783.781441	2555.865000
784.104993	2457.562500
784.428498	2518.056346
784.751958	2470.165385
785.075372	2497.891731
785.398739	2467.644808
785.722061	2381.945192
786.045337	2507.974038
786.368568	2414.712692
786.691752	2507.974038
787.014891	2523.097500
787.337983	2495.371154
787.661030	2558.385577
787.984031	2523.097500
788.306987	2518.056346
788.629897	2480.247692
788.952760	2482.768269
789.275579	2492.850577
789.598351	2510.494615
789.921078	2573.509038
790.243759	2576.029615
790.566395	2535.700385
790.888984	2525.618077
791.211529	2510.494615
791.534027	2545.782692
791.856480	2502.932885
792.178888	2417.233269
792.501249	2477.727115
792.823566	2525.618077
793.145836	2467.644808
793.468062	2525.618077
793.790241	2482.768269
794.112375	2482.768269
794.434464	2477.727115
794.756507	2487.809423
795.078505	2507.974038
795.400457	2545.782692
795.722364	2450.000769
796.044226	2507.974038
796.366042	2502.932885
796.687812	2578.550192
797.009538	2477.727115
797.331218	2540.741538
797.652852	2492.850577
797.974442	2490.330000
798.295986	2543.262115
798.617484	2487.809423
798.938938	2520.576923
799.260346	2439.918462
799.581709	2455.041923
799.903026	2429.836154
800.224299	2477.727115
800.545526	2515.535769
800.866708	2510.494615
801.187845	2462.603654
801.508936	2455.041923
801.829983	2583.591346
802.150984	2492.850577
802.471940	2545.782692
802.792851	2490.330000
803.113717	2487.809423
803.434538	2560.906154
803.755314	2550.823846
804.076045	2467.644808
804.396731	2444.959615
804.717372	2482.768269
805.037967	2500.412308
805.358518	2495.371154
805.679024	2492.850577
805.999485	2528.138654
806.319901	2434.877308
806.640272	2535.700385
806.960598	2548.303269
807.280879	2540.741538
807.601115	2538.220962
807.921306	2487.809423
808.241453	2462.603654
808.561554	2497.891731
808.881611	2515.535769
809.201623	2487.809423
809.521590	2497.891731
809.841513	2505.453462
810.161390	2452.521346
810.481223	2452.521346
810.801011	2507.974038
811.120755	2528.138654
811.440453	2381.945192
811.760107	2596.194231
812.079716	2460.083077
812.399281	2528.138654
812.718801	2447.480192
813.038276	2550.823846
813.357707	2467.644808
813.677093	2470.165385
813.996434	2477.727115
814.315731	2482.768269
814.634983	2434.877308
814.954191	2507.974038
815.273354	2576.029615
815.592473	2538.220962
815.911547	2535.700385
816.230577	2462.603654
816.549562	2497.891731
816.868502	2487.809423
817.187399	2513.015192
817.506250	2462.603654
817.825058	2505.453462
818.143821	2502.932885
818.462539	2518.056346
818.781213	2455.041923
819.099843	2429.836154
819.418429	2513.015192
819.736970	2475.206538
820.055466	2578.550192
820.373919	2518.056346
820.692327	2510.494615
821.010691	2439.918462
821.329011	2492.850577
821.647286	2502.932885
821.965517	2487.809423
822.283704	2439.918462
822.601847	2475.206538
822.919945	2455.041923
823.237999	2490.330000
823.556010	2457.562500
823.873976	2475.206538
824.191897	2477.727115
824.509775	2502.932885
824.827609	2404.630385
825.145398	2487.809423
825.463144	2573.509038
825.780845	2427.315577
826.098502	2576.029615
826.416116	2502.932885
826.733685	2487.809423
827.051210	2460.083077
827.368692	2452.521346
827.686129	2513.015192
828.003522	2510.494615
828.320872	2502.932885
828.638177	2555.865000
828.955439	2490.330000
829.272656	2455.041923
829.589830	2530.659231
829.906960	2485.288846
830.224046	2548.303269
830.541088	2455.041923
830.858086	2568.467885
831.175041	2409.671538
831.491952	2593.673654
831.808819	2477.727115
832.125642	2518.056346
832.442421	2538.220962
832.759157	2515.535769
833.075849	2424.795000
833.392497	2497.891731
833.709101	2467.644808
834.025662	2513.015192
834.342179	2497.891731
834.658653	2432.356731
834.975083	2568.467885
835.291469	2497.891731
835.607811	2480.247692
835.924110	2447.480192
836.240366	2510.494615
836.556578	2482.768269
836.872746	2513.015192
837.188871	2485.288846
837.504952	2492.850577
837.820990	2555.865000
838.136984	2470.165385
838.452935	2510.494615
838.768842	2497.891731
839.084706	2530.659231
839.400526	2513.015192
839.716303	2434.877308
840.032037	2515.535769
840.347727	2568.467885
840.663373	2515.535769
840.978977	2510.494615
841.294537	2538.220962
841.610054	2462.603654
841.925527	2492.850577
842.240957	2538.220962
842.556344	2485.288846
842.871687	2507.974038
843.186987	2490.330000
843.502244	2515.535769
843.817458	2462.603654
844.132629	2432.356731
844.447756	2477.727115
844.762840	2510.494615
845.077881	2533.179808
845.392879	2475.206538
845.707833	2545.782692
846.022745	2447.480192
846.337613	2555.865000
846.652438	2455.041923
846.967221	2502.932885
847.281960	2492.850577
847.596656	2447.480192
847.911309	2422.274423
848.225919	2507.974038
848.540485	2480.247692
848.855009	2555.865000
849.169490	2507.974038
849.483928	2510.494615
849.798323	2412.192115
850.112675	2500.412308
850.426984	2427.315577
850.741251	2472.685962
851.055474	2525.618077
851.369654	2475.206538
851.683792	2555.865000
851.997887	2528.138654
852.311938	2414.712692
852.625947	2593.673654
852.939914	2502.932885
853.253837	2528.138654
853.567718	2518.056346
853.881555	2563.426731
854.195350	2581.070769
854.509103	2485.288846
854.822812	2467.644808
855.136479	2472.685962
855.450103	2470.165385
855.763685	2460.083077
856.077224	2497.891731
856.390720	2457.562500
856.704173	2480.247692
857.017584	2470.165385
857.330953	2460.083077
857.644278	2507.974038
857.957561	2472.685962
858.270802	2525.618077
858.584000	2490.330000
858.897155	2576.029615
859.210268	2477.727115
859.523339	2500.412308
859.836367	2341.615962
860.149352	2485.288846
860.462295	2432.356731
860.775195	2528.138654
861.088054	2530.659231
861.400869	2455.041923
861.713642	2432.356731
862.026373	2525.618077
862.339062	2513.015192
862.651708	2429.836154
862.964312	2381.945192
863.276873	2480.247692
863.589392	2507.974038
863.901869	2439.918462
864.214303	2520.576923
864.526696	2570.988462
864.839045	2475.206538
865.151353	2533.179808
865.463619	2409.671538
865.775842	2439.918462
866.088023	2545.782692
866.400162	2457.562500
866.712258	2439.918462
867.024313	2505.453462
867.336325	2495.371154
867.648296	2492.850577
867.960224	2502.932885
868.272110	2530.659231
868.583954	2543.262115
868.895755	2543.262115
869.207515	2399.589231
869.519233	2424.795000
869.830909	2470.165385
870.142542	2495.371154
870.454134	2470.165385
870.765684	2455.041923
871.077191	2477.727115
871.388657	2460.083077
871.700081	2482.768269
872.011463	2455.041923
872.322803	2477.727115
872.634101	2452.521346
872.945357	2429.836154
873.256571	2611.317692
873.567744	2447.480192
873.878874	2548.303269
874.189963	2525.618077
874.501010	2485.288846
874.812015	2490.330000
875.122979	2432.356731
875.433900	2497.891731
875.744780	2507.974038
876.055618	2477.727115
876.366415	2460.083077
876.677169	2505.453462
876.987882	2462.603654
877.298554	2553.344423
877.609183	2422.274423
877.919771	2505.453462
878.230317	2497.891731
878.540822	2510.494615
878.851285	2414.712692
879.161707	2550.823846
879.472087	2487.809423
879.782425	2553.344423
880.092722	2389.506923
880.402977	2482.768269
880.713191	2409.671538
881.023363	2452.521346
881.333494	2475.206538
881.643583	2510.494615
881.953631	2419.753846
882.263637	2475.206538
882.573602	2550.823846
882.883526	2533.179808
883.193408	2500.412308
883.503248	2555.865000
883.813048	2553.344423
884.122806	2606.276538
884.432522	2550.823846
884.742197	2460.083077
885.051831	2523.097500
885.361424	2485.288846
885.670975	2457.562500
885.980485	2470.165385
886.289954	2500.412308
886.599382	2439.918462
886.908768	2518.056346
887.218113	2482.768269
887.527417	2465.124231
887.836680	2505.453462
888.145901	2460.083077
888.455082	2518.056346
888.764221	2515.535769
889.073319	2487.809423
889.382376	2518.056346
889.691392	2414.712692
890.000366	2533.179808
890.309300	2523.097500
890.618193	2528.138654
890.927044	2513.015192
891.235855	2533.179808
891.544625	2485.288846
891.853353	2490.330000
892.162041	2523.097500
892.470687	2510.494615
892.779293	2525.618077
893.087858	2563.426731
893.396381	2530.659231
893.704864	2450.000769
894.013306	2455.041923
894.321707	2452.521346
894.630068	2525.618077
894.938387	2394.548077
895.246665	2455.041923
895.554903	2487.809423
895.863100	2500.412308
896.171256	2447.480192
896.479371	2457.562500
896.787446	2402.109808
897.095480	2442.439038
897.403473	2444.959615
897.711425	2447.480192
898.019336	2507.974038
898.327207	2545.782692
898.635038	2505.453462
898.942827	2548.303269
899.250576	2533.179808
899.558284	2462.603654
899.865952	2497.891731
900.173579	2497.891731
900.481165	2492.850577
900.788711	2510.494615
901.096216	2374.383462
901.403681	2432.356731
901.711105	2487.809423
902.018489	2550.823846
902.325832	2485.288846
902.633135	2513.015192
902.940397	2424.795000
903.247619	2407.150962
903.554800	2576.029615
903.861941	2533.179808
904.169041	2525.618077
904.476101	2452.521346
904.783121	2482.768269
905.090100	2507.974038
905.397039	2515.535769
905.703938	2538.220962
906.010796	2500.412308
906.317614	2581.070769
906.624391	2467.644808
906.931129	2502.932885
907.237826	2477.727115
907.544483	2439.918462
907.851099	2545.782692
908.157675	2386.986346
908.464211	2490.330000
908.770707	2502.932885
909.077163	2460.083077
909.383578	2513.015192
909.689954	2422.274423
909.996289	2515.535769
910.302584	2460.083077
910.608839	2591.153077
910.915054	2525.618077
911.221229	2500.412308
911.527363	2507.974038
911.833458	2475.206538
912.139513	2530.659231
912.445527	2442.439038
912.751502	2480.247692
913.057436	2472.685962
913.363331	2507.974038
913.669186	2434.877308
913.975000	2540.741538
914.280775	2520.576923
914.586510	2490.330000
914.892205	2507.974038
915.197859	2507.974038
915.503475	2470.165385
915.809050	2540.741538
916.114585	2444.959615
916.420081	2497.891731
916.725536	2563.426731
917.030952	2515.535769
917.336328	2495.371154
917.641665	2467.644808
917.946961	2548.303269
918.252218	2550.823846
918.557435	2487.809423
918.862612	2487.809423
919.167750	2543.262115
919.472848	2502.932885
919.777906	2525.618077
920.082925	2472.685962
920.387904	2513.015192
920.692843	2465.124231
920.997743	2530.659231
921.302603	2482.768269
921.607423	2409.671538
921.912204	2540.741538
922.216946	2558.385577
922.521647	2530.659231
922.826310	2455.041923
923.130932	2510.494615
923.435516	2424.795000
923.740059	2477.727115
924.044564	2434.877308
924.349028	2492.850577
924.653454	2495.371154
924.957840	2482.768269
925.262186	2336.574808
925.566493	2518.056346
925.870761	2475.206538
926.174989	2502.932885
926.479178	2475.206538
926.783328	2427.315577
927.087438	2467.644808
927.391509	2548.303269
927.695541	2475.206538
927.999533	2558.385577
928.303486	2442.439038
928.607400	2477.727115
928.911275	2492.850577
929.215110	2497.891731
929.518906	2502.932885
929.822663	2500.412308
930.126381	2432.356731
930.430060	2455.041923
930.733699	2472.685962
931.037299	2520.576923
931.340861	2495.371154
931.644383	2480.247692
931.947866	2462.603654
932.251309	2465.124231
932.554714	2490.330000
932.858080	2563.426731
933.161407	2596.194231
933.464694	2444.959615
933.767943	2412.192115
934.071153	2535.700385
934.374323	2545.782692
934.677455	2467.644808
934.980548	2533.179808
935.283602	2444.959615
935.586617	2553.344423
935.889593	2442.439038
936.192530	2533.179808
936.495428	2444.959615
936.798287	2432.356731
937.101108	2490.330000
937.403890	2505.453462
937.706632	2495.371154
938.009336	2548.303269
938.312002	2475.206538
938.614628	2515.535769
938.917216	2588.632500
939.219765	2487.809423
939.522275	2467.644808
939.824747	2457.562500
940.127179	2462.603654
940.429573	2447.480192
940.731929	2518.056346
941.034246	2427.315577
941.336524	2412.192115
941.638763	2500.412308
941.940964	2437.397885
942.243126	2472.685962
942.545250	2507.974038
942.847335	2530.659231
943.149381	2359.260000
943.451389	2588.632500
943.753359	2515.535769
944.055290	2538.220962
944.357182	2480.247692
944.659036	2470.165385
944.960851	2477.727115
945.262628	2528.138654
945.564367	2477.727115
945.866067	2475.206538
946.167729	2515.535769
946.469352	2467.644808
946.770937	2472.685962
947.072484	2487.809423
947.373992	2548.303269
947.675462	2462.603654
947.976893	2543.262115
948.278286	2399.589231
948.579641	2497.891731
948.880958	2487.809423
949.182236	2530.659231
949.483476	2530.659231
949.784678	2565.947308
950.085841	2477.727115
950.386967	2513.015192
950.688054	2460.083077
950.989103	2389.506923
951.290114	2482.768269
951.591087	2477.727115
951.892021	2389.506923
952.192917	2500.412308
952.493776	2424.795000
952.794596	2485.288846
953.095378	2548.303269
953.396122	2560.906154
953.696828	2485.288846
953.997496	2578.550192
954.298126	2477.727115
954.598718	2462.603654
954.899272	2450.000769
955.199788	2452.521346
955.500266	2523.097500
955.800706	2447.480192
956.101108	2550.823846
956.401472	2434.877308
956.701798	2510.494615
957.002087	2444.959615
957.302337	2482.768269
957.602550	2470.165385
957.902724	2447.480192
958.202861	2470.165385
958.502960	2558.385577
958.803022	2465.124231
959.103045	2465.124231
959.403031	2583.591346
959.702979	2500.412308
960.002889	2452.521346
960.302762	2467.644808
960.602596	2487.809423
960.902393	2460.083077
961.202153	2500.412308
961.501875	2520.576923
961.801559	2502.932885
962.101205	2376.904038
962.400814	2490.330000
962.700385	2495.371154
962.999918	2520.576923
963.299414	2540.741538
963.598873	2553.344423
963.898293	2439.918462
964.197677	2497.891731
964.497022	2465.124231
964.796331	2394.548077
965.095601	2480.247692
965.394835	2465.124231
965.694030	2492.850577
965.993189	2523.097500
966.292309	2523.097500
966.591393	2470.165385
966.890439	2472.685962
967.189447	2480.247692
967.488419	2505.453462
967.787353	2510.494615
968.086249	2480.247692
968.385108	2434.877308
968.683930	2470.165385
968.982714	2558.385577
969.281462	2510.494615
969.580172	2429.836154
969.878844	2528.138654
970.177480	2530.659231
970.476078	2427.315577
970.774639	2439.918462
971.073162	2450.000769
971.371649	2513.015192
971.670098	2450.000769
971.968510	2437.397885
972.266885	2560.906154
972.565223	2505.453462
972.863524	2480.247692
973.161788	2495.371154
973.460014	2437.397885
973.758204	2545.782692
974.056356	2472.685962
974.354471	2414.712692
974.652550	2507.974038
974.950591	2518.056346
975.248595	2477.727115
975.546563	2550.823846
975.844493	2472.685962
976.142386	2507.974038
976.440243	2477.727115
976.738062	2447.480192
977.035845	2480.247692
977.333590	2550.823846
977.631299	2487.809423
977.928971	2513.015192
978.226606	2457.562500
978.524204	2530.659231
978.821765	2455.041923
979.119290	2523.097500
979.416777	2470.165385
979.714228	2422.274423
980.011642	2424.795000
980.309020	2422.274423
980.606360	2490.330000
980.903664	2505.453462
981.200931	2455.041923
981.498162	2543.262115
981.795356	2515.535769
982.092513	2550.823846
982.389633	2442.439038
982.686717	2538.220962
982.983764	2540.741538
983.280775	2543.262115
983.577749	2460.083077
983.874686	2540.741538
984.171587	2497.891731
984.468451	2495.371154
984.765279	2460.083077
985.062070	2510.494615
985.358824	2550.823846
985.655543	2513.015192
985.952224	2507.974038
986.248869	2500.412308
986.545478	2460.083077
986.842050	2475.206538
987.138586	2525.618077
987.435086	2457.562500
987.731549	2530.659231
988.027975	2434.877308
988.324366	2518.056346
988.620719	2452.521346
988.917037	2447.480192
989.213318	2495.371154
989.509563	2437.397885
989.805772	2568.467885
990.101944	2399.589231
990.398080	2447.480192
990.694180	2513.015192
990.990244	2472.685962
991.286271	2518.056346
991.582262	2419.753846
991.878217	2412.192115
992.174136	2465.124231
992.470019	2450.000769
992.765865	2457.562500
993.061676	2465.124231
993.357450	2495.371154
993.653188	2533.179808
993.948890	2520.576923
994.244556	2502.932885
994.540186	2558.385577
994.835780	2467.644808
995.131337	2525.618077
995.426859	2475.206538
995.722345	2525.618077
996.017795	2502.932885
996.313208	2497.891731
996.608586	2412.192115
996.903928	2518.056346
997.199234	2482.768269
997.494504	2515.535769
997.789738	2447.480192
998.084936	2505.453462
998.380099	2427.315577
998.675225	2475.206538
998.970316	2507.974038
999.265371	2583.591346
999.560390	2568.467885
999.855373	2452.521346
1000.150320	2502.932885
1000.445232	2432.356731
1000.740108	2490.330000
1001.034948	2462.603654
1001.329752	2550.823846
1001.624521	2450.000769
1001.919254	2505.453462
1002.213951	2485.288846
1002.508613	2520.576923
1002.803239	2545.782692
1003.097829	2450.000769
1003.392384	2482.768269
1003.686903	2553.344423
1003.981386	2429.836154
1004.275834	2477.727115
1004.570246	2530.659231
1004.864623	2465.124231
1005.158964	2444.959615
1005.453270	2545.782692
1005.747540	2482.768269
1006.041775	2515.535769
1006.335974	2563.426731
1006.630138	2467.644808
1006.924266	2442.439038
1007.218359	2414.712692
1007.512416	2427.315577
1007.806438	2515.535769
1008.100425	2507.974038
1008.394376	2460.083077
1008.688292	2462.603654
1008.982172	2457.562500
1009.276017	2497.891731
1009.569827	2523.097500
1009.863602	2505.453462
1010.157341	2450.000769
1010.451045	2417.233269
1010.744714	2583.591346
1011.038347	2485.288846
1011.331945	2502.932885
1011.625508	2505.453462
1011.919036	2513.015192
1012.212528	2550.823846
1012.505986	2437.397885
1012.799408	2470.165385
1013.092795	2502.932885
1013.386147	2429.836154
1013.679464	2490.330000
1013.972745	2457.562500
1014.265992	2470.165385
1014.559204	2465.124231
1014.852380	2520.576923
1015.145521	2470.165385
1015.438628	2538.220962
1015.731699	2439.918462
1016.024736	2447.480192
1016.317737	2424.795000
1016.610703	2480.247692
1016.903635	2573.509038
1017.196531	2419.753846
1017.489393	2412.192115
1017.782219	2543.262115
1018.075011	2500.412308
1018.367768	2520.576923
1018.660490	2515.535769
1018.953177	2515.535769
1019.245829	2515.535769
