Dividing Wavelength (nm)	Counts (n)	Blue Motor Position (mm): 9.700000	Red Motor Position (mm): 0.000000	
326.493990	2145.010962
326.888308	2145.010962
327.282561	2145.010962
327.676750	2003.858654
328.070874	2079.475962
328.464933	2054.270192
328.858929	2099.640577
329.252859	2172.737308
329.646726	2084.517115
330.040528	2076.955385
330.434265	2099.640577
330.827938	2137.449231
331.221547	2129.887500
331.615091	2160.134423
332.008571	2218.107692
332.401986	2273.560385
332.795338	2218.107692
333.188625	2162.655000
333.581847	2228.190000
333.975006	2303.807308
334.368100	2326.492500
334.761129	2278.601538
335.154095	2326.492500
335.546996	2364.301154
335.939833	2321.451346
336.332606	2306.327885
336.725315	2460.083077
337.117960	2341.615962
337.510540	2351.698269
337.903056	2450.000769
338.295508	2376.904038
338.687896	2414.712692
339.080220	2460.083077
339.472480	2450.000769
339.864676	2384.465769
340.256807	2447.480192
340.648875	2417.233269
341.040879	2460.083077
341.432818	2434.877308
341.824694	2523.097500
342.216506	2472.685962
342.608253	2452.521346
342.999937	2455.041923
343.391557	2518.056346
343.783113	2465.124231
344.174605	2384.465769
344.566033	2424.795000
344.957397	2477.727115
345.348697	2502.932885
345.739934	2457.562500
346.131106	2402.109808
346.522215	2487.809423
346.913260	2422.274423
347.304241	2520.576923
347.695159	2417.233269
348.086012	2490.330000
348.476802	2467.644808
348.867528	2510.494615
349.258191	2439.918462
349.648789	2452.521346
350.039324	2414.712692
350.429796	2442.439038
350.820203	2384.465769
351.210548	2520.576923
351.600828	2399.589231
351.991045	2412.192115
352.381198	2409.671538
352.771288	2447.480192
353.161314	2374.383462
353.551276	2404.630385
353.941175	2429.836154
354.331010	2434.877308
354.720782	2452.521346
355.110490	2563.426731
355.500135	2462.603654
355.889717	2515.535769
356.279235	2477.727115
356.668689	2485.288846
357.058080	2510.494615
357.447408	2439.918462
357.836672	2397.068654
358.225873	2371.862885
358.615010	2482.768269
359.004084	2384.465769
359.393095	2439.918462
359.782043	2442.439038
360.170927	2495.371154
360.559748	2450.000769
360.948505	2407.150962
361.337199	2439.918462
361.725830	2480.247692
362.114398	2442.439038
362.502903	2369.342308
362.891344	2447.480192
363.279722	2429.836154
363.668037	2505.453462
364.056289	2389.506923
364.444478	2460.083077
364.832603	2432.356731
365.220665	2490.330000
365.608665	2422.274423
365.996601	2520.576923
366.384474	2455.041923
366.772284	2475.206538
367.160031	2475.206538
367.547715	2535.700385
367.935336	2414.712692
368.322893	2356.739423
368.710388	2447.480192
369.097820	2497.891731
369.485189	2492.850577
369.872495	2412.192115
370.259738	2487.809423
370.646918	2442.439038
371.034035	2477.727115
371.421090	2591.153077
371.808081	2455.041923
372.195010	2472.685962
372.581875	2450.000769
372.968678	2487.809423
373.355418	2409.671538
373.742096	2417.233269
374.128710	2384.465769
374.515262	2394.548077
374.901751	2472.685962
375.288177	2429.836154
375.674540	2412.192115
376.060841	2417.233269
376.447079	2447.480192
376.833254	2465.124231
377.219367	2434.877308
377.605417	2505.453462
377.991404	2422.274423
378.377329	2482.768269
378.763191	2437.397885
379.148991	2518.056346
379.534727	2492.850577
379.920402	2389.506923
380.306013	2379.424615
380.691563	2502.932885
381.077049	2467.644808
381.462474	2505.453462
381.847835	2444.959615
382.233134	2460.083077
382.618371	2515.535769
383.003545	2432.356731
383.388657	2492.850577
383.773706	2492.850577
384.158693	2490.330000
384.543618	2432.356731
384.928480	2470.165385
385.313280	2460.083077
385.698017	2455.041923
386.082692	2444.959615
386.467305	2480.247692
386.851856	2490.330000
387.236344	2485.288846
387.620770	2381.945192
388.005133	2518.056346
388.389435	2570.988462
388.773674	2530.659231
389.157851	2558.385577
389.541965	2389.506923
389.926018	2432.356731
390.310008	2500.412308
390.693936	2550.823846
391.077802	2507.974038
391.461606	2460.083077
391.845348	2485.288846
392.229027	2460.083077
392.612645	2505.453462
392.996200	2437.397885
393.379694	2495.371154
393.763125	2397.068654
394.146494	2520.576923
394.529801	2523.097500
394.913047	2467.644808
395.296230	2482.768269
395.679351	2457.562500
396.062410	2505.453462
396.445408	2439.918462
396.828343	2472.685962
397.211217	2475.206538
397.594028	2457.562500
397.976778	2366.821731
398.359466	2455.041923
398.742092	2429.836154
399.124656	2397.068654
399.507158	2432.356731
399.889598	2467.644808
400.271977	2492.850577
400.654294	2369.342308
401.036549	2553.344423
401.418742	2434.877308
401.800874	2513.015192
402.182944	2485.288846
402.564952	2429.836154
402.946898	2409.671538
403.328783	2447.480192
403.710606	2404.630385
404.092367	2412.192115
404.474067	2444.959615
404.855705	2444.959615
405.237282	2502.932885
405.618797	2497.891731
406.000250	2530.659231
406.381642	2563.426731
406.762972	2457.562500
407.144240	2470.165385
407.525447	2467.644808
407.906593	2379.424615
408.287677	2490.330000
408.668700	2402.109808
409.049661	2475.206538
409.430560	2402.109808
409.811399	2439.918462
410.192176	2485.288846
410.572891	2439.918462
410.953545	2422.274423
411.334138	2465.124231
411.714669	2485.288846
412.095139	2553.344423
412.475547	2505.453462
412.855894	2505.453462
413.236180	2447.480192
413.616405	2447.480192
413.996568	2414.712692
414.376670	2422.274423
414.756711	2558.385577
415.136691	2477.727115
415.516609	2477.727115
415.896466	2452.521346
416.276262	2409.671538
416.655997	2427.315577
417.035670	2482.768269
417.415283	2422.274423
417.794834	2465.124231
418.174324	2455.041923
418.553753	2366.821731
418.933121	2475.206538
419.312428	2515.535769
419.691674	2548.303269
420.070859	2422.274423
420.449983	2447.480192
420.829045	2457.562500
421.208047	2397.068654
421.586988	2492.850577
421.965867	2485.288846
422.344686	2407.150962
422.723444	2472.685962
423.102141	2467.644808
423.480777	2455.041923
423.859352	2371.862885
424.237866	2543.262115
424.616319	2510.494615
424.994712	2528.138654
425.373044	2447.480192
425.751314	2414.712692
426.129524	2455.041923
426.507673	2500.412308
426.885762	2462.603654
427.263789	2528.138654
427.641756	2467.644808
428.019662	2487.809423
428.397508	2540.741538
428.775292	2485.288846
429.153016	2467.644808
429.530679	2462.603654
429.908282	2381.945192
430.285824	2465.124231
430.663305	2507.974038
431.040726	2507.974038
431.418086	2394.548077
431.795385	2545.782692
432.172624	2497.891731
432.549802	2492.850577
432.926920	2462.603654
433.303977	2563.426731
433.680974	2502.932885
434.057910	2513.015192
434.434786	2525.618077
434.811601	2460.083077
435.188355	2510.494615
435.565050	2455.041923
435.941683	2470.165385
436.318257	2533.179808
436.694770	2530.659231
437.071222	2576.029615
437.447614	2528.138654
437.823946	2475.206538
438.200218	2520.576923
438.576429	2485.288846
438.952580	2442.439038
439.328670	2442.439038
439.704700	2477.727115
440.080670	2555.865000
440.456580	2386.986346
440.832429	2510.494615
441.208218	2570.988462
441.583947	2492.850577
441.959616	2497.891731
442.335224	2477.727115
442.710773	2550.823846
443.086261	2404.630385
443.461689	2545.782692
443.837057	2457.562500
444.212365	2538.220962
444.587612	2455.041923
444.962800	2533.179808
445.337927	2432.356731
445.712995	2573.509038
446.088002	2472.685962
446.462949	2452.521346
446.837837	2475.206538
447.212664	2490.330000
447.587431	2545.782692
447.962139	2475.206538
448.336786	2490.330000
448.711374	2513.015192
449.085901	2409.671538
449.460369	2432.356731
449.834776	2412.192115
450.209124	2500.412308
450.583412	2450.000769
450.957640	2576.029615
451.331808	2485.288846
451.705917	2414.712692
452.079965	2510.494615
452.453954	2535.700385
452.827883	2507.974038
453.201752	2442.439038
453.575562	2482.768269
453.949311	2560.906154
454.323001	2487.809423
454.696632	2407.150962
455.070202	2570.988462
455.443713	2586.111923
455.817164	2450.000769
456.190556	2447.480192
456.563888	2467.644808
456.937160	2520.576923
457.310373	2513.015192
457.683526	2394.548077
458.056619	2397.068654
458.429653	2477.727115
458.802628	2515.535769
459.175542	2520.576923
459.548398	2523.097500
459.921194	2432.356731
460.293930	2523.097500
460.666607	2487.809423
461.039224	2505.453462
461.411782	2475.206538
461.784280	2611.317692
462.156719	2530.659231
462.529099	2492.850577
462.901419	2502.932885
463.273680	2538.220962
463.645882	2495.371154
464.018024	2550.823846
464.390106	2520.576923
464.762130	2606.276538
465.134094	2477.727115
465.505999	2371.862885
465.877845	2505.453462
466.249631	2399.589231
466.621358	2513.015192
466.993026	2548.303269
467.364634	2500.412308
467.736184	2513.015192
468.107674	2570.988462
468.479105	2495.371154
468.850477	2502.932885
469.221790	2530.659231
469.593043	2540.741538
469.964238	2490.330000
470.335373	2533.179808
470.706449	2480.247692
471.077467	2545.782692
471.448425	2460.083077
471.819324	2490.330000
472.190164	2444.959615
472.560945	2409.671538
472.931667	2518.056346
473.302330	2460.083077
473.672934	2465.124231
474.043479	2507.974038
474.413965	2500.412308
474.784393	2538.220962
475.154761	2495.371154
475.525070	2487.809423
475.895321	2447.480192
476.265513	2560.906154
476.635645	2492.850577
477.005719	2497.891731
477.375734	2447.480192
477.745691	2482.768269
478.115588	2455.041923
478.485427	2394.548077
478.855207	2568.467885
479.224928	2563.426731
479.594591	2545.782692
479.964194	2578.550192
480.333739	2588.632500
480.703226	2528.138654
481.072653	2490.330000
481.442022	2533.179808
481.811333	2543.262115
482.180584	2528.138654
482.549777	2457.562500
482.918912	2545.782692
483.287988	2495.371154
483.657005	2470.165385
484.025964	2457.562500
484.394864	2543.262115
484.763706	2523.097500
485.132489	2538.220962
485.501213	2570.988462
485.869879	2558.385577
486.238487	2525.618077
486.607036	2434.877308
486.975527	2523.097500
487.343959	2399.589231
487.712333	2497.891731
488.080648	2487.809423
488.448905	2513.015192
488.817104	2485.288846
489.185244	2540.741538
489.553326	2442.439038
489.921350	2513.015192
490.289315	2550.823846
490.657222	2492.850577
491.025070	2510.494615
491.392861	2394.548077
491.760593	2510.494615
492.128267	2616.358846
492.495883	2510.494615
492.863440	2535.700385
493.230939	2487.809423
493.598380	2455.041923
493.965763	2472.685962
494.333088	2475.206538
494.700354	2482.768269
495.067563	2462.603654
495.434713	2492.850577
495.801805	2475.206538
496.168839	2432.356731
496.535815	2455.041923
496.902733	2485.288846
497.269593	2530.659231
497.636395	2477.727115
498.003139	2460.083077
498.369825	2568.467885
498.736453	2507.974038
499.103023	2576.029615
499.469535	2472.685962
499.835989	2465.124231
500.202385	2513.015192
500.568723	2513.015192
500.935003	2402.109808
501.301226	2485.288846
501.667390	2472.685962
502.033497	2500.412308
502.399546	2424.795000
502.765537	2520.576923
503.131470	2447.480192
503.497345	2490.330000
503.863163	2450.000769
504.228923	2457.562500
504.594625	2399.589231
504.960269	2518.056346
505.325856	2545.782692
505.691385	2616.358846
506.056856	2553.344423
506.422270	2510.494615
506.787625	2457.562500
507.152924	2472.685962
507.518164	2543.262115
507.883347	2505.453462
508.248472	2439.918462
508.613540	2528.138654
508.978550	2450.000769
509.343503	2500.412308
509.708398	2417.233269
510.073236	2455.041923
510.438016	2477.727115
510.802738	2515.535769
511.167403	2480.247692
511.532010	2482.768269
511.896561	2518.056346
512.261053	2497.891731
512.625488	2518.056346
512.989866	2550.823846
513.354186	2434.877308
513.718449	2472.685962
514.082655	2462.603654
514.446803	2442.439038
514.810894	2505.453462
515.174927	2457.562500
515.538904	2495.371154
515.902822	2434.877308
516.266684	2505.453462
516.630488	2462.603654
516.994235	2523.097500
517.357925	2467.644808
517.721558	2437.397885
518.085133	2533.179808
518.448651	2510.494615
518.812112	2475.206538
519.175516	2492.850577
519.538863	2452.521346
519.902152	2515.535769
520.265385	2470.165385
520.628560	2523.097500
520.991678	2470.165385
521.354739	2485.288846
521.717743	2523.097500
522.080690	2475.206538
522.443580	2450.000769
522.806413	2450.000769
523.169189	2492.850577
523.531908	2490.330000
523.894569	2528.138654
524.257174	2535.700385
524.619722	2470.165385
524.982213	2510.494615
525.344647	2525.618077
525.707025	2563.426731
526.069345	2528.138654
526.431608	2520.576923
526.793815	2555.865000
527.155964	2528.138654
527.518057	2404.630385
527.880093	2538.220962
528.242072	2455.041923
528.603995	2487.809423
528.965860	2482.768269
529.327669	2533.179808
529.689421	2588.632500
530.051117	2553.344423
530.412755	2533.179808
530.774337	2616.358846
531.135862	2520.576923
531.497331	2568.467885
531.858743	2530.659231
532.220098	2490.330000
532.581396	2507.974038
532.942638	2560.906154
533.303824	2578.550192
533.664953	2485.288846
534.026025	2520.576923
534.387040	2502.932885
534.747999	2540.741538
535.108902	2598.714808
535.469748	2523.097500
535.830537	2465.124231
536.191270	2465.124231
536.551947	2535.700385
536.912567	2412.192115
537.273131	2490.330000
537.633638	2427.315577
537.994089	2497.891731
538.354483	2467.644808
538.714821	2515.535769
539.075103	2505.453462
539.435328	2432.356731
539.795497	2432.356731
540.155609	2467.644808
540.515665	2487.809423
540.875665	2518.056346
541.235609	2429.836154
541.595496	2525.618077
541.955328	2538.220962
542.315102	2472.685962
542.674821	2482.768269
543.034483	2470.165385
543.394090	2518.056346
543.753640	2553.344423
544.113134	2545.782692
544.472571	2409.671538
544.831953	2470.165385
545.191278	2482.768269
545.550548	2555.865000
545.909761	2462.603654
546.268918	2450.000769
546.628019	2495.371154
546.987064	2495.371154
547.346053	2502.932885
547.704986	2450.000769
548.063863	2555.865000
548.422684	2533.179808
548.781449	2502.932885
549.140158	2419.753846
549.498811	2576.029615
549.857408	2528.138654
550.215949	2444.959615
550.574434	2460.083077
550.932864	2550.823846
551.291237	2492.850577
551.649555	2528.138654
552.007817	2472.685962
552.366022	2520.576923
552.724173	2475.206538
553.082267	2439.918462
553.440305	2563.426731
553.798288	2465.124231
554.156215	2505.453462
554.514086	2528.138654
554.871902	2399.589231
555.229661	2485.288846
555.587365	2442.439038
555.945014	2477.727115
556.302606	2467.644808
556.660143	2515.535769
557.017625	2422.274423
557.375050	2520.576923
557.732421	2543.262115
558.089735	2492.850577
558.446994	2482.768269
558.804197	2480.247692
559.161345	2570.988462
559.518437	2490.330000
559.875474	2414.712692
560.232455	2545.782692
560.589381	2515.535769
560.946251	2495.371154
561.303065	2495.371154
561.659825	2538.220962
562.016528	2442.439038
562.373177	2482.768269
562.729770	2462.603654
563.086307	2497.891731
563.442789	2533.179808
563.799216	2500.412308
564.155587	2465.124231
564.511904	2470.165385
564.868164	2513.015192
565.224370	2570.988462
565.580520	2470.165385
565.936615	2467.644808
566.292654	2505.453462
566.648638	2444.959615
567.004567	2525.618077
567.360441	2444.959615
567.716260	2563.426731
568.072023	2533.179808
568.427732	2472.685962
568.783385	2507.974038
569.138982	2518.056346
569.494525	2525.618077
569.850013	2480.247692
570.205445	2490.330000
570.560823	2513.015192
570.916145	2482.768269
571.271412	2518.056346
571.626625	2475.206538
571.981782	2485.288846
572.336884	2565.947308
572.691931	2495.371154
573.046923	2533.179808
573.401860	2487.809423
573.756743	2482.768269
574.111570	2502.932885
574.466342	2502.932885
574.821059	2455.041923
575.175722	2497.891731
575.530330	2500.412308
575.884882	2490.330000
576.239380	2570.988462
576.593823	2543.262115
576.948211	2513.015192
577.302544	2520.576923
577.656823	2510.494615
578.011047	2439.918462
578.365216	2560.906154
578.719330	2414.712692
579.073389	2480.247692
579.427394	2550.823846
579.781344	2470.165385
580.135239	2495.371154
580.489080	2608.797115
580.842866	2450.000769
581.196597	2495.371154
581.550273	2429.836154
581.903895	2558.385577
582.257463	2502.932885
582.610975	2540.741538
582.964434	2502.932885
583.317837	2424.795000
583.671186	2492.850577
584.024481	2450.000769
584.377721	2475.206538
584.730906	2444.959615
585.084037	2437.397885
585.437113	2465.124231
585.790135	2525.618077
586.143103	2507.974038
586.496016	2482.768269
586.848874	2548.303269
587.201679	2437.397885
587.554428	2543.262115
587.907124	2502.932885
588.259765	2460.083077
588.612352	2518.056346
588.964884	2507.974038
589.317362	2480.247692
589.669786	2611.317692
590.022155	2530.659231
590.374470	2518.056346
590.726731	2452.521346
591.078937	2560.906154
591.431090	2495.371154
591.783188	2505.453462
592.135232	2578.550192
592.487222	2470.165385
592.839157	2450.000769
593.191038	2477.727115
593.542866	2467.644808
593.894639	2518.056346
594.246358	2429.836154
594.598022	2545.782692
594.949633	2507.974038
595.301190	2457.562500
595.652692	2472.685962
596.004141	2510.494615
596.355535	2523.097500
596.706876	2553.344423
597.058162	2467.644808
597.409395	2470.165385
597.760573	2530.659231
598.111698	2460.083077
598.462768	2505.453462
598.813785	2497.891731
599.164748	2495.371154
599.515657	2490.330000
599.866511	2470.165385
600.217312	2543.262115
600.568060	2452.521346
600.918753	2477.727115
601.269392	2490.330000
601.619978	2490.330000
601.970510	2470.165385
602.320988	2555.865000
602.671412	2578.550192
603.021783	2560.906154
603.372100	2611.317692
603.722363	2550.823846
604.072572	2492.850577
604.422728	2477.727115
604.772830	2530.659231
605.122878	2495.371154
605.472872	2434.877308
605.822813	2409.671538
606.172701	2482.768269
606.522534	2550.823846
606.872314	2513.015192
607.222041	2502.932885
607.571714	2550.823846
607.921333	2490.330000
608.270899	2555.865000
608.620411	2480.247692
608.969870	2535.700385
609.319276	2475.206538
609.668627	2530.659231
610.017926	2523.097500
610.367171	2409.671538
610.716362	2497.891731
611.065500	2563.426731
611.414585	2480.247692
611.763616	2465.124231
612.112594	2490.330000
612.461518	2477.727115
612.810389	2439.918462
613.159207	2465.124231
613.507971	2487.809423
613.856682	2470.165385
614.205340	2492.850577
614.553945	2565.947308
614.902496	2497.891731
615.250994	2497.891731
615.599439	2495.371154
615.947830	2540.741538
616.296169	2457.562500
616.644454	2492.850577
616.992686	2467.644808
617.340864	2578.550192
617.688990	2550.823846
618.037063	2502.932885
618.385082	2439.918462
618.733048	2427.315577
619.080961	2487.809423
619.428821	2576.029615
619.776628	2555.865000
620.124382	2429.836154
620.472083	2472.685962
620.819731	2462.603654
621.167326	2487.809423
621.514868	2427.315577
621.862357	2520.576923
622.209793	2515.535769
622.557176	2490.330000
622.904506	2472.685962
623.251783	2528.138654
623.599007	2490.330000
623.946179	2477.727115
624.293297	2419.753846
624.640363	2490.330000
624.987376	2437.397885
625.334336	2465.124231
625.681243	2543.262115
626.028097	2540.741538
626.374899	2460.083077
626.721647	2472.685962
627.068343	2523.097500
627.414987	2374.383462
627.761577	2540.741538
628.108115	2570.988462
628.454600	2490.330000
628.801032	2520.576923
629.147412	2513.015192
629.493739	2495.371154
629.840014	2455.041923
630.186236	2439.918462
630.532405	2455.041923
630.878521	2505.453462
631.224585	2497.891731
631.570597	2442.439038
631.916556	2500.412308
632.262462	2477.727115
632.608316	2588.632500
632.954117	2482.768269
633.299866	2565.947308
633.645562	2510.494615
633.991206	2533.179808
634.336797	2528.138654
634.682336	2555.865000
635.027823	2533.179808
635.373257	2525.618077
635.718639	2505.453462
636.063968	2553.344423
636.409245	2568.467885
636.754470	2475.206538
637.099642	2543.262115
637.444762	2502.932885
637.789829	2535.700385
638.134845	2447.480192
638.479808	2548.303269
638.824719	2550.823846
639.169577	2480.247692
639.514383	2502.932885
639.859137	2427.315577
640.203839	2502.932885
640.548489	2485.288846
640.893086	2434.877308
641.237632	2480.247692
641.582125	2447.480192
641.926566	2565.947308
642.270955	2533.179808
642.615292	2487.809423
642.959576	2596.194231
643.303809	2548.303269
643.647990	2507.974038
643.992118	2485.288846
644.336195	2487.809423
644.680219	2447.480192
645.024192	2523.097500
645.368112	2487.809423
645.711981	2412.192115
646.055797	2543.262115
646.399562	2543.262115
646.743274	2540.741538
647.086935	2452.521346
647.430544	2510.494615
647.774101	2485.288846
648.117606	2510.494615
648.461059	2545.782692
648.804460	2495.371154
649.147810	2495.371154
649.491108	2467.644808
649.834354	2434.877308
650.177548	2528.138654
650.520690	2467.644808
650.863781	2492.850577
651.206820	2417.233269
651.549807	2507.974038
651.892742	2447.480192
652.235626	2568.467885
652.578458	2560.906154
652.921238	2437.397885
653.263967	2533.179808
653.606644	2528.138654
653.949269	2553.344423
654.291843	2404.630385
654.634365	2518.056346
654.976836	2475.206538
655.319255	2482.768269
655.661622	2455.041923
656.003938	2553.344423
656.346203	2578.550192
656.688416	2513.015192
657.030577	2646.605769
657.372687	2467.644808
657.714746	2465.124231
658.056753	2487.809423
658.398708	2500.412308
658.740612	2457.562500
659.082465	2528.138654
659.424266	2472.685962
659.766016	2497.891731
660.107715	2490.330000
660.449362	2538.220962
660.790958	2462.603654
661.132503	2439.918462
661.473996	2543.262115
661.815438	2500.412308
662.156829	2467.644808
662.498168	2570.988462
662.839456	2490.330000
663.180693	2455.041923
663.521879	2470.165385
663.863013	2432.356731
664.204097	2460.083077
664.545129	2480.247692
664.886110	2507.974038
665.227040	2409.671538
665.567918	2525.618077
665.908746	2450.000769
666.249522	2515.535769
666.590248	2497.891731
666.930922	2535.700385
667.271545	2407.150962
667.612118	2520.576923
667.952639	2462.603654
668.293109	2502.932885
668.633528	2497.891731
668.973896	2442.439038
669.314213	2576.029615
669.654480	2540.741538
669.994695	2505.453462
670.334859	2437.397885
670.674973	2656.688077
671.015035	2518.056346
671.355047	2525.618077
671.695008	2563.426731
672.034918	2507.974038
672.374777	2432.356731
672.714585	2528.138654
673.054342	2492.850577
673.394049	2460.083077
673.733705	2492.850577
674.073310	2485.288846
674.412864	2563.426731
674.752368	2444.959615
675.091820	2399.589231
675.431223	2439.918462
675.770574	2392.027500
676.109875	2581.070769
676.449125	2477.727115
676.788324	2510.494615
677.127473	2530.659231
677.466571	2500.412308
677.805619	2485.288846
678.144616	2482.768269
678.483562	2545.782692
678.822458	2576.029615
679.161303	2480.247692
679.500098	2538.220962
679.838842	2490.330000
680.177535	2492.850577
680.516179	2452.521346
680.854771	2545.782692
681.193314	2492.850577
681.531805	2470.165385
681.870247	2495.371154
682.208638	2450.000769
682.546978	2452.521346
682.885268	2465.124231
683.223508	2460.083077
683.561697	2487.809423
683.899836	2520.576923
684.237925	2565.947308
684.575963	2457.562500
684.913951	2490.330000
685.251889	2533.179808
685.589776	2555.865000
685.927614	2462.603654
686.265401	2528.138654
686.603137	2555.865000
686.940824	2525.618077
687.278460	2442.439038
687.616046	2404.630385
687.953582	2482.768269
688.291068	2492.850577
688.628504	2538.220962
688.965889	2455.041923
689.303224	2467.644808
689.640510	2535.700385
689.977745	2505.453462
690.314930	2568.467885
690.652065	2417.233269
690.989150	2412.192115
691.326185	2533.179808
691.663170	2452.521346
692.000105	2568.467885
692.336990	2477.727115
692.673825	2480.247692
693.010610	2606.276538
693.347345	2535.700385
693.684030	2482.768269
694.020665	2467.644808
694.357251	2540.741538
694.693786	2513.015192
695.030272	2528.138654
695.366707	2439.918462
695.703093	2467.644808
696.039429	2444.959615
696.375716	2409.671538
696.711952	2533.179808
697.048139	2485.288846
697.384276	2518.056346
697.720363	2578.550192
698.056400	2444.959615
698.392388	2490.330000
698.728326	2593.673654
699.064214	2543.262115
699.400053	2492.850577
699.735842	2513.015192
700.071581	2485.288846
700.407270	2404.630385
700.742910	2525.618077
701.078501	2444.959615
701.414042	2394.548077
701.749533	2492.850577
702.084974	2578.550192
702.420366	2437.397885
702.755709	2427.315577
703.091002	2583.591346
703.426246	2485.288846
703.761440	2518.056346
704.096584	2482.768269
704.431679	2507.974038
704.766725	2550.823846
705.101721	2513.015192
705.436668	2538.220962
705.771565	2500.412308
706.106413	2422.274423
706.441212	2409.671538
706.775961	2465.124231
707.110661	2487.809423
707.445311	2450.000769
707.779913	2591.153077
708.114465	2550.823846
708.448967	2487.809423
708.783421	2487.809423
709.117825	2480.247692
709.452180	2495.371154
709.786485	2455.041923
710.120742	2583.591346
710.454949	2472.685962
710.789107	2434.877308
711.123216	2467.644808
711.457275	2457.562500
711.791286	2495.371154
712.125247	2500.412308
712.459159	2497.891731
712.793023	2518.056346
713.126837	2518.056346
713.460602	2558.385577
713.794318	2419.753846
714.127985	2553.344423
714.461602	2502.932885
714.795171	2518.056346
715.128691	2502.932885
715.462162	2570.988462
715.795584	2530.659231
716.128957	2480.247692
716.462281	2518.056346
716.795556	2545.782692
717.128782	2455.041923
717.461960	2475.206538
717.795088	2419.753846
718.128167	2407.150962
718.461198	2432.356731
718.794180	2432.356731
719.127113	2568.467885
719.459997	2530.659231
719.792833	2518.056346
720.125619	2455.041923
720.458357	2500.412308
720.791046	2578.550192
721.123686	2429.836154
721.456278	2533.179808
721.788821	2513.015192
722.121315	2470.165385
722.453761	2497.891731
722.786158	2475.206538
723.118506	2389.506923
723.450805	2535.700385
723.783056	2520.576923
724.115259	2452.521346
724.447412	2543.262115
724.779518	2555.865000
725.111574	2563.426731
725.443582	2545.782692
725.775542	2429.836154
726.107453	2505.453462
726.439315	2487.809423
726.771129	2535.700385
727.102895	2563.426731
727.434612	2495.371154
727.766281	2477.727115
728.097901	2558.385577
728.429473	2613.838269
728.760996	2535.700385
729.092471	2492.850577
729.423897	2578.550192
729.755276	2523.097500
730.086606	2510.494615
730.417887	2487.809423
730.749120	2576.029615
731.080305	2482.768269
731.411442	2455.041923
731.742530	2439.918462
732.073570	2523.097500
732.404562	2447.480192
732.735506	2460.083077
733.066401	2502.932885
733.397249	2550.823846
733.728048	2465.124231
734.058798	2533.179808
734.389501	2389.506923
734.720156	2515.535769
735.050762	2485.288846
735.381320	2462.603654
735.711831	2439.918462
736.042293	2475.206538
736.372707	2533.179808
736.703073	2482.768269
737.033391	2540.741538
737.363661	2475.206538
737.693883	2437.397885
738.024056	2510.494615
738.354182	2455.041923
738.684260	2525.618077
739.014290	2533.179808
739.344272	2467.644808
739.674207	2455.041923
740.004093	2518.056346
740.333931	2608.797115
740.663722	2470.165385
740.993464	2502.932885
741.323159	2477.727115
741.652806	2518.056346
741.982405	2447.480192
742.311956	2520.576923
742.641460	2444.959615
742.970915	2513.015192
743.300323	2487.809423
743.629683	2417.233269
743.958996	2444.959615
744.288260	2513.015192
744.617477	2520.576923
744.946647	2513.015192
745.275768	2558.385577
745.604842	2598.714808
745.933869	2404.630385
746.262847	2525.618077
746.591778	2465.124231
746.920662	2497.891731
747.249498	2523.097500
747.578286	2497.891731
747.907027	2523.097500
748.235720	2432.356731
748.564365	2538.220962
748.892963	2429.836154
749.221514	2543.262115
749.550017	2419.753846
749.878473	2596.194231
750.206881	2402.109808
750.535242	2490.330000
750.863555	2505.453462
751.191821	2490.330000
751.520039	2482.768269
751.848210	2460.083077
752.176334	2450.000769
752.504411	2553.344423
752.832440	2460.083077
753.160421	2470.165385
753.488356	2444.959615
753.816243	2525.618077
754.144082	2465.124231
754.471875	2490.330000
754.799620	2404.630385
755.127318	2513.015192
755.454969	2447.480192
755.782572	2518.056346
756.110129	2465.124231
756.437638	2518.056346
756.765100	2470.165385
757.092515	2442.439038
757.419882	2447.480192
757.747203	2548.303269
758.074477	2548.303269
758.401703	2455.041923
758.728882	2354.218846
759.056014	2523.097500
759.383099	2538.220962
759.710138	2467.644808
760.037129	2457.562500
760.364073	2407.150962
760.690970	2530.659231
761.017820	2472.685962
761.344623	2462.603654
761.671379	2422.274423
761.998088	2578.550192
762.324751	2550.823846
762.651366	2520.576923
762.977935	2485.288846
763.304456	2480.247692
763.630931	2467.644808
763.957359	2520.576923
764.283740	2450.000769
764.610074	2477.727115
764.936362	2480.247692
765.262602	2422.274423
765.588796	2444.959615
765.914943	2475.206538
766.241044	2472.685962
766.567097	2434.877308
766.893104	2495.371154
767.219064	2442.439038
767.544978	2507.974038
767.870845	2460.083077
768.196665	2412.192115
768.522438	2593.673654
768.848165	2515.535769
769.173846	2472.685962
769.499479	2495.371154
769.825066	2505.453462
770.150607	2455.041923
770.476101	2538.220962
770.801548	2409.671538
771.126949	2462.603654
771.452303	2457.562500
771.777611	2538.220962
772.102872	2487.809423
772.428087	2505.453462
772.753256	2505.453462
773.078378	2492.850577
773.403453	2497.891731
773.728482	2457.562500
774.053465	2518.056346
774.378401	2558.385577
774.703291	2535.700385
775.028135	2462.603654
775.352932	2407.150962
775.677683	2422.274423
776.002388	2523.097500
776.327046	2497.891731
776.651658	2591.153077
776.976224	2507.974038
777.300743	2570.988462
777.625216	2495.371154
777.949643	2492.850577
778.274024	2540.741538
778.598359	2518.056346
778.922647	2540.741538
779.246889	2543.262115
779.571086	2485.288846
779.895236	2495.371154
780.219339	2462.603654
780.543397	2475.206538
780.867409	2434.877308
781.191374	2472.685962
781.515294	2457.562500
781.839167	2505.453462
782.162995	2543.262115
782.486776	2598.714808
782.810511	2460.083077
783.134201	2467.644808
783.457844	2397.068654
783.781441	2495.371154
784.104993	2543.262115
784.428498	2500.412308
784.751958	2583.591346
785.075372	2492.850577
785.398739	2427.315577
785.722061	2495.371154
786.045337	2485.288846
786.368568	2465.124231
786.691752	2515.535769
787.014891	2553.344423
787.337983	2457.562500
787.661030	2447.480192
787.984031	2518.056346
788.306987	2538.220962
788.629897	2424.795000
788.952760	2518.056346
789.275579	2477.727115
789.598351	2507.974038
789.921078	2502.932885
790.243759	2412.192115
790.566395	2568.467885
790.888984	2523.097500
791.211529	2482.768269
791.534027	2389.506923
791.856480	2429.836154
792.178888	2528.138654
792.501249	2460.083077
792.823566	2550.823846
793.145836	2480.247692
793.468062	2525.618077
793.790241	2467.644808
794.112375	2450.000769
794.434464	2606.276538
794.756507	2505.453462
795.078505	2502.932885
795.400457	2427.315577
795.722364	2545.782692
796.044226	2437.397885
796.366042	2528.138654
796.687812	2545.782692
797.009538	2472.685962
797.331218	2523.097500
797.652852	2437.397885
797.974442	2457.562500
798.295986	2467.644808
798.617484	2480.247692
798.938938	2495.371154
799.260346	2533.179808
799.581709	2477.727115
799.903026	2538.220962
800.224299	2480.247692
800.545526	2422.274423
800.866708	2490.330000
801.187845	2518.056346
801.508936	2467.644808
801.829983	2485.288846
802.150984	2384.465769
802.471940	2444.959615
802.792851	2588.632500
803.113717	2502.932885
803.434538	2477.727115
803.755314	2477.727115
804.076045	2482.768269
804.396731	2371.862885
804.717372	2465.124231
805.037967	2472.685962
805.358518	2533.179808
805.679024	2490.330000
805.999485	2535.700385
806.319901	2492.850577
806.640272	2500.412308
806.960598	2404.630385
807.280879	2465.124231
807.601115	2492.850577
807.921306	2490.330000
808.241453	2429.836154
808.561554	2543.262115
808.881611	2513.015192
809.201623	2596.194231
809.521590	2555.865000
809.841513	2515.535769
810.161390	2419.753846
810.481223	2525.618077
810.801011	2487.809423
811.120755	2427.315577
811.440453	2523.097500
811.760107	2455.041923
812.079716	2548.303269
812.399281	2528.138654
812.718801	2492.850577
813.038276	2480.247692
813.357707	2507.974038
813.677093	2497.891731
813.996434	2437.397885
814.315731	2450.000769
814.634983	2475.206538
814.954191	2472.685962
815.273354	2442.439038
815.592473	2558.385577
815.911547	2444.959615
816.230577	2502.932885
816.549562	2480.247692
816.868502	2480.247692
817.187399	2523.097500
817.506250	2437.397885
817.825058	2565.947308
818.143821	2429.836154
818.462539	2460.083077
818.781213	2434.877308
819.099843	2538.220962
819.418429	2613.838269
819.736970	2520.576923
820.055466	2460.083077
820.373919	2548.303269
820.692327	2543.262115
821.010691	2450.000769
821.329011	2500.412308
821.647286	2475.206538
821.965517	2472.685962
822.283704	2475.206538
822.601847	2455.041923
822.919945	2470.165385
823.237999	2518.056346
823.556010	2460.083077
823.873976	2422.274423
824.191897	2497.891731
824.509775	2409.671538
824.827609	2492.850577
825.145398	2465.124231
825.463144	2490.330000
825.780845	2437.397885
826.098502	2540.741538
826.416116	2394.548077
826.733685	2523.097500
827.051210	2520.576923
827.368692	2472.685962
827.686129	2465.124231
828.003522	2467.644808
828.320872	2439.918462
828.638177	2450.000769
828.955439	2495.371154
829.272656	2462.603654
829.589830	2467.644808
829.906960	2495.371154
830.224046	2525.618077
830.541088	2452.521346
830.858086	2535.700385
831.175041	2497.891731
831.491952	2578.550192
831.808819	2598.714808
832.125642	2444.959615
832.442421	2507.974038
832.759157	2432.356731
833.075849	2492.850577
833.392497	2422.274423
833.709101	2442.439038
834.025662	2457.562500
834.342179	2560.906154
834.658653	2490.330000
834.975083	2460.083077
835.291469	2505.453462
835.607811	2513.015192
835.924110	2505.453462
836.240366	2424.795000
836.556578	2520.576923
836.872746	2548.303269
837.188871	2480.247692
837.504952	2523.097500
837.820990	2467.644808
838.136984	2535.700385
838.452935	2533.179808
838.768842	2444.959615
839.084706	2545.782692
839.400526	2417.233269
839.716303	2563.426731
840.032037	2510.494615
840.347727	2523.097500
840.663373	2467.644808
840.978977	2553.344423
841.294537	2525.618077
841.610054	2525.618077
841.925527	2490.330000
842.240957	2472.685962
842.556344	2485.288846
842.871687	2502.932885
843.186987	2507.974038
843.502244	2495.371154
843.817458	2485.288846
844.132629	2513.015192
844.447756	2495.371154
844.762840	2497.891731
845.077881	2583.591346
845.392879	2427.315577
845.707833	2576.029615
846.022745	2437.397885
846.337613	2472.685962
846.652438	2560.906154
846.967221	2482.768269
847.281960	2412.192115
847.596656	2492.850577
847.911309	2434.877308
848.225919	2560.906154
848.540485	2384.465769
848.855009	2394.548077
849.169490	2480.247692
849.483928	2598.714808
849.798323	2515.535769
850.112675	2573.509038
850.426984	2417.233269
850.741251	2470.165385
851.055474	2412.192115
851.369654	2467.644808
851.683792	2424.795000
851.997887	2518.056346
852.311938	2434.877308
852.625947	2455.041923
852.939914	2523.097500
853.253837	2502.932885
853.567718	2482.768269
853.881555	2422.274423
854.195350	2528.138654
854.509103	2596.194231
854.822812	2530.659231
855.136479	2485.288846
855.450103	2510.494615
855.763685	2558.385577
856.077224	2538.220962
856.390720	2485.288846
856.704173	2548.303269
857.017584	2384.465769
857.330953	2538.220962
857.644278	2402.109808
857.957561	2507.974038
858.270802	2528.138654
858.584000	2472.685962
858.897155	2472.685962
859.210268	2394.548077
859.523339	2558.385577
859.836367	2543.262115
860.149352	2530.659231
860.462295	2460.083077
860.775195	2507.974038
861.088054	2482.768269
861.400869	2500.412308
861.713642	2555.865000
862.026373	2576.029615
862.339062	2543.262115
862.651708	2500.412308
862.964312	2545.782692
863.276873	2563.426731
863.589392	2507.974038
863.901869	2444.959615
864.214303	2485.288846
864.526696	2513.015192
864.839045	2455.041923
865.151353	2528.138654
865.463619	2528.138654
865.775842	2502.932885
866.088023	2475.206538
866.400162	2563.426731
866.712258	2528.138654
867.024313	2472.685962
867.336325	2500.412308
867.648296	2482.768269
867.960224	2525.618077
868.272110	2457.562500
868.583954	2495.371154
868.895755	2460.083077
869.207515	2404.630385
869.519233	2513.015192
869.830909	2548.303269
870.142542	2558.385577
870.454134	2520.576923
870.765684	2497.891731
871.077191	2419.753846
871.388657	2523.097500
871.700081	2548.303269
872.011463	2485.288846
872.322803	2533.179808
872.634101	2591.153077
872.945357	2586.111923
873.256571	2452.521346
873.567744	2482.768269
873.878874	2409.671538
874.189963	2485.288846
874.501010	2432.356731
874.812015	2460.083077
875.122979	2540.741538
875.433900	2530.659231
875.744780	2482.768269
876.055618	2485.288846
876.366415	2470.165385
876.677169	2490.330000
876.987882	2384.465769
877.298554	2505.453462
877.609183	2507.974038
877.919771	2460.083077
878.230317	2525.618077
878.540822	2467.644808
878.851285	2523.097500
879.161707	2447.480192
879.472087	2520.576923
879.782425	2437.397885
880.092722	2427.315577
880.402977	2475.206538
880.713191	2513.015192
881.023363	2450.000769
881.333494	2518.056346
881.643583	2578.550192
881.953631	2472.685962
882.263637	2485.288846
882.573602	2465.124231
882.883526	2392.027500
883.193408	2487.809423
883.503248	2444.959615
883.813048	2467.644808
884.122806	2613.838269
884.432522	2550.823846
884.742197	2492.850577
885.051831	2497.891731
885.361424	2497.891731
885.670975	2535.700385
885.980485	2465.124231
886.289954	2540.741538
886.599382	2462.603654
886.908768	2477.727115
887.218113	2472.685962
887.527417	2402.109808
887.836680	2409.671538
888.145901	2485.288846
888.455082	2543.262115
888.764221	2505.453462
889.073319	2495.371154
889.382376	2525.618077
889.691392	2528.138654
890.000366	2495.371154
890.309300	2518.056346
890.618193	2502.932885
890.927044	2442.439038
891.235855	2502.932885
891.544625	2462.603654
891.853353	2513.015192
892.162041	2500.412308
892.470687	2460.083077
892.779293	2444.959615
893.087858	2540.741538
893.396381	2550.823846
893.704864	2455.041923
894.013306	2444.959615
894.321707	2558.385577
894.630068	2570.988462
894.938387	2540.741538
895.246665	2477.727115
895.554903	2492.850577
895.863100	2467.644808
896.171256	2530.659231
896.479371	2485.288846
896.787446	2487.809423
897.095480	2374.383462
897.403473	2523.097500
897.711425	2470.165385
898.019336	2452.521346
898.327207	2467.644808
898.635038	2497.891731
898.942827	2576.029615
899.250576	2404.630385
899.558284	2510.494615
899.865952	2427.315577
900.173579	2558.385577
900.481165	2538.220962
900.788711	2432.356731
901.096216	2450.000769
901.403681	2543.262115
901.711105	2502.932885
902.018489	2568.467885
902.325832	2475.206538
902.633135	2530.659231
902.940397	2480.247692
903.247619	2480.247692
903.554800	2427.315577
903.861941	2482.768269
904.169041	2450.000769
904.476101	2490.330000
904.783121	2450.000769
905.090100	2502.932885
905.397039	2601.235385
905.703938	2450.000769
906.010796	2535.700385
906.317614	2510.494615
906.624391	2485.288846
906.931129	2414.712692
907.237826	2510.494615
907.544483	2533.179808
907.851099	2480.247692
908.157675	2502.932885
908.464211	2477.727115
908.770707	2460.083077
909.077163	2560.906154
909.383578	2475.206538
909.689954	2500.412308
909.996289	2452.521346
910.302584	2480.247692
910.608839	2495.371154
910.915054	2457.562500
911.221229	2500.412308
911.527363	2495.371154
911.833458	2444.959615
912.139513	2507.974038
912.445527	2477.727115
912.751502	2490.330000
913.057436	2477.727115
913.363331	2523.097500
913.669186	2528.138654
913.975000	2487.809423
914.280775	2520.576923
914.586510	2583.591346
914.892205	2545.782692
915.197859	2472.685962
915.503475	2518.056346
915.809050	2495.371154
916.114585	2424.795000
916.420081	2487.809423
916.725536	2424.795000
917.030952	2432.356731
917.336328	2452.521346
917.641665	2513.015192
917.946961	2427.315577
918.252218	2518.056346
918.557435	2485.288846
918.862612	2480.247692
919.167750	2495.371154
919.472848	2482.768269
919.777906	2548.303269
920.082925	2502.932885
920.387904	2530.659231
920.692843	2447.480192
920.997743	2505.453462
921.302603	2533.179808
921.607423	2485.288846
921.912204	2515.535769
922.216946	2462.603654
922.521647	2477.727115
922.826310	2510.494615
923.130932	2467.644808
923.435516	2376.904038
923.740059	2500.412308
924.044564	2502.932885
924.349028	2490.330000
924.653454	2472.685962
924.957840	2442.439038
925.262186	2530.659231
925.566493	2540.741538
925.870761	2515.535769
926.174989	2500.412308
926.479178	2470.165385
926.783328	2429.836154
927.087438	2515.535769
927.391509	2507.974038
927.695541	2510.494615
927.999533	2465.124231
928.303486	2485.288846
928.607400	2528.138654
928.911275	2538.220962
929.215110	2485.288846
929.518906	2492.850577
929.822663	2533.179808
930.126381	2457.562500
930.430060	2507.974038
930.733699	2442.439038
931.037299	2540.741538
931.340861	2495.371154
931.644383	2457.562500
931.947866	2528.138654
932.251309	2475.206538
932.554714	2399.589231
932.858080	2548.303269
933.161407	2518.056346
933.464694	2553.344423
933.767943	2462.603654
934.071153	2500.412308
934.374323	2467.644808
934.677455	2487.809423
934.980548	2485.288846
935.283602	2429.836154
935.586617	2525.618077
935.889593	2437.397885
936.192530	2462.603654
936.495428	2452.521346
936.798287	2485.288846
937.101108	2563.426731
937.403890	2507.974038
937.706632	2490.330000
938.009336	2535.700385
938.312002	2472.685962
938.614628	2520.576923
938.917216	2417.233269
939.219765	2369.342308
939.522275	2457.562500
939.824747	2525.618077
940.127179	2515.535769
940.429573	2442.439038
940.731929	2530.659231
941.034246	2543.262115
941.336524	2513.015192
941.638763	2442.439038
941.940964	2530.659231
942.243126	2424.795000
942.545250	2465.124231
942.847335	2545.782692
943.149381	2520.576923
943.451389	2555.865000
943.753359	2518.056346
944.055290	2533.179808
944.357182	2472.685962
944.659036	2470.165385
944.960851	2482.768269
945.262628	2497.891731
945.564367	2525.618077
945.866067	2525.618077
946.167729	2419.753846
946.469352	2444.959615
946.770937	2543.262115
947.072484	2492.850577
947.373992	2442.439038
947.675462	2520.576923
947.976893	2417.233269
948.278286	2505.453462
948.579641	2455.041923
948.880958	2520.576923
949.182236	2470.165385
949.483476	2523.097500
949.784678	2513.015192
950.085841	2558.385577
950.386967	2565.947308
950.688054	2455.041923
950.989103	2510.494615
951.290114	2419.753846
951.591087	2477.727115
951.892021	2482.768269
952.192917	2573.509038
952.493776	2460.083077
952.794596	2490.330000
953.095378	2538.220962
953.396122	2490.330000
953.696828	2475.206538
953.997496	2419.753846
954.298126	2485.288846
954.598718	2492.850577
954.899272	2550.823846
955.199788	2442.439038
955.500266	2581.070769
955.800706	2462.603654
956.101108	2450.000769
956.401472	2424.795000
956.701798	2490.330000
957.002087	2530.659231
957.302337	2490.330000
957.602550	2510.494615
957.902724	2502.932885
958.202861	2485.288846
958.502960	2565.947308
958.803022	2495.371154
959.103045	2439.918462
959.403031	2505.453462
959.702979	2492.850577
960.002889	2457.562500
960.302762	2533.179808
960.602596	2429.836154
960.902393	2513.015192
961.202153	2439.918462
961.501875	2548.303269
961.801559	2510.494615
962.101205	2444.959615
962.400814	2525.618077
962.700385	2404.630385
962.999918	2482.768269
963.299414	2545.782692
963.598873	2518.056346
963.898293	2422.274423
964.197677	2467.644808
964.497022	2434.877308
964.796331	2492.850577
965.095601	2523.097500
965.394835	2470.165385
965.694030	2533.179808
965.993189	2376.904038
966.292309	2450.000769
966.591393	2419.753846
966.890439	2470.165385
967.189447	2545.782692
967.488419	2563.426731
967.787353	2535.700385
968.086249	2480.247692
968.385108	2495.371154
968.683930	2422.274423
968.982714	2475.206538
969.281462	2432.356731
969.580172	2460.083077
969.878844	2507.974038
970.177480	2505.453462
970.476078	2528.138654
970.774639	2444.959615
971.073162	2545.782692
971.371649	2467.644808
971.670098	2472.685962
971.968510	2482.768269
972.266885	2518.056346
972.565223	2593.673654
972.863524	2497.891731
973.161788	2586.111923
973.460014	2460.083077
973.758204	2502.932885
974.056356	2545.782692
974.354471	2492.850577
974.652550	2502.932885
974.950591	2570.988462
975.248595	2500.412308
975.546563	2442.439038
975.844493	2429.836154
976.142386	2434.877308
976.440243	2505.453462
976.738062	2429.836154
977.035845	2500.412308
977.333590	2535.700385
977.631299	2457.562500
977.928971	2608.797115
978.226606	2480.247692
978.524204	2540.741538
978.821765	2568.467885
979.119290	2518.056346
979.416777	2392.027500
979.714228	2525.618077
980.011642	2586.111923
980.309020	2472.685962
980.606360	2507.974038
980.903664	2515.535769
981.200931	2487.809423
981.498162	2492.850577
981.795356	2545.782692
982.092513	2518.056346
982.389633	2507.974038
982.686717	2492.850577
982.983764	2470.165385
983.280775	2548.303269
983.577749	2472.685962
983.874686	2558.385577
984.171587	2470.165385
984.468451	2490.330000
984.765279	2462.603654
985.062070	2550.823846
985.358824	2497.891731
985.655543	2540.741538
985.952224	2525.618077
986.248869	2455.041923
986.545478	2434.877308
986.842050	2507.974038
987.138586	2323.971923
987.435086	2477.727115
987.731549	2502.932885
988.027975	2442.439038
988.324366	2427.315577
988.620719	2497.891731
988.917037	2442.439038
989.213318	2510.494615
989.509563	2510.494615
989.805772	2437.397885
990.101944	2497.891731
990.398080	2450.000769
990.694180	2490.330000
990.990244	2545.782692
991.286271	2402.109808
991.582262	2558.385577
991.878217	2540.741538
992.174136	2495.371154
992.470019	2442.439038
992.765865	2515.535769
993.061676	2623.920577
993.357450	2515.535769
993.653188	2467.644808
993.948890	2505.453462
994.244556	2513.015192
994.540186	2550.823846
994.835780	2477.727115
995.131337	2442.439038
995.426859	2518.056346
995.722345	2470.165385
996.017795	2460.083077
996.313208	2452.521346
996.608586	2419.753846
996.903928	2487.809423
997.199234	2480.247692
997.494504	2434.877308
997.789738	2545.782692
998.084936	2550.823846
998.380099	2422.274423
998.675225	2480.247692
998.970316	2412.192115
999.265371	2543.262115
999.560390	2480.247692
999.855373	2581.070769
1000.150320	2505.453462
1000.445232	2510.494615
1000.740108	2480.247692
1001.034948	2520.576923
1001.329752	2505.453462
1001.624521	2417.233269
1001.919254	2550.823846
1002.213951	2490.330000
1002.508613	2525.618077
1002.803239	2412.192115
1003.097829	2457.562500
1003.392384	2470.165385
1003.686903	2434.877308
1003.981386	2482.768269
1004.275834	2465.124231
1004.570246	2507.974038
1004.864623	2470.165385
1005.158964	2432.356731
1005.453270	2485.288846
1005.747540	2457.562500
1006.041775	2528.138654
1006.335974	2495.371154
1006.630138	2480.247692
1006.924266	2528.138654
1007.218359	2518.056346
1007.512416	2472.685962
1007.806438	2492.850577
1008.100425	2520.576923
1008.394376	2467.644808
1008.688292	2492.850577
1008.982172	2444.959615
1009.276017	2515.535769
1009.569827	2520.576923
1009.863602	2523.097500
1010.157341	2480.247692
1010.451045	2422.274423
1010.744714	2502.932885
1011.038347	2424.795000
1011.331945	2455.041923
1011.625508	2470.165385
1011.919036	2505.453462
1012.212528	2470.165385
1012.505986	2563.426731
1012.799408	2507.974038
1013.092795	2389.506923
1013.386147	2437.397885
1013.679464	2495.371154
1013.972745	2414.712692
1014.265992	2452.521346
1014.559204	2490.330000
1014.852380	2533.179808
1015.145521	2497.891731
1015.438628	2482.768269
1015.731699	2475.206538
1016.024736	2455.041923
1016.317737	2460.083077
1016.610703	2482.768269
1016.903635	2444.959615
1017.196531	2437.397885
1017.489393	2442.439038
1017.782219	2500.412308
1018.075011	2485.288846
1018.367768	2507.974038
1018.660490	2452.521346
1018.953177	2452.521346
1019.245829	2452.521346
