Dividing Wavelength (nm)	Counts (n)	Blue Motor Position (mm): 8.500000	Red Motor Position (mm): 0.000000	
326.493990	2051.749615
326.888308	2051.749615
327.282561	2051.749615
327.676750	2081.996538
328.070874	2021.502692
328.464933	2104.681731
328.858929	2054.270192
329.252859	2099.640577
329.646726	2114.764038
330.040528	2150.052115
330.434265	2084.517115
330.827938	2124.846346
331.221547	2097.120000
331.615091	2190.381346
332.008571	2223.148846
332.401986	2230.710577
332.795338	2265.998654
333.188625	2278.601538
333.581847	2298.766154
333.975006	2301.286731
334.368100	2243.313462
334.761129	2326.492500
335.154095	2243.313462
335.546996	2308.848462
335.939833	2288.683846
336.332606	2356.739423
336.725315	2346.657115
337.117960	2376.904038
337.510540	2404.630385
337.903056	2339.095385
338.295508	2397.068654
338.687896	2432.356731
339.080220	2442.439038
339.472480	2447.480192
339.864676	2434.877308
340.256807	2432.356731
340.648875	2565.947308
341.040879	2354.218846
341.432818	2452.521346
341.824694	2452.521346
342.216506	2495.371154
342.608253	2502.932885
342.999937	2492.850577
343.391557	2470.165385
343.783113	2460.083077
344.174605	2452.521346
344.566033	2470.165385
344.957397	2475.206538
345.348697	2460.083077
345.739934	2439.918462
346.131106	2505.453462
346.522215	2500.412308
346.913260	2477.727115
347.304241	2419.753846
347.695159	2535.700385
348.086012	2528.138654
348.476802	2409.671538
348.867528	2497.891731
349.258191	2434.877308
349.648789	2477.727115
350.039324	2447.480192
350.429796	2439.918462
350.820203	2447.480192
351.210548	2477.727115
351.600828	2397.068654
351.991045	2523.097500
352.381198	2394.548077
352.771288	2447.480192
353.161314	2518.056346
353.551276	2482.768269
353.941175	2404.630385
354.331010	2407.150962
354.720782	2487.809423
355.110490	2417.233269
355.500135	2450.000769
355.889717	2432.356731
356.279235	2412.192115
356.668689	2467.644808
357.058080	2376.904038
357.447408	2444.959615
357.836672	2515.535769
358.225873	2389.506923
358.615010	2447.480192
359.004084	2442.439038
359.393095	2457.562500
359.782043	2417.233269
360.170927	2470.165385
360.559748	2381.945192
360.948505	2434.877308
361.337199	2447.480192
361.725830	2472.685962
362.114398	2419.753846
362.502903	2475.206538
362.891344	2417.233269
363.279722	2452.521346
363.668037	2455.041923
364.056289	2419.753846
364.444478	2472.685962
364.832603	2442.439038
365.220665	2429.836154
365.608665	2513.015192
365.996601	2439.918462
366.384474	2525.618077
366.772284	2429.836154
367.160031	2444.959615
367.547715	2460.083077
367.935336	2470.165385
368.322893	2467.644808
368.710388	2475.206538
369.097820	2482.768269
369.485189	2505.453462
369.872495	2399.589231
370.259738	2437.397885
370.646918	2482.768269
371.034035	2535.700385
371.421090	2462.603654
371.808081	2485.288846
372.195010	2457.562500
372.581875	2470.165385
372.968678	2487.809423
373.355418	2520.576923
373.742096	2457.562500
374.128710	2366.821731
374.515262	2545.782692
374.901751	2462.603654
375.288177	2434.877308
375.674540	2472.685962
376.060841	2392.027500
376.447079	2487.809423
376.833254	2424.795000
377.219367	2351.698269
377.605417	2485.288846
377.991404	2344.136538
378.377329	2402.109808
378.763191	2533.179808
379.148991	2450.000769
379.534727	2442.439038
379.920402	2452.521346
380.306013	2500.412308
380.691563	2495.371154
381.077049	2505.453462
381.462474	2414.712692
381.847835	2429.836154
382.233134	2510.494615
382.618371	2447.480192
383.003545	2422.274423
383.388657	2603.755962
383.773706	2394.548077
384.158693	2510.494615
384.543618	2447.480192
384.928480	2404.630385
385.313280	2359.260000
385.698017	2467.644808
386.082692	2455.041923
386.467305	2518.056346
386.851856	2437.397885
387.236344	2480.247692
387.620770	2402.109808
388.005133	2427.315577
388.389435	2427.315577
388.773674	2457.562500
389.157851	2329.013077
389.541965	2450.000769
389.926018	2392.027500
390.310008	2523.097500
390.693936	2462.603654
391.077802	2565.947308
391.461606	2505.453462
391.845348	2555.865000
392.229027	2394.548077
392.612645	2495.371154
392.996200	2492.850577
393.379694	2487.809423
393.763125	2477.727115
394.146494	2477.727115
394.529801	2467.644808
394.913047	2460.083077
395.296230	2457.562500
395.679351	2462.603654
396.062410	2523.097500
396.445408	2497.891731
396.828343	2369.342308
397.211217	2513.015192
397.594028	2490.330000
397.976778	2450.000769
398.359466	2472.685962
398.742092	2455.041923
399.124656	2455.041923
399.507158	2480.247692
399.889598	2460.083077
400.271977	2409.671538
400.654294	2487.809423
401.036549	2437.397885
401.418742	2490.330000
401.800874	2505.453462
402.182944	2444.959615
402.564952	2452.521346
402.946898	2437.397885
403.328783	2500.412308
403.710606	2447.480192
404.092367	2502.932885
404.474067	2424.795000
404.855705	2497.891731
405.237282	2565.947308
405.618797	2437.397885
406.000250	2480.247692
406.381642	2487.809423
406.762972	2497.891731
407.144240	2432.356731
407.525447	2543.262115
407.906593	2414.712692
408.287677	2442.439038
408.668700	2533.179808
409.049661	2439.918462
409.430560	2490.330000
409.811399	2427.315577
410.192176	2424.795000
410.572891	2525.618077
410.953545	2475.206538
411.334138	2485.288846
411.714669	2442.439038
412.095139	2523.097500
412.475547	2462.603654
412.855894	2442.439038
413.236180	2548.303269
413.616405	2439.918462
413.996568	2475.206538
414.376670	2490.330000
414.756711	2485.288846
415.136691	2477.727115
415.516609	2505.453462
415.896466	2513.015192
416.276262	2424.795000
416.655997	2507.974038
417.035670	2497.891731
417.415283	2513.015192
417.794834	2535.700385
418.174324	2462.603654
418.553753	2482.768269
418.933121	2492.850577
419.312428	2515.535769
419.691674	2457.562500
420.070859	2540.741538
420.449983	2490.330000
420.829045	2560.906154
421.208047	2437.397885
421.586988	2502.932885
421.965867	2495.371154
422.344686	2460.083077
422.723444	2470.165385
423.102141	2392.027500
423.480777	2424.795000
423.859352	2533.179808
424.237866	2460.083077
424.616319	2434.877308
424.994712	2495.371154
425.373044	2543.262115
425.751314	2520.576923
426.129524	2485.288846
426.507673	2442.439038
426.885762	2538.220962
427.263789	2530.659231
427.641756	2581.070769
428.019662	2452.521346
428.397508	2475.206538
428.775292	2472.685962
429.153016	2500.412308
429.530679	2480.247692
429.908282	2505.453462
430.285824	2523.097500
430.663305	2399.589231
431.040726	2515.535769
431.418086	2470.165385
431.795385	2462.603654
432.172624	2505.453462
432.549802	2434.877308
432.926920	2477.727115
433.303977	2480.247692
433.680974	2465.124231
434.057910	2442.439038
434.434786	2437.397885
434.811601	2487.809423
435.188355	2570.988462
435.565050	2452.521346
435.941683	2475.206538
436.318257	2442.439038
436.694770	2523.097500
437.071222	2505.453462
437.447614	2465.124231
437.823946	2513.015192
438.200218	2470.165385
438.576429	2515.535769
438.952580	2417.233269
439.328670	2518.056346
439.704700	2485.288846
440.080670	2535.700385
440.456580	2457.562500
440.832429	2553.344423
441.208218	2452.521346
441.583947	2412.192115
441.959616	2417.233269
442.335224	2482.768269
442.710773	2500.412308
443.086261	2364.301154
443.461689	2555.865000
443.837057	2462.603654
444.212365	2424.795000
444.587612	2485.288846
444.962800	2457.562500
445.337927	2558.385577
445.712995	2540.741538
446.088002	2518.056346
446.462949	2502.932885
446.837837	2497.891731
447.212664	2472.685962
447.587431	2429.836154
447.962139	2588.632500
448.336786	2485.288846
448.711374	2558.385577
449.085901	2480.247692
449.460369	2520.576923
449.834776	2472.685962
450.209124	2553.344423
450.583412	2407.150962
450.957640	2444.959615
451.331808	2475.206538
451.705917	2500.412308
452.079965	2495.371154
452.453954	2528.138654
452.827883	2528.138654
453.201752	2563.426731
453.575562	2505.453462
453.949311	2422.274423
454.323001	2477.727115
454.696632	2442.439038
455.070202	2510.494615
455.443713	2563.426731
455.817164	2485.288846
456.190556	2447.480192
456.563888	2570.988462
456.937160	2399.589231
457.310373	2429.836154
457.683526	2563.426731
458.056619	2482.768269
458.429653	2475.206538
458.802628	2470.165385
459.175542	2450.000769
459.548398	2520.576923
459.921194	2429.836154
460.293930	2528.138654
460.666607	2535.700385
461.039224	2560.906154
461.411782	2439.918462
461.784280	2545.782692
462.156719	2563.426731
462.529099	2452.521346
462.901419	2490.330000
463.273680	2505.453462
463.645882	2432.356731
464.018024	2540.741538
464.390106	2450.000769
464.762130	2424.795000
465.134094	2502.932885
465.505999	2540.741538
465.877845	2505.453462
466.249631	2495.371154
466.621358	2553.344423
466.993026	2525.618077
467.364634	2535.700385
467.736184	2472.685962
468.107674	2467.644808
468.479105	2439.918462
468.850477	2472.685962
469.221790	2457.562500
469.593043	2419.753846
469.964238	2528.138654
470.335373	2485.288846
470.706449	2505.453462
471.077467	2482.768269
471.448425	2510.494615
471.819324	2487.809423
472.190164	2447.480192
472.560945	2492.850577
472.931667	2460.083077
473.302330	2576.029615
473.672934	2548.303269
474.043479	2467.644808
474.413965	2470.165385
474.784393	2545.782692
475.154761	2487.809423
475.525070	2507.974038
475.895321	2548.303269
476.265513	2576.029615
476.635645	2492.850577
477.005719	2386.986346
477.375734	2518.056346
477.745691	2518.056346
478.115588	2482.768269
478.485427	2475.206538
478.855207	2523.097500
479.224928	2513.015192
479.594591	2482.768269
479.964194	2515.535769
480.333739	2462.603654
480.703226	2455.041923
481.072653	2439.918462
481.442022	2535.700385
481.811333	2523.097500
482.180584	2419.753846
482.549777	2492.850577
482.918912	2525.618077
483.287988	2497.891731
483.657005	2550.823846
484.025964	2455.041923
484.394864	2465.124231
484.763706	2492.850577
485.132489	2507.974038
485.501213	2545.782692
485.869879	2462.603654
486.238487	2553.344423
486.607036	2465.124231
486.975527	2492.850577
487.343959	2518.056346
487.712333	2480.247692
488.080648	2520.576923
488.448905	2558.385577
488.817104	2530.659231
489.185244	2482.768269
489.553326	2490.330000
489.921350	2460.083077
490.289315	2507.974038
490.657222	2540.741538
491.025070	2480.247692
491.392861	2510.494615
491.760593	2465.124231
492.128267	2447.480192
492.495883	2374.383462
492.863440	2475.206538
493.230939	2424.795000
493.598380	2588.632500
493.965763	2427.315577
494.333088	2472.685962
494.700354	2558.385577
495.067563	2507.974038
495.434713	2492.850577
495.801805	2523.097500
496.168839	2455.041923
496.535815	2467.644808
496.902733	2518.056346
497.269593	2495.371154
497.636395	2520.576923
498.003139	2518.056346
498.369825	2502.932885
498.736453	2507.974038
499.103023	2538.220962
499.469535	2470.165385
499.835989	2563.426731
500.202385	2490.330000
500.568723	2371.862885
500.935003	2538.220962
501.301226	2535.700385
501.667390	2434.877308
502.033497	2485.288846
502.399546	2480.247692
502.765537	2538.220962
503.131470	2518.056346
503.497345	2467.644808
503.863163	2482.768269
504.228923	2525.618077
504.594625	2502.932885
504.960269	2513.015192
505.325856	2507.974038
505.691385	2510.494615
506.056856	2477.727115
506.422270	2470.165385
506.787625	2570.988462
507.152924	2588.632500
507.518164	2545.782692
507.883347	2452.521346
508.248472	2500.412308
508.613540	2505.453462
508.978550	2422.274423
509.343503	2533.179808
509.708398	2419.753846
510.073236	2525.618077
510.438016	2573.509038
510.802738	2495.371154
511.167403	2455.041923
511.532010	2520.576923
511.896561	2432.356731
512.261053	2323.971923
512.625488	2492.850577
512.989866	2518.056346
513.354186	2455.041923
513.718449	2485.288846
514.082655	2492.850577
514.446803	2520.576923
514.810894	2467.644808
515.174927	2437.397885
515.538904	2472.685962
515.902822	2545.782692
516.266684	2480.247692
516.630488	2487.809423
516.994235	2427.315577
517.357925	2485.288846
517.721558	2472.685962
518.085133	2460.083077
518.448651	2507.974038
518.812112	2442.439038
519.175516	2407.150962
519.538863	2495.371154
519.902152	2419.753846
520.265385	2487.809423
520.628560	2535.700385
520.991678	2462.603654
521.354739	2447.480192
521.717743	2540.741538
522.080690	2513.015192
522.443580	2442.439038
522.806413	2525.618077
523.169189	2452.521346
523.531908	2616.358846
523.894569	2465.124231
524.257174	2530.659231
524.619722	2523.097500
524.982213	2475.206538
525.344647	2482.768269
525.707025	2573.509038
526.069345	2490.330000
526.431608	2495.371154
526.793815	2518.056346
527.155964	2510.494615
527.518057	2444.959615
527.880093	2495.371154
528.242072	2518.056346
528.603995	2477.727115
528.965860	2424.795000
529.327669	2518.056346
529.689421	2563.426731
530.051117	2477.727115
530.412755	2412.192115
530.774337	2482.768269
531.135862	2497.891731
531.497331	2570.988462
531.858743	2507.974038
532.220098	2525.618077
532.581396	2490.330000
532.942638	2507.974038
533.303824	2475.206538
533.664953	2548.303269
534.026025	2472.685962
534.387040	2389.506923
534.747999	2543.262115
535.108902	2397.068654
535.469748	2497.891731
535.830537	2424.795000
536.191270	2470.165385
536.551947	2485.288846
536.912567	2518.056346
537.273131	2507.974038
537.633638	2502.932885
537.994089	2414.712692
538.354483	2502.932885
538.714821	2447.480192
539.075103	2538.220962
539.435328	2475.206538
539.795497	2462.603654
540.155609	2545.782692
540.515665	2467.644808
540.875665	2467.644808
541.235609	2437.397885
541.595496	2540.741538
541.955328	2573.509038
542.315102	2492.850577
542.674821	2563.426731
543.034483	2432.356731
543.394090	2581.070769
543.753640	2490.330000
544.113134	2540.741538
544.472571	2465.124231
544.831953	2485.288846
545.191278	2450.000769
545.550548	2500.412308
545.909761	2495.371154
546.268918	2472.685962
546.628019	2502.932885
546.987064	2525.618077
547.346053	2540.741538
547.704986	2462.603654
548.063863	2465.124231
548.422684	2475.206538
548.781449	2523.097500
549.140158	2495.371154
549.498811	2470.165385
549.857408	2432.356731
550.215949	2442.439038
550.574434	2374.383462
550.932864	2437.397885
551.291237	2505.453462
551.649555	2505.453462
552.007817	2535.700385
552.366022	2533.179808
552.724173	2553.344423
553.082267	2578.550192
553.440305	2452.521346
553.798288	2467.644808
554.156215	2444.959615
554.514086	2535.700385
554.871902	2518.056346
555.229661	2505.453462
555.587365	2507.974038
555.945014	2518.056346
556.302606	2482.768269
556.660143	2507.974038
557.017625	2507.974038
557.375050	2482.768269
557.732421	2407.150962
558.089735	2429.836154
558.446994	2482.768269
558.804197	2442.439038
559.161345	2520.576923
559.518437	2588.632500
559.875474	2545.782692
560.232455	2581.070769
560.589381	2470.165385
560.946251	2535.700385
561.303065	2497.891731
561.659825	2573.509038
562.016528	2495.371154
562.373177	2450.000769
562.729770	2487.809423
563.086307	2487.809423
563.442789	2535.700385
563.799216	2558.385577
564.155587	2450.000769
564.511904	2497.891731
564.868164	2447.480192
565.224370	2497.891731
565.580520	2528.138654
565.936615	2490.330000
566.292654	2528.138654
566.648638	2533.179808
567.004567	2427.315577
567.360441	2553.344423
567.716260	2450.000769
568.072023	2397.068654
568.427732	2490.330000
568.783385	2568.467885
569.138982	2419.753846
569.494525	2404.630385
569.850013	2467.644808
570.205445	2409.671538
570.560823	2553.344423
570.916145	2565.947308
571.271412	2513.015192
571.626625	2507.974038
571.981782	2520.576923
572.336884	2495.371154
572.691931	2447.480192
573.046923	2470.165385
573.401860	2477.727115
573.756743	2581.070769
574.111570	2528.138654
574.466342	2492.850577
574.821059	2540.741538
575.175722	2472.685962
575.530330	2545.782692
575.884882	2467.644808
576.239380	2434.877308
576.593823	2510.494615
576.948211	2500.412308
577.302544	2513.015192
577.656823	2477.727115
578.011047	2437.397885
578.365216	2389.506923
578.719330	2555.865000
579.073389	2455.041923
579.427394	2482.768269
579.781344	2462.603654
580.135239	2520.576923
580.489080	2477.727115
580.842866	2528.138654
581.196597	2485.288846
581.550273	2490.330000
581.903895	2460.083077
582.257463	2543.262115
582.610975	2477.727115
582.964434	2452.521346
583.317837	2439.918462
583.671186	2540.741538
584.024481	2530.659231
584.377721	2452.521346
584.730906	2470.165385
585.084037	2550.823846
585.437113	2490.330000
585.790135	2601.235385
586.143103	2505.453462
586.496016	2525.618077
586.848874	2475.206538
587.201679	2495.371154
587.554428	2460.083077
587.907124	2502.932885
588.259765	2573.509038
588.612352	2462.603654
588.964884	2492.850577
589.317362	2550.823846
589.669786	2460.083077
590.022155	2530.659231
590.374470	2480.247692
590.726731	2535.700385
591.078937	2495.371154
591.431090	2510.494615
591.783188	2485.288846
592.135232	2465.124231
592.487222	2507.974038
592.839157	2518.056346
593.191038	2434.877308
593.542866	2437.397885
593.894639	2502.932885
594.246358	2452.521346
594.598022	2543.262115
594.949633	2417.233269
595.301190	2412.192115
595.652692	2379.424615
596.004141	2460.083077
596.355535	2555.865000
596.706876	2477.727115
597.058162	2485.288846
597.409395	2475.206538
597.760573	2586.111923
598.111698	2608.797115
598.462768	2502.932885
598.813785	2462.603654
599.164748	2497.891731
599.515657	2528.138654
599.866511	2477.727115
600.217312	2500.412308
600.568060	2465.124231
600.918753	2507.974038
601.269392	2437.397885
601.619978	2573.509038
601.970510	2500.412308
602.320988	2502.932885
602.671412	2533.179808
603.021783	2397.068654
603.372100	2555.865000
603.722363	2460.083077
604.072572	2450.000769
604.422728	2480.247692
604.772830	2472.685962
605.122878	2487.809423
605.472872	2485.288846
605.822813	2495.371154
606.172701	2500.412308
606.522534	2500.412308
606.872314	2548.303269
607.222041	2462.603654
607.571714	2482.768269
607.921333	2490.330000
608.270899	2404.630385
608.620411	2548.303269
608.969870	2530.659231
609.319276	2470.165385
609.668627	2500.412308
610.017926	2452.521346
610.367171	2518.056346
610.716362	2490.330000
611.065500	2500.412308
611.414585	2525.618077
611.763616	2520.576923
612.112594	2573.509038
612.461518	2586.111923
612.810389	2399.589231
613.159207	2502.932885
613.507971	2439.918462
613.856682	2540.741538
614.205340	2513.015192
614.553945	2555.865000
614.902496	2434.877308
615.250994	2586.111923
615.599439	2570.988462
615.947830	2490.330000
616.296169	2523.097500
616.644454	2477.727115
616.992686	2472.685962
617.340864	2510.494615
617.688990	2586.111923
618.037063	2530.659231
618.385082	2487.809423
618.733048	2465.124231
619.080961	2465.124231
619.428821	2457.562500
619.776628	2394.548077
620.124382	2568.467885
620.472083	2457.562500
620.819731	2477.727115
621.167326	2543.262115
621.514868	2568.467885
621.862357	2467.644808
622.209793	2502.932885
622.557176	2452.521346
622.904506	2540.741538
623.251783	2573.509038
623.599007	2422.274423
623.946179	2530.659231
624.293297	2460.083077
624.640363	2565.947308
624.987376	2515.535769
625.334336	2535.700385
625.681243	2515.535769
626.028097	2500.412308
626.374899	2447.480192
626.721647	2422.274423
627.068343	2528.138654
627.414987	2507.974038
627.761577	2555.865000
628.108115	2507.974038
628.454600	2545.782692
628.801032	2492.850577
629.147412	2618.879423
629.493739	2447.480192
629.840014	2568.467885
630.186236	2472.685962
630.532405	2530.659231
630.878521	2457.562500
631.224585	2578.550192
631.570597	2507.974038
631.916556	2434.877308
632.262462	2641.564615
632.608316	2543.262115
632.954117	2603.755962
633.299866	2507.974038
633.645562	2462.603654
633.991206	2515.535769
634.336797	2450.000769
634.682336	2490.330000
635.027823	2578.550192
635.373257	2480.247692
635.718639	2528.138654
636.063968	2475.206538
636.409245	2510.494615
636.754470	2518.056346
637.099642	2565.947308
637.444762	2482.768269
637.789829	2533.179808
638.134845	2450.000769
638.479808	2548.303269
638.824719	2492.850577
639.169577	2520.576923
639.514383	2465.124231
639.859137	2520.576923
640.203839	2462.603654
640.548489	2419.753846
640.893086	2409.671538
641.237632	2568.467885
641.582125	2470.165385
641.926566	2530.659231
642.270955	2555.865000
642.615292	2495.371154
642.959576	2528.138654
643.303809	2470.165385
643.647990	2444.959615
643.992118	2477.727115
644.336195	2407.150962
644.680219	2507.974038
645.024192	2485.288846
645.368112	2543.262115
645.711981	2422.274423
646.055797	2513.015192
646.399562	2437.397885
646.743274	2487.809423
647.086935	2485.288846
647.430544	2424.795000
647.774101	2545.782692
648.117606	2482.768269
648.461059	2477.727115
648.804460	2553.344423
649.147810	2538.220962
649.491108	2507.974038
649.834354	2465.124231
650.177548	2492.850577
650.520690	2480.247692
650.863781	2452.521346
651.206820	2507.974038
651.549807	2487.809423
651.892742	2470.165385
652.235626	2535.700385
652.578458	2465.124231
652.921238	2492.850577
653.263967	2462.603654
653.606644	2480.247692
653.949269	2573.509038
654.291843	2553.344423
654.634365	2520.576923
654.976836	2576.029615
655.319255	2525.618077
655.661622	2581.070769
656.003938	2444.959615
656.346203	2550.823846
656.688416	2392.027500
657.030577	2518.056346
657.372687	2490.330000
657.714746	2533.179808
658.056753	2520.576923
658.398708	2520.576923
658.740612	2543.262115
659.082465	2470.165385
659.424266	2475.206538
659.766016	2495.371154
660.107715	2414.712692
660.449362	2495.371154
660.790958	2419.753846
661.132503	2533.179808
661.473996	2457.562500
661.815438	2558.385577
662.156829	2548.303269
662.498168	2520.576923
662.839456	2460.083077
663.180693	2518.056346
663.521879	2548.303269
663.863013	2533.179808
664.204097	2475.206538
664.545129	2485.288846
664.886110	2538.220962
665.227040	2497.891731
665.567918	2490.330000
665.908746	2548.303269
666.249522	2507.974038
666.590248	2578.550192
666.930922	2462.603654
667.271545	2460.083077
667.612118	2392.027500
667.952639	2497.891731
668.293109	2543.262115
668.633528	2520.576923
668.973896	2485.288846
669.314213	2510.494615
669.654480	2502.932885
669.994695	2550.823846
670.334859	2490.330000
670.674973	2487.809423
671.015035	2429.836154
671.355047	2616.358846
671.695008	2475.206538
672.034918	2535.700385
672.374777	2543.262115
672.714585	2424.795000
673.054342	2492.850577
673.394049	2518.056346
673.733705	2477.727115
674.073310	2460.083077
674.412864	2452.521346
674.752368	2540.741538
675.091820	2502.932885
675.431223	2513.015192
675.770574	2455.041923
676.109875	2455.041923
676.449125	2515.535769
676.788324	2485.288846
677.127473	2505.453462
677.466571	2502.932885
677.805619	2427.315577
678.144616	2442.439038
678.483562	2497.891731
678.822458	2513.015192
679.161303	2525.618077
679.500098	2523.097500
679.838842	2429.836154
680.177535	2497.891731
680.516179	2581.070769
680.854771	2563.426731
681.193314	2525.618077
681.531805	2586.111923
681.870247	2502.932885
682.208638	2480.247692
682.546978	2525.618077
682.885268	2457.562500
683.223508	2472.685962
683.561697	2520.576923
683.899836	2470.165385
684.237925	2447.480192
684.575963	2528.138654
684.913951	2530.659231
685.251889	2434.877308
685.589776	2510.494615
685.927614	2502.932885
686.265401	2513.015192
686.603137	2460.083077
686.940824	2462.603654
687.278460	2525.618077
687.616046	2505.453462
687.953582	2384.465769
688.291068	2505.453462
688.628504	2505.453462
688.965889	2462.603654
689.303224	2457.562500
689.640510	2452.521346
689.977745	2497.891731
690.314930	2513.015192
690.652065	2545.782692
690.989150	2502.932885
691.326185	2490.330000
691.663170	2543.262115
692.000105	2560.906154
692.336990	2467.644808
692.673825	2404.630385
693.010610	2439.918462
693.347345	2455.041923
693.684030	2470.165385
694.020665	2538.220962
694.357251	2548.303269
694.693786	2439.918462
695.030272	2492.850577
695.366707	2460.083077
695.703093	2538.220962
696.039429	2467.644808
696.375716	2419.753846
696.711952	2475.206538
697.048139	2460.083077
697.384276	2523.097500
697.720363	2392.027500
698.056400	2540.741538
698.392388	2482.768269
698.728326	2576.029615
699.064214	2510.494615
699.400053	2465.124231
699.735842	2560.906154
700.071581	2560.906154
700.407270	2518.056346
700.742910	2505.453462
701.078501	2472.685962
701.414042	2510.494615
701.749533	2475.206538
702.084974	2568.467885
702.420366	2573.509038
702.755709	2480.247692
703.091002	2500.412308
703.426246	2472.685962
703.761440	2528.138654
704.096584	2495.371154
704.431679	2470.165385
704.766725	2485.288846
705.101721	2490.330000
705.436668	2507.974038
705.771565	2477.727115
706.106413	2480.247692
706.441212	2487.809423
706.775961	2510.494615
707.110661	2452.521346
707.445311	2487.809423
707.779913	2495.371154
708.114465	2472.685962
708.448967	2434.877308
708.783421	2520.576923
709.117825	2507.974038
709.452180	2502.932885
709.786485	2555.865000
710.120742	2513.015192
710.454949	2460.083077
710.789107	2528.138654
711.123216	2500.412308
711.457275	2523.097500
711.791286	2555.865000
712.125247	2444.959615
712.459159	2492.850577
712.793023	2470.165385
713.126837	2475.206538
713.460602	2437.397885
713.794318	2548.303269
714.127985	2530.659231
714.461602	2465.124231
714.795171	2507.974038
715.128691	2482.768269
715.462162	2437.397885
715.795584	2444.959615
716.128957	2482.768269
716.462281	2492.850577
716.795556	2560.906154
717.128782	2462.603654
717.461960	2523.097500
717.795088	2535.700385
718.128167	2495.371154
718.461198	2424.795000
718.794180	2485.288846
719.127113	2525.618077
719.459997	2452.521346
719.792833	2578.550192
720.125619	2523.097500
720.458357	2548.303269
720.791046	2593.673654
721.123686	2500.412308
721.456278	2513.015192
721.788821	2455.041923
722.121315	2538.220962
722.453761	2455.041923
722.786158	2465.124231
723.118506	2424.795000
723.450805	2477.727115
723.783056	2452.521346
724.115259	2402.109808
724.447412	2467.644808
724.779518	2457.562500
725.111574	2432.356731
725.443582	2500.412308
725.775542	2419.753846
726.107453	2578.550192
726.439315	2467.644808
726.771129	2450.000769
727.102895	2465.124231
727.434612	2560.906154
727.766281	2533.179808
728.097901	2623.920577
728.429473	2495.371154
728.760996	2533.179808
729.092471	2419.753846
729.423897	2520.576923
729.755276	2470.165385
730.086606	2538.220962
730.417887	2404.630385
730.749120	2505.453462
731.080305	2490.330000
731.411442	2439.918462
731.742530	2487.809423
732.073570	2472.685962
732.404562	2427.315577
732.735506	2520.576923
733.066401	2490.330000
733.397249	2553.344423
733.728048	2520.576923
734.058798	2538.220962
734.389501	2485.288846
734.720156	2520.576923
735.050762	2495.371154
735.381320	2429.836154
735.711831	2412.192115
736.042293	2417.233269
736.372707	2525.618077
736.703073	2502.932885
737.033391	2555.865000
737.363661	2550.823846
737.693883	2502.932885
738.024056	2583.591346
738.354182	2490.330000
738.684260	2513.015192
739.014290	2525.618077
739.344272	2475.206538
739.674207	2439.918462
740.004093	2530.659231
740.333931	2606.276538
740.663722	2492.850577
740.993464	2558.385577
741.323159	2500.412308
741.652806	2480.247692
741.982405	2457.562500
742.311956	2505.453462
742.641460	2462.603654
742.970915	2404.630385
743.300323	2505.453462
743.629683	2523.097500
743.958996	2467.644808
744.288260	2535.700385
744.617477	2502.932885
744.946647	2427.315577
745.275768	2520.576923
745.604842	2518.056346
745.933869	2467.644808
746.262847	2480.247692
746.591778	2452.521346
746.920662	2485.288846
747.249498	2523.097500
747.578286	2558.385577
747.907027	2505.453462
748.235720	2520.576923
748.564365	2502.932885
748.892963	2475.206538
749.221514	2578.550192
749.550017	2492.850577
749.878473	2505.453462
750.206881	2424.795000
750.535242	2518.056346
750.863555	2487.809423
751.191821	2485.288846
751.520039	2477.727115
751.848210	2477.727115
752.176334	2447.480192
752.504411	2462.603654
752.832440	2432.356731
753.160421	2538.220962
753.488356	2427.315577
753.816243	2492.850577
754.144082	2495.371154
754.471875	2485.288846
754.799620	2492.850577
755.127318	2538.220962
755.454969	2525.618077
755.782572	2593.673654
756.110129	2548.303269
756.437638	2470.165385
756.765100	2528.138654
757.092515	2497.891731
757.419882	2535.700385
757.747203	2553.344423
758.074477	2465.124231
758.401703	2437.397885
758.728882	2518.056346
759.056014	2427.315577
759.383099	2485.288846
759.710138	2452.521346
760.037129	2573.509038
760.364073	2477.727115
760.690970	2492.850577
761.017820	2447.480192
761.344623	2525.618077
761.671379	2485.288846
761.998088	2477.727115
762.324751	2505.453462
762.651366	2507.974038
762.977935	2487.809423
763.304456	2417.233269
763.630931	2402.109808
763.957359	2502.932885
764.283740	2497.891731
764.610074	2543.262115
764.936362	2492.850577
765.262602	2444.959615
765.588796	2465.124231
765.914943	2543.262115
766.241044	2535.700385
766.567097	2475.206538
766.893104	2452.521346
767.219064	2513.015192
767.544978	2444.959615
767.870845	2477.727115
768.196665	2583.591346
768.522438	2475.206538
768.848165	2520.576923
769.173846	2457.562500
769.499479	2538.220962
769.825066	2465.124231
770.150607	2467.644808
770.476101	2404.630385
770.801548	2452.521346
771.126949	2533.179808
771.452303	2497.891731
771.777611	2437.397885
772.102872	2427.315577
772.428087	2455.041923
772.753256	2450.000769
773.078378	2497.891731
773.403453	2538.220962
773.728482	2507.974038
774.053465	2427.315577
774.378401	2500.412308
774.703291	2507.974038
775.028135	2492.850577
775.352932	2477.727115
775.677683	2487.809423
776.002388	2490.330000
776.327046	2513.015192
776.651658	2505.453462
776.976224	2462.603654
777.300743	2427.315577
777.625216	2555.865000
777.949643	2510.494615
778.274024	2472.685962
778.598359	2444.959615
778.922647	2482.768269
779.246889	2472.685962
779.571086	2414.712692
779.895236	2540.741538
780.219339	2507.974038
780.543397	2555.865000
780.867409	2540.741538
781.191374	2528.138654
781.515294	2550.823846
781.839167	2518.056346
782.162995	2482.768269
782.486776	2490.330000
782.810511	2507.974038
783.134201	2475.206538
783.457844	2543.262115
783.781441	2475.206538
784.104993	2465.124231
784.428498	2573.509038
784.751958	2447.480192
785.075372	2535.700385
785.398739	2422.274423
785.722061	2538.220962
786.045337	2606.276538
786.368568	2457.562500
786.691752	2497.891731
787.014891	2505.453462
787.337983	2523.097500
787.661030	2528.138654
787.984031	2386.986346
788.306987	2528.138654
788.629897	2492.850577
788.952760	2460.083077
789.275579	2492.850577
789.598351	2507.974038
789.921078	2477.727115
790.243759	2520.576923
790.566395	2434.877308
790.888984	2485.288846
791.211529	2447.480192
791.534027	2467.644808
791.856480	2485.288846
792.178888	2528.138654
792.501249	2447.480192
792.823566	2548.303269
793.145836	2507.974038
793.468062	2482.768269
793.790241	2477.727115
794.112375	2457.562500
794.434464	2523.097500
794.756507	2457.562500
795.078505	2465.124231
795.400457	2543.262115
795.722364	2442.439038
796.044226	2560.906154
796.366042	2502.932885
796.687812	2543.262115
797.009538	2470.165385
797.331218	2515.535769
797.652852	2515.535769
797.974442	2455.041923
798.295986	2500.412308
798.617484	2455.041923
798.938938	2477.727115
799.260346	2477.727115
799.581709	2528.138654
799.903026	2555.865000
800.224299	2477.727115
800.545526	2513.015192
800.866708	2467.644808
801.187845	2427.315577
801.508936	2417.233269
801.829983	2487.809423
802.150984	2515.535769
802.471940	2548.303269
802.792851	2412.192115
803.113717	2563.426731
803.434538	2548.303269
803.755314	2528.138654
804.076045	2457.562500
804.396731	2540.741538
804.717372	2439.918462
805.037967	2482.768269
805.358518	2472.685962
805.679024	2528.138654
805.999485	2535.700385
806.319901	2510.494615
806.640272	2414.712692
806.960598	2485.288846
807.280879	2548.303269
807.601115	2533.179808
807.921306	2434.877308
808.241453	2477.727115
808.561554	2502.932885
808.881611	2518.056346
809.201623	2475.206538
809.521590	2518.056346
809.841513	2553.344423
810.161390	2409.671538
810.481223	2437.397885
810.801011	2402.109808
811.120755	2502.932885
811.440453	2470.165385
811.760107	2500.412308
812.079716	2482.768269
812.399281	2596.194231
812.718801	2450.000769
813.038276	2470.165385
813.357707	2495.371154
813.677093	2485.288846
813.996434	2467.644808
814.315731	2399.589231
814.634983	2439.918462
814.954191	2427.315577
815.273354	2467.644808
815.592473	2447.480192
815.911547	2505.453462
816.230577	2495.371154
816.549562	2502.932885
816.868502	2472.685962
817.187399	2462.603654
817.506250	2528.138654
817.825058	2518.056346
818.143821	2485.288846
818.462539	2460.083077
818.781213	2444.959615
819.099843	2497.891731
819.418429	2523.097500
819.736970	2467.644808
820.055466	2525.618077
820.373919	2477.727115
820.692327	2482.768269
821.010691	2450.000769
821.329011	2533.179808
821.647286	2492.850577
821.965517	2558.385577
822.283704	2480.247692
822.601847	2510.494615
822.919945	2455.041923
823.237999	2555.865000
823.556010	2472.685962
823.873976	2460.083077
824.191897	2480.247692
824.509775	2492.850577
824.827609	2492.850577
825.145398	2540.741538
825.463144	2470.165385
825.780845	2505.453462
826.098502	2586.111923
826.416116	2485.288846
826.733685	2515.535769
827.051210	2495.371154
827.368692	2482.768269
827.686129	2462.603654
828.003522	2462.603654
828.320872	2432.356731
828.638177	2528.138654
828.955439	2439.918462
829.272656	2535.700385
829.589830	2404.630385
829.906960	2475.206538
830.224046	2502.932885
830.541088	2495.371154
830.858086	2422.274423
831.175041	2533.179808
831.491952	2477.727115
831.808819	2576.029615
832.125642	2437.397885
832.442421	2465.124231
832.759157	2470.165385
833.075849	2472.685962
833.392497	2533.179808
833.709101	2487.809423
834.025662	2548.303269
834.342179	2540.741538
834.658653	2399.589231
834.975083	2470.165385
835.291469	2538.220962
835.607811	2462.603654
835.924110	2404.630385
836.240366	2419.753846
836.556578	2485.288846
836.872746	2462.603654
837.188871	2530.659231
837.504952	2497.891731
837.820990	2460.083077
838.136984	2497.891731
838.452935	2515.535769
838.768842	2419.753846
839.084706	2502.932885
839.400526	2465.124231
839.716303	2482.768269
840.032037	2422.274423
840.347727	2520.576923
840.663373	2439.918462
840.978977	2533.179808
841.294537	2424.795000
841.610054	2490.330000
841.925527	2389.506923
842.240957	2520.576923
842.556344	2586.111923
842.871687	2482.768269
843.186987	2460.083077
843.502244	2550.823846
843.817458	2500.412308
844.132629	2477.727115
844.447756	2444.959615
844.762840	2535.700385
845.077881	2500.412308
845.392879	2555.865000
845.707833	2497.891731
846.022745	2492.850577
846.337613	2528.138654
846.652438	2424.795000
846.967221	2528.138654
847.281960	2502.932885
847.596656	2515.535769
847.911309	2548.303269
848.225919	2452.521346
848.540485	2528.138654
848.855009	2394.548077
849.169490	2533.179808
849.483928	2422.274423
849.798323	2434.877308
850.112675	2437.397885
850.426984	2492.850577
850.741251	2444.959615
851.055474	2460.083077
851.369654	2462.603654
851.683792	2371.862885
851.997887	2520.576923
852.311938	2447.480192
852.625947	2505.453462
852.939914	2495.371154
853.253837	2485.288846
853.567718	2505.453462
853.881555	2523.097500
854.195350	2502.932885
854.509103	2467.644808
854.822812	2447.480192
855.136479	2538.220962
855.450103	2444.959615
855.763685	2505.453462
856.077224	2497.891731
856.390720	2513.015192
856.704173	2518.056346
857.017584	2482.768269
857.330953	2487.809423
857.644278	2518.056346
857.957561	2500.412308
858.270802	2528.138654
858.584000	2520.576923
858.897155	2477.727115
859.210268	2482.768269
859.523339	2500.412308
859.836367	2472.685962
860.149352	2525.618077
860.462295	2457.562500
860.775195	2520.576923
861.088054	2550.823846
861.400869	2555.865000
861.713642	2482.768269
862.026373	2452.521346
862.339062	2495.371154
862.651708	2485.288846
862.964312	2558.385577
863.276873	2510.494615
863.589392	2576.029615
863.901869	2452.521346
864.214303	2492.850577
864.526696	2437.397885
864.839045	2434.877308
865.151353	2568.467885
865.463619	2450.000769
865.775842	2540.741538
866.088023	2452.521346
866.400162	2507.974038
866.712258	2513.015192
867.024313	2500.412308
867.336325	2460.083077
867.648296	2485.288846
867.960224	2513.015192
868.272110	2455.041923
868.583954	2515.535769
868.895755	2525.618077
869.207515	2447.480192
869.519233	2550.823846
869.830909	2472.685962
870.142542	2452.521346
870.454134	2497.891731
870.765684	2402.109808
871.077191	2535.700385
871.388657	2475.206538
871.700081	2480.247692
872.011463	2513.015192
872.322803	2530.659231
872.634101	2543.262115
872.945357	2442.439038
873.256571	2540.741538
873.567744	2444.959615
873.878874	2444.959615
874.189963	2540.741538
874.501010	2510.494615
874.812015	2424.795000
875.122979	2523.097500
875.433900	2538.220962
875.744780	2560.906154
876.055618	2555.865000
876.366415	2472.685962
876.677169	2510.494615
876.987882	2533.179808
877.298554	2500.412308
877.609183	2558.385577
877.919771	2470.165385
878.230317	2495.371154
878.540822	2515.535769
878.851285	2480.247692
879.161707	2452.521346
879.472087	2485.288846
879.782425	2507.974038
880.092722	2487.809423
880.402977	2460.083077
880.713191	2480.247692
881.023363	2427.315577
881.333494	2492.850577
881.643583	2487.809423
881.953631	2475.206538
882.263637	2429.836154
882.573602	2533.179808
882.883526	2460.083077
883.193408	2533.179808
883.503248	2427.315577
883.813048	2500.412308
884.122806	2515.535769
884.432522	2439.918462
884.742197	2535.700385
885.051831	2472.685962
885.361424	2545.782692
885.670975	2467.644808
885.980485	2490.330000
886.289954	2487.809423
886.599382	2500.412308
886.908768	2492.850577
887.218113	2472.685962
887.527417	2520.576923
887.836680	2497.891731
888.145901	2535.700385
888.455082	2480.247692
888.764221	2515.535769
889.073319	2525.618077
889.382376	2543.262115
889.691392	2381.945192
890.000366	2455.041923
890.309300	2412.192115
890.618193	2507.974038
890.927044	2460.083077
891.235855	2550.823846
891.544625	2533.179808
891.853353	2500.412308
892.162041	2613.838269
892.470687	2505.453462
892.779293	2535.700385
893.087858	2515.535769
893.396381	2490.330000
893.704864	2535.700385
894.013306	2442.439038
894.321707	2538.220962
894.630068	2392.027500
894.938387	2439.918462
895.246665	2497.891731
895.554903	2495.371154
895.863100	2528.138654
896.171256	2535.700385
896.479371	2439.918462
896.787446	2518.056346
897.095480	2467.644808
897.403473	2452.521346
897.711425	2563.426731
898.019336	2505.453462
898.327207	2523.097500
898.635038	2487.809423
898.942827	2535.700385
899.250576	2429.836154
899.558284	2502.932885
899.865952	2480.247692
900.173579	2462.603654
900.481165	2477.727115
900.788711	2490.330000
901.096216	2520.576923
901.403681	2480.247692
901.711105	2495.371154
902.018489	2518.056346
902.325832	2520.576923
902.633135	2480.247692
902.940397	2565.947308
903.247619	2412.192115
903.554800	2538.220962
903.861941	2394.548077
904.169041	2515.535769
904.476101	2482.768269
904.783121	2505.453462
905.090100	2507.974038
905.397039	2452.521346
905.703938	2528.138654
906.010796	2465.124231
906.317614	2513.015192
906.624391	2543.262115
906.931129	2515.535769
907.237826	2492.850577
907.544483	2366.821731
907.851099	2515.535769
908.157675	2530.659231
908.464211	2462.603654
908.770707	2550.823846
909.077163	2477.727115
909.383578	2523.097500
909.689954	2515.535769
909.996289	2495.371154
910.302584	2490.330000
910.608839	2487.809423
910.915054	2470.165385
911.221229	2492.850577
911.527363	2497.891731
911.833458	2455.041923
912.139513	2518.056346
912.445527	2485.288846
912.751502	2444.959615
913.057436	2427.315577
913.363331	2543.262115
913.669186	2467.644808
913.975000	2427.315577
914.280775	2523.097500
914.586510	2457.562500
914.892205	2475.206538
915.197859	2543.262115
915.503475	2482.768269
915.809050	2540.741538
916.114585	2497.891731
916.420081	2502.932885
916.725536	2525.618077
917.030952	2475.206538
917.336328	2495.371154
917.641665	2472.685962
917.946961	2455.041923
918.252218	2507.974038
918.557435	2452.521346
918.862612	2472.685962
919.167750	2394.548077
919.472848	2467.644808
919.777906	2477.727115
920.082925	2530.659231
920.387904	2495.371154
920.692843	2507.974038
920.997743	2467.644808
921.302603	2538.220962
921.607423	2455.041923
921.912204	2487.809423
922.216946	2432.356731
922.521647	2523.097500
922.826310	2513.015192
923.130932	2437.397885
923.435516	2422.274423
923.740059	2495.371154
924.044564	2510.494615
924.349028	2581.070769
924.653454	2447.480192
924.957840	2586.111923
925.262186	2477.727115
925.566493	2500.412308
925.870761	2485.288846
926.174989	2381.945192
926.479178	2462.603654
926.783328	2523.097500
927.087438	2424.795000
927.391509	2427.315577
927.695541	2530.659231
927.999533	2495.371154
928.303486	2424.795000
928.607400	2447.480192
928.911275	2553.344423
929.215110	2450.000769
929.518906	2462.603654
929.822663	2533.179808
930.126381	2477.727115
930.430060	2490.330000
930.733699	2480.247692
931.037299	2444.959615
931.340861	2535.700385
931.644383	2482.768269
931.947866	2470.165385
932.251309	2450.000769
932.554714	2457.562500
932.858080	2492.850577
933.161407	2515.535769
933.464694	2460.083077
933.767943	2429.836154
934.071153	2523.097500
934.374323	2576.029615
934.677455	2467.644808
934.980548	2576.029615
935.283602	2480.247692
935.586617	2460.083077
935.889593	2442.439038
936.192530	2573.509038
936.495428	2487.809423
936.798287	2480.247692
937.101108	2525.618077
937.403890	2525.618077
937.706632	2424.795000
938.009336	2502.932885
938.312002	2485.288846
938.614628	2513.015192
938.917216	2482.768269
939.219765	2492.850577
939.522275	2545.782692
939.824747	2513.015192
940.127179	2490.330000
940.429573	2515.535769
940.731929	2500.412308
941.034246	2402.109808
941.336524	2510.494615
941.638763	2490.330000
941.940964	2513.015192
942.243126	2460.083077
942.545250	2460.083077
942.847335	2424.795000
943.149381	2490.330000
943.451389	2485.288846
943.753359	2429.836154
944.055290	2515.535769
944.357182	2472.685962
944.659036	2460.083077
944.960851	2457.562500
945.262628	2500.412308
945.564367	2447.480192
945.866067	2520.576923
946.167729	2470.165385
946.469352	2528.138654
946.770937	2525.618077
947.072484	2457.562500
947.373992	2495.371154
947.675462	2465.124231
947.976893	2462.603654
948.278286	2588.632500
948.579641	2457.562500
948.880958	2457.562500
949.182236	2507.974038
949.483476	2460.083077
949.784678	2397.068654
950.085841	2513.015192
950.386967	2482.768269
950.688054	2492.850577
950.989103	2460.083077
951.290114	2467.644808
951.591087	2414.712692
951.892021	2455.041923
952.192917	2439.918462
952.493776	2520.576923
952.794596	2457.562500
953.095378	2538.220962
953.396122	2462.603654
953.696828	2470.165385
953.997496	2515.535769
954.298126	2558.385577
954.598718	2593.673654
954.899272	2535.700385
955.199788	2485.288846
955.500266	2563.426731
955.800706	2518.056346
956.101108	2460.083077
956.401472	2487.809423
956.701798	2462.603654
957.002087	2515.535769
957.302337	2563.426731
957.602550	2515.535769
957.902724	2472.685962
958.202861	2470.165385
958.502960	2381.945192
958.803022	2500.412308
959.103045	2452.521346
959.403031	2505.453462
959.702979	2429.836154
960.002889	2465.124231
960.302762	2480.247692
960.602596	2525.618077
960.902393	2472.685962
961.202153	2475.206538
961.501875	2447.480192
961.801559	2505.453462
962.101205	2407.150962
962.400814	2525.618077
962.700385	2553.344423
962.999918	2432.356731
963.299414	2472.685962
963.598873	2513.015192
963.898293	2402.109808
964.197677	2550.823846
964.497022	2480.247692
964.796331	2495.371154
965.095601	2550.823846
965.394835	2434.877308
965.694030	2485.288846
965.993189	2540.741538
966.292309	2528.138654
966.591393	2419.753846
966.890439	2513.015192
967.189447	2492.850577
967.488419	2439.918462
967.787353	2472.685962
968.086249	2505.453462
968.385108	2540.741538
968.683930	2475.206538
968.982714	2565.947308
969.281462	2490.330000
969.580172	2432.356731
969.878844	2510.494615
970.177480	2467.644808
970.476078	2477.727115
970.774639	2515.535769
971.073162	2525.618077
971.371649	2490.330000
971.670098	2467.644808
971.968510	2502.932885
972.266885	2497.891731
972.565223	2558.385577
972.863524	2404.630385
973.161788	2462.603654
973.460014	2555.865000
973.758204	2502.932885
974.056356	2518.056346
974.354471	2477.727115
974.652550	2520.576923
974.950591	2457.562500
975.248595	2510.494615
975.546563	2507.974038
975.844493	2507.974038
976.142386	2530.659231
976.440243	2533.179808
976.738062	2450.000769
977.035845	2442.439038
977.333590	2442.439038
977.631299	2525.618077
977.928971	2510.494615
978.226606	2505.453462
978.524204	2480.247692
978.821765	2570.988462
979.119290	2457.562500
979.416777	2439.918462
979.714228	2492.850577
980.011642	2465.124231
980.309020	2450.000769
980.606360	2513.015192
980.903664	2545.782692
981.200931	2455.041923
981.498162	2477.727115
981.795356	2500.412308
982.092513	2450.000769
982.389633	2588.632500
982.686717	2538.220962
982.983764	2543.262115
983.280775	2470.165385
983.577749	2455.041923
983.874686	2518.056346
984.171587	2432.356731
984.468451	2515.535769
984.765279	2439.918462
985.062070	2523.097500
985.358824	2507.974038
985.655543	2434.877308
985.952224	2457.562500
986.248869	2525.618077
986.545478	2414.712692
986.842050	2497.891731
987.138586	2548.303269
987.435086	2447.480192
987.731549	2442.439038
988.027975	2523.097500
988.324366	2492.850577
988.620719	2492.850577
988.917037	2447.480192
989.213318	2470.165385
989.509563	2495.371154
989.805772	2419.753846
990.101944	2434.877308
990.398080	2432.356731
990.694180	2535.700385
990.990244	2457.562500
991.286271	2470.165385
991.582262	2447.480192
991.878217	2475.206538
992.174136	2472.685962
992.470019	2452.521346
992.765865	2434.877308
993.061676	2477.727115
993.357450	2477.727115
993.653188	2485.288846
993.948890	2485.288846
994.244556	2452.521346
994.540186	2553.344423
994.835780	2573.509038
995.131337	2427.315577
995.426859	2553.344423
995.722345	2455.041923
996.017795	2460.083077
996.313208	2439.918462
996.608586	2432.356731
996.903928	2510.494615
997.199234	2452.521346
997.494504	2465.124231
997.789738	2434.877308
998.084936	2495.371154
998.380099	2444.959615
998.675225	2495.371154
998.970316	2482.768269
999.265371	2447.480192
999.560390	2523.097500
999.855373	2563.426731
1000.150320	2487.809423
1000.445232	2545.782692
1000.740108	2543.262115
1001.034948	2601.235385
1001.329752	2450.000769
1001.624521	2513.015192
1001.919254	2558.385577
1002.213951	2389.506923
1002.508613	2510.494615
1002.803239	2475.206538
1003.097829	2550.823846
1003.392384	2487.809423
1003.686903	2455.041923
1003.981386	2540.741538
1004.275834	2553.344423
1004.570246	2530.659231
1004.864623	2598.714808
1005.158964	2518.056346
1005.453270	2550.823846
1005.747540	2374.383462
1006.041775	2530.659231
1006.335974	2507.974038
1006.630138	2507.974038
1006.924266	2490.330000
1007.218359	2467.644808
1007.512416	2450.000769
1007.806438	2492.850577
1008.100425	2437.397885
1008.394376	2500.412308
1008.688292	2568.467885
1008.982172	2485.288846
1009.276017	2414.712692
1009.569827	2437.397885
1009.863602	2439.918462
1010.157341	2447.480192
1010.451045	2548.303269
1010.744714	2502.932885
1011.038347	2543.262115
1011.331945	2510.494615
1011.625508	2513.015192
1011.919036	2437.397885
1012.212528	2515.535769
1012.505986	2470.165385
1012.799408	2500.412308
1013.092795	2424.795000
1013.386147	2507.974038
1013.679464	2507.974038
1013.972745	2460.083077
1014.265992	2495.371154
1014.559204	2507.974038
1014.852380	2407.150962
1015.145521	2472.685962
1015.438628	2555.865000
1015.731699	2482.768269
1016.024736	2518.056346
1016.317737	2442.439038
1016.610703	2424.795000
1016.903635	2528.138654
1017.196531	2525.618077
1017.489393	2422.274423
1017.782219	2540.741538
1018.075011	2467.644808
1018.367768	2392.027500
1018.660490	2523.097500
1018.953177	2523.097500
1019.245829	2523.097500
