Dividing Wavelength (nm)	Counts (n)	Blue Motor Position (mm): 5.800000	Red Motor Position (mm): 0.000000	
326.493990	2084.517115
326.888308	2084.517115
327.282561	2084.517115
327.676750	2119.805192
328.070874	2018.982115
328.464933	2119.805192
328.858929	2079.475962
329.252859	2087.037692
329.646726	2076.955385
330.040528	2127.366923
330.434265	2182.819615
330.827938	2142.490385
331.221547	2087.037692
331.615091	2162.655000
332.008571	2208.025385
332.401986	2175.257885
332.795338	2145.010962
333.188625	2248.354615
333.581847	2225.669423
333.975006	2233.231154
334.368100	2306.327885
334.761129	2301.286731
335.154095	2329.013077
335.546996	2316.410192
335.939833	2381.945192
336.332606	2381.945192
336.725315	2409.671538
337.117960	2384.465769
337.510540	2427.315577
337.903056	2334.054231
338.295508	2374.383462
338.687896	2485.288846
339.080220	2402.109808
339.472480	2482.768269
339.864676	2497.891731
340.256807	2487.809423
340.648875	2402.109808
341.040879	2460.083077
341.432818	2565.947308
341.824694	2437.397885
342.216506	2447.480192
342.608253	2485.288846
342.999937	2460.083077
343.391557	2492.850577
343.783113	2442.439038
344.174605	2467.644808
344.566033	2497.891731
344.957397	2475.206538
345.348697	2460.083077
345.739934	2439.918462
346.131106	2472.685962
346.522215	2392.027500
346.913260	2518.056346
347.304241	2424.795000
347.695159	2439.918462
348.086012	2450.000769
348.476802	2384.465769
348.867528	2462.603654
349.258191	2437.397885
349.648789	2560.906154
350.039324	2414.712692
350.429796	2452.521346
350.820203	2450.000769
351.210548	2366.821731
351.600828	2450.000769
351.991045	2432.356731
352.381198	2379.424615
352.771288	2490.330000
353.161314	2482.768269
353.551276	2470.165385
353.941175	2429.836154
354.331010	2419.753846
354.720782	2470.165385
355.110490	2485.288846
355.500135	2460.083077
355.889717	2419.753846
356.279235	2475.206538
356.668689	2389.506923
357.058080	2477.727115
357.447408	2565.947308
357.836672	2409.671538
358.225873	2392.027500
358.615010	2429.836154
359.004084	2392.027500
359.393095	2427.315577
359.782043	2475.206538
360.170927	2404.630385
360.559748	2465.124231
360.948505	2379.424615
361.337199	2407.150962
361.725830	2457.562500
362.114398	2507.974038
362.502903	2417.233269
362.891344	2384.465769
363.279722	2407.150962
363.668037	2442.439038
364.056289	2417.233269
364.444478	2397.068654
364.832603	2457.562500
365.220665	2407.150962
365.608665	2450.000769
365.996601	2497.891731
366.384474	2447.480192
366.772284	2422.274423
367.160031	2482.768269
367.547715	2465.124231
367.935336	2432.356731
368.322893	2482.768269
368.710388	2429.836154
369.097820	2364.301154
369.485189	2472.685962
369.872495	2444.959615
370.259738	2434.877308
370.646918	2450.000769
371.034035	2467.644808
371.421090	2505.453462
371.808081	2397.068654
372.195010	2462.603654
372.581875	2404.630385
372.968678	2397.068654
373.355418	2392.027500
373.742096	2507.974038
374.128710	2520.576923
374.515262	2477.727115
374.901751	2427.315577
375.288177	2495.371154
375.674540	2422.274423
376.060841	2495.371154
376.447079	2376.904038
376.833254	2518.056346
377.219367	2472.685962
377.605417	2470.165385
377.991404	2437.397885
378.377329	2442.439038
378.763191	2407.150962
379.148991	2444.959615
379.534727	2455.041923
379.920402	2477.727115
380.306013	2409.671538
380.691563	2533.179808
381.077049	2356.739423
381.462474	2447.480192
381.847835	2407.150962
382.233134	2455.041923
382.618371	2460.083077
383.003545	2442.439038
383.388657	2447.480192
383.773706	2513.015192
384.158693	2432.356731
384.543618	2545.782692
384.928480	2424.795000
385.313280	2502.932885
385.698017	2429.836154
386.082692	2429.836154
386.467305	2447.480192
386.851856	2427.315577
387.236344	2450.000769
387.620770	2444.959615
388.005133	2439.918462
388.389435	2518.056346
388.773674	2513.015192
389.157851	2581.070769
389.541965	2427.315577
389.926018	2480.247692
390.310008	2492.850577
390.693936	2465.124231
391.077802	2439.918462
391.461606	2502.932885
391.845348	2525.618077
392.229027	2515.535769
392.612645	2457.562500
392.996200	2465.124231
393.379694	2530.659231
393.763125	2548.303269
394.146494	2422.274423
394.529801	2502.932885
394.913047	2462.603654
395.296230	2480.247692
395.679351	2457.562500
396.062410	2545.782692
396.445408	2530.659231
396.828343	2429.836154
397.211217	2540.741538
397.594028	2548.303269
397.976778	2417.233269
398.359466	2555.865000
398.742092	2535.700385
399.124656	2495.371154
399.507158	2437.397885
399.889598	2477.727115
400.271977	2477.727115
400.654294	2472.685962
401.036549	2543.262115
401.418742	2507.974038
401.800874	2432.356731
402.182944	2467.644808
402.564952	2429.836154
402.946898	2535.700385
403.328783	2502.932885
403.710606	2465.124231
404.092367	2462.603654
404.474067	2419.753846
404.855705	2487.809423
405.237282	2500.412308
405.618797	2502.932885
406.000250	2429.836154
406.381642	2460.083077
406.762972	2502.932885
407.144240	2525.618077
407.525447	2444.959615
407.906593	2434.877308
408.287677	2515.535769
408.668700	2404.630385
409.049661	2462.603654
409.430560	2502.932885
409.811399	2397.068654
410.192176	2467.644808
410.572891	2452.521346
410.953545	2530.659231
411.334138	2359.260000
411.714669	2513.015192
412.095139	2472.685962
412.475547	2419.753846
412.855894	2475.206538
413.236180	2525.618077
413.616405	2465.124231
413.996568	2515.535769
414.376670	2480.247692
414.756711	2477.727115
415.136691	2467.644808
415.516609	2472.685962
415.896466	2392.027500
416.276262	2409.671538
416.655997	2467.644808
417.035670	2518.056346
417.415283	2460.083077
417.794834	2470.165385
418.174324	2434.877308
418.553753	2502.932885
418.933121	2477.727115
419.312428	2530.659231
419.691674	2460.083077
420.070859	2497.891731
420.449983	2495.371154
420.829045	2447.480192
421.208047	2460.083077
421.586988	2429.836154
421.965867	2502.932885
422.344686	2487.809423
422.723444	2492.850577
423.102141	2576.029615
423.480777	2424.795000
423.859352	2576.029615
424.237866	2472.685962
424.616319	2490.330000
424.994712	2472.685962
425.373044	2462.603654
425.751314	2407.150962
426.129524	2591.153077
426.507673	2495.371154
426.885762	2434.877308
427.263789	2530.659231
427.641756	2513.015192
428.019662	2535.700385
428.397508	2417.233269
428.775292	2462.603654
429.153016	2439.918462
429.530679	2510.494615
429.908282	2452.521346
430.285824	2502.932885
430.663305	2500.412308
431.040726	2515.535769
431.418086	2409.671538
431.795385	2515.535769
432.172624	2510.494615
432.549802	2470.165385
432.926920	2482.768269
433.303977	2409.671538
433.680974	2507.974038
434.057910	2581.070769
434.434786	2505.453462
434.811601	2419.753846
435.188355	2434.877308
435.565050	2467.644808
435.941683	2570.988462
436.318257	2507.974038
436.694770	2500.412308
437.071222	2447.480192
437.447614	2492.850577
437.823946	2490.330000
438.200218	2427.315577
438.576429	2384.465769
438.952580	2528.138654
439.328670	2480.247692
439.704700	2545.782692
440.080670	2492.850577
440.456580	2472.685962
440.832429	2407.150962
441.208218	2510.494615
441.583947	2467.644808
441.959616	2409.671538
442.335224	2505.453462
442.710773	2462.603654
443.086261	2500.412308
443.461689	2442.439038
443.837057	2444.959615
444.212365	2457.562500
444.587612	2444.959615
444.962800	2520.576923
445.337927	2530.659231
445.712995	2432.356731
446.088002	2518.056346
446.462949	2477.727115
446.837837	2490.330000
447.212664	2500.412308
447.587431	2500.412308
447.962139	2497.891731
448.336786	2523.097500
448.711374	2475.206538
449.085901	2434.877308
449.460369	2555.865000
449.834776	2442.439038
450.209124	2389.506923
450.583412	2482.768269
450.957640	2543.262115
451.331808	2447.480192
451.705917	2409.671538
452.079965	2450.000769
452.453954	2500.412308
452.827883	2480.247692
453.201752	2462.603654
453.575562	2510.494615
453.949311	2540.741538
454.323001	2480.247692
454.696632	2429.836154
455.070202	2525.618077
455.443713	2530.659231
455.817164	2439.918462
456.190556	2429.836154
456.563888	2485.288846
456.937160	2502.932885
457.310373	2535.700385
457.683526	2530.659231
458.056619	2540.741538
458.429653	2513.015192
458.802628	2470.165385
459.175542	2487.809423
459.548398	2520.576923
459.921194	2455.041923
460.293930	2545.782692
460.666607	2460.083077
461.039224	2528.138654
461.411782	2485.288846
461.784280	2417.233269
462.156719	2386.986346
462.529099	2455.041923
462.901419	2447.480192
463.273680	2523.097500
463.645882	2477.727115
464.018024	2487.809423
464.390106	2402.109808
464.762130	2553.344423
465.134094	2606.276538
465.505999	2452.521346
465.877845	2442.439038
466.249631	2465.124231
466.621358	2500.412308
466.993026	2427.315577
467.364634	2500.412308
467.736184	2515.535769
468.107674	2502.932885
468.479105	2485.288846
468.850477	2447.480192
469.221790	2434.877308
469.593043	2467.644808
469.964238	2490.330000
470.335373	2528.138654
470.706449	2558.385577
471.077467	2528.138654
471.448425	2452.521346
471.819324	2525.618077
472.190164	2518.056346
472.560945	2477.727115
472.931667	2482.768269
473.302330	2576.029615
473.672934	2548.303269
474.043479	2507.974038
474.413965	2558.385577
474.784393	2465.124231
475.154761	2533.179808
475.525070	2513.015192
475.895321	2502.932885
476.265513	2523.097500
476.635645	2432.356731
477.005719	2525.618077
477.375734	2520.576923
477.745691	2535.700385
478.115588	2419.753846
478.485427	2465.124231
478.855207	2497.891731
479.224928	2500.412308
479.594591	2381.945192
479.964194	2555.865000
480.333739	2477.727115
480.703226	2553.344423
481.072653	2510.494615
481.442022	2485.288846
481.811333	2507.974038
482.180584	2442.439038
482.549777	2485.288846
482.918912	2596.194231
483.287988	2452.521346
483.657005	2432.356731
484.025964	2480.247692
484.394864	2467.644808
484.763706	2477.727115
485.132489	2470.165385
485.501213	2525.618077
485.869879	2399.589231
486.238487	2442.439038
486.607036	2533.179808
486.975527	2485.288846
487.343959	2548.303269
487.712333	2510.494615
488.080648	2505.453462
488.448905	2530.659231
488.817104	2477.727115
489.185244	2513.015192
489.553326	2555.865000
489.921350	2462.603654
490.289315	2455.041923
490.657222	2507.974038
491.025070	2475.206538
491.392861	2437.397885
491.760593	2470.165385
492.128267	2462.603654
492.495883	2462.603654
492.863440	2533.179808
493.230939	2447.480192
493.598380	2535.700385
493.965763	2520.576923
494.333088	2555.865000
494.700354	2550.823846
495.067563	2492.850577
495.434713	2513.015192
495.801805	2505.453462
496.168839	2497.891731
496.535815	2570.988462
496.902733	2480.247692
497.269593	2510.494615
497.636395	2502.932885
498.003139	2533.179808
498.369825	2439.918462
498.736453	2485.288846
499.103023	2500.412308
499.469535	2545.782692
499.835989	2470.165385
500.202385	2520.576923
500.568723	2583.591346
500.935003	2495.371154
501.301226	2402.109808
501.667390	2439.918462
502.033497	2576.029615
502.399546	2465.124231
502.765537	2573.509038
503.131470	2465.124231
503.497345	2439.918462
503.863163	2513.015192
504.228923	2452.521346
504.594625	2505.453462
504.960269	2492.850577
505.325856	2530.659231
505.691385	2545.782692
506.056856	2455.041923
506.422270	2447.480192
506.787625	2379.424615
507.152924	2485.288846
507.518164	2523.097500
507.883347	2442.439038
508.248472	2447.480192
508.613540	2560.906154
508.978550	2513.015192
509.343503	2444.959615
509.708398	2545.782692
510.073236	2518.056346
510.438016	2540.741538
510.802738	2475.206538
511.167403	2467.644808
511.532010	2442.439038
511.896561	2548.303269
512.261053	2500.412308
512.625488	2492.850577
512.989866	2397.068654
513.354186	2535.700385
513.718449	2467.644808
514.082655	2429.836154
514.446803	2450.000769
514.810894	2523.097500
515.174927	2447.480192
515.538904	2482.768269
515.902822	2485.288846
516.266684	2545.782692
516.630488	2505.453462
516.994235	2518.056346
517.357925	2495.371154
517.721558	2513.015192
518.085133	2502.932885
518.448651	2472.685962
518.812112	2568.467885
519.175516	2518.056346
519.538863	2465.124231
519.902152	2505.453462
520.265385	2460.083077
520.628560	2497.891731
520.991678	2507.974038
521.354739	2442.439038
521.717743	2523.097500
522.080690	2429.836154
522.443580	2543.262115
522.806413	2402.109808
523.169189	2530.659231
523.531908	2424.795000
523.894569	2530.659231
524.257174	2495.371154
524.619722	2480.247692
524.982213	2485.288846
525.344647	2538.220962
525.707025	2520.576923
526.069345	2472.685962
526.431608	2530.659231
526.793815	2573.509038
527.155964	2472.685962
527.518057	2500.412308
527.880093	2535.700385
528.242072	2540.741538
528.603995	2555.865000
528.965860	2465.124231
529.327669	2576.029615
529.689421	2502.932885
530.051117	2439.918462
530.412755	2507.974038
530.774337	2578.550192
531.135862	2437.397885
531.497331	2550.823846
531.858743	2505.453462
532.220098	2482.768269
532.581396	2513.015192
532.942638	2462.603654
533.303824	2465.124231
533.664953	2548.303269
534.026025	2601.235385
534.387040	2570.988462
534.747999	2444.959615
535.108902	2497.891731
535.469748	2538.220962
535.830537	2530.659231
536.191270	2505.453462
536.551947	2513.015192
536.912567	2507.974038
537.273131	2533.179808
537.633638	2520.576923
537.994089	2472.685962
538.354483	2465.124231
538.714821	2492.850577
539.075103	2480.247692
539.435328	2570.988462
539.795497	2515.535769
540.155609	2513.015192
540.515665	2565.947308
540.875665	2450.000769
541.235609	2500.412308
541.595496	2442.439038
541.955328	2535.700385
542.315102	2492.850577
542.674821	2505.453462
543.034483	2500.412308
543.394090	2490.330000
543.753640	2613.838269
544.113134	2565.947308
544.472571	2462.603654
544.831953	2540.741538
545.191278	2510.494615
545.550548	2444.959615
545.909761	2533.179808
546.268918	2480.247692
546.628019	2515.535769
546.987064	2475.206538
547.346053	2482.768269
547.704986	2500.412308
548.063863	2525.618077
548.422684	2573.509038
548.781449	2543.262115
549.140158	2414.712692
549.498811	2530.659231
549.857408	2482.768269
550.215949	2364.301154
550.574434	2409.671538
550.932864	2442.439038
551.291237	2485.288846
551.649555	2490.330000
552.007817	2492.850577
552.366022	2424.795000
552.724173	2495.371154
553.082267	2533.179808
553.440305	2439.918462
553.798288	2485.288846
554.156215	2538.220962
554.514086	2528.138654
554.871902	2510.494615
555.229661	2505.453462
555.587365	2482.768269
555.945014	2518.056346
556.302606	2528.138654
556.660143	2455.041923
557.017625	2457.562500
557.375050	2515.535769
557.732421	2467.644808
558.089735	2447.480192
558.446994	2528.138654
558.804197	2427.315577
559.161345	2467.644808
559.518437	2447.480192
559.875474	2518.056346
560.232455	2487.809423
560.589381	2523.097500
560.946251	2487.809423
561.303065	2543.262115
561.659825	2538.220962
562.016528	2513.015192
562.373177	2530.659231
562.729770	2452.521346
563.086307	2505.453462
563.442789	2472.685962
563.799216	2470.165385
564.155587	2465.124231
564.511904	2399.589231
564.868164	2437.397885
565.224370	2525.618077
565.580520	2565.947308
565.936615	2477.727115
566.292654	2505.453462
566.648638	2457.562500
567.004567	2548.303269
567.360441	2457.562500
567.716260	2598.714808
568.072023	2467.644808
568.427732	2462.603654
568.783385	2397.068654
569.138982	2452.521346
569.494525	2502.932885
569.850013	2412.192115
570.205445	2555.865000
570.560823	2533.179808
570.916145	2500.412308
571.271412	2475.206538
571.626625	2555.865000
571.981782	2467.644808
572.336884	2525.618077
572.691931	2550.823846
573.046923	2467.644808
573.401860	2533.179808
573.756743	2437.397885
574.111570	2518.056346
574.466342	2485.288846
574.821059	2507.974038
575.175722	2465.124231
575.530330	2507.974038
575.884882	2477.727115
576.239380	2513.015192
576.593823	2487.809423
576.948211	2502.932885
577.302544	2467.644808
577.656823	2523.097500
578.011047	2500.412308
578.365216	2497.891731
578.719330	2424.795000
579.073389	2487.809423
579.427394	2460.083077
579.781344	2631.482308
580.135239	2467.644808
580.489080	2553.344423
580.842866	2487.809423
581.196597	2429.836154
581.550273	2500.412308
581.903895	2518.056346
582.257463	2500.412308
582.610975	2487.809423
582.964434	2485.288846
583.317837	2515.535769
583.671186	2487.809423
584.024481	2540.741538
584.377721	2568.467885
584.730906	2492.850577
585.084037	2523.097500
585.437113	2442.439038
585.790135	2465.124231
586.143103	2528.138654
586.496016	2480.247692
586.848874	2530.659231
587.201679	2510.494615
587.554428	2432.356731
587.907124	2528.138654
588.259765	2535.700385
588.612352	2450.000769
588.964884	2500.412308
589.317362	2465.124231
589.669786	2558.385577
590.022155	2447.480192
590.374470	2450.000769
590.726731	2576.029615
591.078937	2482.768269
591.431090	2568.467885
591.783188	2432.356731
592.135232	2475.206538
592.487222	2523.097500
592.839157	2515.535769
593.191038	2422.274423
593.542866	2460.083077
593.894639	2513.015192
594.246358	2465.124231
594.598022	2563.426731
594.949633	2560.906154
595.301190	2475.206538
595.652692	2581.070769
596.004141	2422.274423
596.355535	2505.453462
596.706876	2470.165385
597.058162	2538.220962
597.409395	2480.247692
597.760573	2510.494615
598.111698	2634.002885
598.462768	2515.535769
598.813785	2502.932885
599.164748	2409.671538
599.515657	2450.000769
599.866511	2540.741538
600.217312	2472.685962
600.568060	2500.412308
600.918753	2540.741538
601.269392	2475.206538
601.619978	2490.330000
601.970510	2439.918462
602.320988	2485.288846
602.671412	2515.535769
603.021783	2497.891731
603.372100	2515.535769
603.722363	2525.618077
604.072572	2588.632500
604.422728	2477.727115
604.772830	2533.179808
605.122878	2392.027500
605.472872	2437.397885
605.822813	2462.603654
606.172701	2502.932885
606.522534	2515.535769
606.872314	2535.700385
607.222041	2482.768269
607.571714	2485.288846
607.921333	2485.288846
608.270899	2507.974038
608.620411	2447.480192
608.969870	2530.659231
609.319276	2417.233269
609.668627	2558.385577
610.017926	2417.233269
610.367171	2492.850577
610.716362	2450.000769
611.065500	2437.397885
611.414585	2447.480192
611.763616	2467.644808
612.112594	2616.358846
612.461518	2490.330000
612.810389	2462.603654
613.159207	2497.891731
613.507971	2427.315577
613.856682	2427.315577
614.205340	2485.288846
614.553945	2450.000769
614.902496	2538.220962
615.250994	2558.385577
615.599439	2588.632500
615.947830	2432.356731
616.296169	2455.041923
616.644454	2513.015192
616.992686	2507.974038
617.340864	2447.480192
617.688990	2500.412308
618.037063	2492.850577
618.385082	2490.330000
618.733048	2467.644808
619.080961	2482.768269
619.428821	2520.576923
619.776628	2485.288846
620.124382	2480.247692
620.472083	2502.932885
620.819731	2404.630385
621.167326	2500.412308
621.514868	2472.685962
621.862357	2525.618077
622.209793	2490.330000
622.557176	2548.303269
622.904506	2404.630385
623.251783	2530.659231
623.599007	2482.768269
623.946179	2535.700385
624.293297	2422.274423
624.640363	2482.768269
624.987376	2495.371154
625.334336	2515.535769
625.681243	2533.179808
626.028097	2429.836154
626.374899	2510.494615
626.721647	2538.220962
627.068343	2467.644808
627.414987	2455.041923
627.761577	2565.947308
628.108115	2475.206538
628.454600	2548.303269
628.801032	2568.467885
629.147412	2507.974038
629.493739	2497.891731
629.840014	2437.397885
630.186236	2502.932885
630.532405	2507.974038
630.878521	2437.397885
631.224585	2482.768269
631.570597	2507.974038
631.916556	2444.959615
632.262462	2487.809423
632.608316	2447.480192
632.954117	2560.906154
633.299866	2518.056346
633.645562	2502.932885
633.991206	2502.932885
634.336797	2533.179808
634.682336	2500.412308
635.027823	2482.768269
635.373257	2555.865000
635.718639	2545.782692
636.063968	2505.453462
636.409245	2576.029615
636.754470	2515.535769
637.099642	2487.809423
637.444762	2507.974038
637.789829	2533.179808
638.134845	2578.550192
638.479808	2427.315577
638.824719	2487.809423
639.169577	2447.480192
639.514383	2525.618077
639.859137	2502.932885
640.203839	2518.056346
640.548489	2452.521346
640.893086	2497.891731
641.237632	2523.097500
641.582125	2555.865000
641.926566	2472.685962
642.270955	2485.288846
642.615292	2437.397885
642.959576	2480.247692
643.303809	2422.274423
643.647990	2550.823846
643.992118	2507.974038
644.336195	2528.138654
644.680219	2545.782692
645.024192	2525.618077
645.368112	2550.823846
645.711981	2568.467885
646.055797	2477.727115
646.399562	2513.015192
646.743274	2518.056346
647.086935	2535.700385
647.430544	2543.262115
647.774101	2457.562500
648.117606	2530.659231
648.461059	2472.685962
648.804460	2583.591346
649.147810	2530.659231
649.491108	2502.932885
649.834354	2500.412308
650.177548	2515.535769
650.520690	2465.124231
650.863781	2520.576923
651.206820	2470.165385
651.549807	2460.083077
651.892742	2422.274423
652.235626	2553.344423
652.578458	2515.535769
652.921238	2460.083077
653.263967	2515.535769
653.606644	2495.371154
653.949269	2505.453462
654.291843	2487.809423
654.634365	2475.206538
654.976836	2467.644808
655.319255	2598.714808
655.661622	2452.521346
656.003938	2447.480192
656.346203	2392.027500
656.688416	2538.220962
657.030577	2467.644808
657.372687	2424.795000
657.714746	2492.850577
658.056753	2470.165385
658.398708	2528.138654
658.740612	2472.685962
659.082465	2462.603654
659.424266	2465.124231
659.766016	2565.947308
660.107715	2513.015192
660.449362	2505.453462
660.790958	2480.247692
661.132503	2558.385577
661.473996	2462.603654
661.815438	2515.535769
662.156829	2457.562500
662.498168	2444.959615
662.839456	2467.644808
663.180693	2470.165385
663.521879	2528.138654
663.863013	2472.685962
664.204097	2513.015192
664.545129	2447.480192
664.886110	2470.165385
665.227040	2502.932885
665.567918	2439.918462
665.908746	2515.535769
666.249522	2507.974038
666.590248	2505.453462
666.930922	2465.124231
667.271545	2520.576923
667.612118	2528.138654
667.952639	2507.974038
668.293109	2583.591346
668.633528	2502.932885
668.973896	2500.412308
669.314213	2482.768269
669.654480	2507.974038
669.994695	2389.506923
670.334859	2475.206538
670.674973	2470.165385
671.015035	2465.124231
671.355047	2502.932885
671.695008	2444.959615
672.034918	2518.056346
672.374777	2545.782692
672.714585	2477.727115
673.054342	2550.823846
673.394049	2533.179808
673.733705	2502.932885
674.073310	2523.097500
674.412864	2518.056346
674.752368	2490.330000
675.091820	2475.206538
675.431223	2565.947308
675.770574	2475.206538
676.109875	2482.768269
676.449125	2530.659231
676.788324	2497.891731
677.127473	2432.356731
677.466571	2588.632500
677.805619	2560.906154
678.144616	2419.753846
678.483562	2482.768269
678.822458	2500.412308
679.161303	2543.262115
679.500098	2444.959615
679.838842	2520.576923
680.177535	2475.206538
680.516179	2490.330000
680.854771	2510.494615
681.193314	2563.426731
681.531805	2465.124231
681.870247	2492.850577
682.208638	2495.371154
682.546978	2490.330000
682.885268	2525.618077
683.223508	2553.344423
683.561697	2520.576923
683.899836	2513.015192
684.237925	2525.618077
684.575963	2568.467885
684.913951	2419.753846
685.251889	2520.576923
685.589776	2414.712692
685.927614	2513.015192
686.265401	2477.727115
686.603137	2424.795000
686.940824	2470.165385
687.278460	2548.303269
687.616046	2530.659231
687.953582	2533.179808
688.291068	2427.315577
688.628504	2450.000769
688.965889	2533.179808
689.303224	2535.700385
689.640510	2560.906154
689.977745	2472.685962
690.314930	2450.000769
690.652065	2460.083077
690.989150	2528.138654
691.326185	2490.330000
691.663170	2591.153077
692.000105	2439.918462
692.336990	2545.782692
692.673825	2392.027500
693.010610	2485.288846
693.347345	2414.712692
693.684030	2450.000769
694.020665	2487.809423
694.357251	2444.959615
694.693786	2457.562500
695.030272	2523.097500
695.366707	2525.618077
695.703093	2507.974038
696.039429	2477.727115
696.375716	2397.068654
696.711952	2525.618077
697.048139	2487.809423
697.384276	2457.562500
697.720363	2563.426731
698.056400	2457.562500
698.392388	2502.932885
698.728326	2467.644808
699.064214	2457.562500
699.400053	2470.165385
699.735842	2472.685962
700.071581	2455.041923
700.407270	2543.262115
700.742910	2518.056346
701.078501	2434.877308
701.414042	2505.453462
701.749533	2467.644808
702.084974	2520.576923
702.420366	2502.932885
702.755709	2548.303269
703.091002	2497.891731
703.426246	2482.768269
703.761440	2525.618077
704.096584	2505.453462
704.431679	2427.315577
704.766725	2518.056346
705.101721	2570.988462
705.436668	2447.480192
705.771565	2492.850577
706.106413	2533.179808
706.441212	2507.974038
706.775961	2495.371154
707.110661	2492.850577
707.445311	2465.124231
707.779913	2525.618077
708.114465	2452.521346
708.448967	2467.644808
708.783421	2369.342308
709.117825	2518.056346
709.452180	2442.439038
709.786485	2439.918462
710.120742	2407.150962
710.454949	2490.330000
710.789107	2447.480192
711.123216	2465.124231
711.457275	2465.124231
711.791286	2462.603654
712.125247	2525.618077
712.459159	2513.015192
712.793023	2548.303269
713.126837	2523.097500
713.460602	2515.535769
713.794318	2477.727115
714.127985	2520.576923
714.461602	2477.727115
714.795171	2515.535769
715.128691	2397.068654
715.462162	2548.303269
715.795584	2475.206538
716.128957	2533.179808
716.462281	2402.109808
716.795556	2543.262115
717.128782	2467.644808
717.461960	2538.220962
717.795088	2455.041923
718.128167	2480.247692
718.461198	2465.124231
718.794180	2432.356731
719.127113	2492.850577
719.459997	2518.056346
719.792833	2419.753846
720.125619	2513.015192
720.458357	2409.671538
720.791046	2480.247692
721.123686	2528.138654
721.456278	2394.548077
721.788821	2495.371154
722.121315	2555.865000
722.453761	2560.906154
722.786158	2437.397885
723.118506	2487.809423
723.450805	2452.521346
723.783056	2452.521346
724.115259	2439.918462
724.447412	2472.685962
724.779518	2452.521346
725.111574	2470.165385
725.443582	2460.083077
725.775542	2485.288846
726.107453	2500.412308
726.439315	2505.453462
726.771129	2505.453462
727.102895	2485.288846
727.434612	2538.220962
727.766281	2530.659231
728.097901	2457.562500
728.429473	2442.439038
728.760996	2523.097500
729.092471	2523.097500
729.423897	2555.865000
729.755276	2462.603654
730.086606	2586.111923
730.417887	2455.041923
730.749120	2485.288846
731.080305	2462.603654
731.411442	2500.412308
731.742530	2548.303269
732.073570	2518.056346
732.404562	2487.809423
732.735506	2525.618077
733.066401	2540.741538
733.397249	2497.891731
733.728048	2482.768269
734.058798	2568.467885
734.389501	2422.274423
734.720156	2475.206538
735.050762	2472.685962
735.381320	2535.700385
735.711831	2432.356731
736.042293	2495.371154
736.372707	2543.262115
736.703073	2470.165385
737.033391	2497.891731
737.363661	2510.494615
737.693883	2457.562500
738.024056	2510.494615
738.354182	2611.317692
738.684260	2472.685962
739.014290	2455.041923
739.344272	2492.850577
739.674207	2581.070769
740.004093	2444.959615
740.333931	2560.906154
740.663722	2477.727115
740.993464	2490.330000
741.323159	2530.659231
741.652806	2502.932885
741.982405	2409.671538
742.311956	2422.274423
742.641460	2570.988462
742.970915	2510.494615
743.300323	2450.000769
743.629683	2419.753846
743.958996	2495.371154
744.288260	2444.959615
744.617477	2515.535769
744.946647	2419.753846
745.275768	2510.494615
745.604842	2447.480192
745.933869	2502.932885
746.262847	2502.932885
746.591778	2535.700385
746.920662	2434.877308
747.249498	2528.138654
747.578286	2455.041923
747.907027	2500.412308
748.235720	2502.932885
748.564365	2487.809423
748.892963	2543.262115
749.221514	2558.385577
749.550017	2455.041923
749.878473	2384.465769
750.206881	2528.138654
750.535242	2414.712692
750.863555	2507.974038
751.191821	2492.850577
751.520039	2462.603654
751.848210	2402.109808
752.176334	2492.850577
752.504411	2502.932885
752.832440	2475.206538
753.160421	2485.288846
753.488356	2505.453462
753.816243	2515.535769
754.144082	2470.165385
754.471875	2482.768269
754.799620	2528.138654
755.127318	2482.768269
755.454969	2442.439038
755.782572	2485.288846
756.110129	2545.782692
756.437638	2452.521346
756.765100	2525.618077
757.092515	2520.576923
757.419882	2507.974038
757.747203	2548.303269
758.074477	2444.959615
758.401703	2502.932885
758.728882	2480.247692
759.056014	2472.685962
759.383099	2457.562500
759.710138	2518.056346
760.037129	2490.330000
760.364073	2450.000769
760.690970	2530.659231
761.017820	2538.220962
761.344623	2412.192115
761.671379	2550.823846
761.998088	2495.371154
762.324751	2455.041923
762.651366	2497.891731
762.977935	2525.618077
763.304456	2490.330000
763.630931	2538.220962
763.957359	2528.138654
764.283740	2452.521346
764.610074	2482.768269
764.936362	2465.124231
765.262602	2442.439038
765.588796	2543.262115
765.914943	2389.506923
766.241044	2540.741538
766.567097	2482.768269
766.893104	2560.906154
767.219064	2475.206538
767.544978	2530.659231
767.870845	2429.836154
768.196665	2389.506923
768.522438	2475.206538
768.848165	2528.138654
769.173846	2505.453462
769.499479	2450.000769
769.825066	2540.741538
770.150607	2518.056346
770.476101	2482.768269
770.801548	2497.891731
771.126949	2535.700385
771.452303	2535.700385
771.777611	2472.685962
772.102872	2515.535769
772.428087	2487.809423
772.753256	2467.644808
773.078378	2402.109808
773.403453	2455.041923
773.728482	2397.068654
774.053465	2507.974038
774.378401	2482.768269
774.703291	2485.288846
775.028135	2457.562500
775.352932	2472.685962
775.677683	2523.097500
776.002388	2429.836154
776.327046	2543.262115
776.651658	2442.439038
776.976224	2601.235385
777.300743	2485.288846
777.625216	2465.124231
777.949643	2500.412308
778.274024	2465.124231
778.598359	2540.741538
778.922647	2492.850577
779.246889	2568.467885
779.571086	2485.288846
779.895236	2543.262115
780.219339	2490.330000
780.543397	2475.206538
780.867409	2497.891731
781.191374	2472.685962
781.515294	2530.659231
781.839167	2465.124231
782.162995	2528.138654
782.486776	2437.397885
782.810511	2439.918462
783.134201	2419.753846
783.457844	2598.714808
783.781441	2467.644808
784.104993	2507.974038
784.428498	2611.317692
784.751958	2460.083077
785.075372	2447.480192
785.398739	2437.397885
785.722061	2513.015192
786.045337	2475.206538
786.368568	2606.276538
786.691752	2502.932885
787.014891	2618.879423
787.337983	2550.823846
787.661030	2427.315577
787.984031	2482.768269
788.306987	2434.877308
788.629897	2442.439038
788.952760	2465.124231
789.275579	2432.356731
789.598351	2450.000769
789.921078	2402.109808
790.243759	2500.412308
790.566395	2507.974038
790.888984	2450.000769
791.211529	2480.247692
791.534027	2480.247692
791.856480	2550.823846
792.178888	2457.562500
792.501249	2530.659231
792.823566	2495.371154
793.145836	2485.288846
793.468062	2444.959615
793.790241	2507.974038
794.112375	2475.206538
794.434464	2402.109808
794.756507	2462.603654
795.078505	2482.768269
795.400457	2432.356731
795.722364	2462.603654
796.044226	2500.412308
796.366042	2490.330000
796.687812	2475.206538
797.009538	2570.988462
797.331218	2414.712692
797.652852	2460.083077
797.974442	2404.630385
798.295986	2376.904038
798.617484	2450.000769
798.938938	2477.727115
799.260346	2460.083077
799.581709	2477.727115
799.903026	2533.179808
800.224299	2555.865000
800.545526	2462.603654
800.866708	2535.700385
801.187845	2507.974038
801.508936	2480.247692
801.829983	2472.685962
802.150984	2530.659231
802.471940	2497.891731
802.792851	2497.891731
803.113717	2596.194231
803.434538	2444.959615
803.755314	2429.836154
804.076045	2427.315577
804.396731	2482.768269
804.717372	2432.356731
805.037967	2523.097500
805.358518	2485.288846
805.679024	2518.056346
805.999485	2535.700385
806.319901	2450.000769
806.640272	2500.412308
806.960598	2563.426731
807.280879	2563.426731
807.601115	2533.179808
807.921306	2560.906154
808.241453	2555.865000
808.561554	2535.700385
808.881611	2460.083077
809.201623	2490.330000
809.521590	2490.330000
809.841513	2513.015192
810.161390	2432.356731
810.481223	2485.288846
810.801011	2409.671538
811.120755	2505.453462
811.440453	2520.576923
811.760107	2444.959615
812.079716	2563.426731
812.399281	2429.836154
812.718801	2412.192115
813.038276	2480.247692
813.357707	2472.685962
813.677093	2560.906154
813.996434	2591.153077
814.315731	2455.041923
814.634983	2485.288846
814.954191	2545.782692
815.273354	2570.988462
815.592473	2480.247692
815.911547	2518.056346
816.230577	2533.179808
816.549562	2543.262115
816.868502	2424.795000
817.187399	2455.041923
817.506250	2452.521346
817.825058	2485.288846
818.143821	2419.753846
818.462539	2462.603654
818.781213	2513.015192
819.099843	2429.836154
819.418429	2507.974038
819.736970	2500.412308
820.055466	2515.535769
820.373919	2465.124231
820.692327	2525.618077
821.010691	2427.315577
821.329011	2480.247692
821.647286	2442.439038
821.965517	2533.179808
822.283704	2452.521346
822.601847	2533.179808
822.919945	2495.371154
823.237999	2485.288846
823.556010	2515.535769
823.873976	2525.618077
824.191897	2550.823846
824.509775	2548.303269
824.827609	2507.974038
825.145398	2472.685962
825.463144	2518.056346
825.780845	2439.918462
826.098502	2467.644808
826.416116	2452.521346
826.733685	2505.453462
827.051210	2573.509038
827.368692	2515.535769
827.686129	2472.685962
828.003522	2525.618077
828.320872	2472.685962
828.638177	2500.412308
828.955439	2502.932885
829.272656	2515.535769
829.589830	2437.397885
829.906960	2419.753846
830.224046	2540.741538
830.541088	2419.753846
830.858086	2447.480192
831.175041	2452.521346
831.491952	2545.782692
831.808819	2565.947308
832.125642	2535.700385
832.442421	2447.480192
832.759157	2450.000769
833.075849	2513.015192
833.392497	2523.097500
833.709101	2513.015192
834.025662	2492.850577
834.342179	2460.083077
834.658653	2530.659231
834.975083	2470.165385
835.291469	2540.741538
835.607811	2455.041923
835.924110	2460.083077
836.240366	2470.165385
836.556578	2500.412308
836.872746	2606.276538
837.188871	2563.426731
837.504952	2480.247692
837.820990	2480.247692
838.136984	2576.029615
838.452935	2492.850577
838.768842	2505.453462
839.084706	2480.247692
839.400526	2515.535769
839.716303	2492.850577
840.032037	2450.000769
840.347727	2553.344423
840.663373	2455.041923
840.978977	2538.220962
841.294537	2515.535769
841.610054	2505.453462
841.925527	2465.124231
842.240957	2548.303269
842.556344	2492.850577
842.871687	2407.150962
843.186987	2518.056346
843.502244	2492.850577
843.817458	2502.932885
844.132629	2545.782692
844.447756	2427.315577
844.762840	2482.768269
845.077881	2490.330000
845.392879	2434.877308
845.707833	2432.356731
846.022745	2502.932885
846.337613	2490.330000
846.652438	2540.741538
846.967221	2437.397885
847.281960	2470.165385
847.596656	2470.165385
847.911309	2470.165385
848.225919	2490.330000
848.540485	2437.397885
848.855009	2515.535769
849.169490	2424.795000
849.483928	2510.494615
849.798323	2455.041923
850.112675	2457.562500
850.426984	2457.562500
850.741251	2472.685962
851.055474	2475.206538
851.369654	2563.426731
851.683792	2447.480192
851.997887	2513.015192
852.311938	2434.877308
852.625947	2497.891731
852.939914	2465.124231
853.253837	2523.097500
853.567718	2475.206538
853.881555	2553.344423
854.195350	2578.550192
854.509103	2467.644808
854.822812	2500.412308
855.136479	2487.809423
855.450103	2470.165385
855.763685	2482.768269
856.077224	2432.356731
856.390720	2429.836154
856.704173	2558.385577
857.017584	2525.618077
857.330953	2500.412308
857.644278	2540.741538
857.957561	2424.795000
858.270802	2482.768269
858.584000	2502.932885
858.897155	2480.247692
859.210268	2540.741538
859.523339	2497.891731
859.836367	2439.918462
860.149352	2500.412308
860.462295	2475.206538
860.775195	2429.836154
861.088054	2523.097500
861.400869	2515.535769
861.713642	2465.124231
862.026373	2437.397885
862.339062	2460.083077
862.651708	2555.865000
862.964312	2502.932885
863.276873	2568.467885
863.589392	2492.850577
863.901869	2399.589231
864.214303	2538.220962
864.526696	2490.330000
864.839045	2548.303269
865.151353	2384.465769
865.463619	2545.782692
865.775842	2482.768269
866.088023	2505.453462
866.400162	2432.356731
866.712258	2487.809423
867.024313	2397.068654
867.336325	2505.453462
867.648296	2507.974038
867.960224	2565.947308
868.272110	2497.891731
868.583954	2432.356731
868.895755	2583.591346
869.207515	2563.426731
869.519233	2477.727115
869.830909	2573.509038
870.142542	2500.412308
870.454134	2581.070769
870.765684	2555.865000
871.077191	2487.809423
871.388657	2515.535769
871.700081	2409.671538
872.011463	2444.959615
872.322803	2492.850577
872.634101	2462.603654
872.945357	2447.480192
873.256571	2450.000769
873.567744	2462.603654
873.878874	2414.712692
874.189963	2500.412308
874.501010	2477.727115
874.812015	2485.288846
875.122979	2545.782692
875.433900	2462.603654
875.744780	2520.576923
876.055618	2523.097500
876.366415	2492.850577
876.677169	2518.056346
876.987882	2515.535769
877.298554	2510.494615
877.609183	2480.247692
877.919771	2550.823846
878.230317	2533.179808
878.540822	2492.850577
878.851285	2525.618077
879.161707	2540.741538
879.472087	2455.041923
879.782425	2414.712692
880.092722	2394.548077
880.402977	2497.891731
880.713191	2475.206538
881.023363	2487.809423
881.333494	2563.426731
881.643583	2477.727115
881.953631	2482.768269
882.263637	2533.179808
882.573602	2553.344423
882.883526	2470.165385
883.193408	2497.891731
883.503248	2470.165385
883.813048	2490.330000
884.122806	2444.959615
884.432522	2450.000769
884.742197	2563.426731
885.051831	2505.453462
885.361424	2495.371154
885.670975	2482.768269
885.980485	2545.782692
886.289954	2450.000769
886.599382	2477.727115
886.908768	2593.673654
887.218113	2495.371154
887.527417	2548.303269
887.836680	2545.782692
888.145901	2432.356731
888.455082	2485.288846
888.764221	2452.521346
889.073319	2497.891731
889.382376	2452.521346
889.691392	2465.124231
890.000366	2492.850577
890.309300	2455.041923
890.618193	2558.385577
890.927044	2485.288846
891.235855	2477.727115
891.544625	2465.124231
891.853353	2528.138654
892.162041	2563.426731
892.470687	2507.974038
892.779293	2427.315577
893.087858	2412.192115
893.396381	2553.344423
893.704864	2439.918462
894.013306	2472.685962
894.321707	2528.138654
894.630068	2429.836154
894.938387	2540.741538
895.246665	2525.618077
895.554903	2460.083077
895.863100	2492.850577
896.171256	2480.247692
896.479371	2510.494615
896.787446	2573.509038
897.095480	2429.836154
897.403473	2434.877308
897.711425	2540.741538
898.019336	2505.453462
898.327207	2475.206538
898.635038	2505.453462
898.942827	2513.015192
899.250576	2525.618077
899.558284	2507.974038
899.865952	2477.727115
900.173579	2412.192115
900.481165	2540.741538
900.788711	2548.303269
901.096216	2502.932885
901.403681	2507.974038
901.711105	2565.947308
902.018489	2475.206538
902.325832	2467.644808
902.633135	2455.041923
902.940397	2543.262115
903.247619	2558.385577
903.554800	2487.809423
903.861941	2497.891731
904.169041	2553.344423
904.476101	2485.288846
904.783121	2513.015192
905.090100	2487.809423
905.397039	2513.015192
905.703938	2470.165385
906.010796	2507.974038
906.317614	2485.288846
906.624391	2502.932885
906.931129	2490.330000
907.237826	2460.083077
907.544483	2538.220962
907.851099	2528.138654
908.157675	2460.083077
908.464211	2505.453462
908.770707	2530.659231
909.077163	2467.644808
909.383578	2467.644808
909.689954	2480.247692
909.996289	2487.809423
910.302584	2495.371154
910.608839	2482.768269
910.915054	2492.850577
911.221229	2485.288846
911.527363	2472.685962
911.833458	2533.179808
912.139513	2409.671538
912.445527	2434.877308
912.751502	2467.644808
913.057436	2490.330000
913.363331	2505.453462
913.669186	2530.659231
913.975000	2513.015192
914.280775	2523.097500
914.586510	2419.753846
914.892205	2548.303269
915.197859	2515.535769
915.503475	2520.576923
915.809050	2570.988462
916.114585	2545.782692
916.420081	2497.891731
916.725536	2417.233269
917.030952	2444.959615
917.336328	2485.288846
917.641665	2402.109808
917.946961	2558.385577
918.252218	2487.809423
918.557435	2417.233269
918.862612	2573.509038
919.167750	2470.165385
919.472848	2583.591346
919.777906	2376.904038
920.082925	2397.068654
920.387904	2510.494615
920.692843	2414.712692
920.997743	2550.823846
921.302603	2417.233269
921.607423	2513.015192
921.912204	2429.836154
922.216946	2437.397885
922.521647	2520.576923
922.826310	2477.727115
923.130932	2500.412308
923.435516	2490.330000
923.740059	2427.315577
924.044564	2485.288846
924.349028	2442.439038
924.653454	2424.795000
924.957840	2455.041923
925.262186	2563.426731
925.566493	2472.685962
925.870761	2581.070769
926.174989	2482.768269
926.479178	2462.603654
926.783328	2520.576923
927.087438	2495.371154
927.391509	2515.535769
927.695541	2439.918462
927.999533	2480.247692
928.303486	2550.823846
928.607400	2477.727115
928.911275	2528.138654
929.215110	2434.877308
929.518906	2570.988462
929.822663	2500.412308
930.126381	2558.385577
930.430060	2467.644808
930.733699	2553.344423
931.037299	2465.124231
931.340861	2525.618077
931.644383	2477.727115
931.947866	2467.644808
932.251309	2460.083077
932.554714	2523.097500
932.858080	2397.068654
933.161407	2538.220962
933.464694	2548.303269
933.767943	2500.412308
934.071153	2560.906154
934.374323	2467.644808
934.677455	2513.015192
934.980548	2533.179808
935.283602	2540.741538
935.586617	2510.494615
935.889593	2472.685962
936.192530	2540.741538
936.495428	2500.412308
936.798287	2465.124231
937.101108	2540.741538
937.403890	2505.453462
937.706632	2485.288846
938.009336	2465.124231
938.312002	2533.179808
938.614628	2515.535769
938.917216	2442.439038
939.219765	2543.262115
939.522275	2518.056346
939.824747	2500.412308
940.127179	2472.685962
940.429573	2409.671538
940.731929	2439.918462
941.034246	2477.727115
941.336524	2565.947308
941.638763	2616.358846
941.940964	2550.823846
942.243126	2434.877308
942.545250	2376.904038
942.847335	2568.467885
943.149381	2467.644808
943.451389	2540.741538
943.753359	2548.303269
944.055290	2462.603654
944.357182	2407.150962
944.659036	2472.685962
944.960851	2450.000769
945.262628	2457.562500
945.564367	2570.988462
945.866067	2437.397885
946.167729	2475.206538
946.469352	2455.041923
946.770937	2487.809423
947.072484	2439.918462
947.373992	2558.385577
947.675462	2412.192115
947.976893	2502.932885
948.278286	2553.344423
948.579641	2439.918462
948.880958	2538.220962
949.182236	2485.288846
949.483476	2540.741538
949.784678	2455.041923
950.085841	2570.988462
950.386967	2518.056346
950.688054	2502.932885
950.989103	2480.247692
951.290114	2573.509038
951.591087	2505.453462
951.892021	2507.974038
952.192917	2444.959615
952.493776	2540.741538
952.794596	2525.618077
953.095378	2583.591346
953.396122	2518.056346
953.696828	2502.932885
953.997496	2525.618077
954.298126	2533.179808
954.598718	2444.959615
954.899272	2513.015192
955.199788	2505.453462
955.500266	2563.426731
955.800706	2480.247692
956.101108	2528.138654
956.401472	2515.535769
956.701798	2513.015192
957.002087	2460.083077
957.302337	2570.988462
957.602550	2437.397885
957.902724	2523.097500
958.202861	2520.576923
958.502960	2550.823846
958.803022	2570.988462
959.103045	2502.932885
959.403031	2414.712692
959.702979	2500.412308
960.002889	2450.000769
960.302762	2570.988462
960.602596	2470.165385
960.902393	2543.262115
961.202153	2540.741538
961.501875	2429.836154
961.801559	2470.165385
962.101205	2470.165385
962.400814	2505.453462
962.700385	2465.124231
962.999918	2560.906154
963.299414	2444.959615
963.598873	2540.741538
963.898293	2523.097500
964.197677	2482.768269
964.497022	2444.959615
964.796331	2477.727115
965.095601	2389.506923
965.394835	2414.712692
965.694030	2525.618077
965.993189	2492.850577
966.292309	2457.562500
966.591393	2576.029615
966.890439	2432.356731
967.189447	2477.727115
967.488419	2485.288846
967.787353	2457.562500
968.086249	2467.644808
968.385108	2586.111923
968.683930	2487.809423
968.982714	2432.356731
969.281462	2502.932885
969.580172	2397.068654
969.878844	2447.480192
970.177480	2513.015192
970.476078	2364.301154
970.774639	2510.494615
971.073162	2432.356731
971.371649	2492.850577
971.670098	2465.124231
971.968510	2427.315577
972.266885	2505.453462
972.565223	2485.288846
972.863524	2495.371154
973.161788	2518.056346
973.460014	2507.974038
973.758204	2497.891731
974.056356	2497.891731
974.354471	2462.603654
974.652550	2467.644808
974.950591	2477.727115
975.248595	2497.891731
975.546563	2492.850577
975.844493	2480.247692
976.142386	2507.974038
976.440243	2422.274423
976.738062	2457.562500
977.035845	2525.618077
977.333590	2510.494615
977.631299	2497.891731
977.928971	2510.494615
978.226606	2533.179808
978.524204	2513.015192
978.821765	2460.083077
979.119290	2477.727115
979.416777	2555.865000
979.714228	2475.206538
980.011642	2495.371154
980.309020	2444.959615
980.606360	2477.727115
980.903664	2543.262115
981.200931	2528.138654
981.498162	2548.303269
981.795356	2492.850577
982.092513	2533.179808
982.389633	2480.247692
982.686717	2538.220962
982.983764	2528.138654
983.280775	2510.494615
983.577749	2535.700385
983.874686	2475.206538
984.171587	2467.644808
984.468451	2482.768269
984.765279	2424.795000
985.062070	2422.274423
985.358824	2467.644808
985.655543	2492.850577
985.952224	2520.576923
986.248869	2533.179808
986.545478	2485.288846
986.842050	2578.550192
987.138586	2475.206538
987.435086	2480.247692
987.731549	2465.124231
988.027975	2518.056346
988.324366	2447.480192
988.620719	2523.097500
988.917037	2510.494615
989.213318	2603.755962
989.509563	2442.439038
989.805772	2487.809423
990.101944	2424.795000
990.398080	2495.371154
990.694180	2520.576923
990.990244	2480.247692
991.286271	2477.727115
991.582262	2563.426731
991.878217	2412.192115
992.174136	2510.494615
992.470019	2434.877308
992.765865	2513.015192
993.061676	2480.247692
993.357450	2480.247692
993.653188	2530.659231
993.948890	2412.192115
994.244556	2404.630385
994.540186	2485.288846
994.835780	2439.918462
995.131337	2570.988462
995.426859	2470.165385
995.722345	2462.603654
996.017795	2467.644808
996.313208	2450.000769
996.608586	2490.330000
996.903928	2520.576923
997.199234	2500.412308
997.494504	2523.097500
997.789738	2485.288846
998.084936	2525.618077
998.380099	2444.959615
998.675225	2450.000769
998.970316	2510.494615
999.265371	2457.562500
999.560390	2518.056346
999.855373	2381.945192
1000.150320	2444.959615
1000.445232	2465.124231
1000.740108	2472.685962
1001.034948	2502.932885
1001.329752	2545.782692
1001.624521	2442.439038
1001.919254	2472.685962
1002.213951	2515.535769
1002.508613	2560.906154
1002.803239	2497.891731
1003.097829	2525.618077
1003.392384	2450.000769
1003.686903	2397.068654
1003.981386	2434.877308
1004.275834	2422.274423
1004.570246	2422.274423
1004.864623	2490.330000
1005.158964	2523.097500
1005.453270	2492.850577
1005.747540	2485.288846
1006.041775	2500.412308
1006.335974	2475.206538
1006.630138	2455.041923
1006.924266	2434.877308
1007.218359	2558.385577
1007.512416	2500.412308
1007.806438	2558.385577
1008.100425	2467.644808
1008.394376	2477.727115
1008.688292	2497.891731
1008.982172	2545.782692
1009.276017	2533.179808
1009.569827	2528.138654
1009.863602	2447.480192
1010.157341	2437.397885
1010.451045	2477.727115
1010.744714	2515.535769
1011.038347	2492.850577
1011.331945	2523.097500
1011.625508	2507.974038
1011.919036	2417.233269
1012.212528	2402.109808
1012.505986	2475.206538
1012.799408	2611.317692
1013.092795	2467.644808
1013.386147	2523.097500
1013.679464	2374.383462
1013.972745	2492.850577
1014.265992	2485.288846
1014.559204	2548.303269
1014.852380	2470.165385
1015.145521	2507.974038
1015.438628	2535.700385
1015.731699	2422.274423
1016.024736	2407.150962
1016.317737	2535.700385
1016.610703	2452.521346
1016.903635	2528.138654
1017.196531	2444.959615
1017.489393	2523.097500
1017.782219	2533.179808
1018.075011	2515.535769
1018.367768	2513.015192
1018.660490	2578.550192
1018.953177	2578.550192
1019.245829	2578.550192
