Dividing Wavelength (nm)	Counts (n)	Blue Motor Position (mm): 1.700000	Red Motor Position (mm): 0.000000	
326.493990	2039.146731
326.888308	2039.146731
327.282561	2039.146731
327.676750	2134.928654
328.070874	2094.599423
328.464933	2087.037692
328.858929	1996.296923
329.252859	2079.475962
329.646726	2094.599423
330.040528	2124.846346
330.434265	2107.202308
330.827938	2182.819615
331.221547	2137.449231
331.615091	2139.969808
332.008571	2190.381346
332.401986	2223.148846
332.795338	2225.669423
333.188625	2248.354615
333.581847	2248.354615
333.975006	2283.642692
334.368100	2296.245577
334.761129	2281.122115
335.154095	2318.930769
335.546996	2349.177692
335.939833	2296.245577
336.332606	2361.780577
336.725315	2439.918462
337.117960	2450.000769
337.510540	2450.000769
337.903056	2472.685962
338.295508	2480.247692
338.687896	2500.412308
339.080220	2434.877308
339.472480	2515.535769
339.864676	2439.918462
340.256807	2414.712692
340.648875	2540.741538
341.040879	2462.603654
341.432818	2442.439038
341.824694	2475.206538
342.216506	2422.274423
342.608253	2495.371154
342.999937	2409.671538
343.391557	2545.782692
343.783113	2442.439038
344.174605	2460.083077
344.566033	2523.097500
344.957397	2424.795000
345.348697	2487.809423
345.739934	2450.000769
346.131106	2475.206538
346.522215	2505.453462
346.913260	2437.397885
347.304241	2507.974038
347.695159	2470.165385
348.086012	2563.426731
348.476802	2417.233269
348.867528	2507.974038
349.258191	2472.685962
349.648789	2444.959615
350.039324	2470.165385
350.429796	2462.603654
350.820203	2417.233269
351.210548	2419.753846
351.600828	2392.027500
351.991045	2439.918462
352.381198	2379.424615
352.771288	2477.727115
353.161314	2480.247692
353.551276	2480.247692
353.941175	2389.506923
354.331010	2394.548077
354.720782	2487.809423
355.110490	2354.218846
355.500135	2460.083077
355.889717	2444.959615
356.279235	2442.439038
356.668689	2321.451346
357.058080	2497.891731
357.447408	2470.165385
357.836672	2427.315577
358.225873	2394.548077
358.615010	2480.247692
359.004084	2467.644808
359.393095	2495.371154
359.782043	2437.397885
360.170927	2386.986346
360.559748	2500.412308
360.948505	2447.480192
361.337199	2482.768269
361.725830	2507.974038
362.114398	2518.056346
362.502903	2399.589231
362.891344	2452.521346
363.279722	2450.000769
363.668037	2513.015192
364.056289	2492.850577
364.444478	2434.877308
364.832603	2450.000769
365.220665	2404.630385
365.608665	2485.288846
365.996601	2465.124231
366.384474	2482.768269
366.772284	2394.548077
367.160031	2427.315577
367.547715	2417.233269
367.935336	2507.974038
368.322893	2329.013077
368.710388	2386.986346
369.097820	2452.521346
369.485189	2376.904038
369.872495	2523.097500
370.259738	2510.494615
370.646918	2528.138654
371.034035	2535.700385
371.421090	2432.356731
371.808081	2470.165385
372.195010	2364.301154
372.581875	2467.644808
372.968678	2422.274423
373.355418	2525.618077
373.742096	2500.412308
374.128710	2467.644808
374.515262	2492.850577
374.901751	2429.836154
375.288177	2437.397885
375.674540	2444.959615
376.060841	2452.521346
376.447079	2455.041923
376.833254	2409.671538
377.219367	2376.904038
377.605417	2392.027500
377.991404	2450.000769
378.377329	2462.603654
378.763191	2525.618077
379.148991	2477.727115
379.534727	2500.412308
379.920402	2394.548077
380.306013	2429.836154
380.691563	2457.562500
381.077049	2472.685962
381.462474	2424.795000
381.847835	2346.657115
382.233134	2480.247692
382.618371	2422.274423
383.003545	2339.095385
383.388657	2437.397885
383.773706	2427.315577
384.158693	2500.412308
384.543618	2434.877308
384.928480	2394.548077
385.313280	2392.027500
385.698017	2472.685962
386.082692	2550.823846
386.467305	2467.644808
386.851856	2543.262115
387.236344	2470.165385
387.620770	2480.247692
388.005133	2465.124231
388.389435	2497.891731
388.773674	2490.330000
389.157851	2490.330000
389.541965	2540.741538
389.926018	2422.274423
390.310008	2487.809423
390.693936	2525.618077
391.077802	2409.671538
391.461606	2510.494615
391.845348	2490.330000
392.229027	2482.768269
392.612645	2477.727115
392.996200	2434.877308
393.379694	2455.041923
393.763125	2455.041923
394.146494	2490.330000
394.529801	2422.274423
394.913047	2462.603654
395.296230	2437.397885
395.679351	2487.809423
396.062410	2520.576923
396.445408	2399.589231
396.828343	2490.330000
397.211217	2477.727115
397.594028	2402.109808
397.976778	2500.412308
398.359466	2334.054231
398.742092	2409.671538
399.124656	2543.262115
399.507158	2455.041923
399.889598	2490.330000
400.271977	2432.356731
400.654294	2545.782692
401.036549	2530.659231
401.418742	2462.603654
401.800874	2490.330000
402.182944	2545.782692
402.564952	2432.356731
402.946898	2419.753846
403.328783	2510.494615
403.710606	2540.741538
404.092367	2412.192115
404.474067	2475.206538
404.855705	2429.836154
405.237282	2460.083077
405.618797	2409.671538
406.000250	2475.206538
406.381642	2507.974038
406.762972	2434.877308
407.144240	2475.206538
407.525447	2404.630385
407.906593	2558.385577
408.287677	2447.480192
408.668700	2397.068654
409.049661	2467.644808
409.430560	2437.397885
409.811399	2397.068654
410.192176	2432.356731
410.572891	2482.768269
410.953545	2528.138654
411.334138	2457.562500
411.714669	2563.426731
412.095139	2455.041923
412.475547	2475.206538
412.855894	2482.768269
413.236180	2447.480192
413.616405	2475.206538
413.996568	2513.015192
414.376670	2502.932885
414.756711	2500.412308
415.136691	2543.262115
415.516609	2437.397885
415.896466	2485.288846
416.276262	2374.383462
416.655997	2505.453462
417.035670	2424.795000
417.415283	2518.056346
417.794834	2467.644808
418.174324	2507.974038
418.553753	2472.685962
418.933121	2553.344423
419.312428	2447.480192
419.691674	2492.850577
420.070859	2467.644808
420.449983	2424.795000
420.829045	2475.206538
421.208047	2518.056346
421.586988	2394.548077
421.965867	2507.974038
422.344686	2457.562500
422.723444	2502.932885
423.102141	2452.521346
423.480777	2427.315577
423.859352	2513.015192
424.237866	2371.862885
424.616319	2520.576923
424.994712	2495.371154
425.373044	2548.303269
425.751314	2475.206538
426.129524	2455.041923
426.507673	2495.371154
426.885762	2392.027500
427.263789	2472.685962
427.641756	2477.727115
428.019662	2477.727115
428.397508	2361.780577
428.775292	2545.782692
429.153016	2510.494615
429.530679	2518.056346
429.908282	2548.303269
430.285824	2505.453462
430.663305	2427.315577
431.040726	2480.247692
431.418086	2523.097500
431.795385	2507.974038
432.172624	2538.220962
432.549802	2467.644808
432.926920	2540.741538
433.303977	2419.753846
433.680974	2492.850577
434.057910	2492.850577
434.434786	2528.138654
434.811601	2515.535769
435.188355	2429.836154
435.565050	2530.659231
435.941683	2424.795000
436.318257	2392.027500
436.694770	2457.562500
437.071222	2394.548077
437.447614	2540.741538
437.823946	2513.015192
438.200218	2535.700385
438.576429	2452.521346
438.952580	2528.138654
439.328670	2439.918462
439.704700	2500.412308
440.080670	2518.056346
440.456580	2510.494615
440.832429	2452.521346
441.208218	2480.247692
441.583947	2631.482308
441.959616	2402.109808
442.335224	2535.700385
442.710773	2480.247692
443.086261	2439.918462
443.461689	2475.206538
443.837057	2540.741538
444.212365	2477.727115
444.587612	2515.535769
444.962800	2550.823846
445.337927	2518.056346
445.712995	2505.453462
446.088002	2482.768269
446.462949	2427.315577
446.837837	2475.206538
447.212664	2452.521346
447.587431	2482.768269
447.962139	2485.288846
448.336786	2518.056346
448.711374	2528.138654
449.085901	2465.124231
449.460369	2510.494615
449.834776	2507.974038
450.209124	2477.727115
450.583412	2492.850577
450.957640	2497.891731
451.331808	2495.371154
451.705917	2437.397885
452.079965	2417.233269
452.453954	2490.330000
452.827883	2437.397885
453.201752	2538.220962
453.575562	2487.809423
453.949311	2518.056346
454.323001	2505.453462
454.696632	2477.727115
455.070202	2477.727115
455.443713	2528.138654
455.817164	2492.850577
456.190556	2507.974038
456.563888	2452.521346
456.937160	2432.356731
457.310373	2477.727115
457.683526	2540.741538
458.056619	2528.138654
458.429653	2485.288846
458.802628	2404.630385
459.175542	2457.562500
459.548398	2455.041923
459.921194	2472.685962
460.293930	2538.220962
460.666607	2583.591346
461.039224	2507.974038
461.411782	2477.727115
461.784280	2530.659231
462.156719	2427.315577
462.529099	2525.618077
462.901419	2447.480192
463.273680	2467.644808
463.645882	2475.206538
464.018024	2492.850577
464.390106	2487.809423
464.762130	2452.521346
465.134094	2477.727115
465.505999	2528.138654
465.877845	2465.124231
466.249631	2442.439038
466.621358	2434.877308
466.993026	2573.509038
467.364634	2457.562500
467.736184	2518.056346
468.107674	2510.494615
468.479105	2528.138654
468.850477	2500.412308
469.221790	2523.097500
469.593043	2457.562500
469.964238	2535.700385
470.335373	2457.562500
470.706449	2495.371154
471.077467	2591.153077
471.448425	2507.974038
471.819324	2507.974038
472.190164	2543.262115
472.560945	2507.974038
472.931667	2500.412308
473.302330	2502.932885
473.672934	2528.138654
474.043479	2470.165385
474.413965	2472.685962
474.784393	2455.041923
475.154761	2520.576923
475.525070	2412.192115
475.895321	2525.618077
476.265513	2515.535769
476.635645	2507.974038
477.005719	2470.165385
477.375734	2495.371154
477.745691	2447.480192
478.115588	2422.274423
478.485427	2482.768269
478.855207	2414.712692
479.224928	2533.179808
479.594591	2538.220962
479.964194	2424.795000
480.333739	2444.959615
480.703226	2497.891731
481.072653	2530.659231
481.442022	2457.562500
481.811333	2507.974038
482.180584	2528.138654
482.549777	2487.809423
482.918912	2515.535769
483.287988	2548.303269
483.657005	2578.550192
484.025964	2578.550192
484.394864	2432.356731
484.763706	2452.521346
485.132489	2513.015192
485.501213	2467.644808
485.869879	2507.974038
486.238487	2495.371154
486.607036	2490.330000
486.975527	2495.371154
487.343959	2447.480192
487.712333	2432.356731
488.080648	2477.727115
488.448905	2439.918462
488.817104	2457.562500
489.185244	2452.521346
489.553326	2535.700385
489.921350	2477.727115
490.289315	2450.000769
490.657222	2507.974038
491.025070	2475.206538
491.392861	2568.467885
491.760593	2447.480192
492.128267	2495.371154
492.495883	2462.603654
492.863440	2462.603654
493.230939	2392.027500
493.598380	2523.097500
493.965763	2462.603654
494.333088	2470.165385
494.700354	2490.330000
495.067563	2465.124231
495.434713	2525.618077
495.801805	2535.700385
496.168839	2424.795000
496.535815	2470.165385
496.902733	2482.768269
497.269593	2513.015192
497.636395	2553.344423
498.003139	2417.233269
498.369825	2465.124231
498.736453	2545.782692
499.103023	2475.206538
499.469535	2470.165385
499.835989	2528.138654
500.202385	2528.138654
500.568723	2432.356731
500.935003	2513.015192
501.301226	2480.247692
501.667390	2568.467885
502.033497	2487.809423
502.399546	2565.947308
502.765537	2485.288846
503.131470	2490.330000
503.497345	2482.768269
503.863163	2492.850577
504.228923	2457.562500
504.594625	2502.932885
504.960269	2550.823846
505.325856	2480.247692
505.691385	2434.877308
506.056856	2482.768269
506.422270	2429.836154
506.787625	2490.330000
507.152924	2485.288846
507.518164	2502.932885
507.883347	2485.288846
508.248472	2576.029615
508.613540	2555.865000
508.978550	2392.027500
509.343503	2621.400000
509.708398	2442.439038
510.073236	2533.179808
510.438016	2563.426731
510.802738	2485.288846
511.167403	2470.165385
511.532010	2399.589231
511.896561	2520.576923
512.261053	2510.494615
512.625488	2497.891731
512.989866	2515.535769
513.354186	2429.836154
513.718449	2560.906154
514.082655	2444.959615
514.446803	2427.315577
514.810894	2523.097500
515.174927	2490.330000
515.538904	2465.124231
515.902822	2533.179808
516.266684	2457.562500
516.630488	2530.659231
516.994235	2490.330000
517.357925	2513.015192
517.721558	2500.412308
518.085133	2518.056346
518.448651	2455.041923
518.812112	2520.576923
519.175516	2515.535769
519.538863	2525.618077
519.902152	2432.356731
520.265385	2457.562500
520.628560	2480.247692
520.991678	2462.603654
521.354739	2518.056346
521.717743	2510.494615
522.080690	2417.233269
522.443580	2570.988462
522.806413	2475.206538
523.169189	2563.426731
523.531908	2455.041923
523.894569	2518.056346
524.257174	2550.823846
524.619722	2523.097500
524.982213	2475.206538
525.344647	2482.768269
525.707025	2518.056346
526.069345	2510.494615
526.431608	2450.000769
526.793815	2447.480192
527.155964	2525.618077
527.518057	2507.974038
527.880093	2455.041923
528.242072	2414.712692
528.603995	2472.685962
528.965860	2467.644808
529.327669	2528.138654
529.689421	2507.974038
530.051117	2553.344423
530.412755	2379.424615
530.774337	2523.097500
531.135862	2482.768269
531.497331	2513.015192
531.858743	2495.371154
532.220098	2475.206538
532.581396	2419.753846
532.942638	2434.877308
533.303824	2414.712692
533.664953	2472.685962
534.026025	2593.673654
534.387040	2545.782692
534.747999	2417.233269
535.108902	2523.097500
535.469748	2530.659231
535.830537	2455.041923
536.191270	2497.891731
536.551947	2442.439038
536.912567	2565.947308
537.273131	2434.877308
537.633638	2523.097500
537.994089	2502.932885
538.354483	2550.823846
538.714821	2472.685962
539.075103	2558.385577
539.435328	2475.206538
539.795497	2480.247692
540.155609	2480.247692
540.515665	2505.453462
540.875665	2447.480192
541.235609	2487.809423
541.595496	2505.453462
541.955328	2419.753846
542.315102	2437.397885
542.674821	2583.591346
543.034483	2518.056346
543.394090	2583.591346
543.753640	2555.865000
544.113134	2513.015192
544.472571	2555.865000
544.831953	2497.891731
545.191278	2465.124231
545.550548	2467.644808
545.909761	2379.424615
546.268918	2523.097500
546.628019	2497.891731
546.987064	2492.850577
547.346053	2533.179808
547.704986	2555.865000
548.063863	2550.823846
548.422684	2518.056346
548.781449	2540.741538
549.140158	2450.000769
549.498811	2588.632500
549.857408	2510.494615
550.215949	2528.138654
550.574434	2419.753846
550.932864	2409.671538
551.291237	2482.768269
551.649555	2520.576923
552.007817	2492.850577
552.366022	2450.000769
552.724173	2555.865000
553.082267	2480.247692
553.440305	2505.453462
553.798288	2450.000769
554.156215	2510.494615
554.514086	2497.891731
554.871902	2495.371154
555.229661	2518.056346
555.587365	2555.865000
555.945014	2414.712692
556.302606	2472.685962
556.660143	2523.097500
557.017625	2558.385577
557.375050	2487.809423
557.732421	2497.891731
558.089735	2570.988462
558.446994	2510.494615
558.804197	2578.550192
559.161345	2452.521346
559.518437	2457.562500
559.875474	2505.453462
560.232455	2455.041923
560.589381	2422.274423
560.946251	2485.288846
561.303065	2563.426731
561.659825	2553.344423
562.016528	2497.891731
562.373177	2525.618077
562.729770	2432.356731
563.086307	2520.576923
563.442789	2434.877308
563.799216	2497.891731
564.155587	2462.603654
564.511904	2520.576923
564.868164	2485.288846
565.224370	2543.262115
565.580520	2543.262115
565.936615	2490.330000
566.292654	2389.506923
566.648638	2528.138654
567.004567	2515.535769
567.360441	2429.836154
567.716260	2535.700385
568.072023	2460.083077
568.427732	2603.755962
568.783385	2397.068654
569.138982	2490.330000
569.494525	2487.809423
569.850013	2555.865000
570.205445	2480.247692
570.560823	2487.809423
570.916145	2379.424615
571.271412	2477.727115
571.626625	2452.521346
571.981782	2525.618077
572.336884	2513.015192
572.691931	2475.206538
573.046923	2477.727115
573.401860	2515.535769
573.756743	2452.521346
574.111570	2475.206538
574.466342	2442.439038
574.821059	2482.768269
575.175722	2518.056346
575.530330	2444.959615
575.884882	2492.850577
576.239380	2565.947308
576.593823	2565.947308
576.948211	2558.385577
577.302544	2432.356731
577.656823	2565.947308
578.011047	2538.220962
578.365216	2598.714808
578.719330	2472.685962
579.073389	2470.165385
579.427394	2462.603654
579.781344	2533.179808
580.135239	2523.097500
580.489080	2439.918462
580.842866	2444.959615
581.196597	2540.741538
581.550273	2540.741538
581.903895	2505.453462
582.257463	2470.165385
582.610975	2538.220962
582.964434	2444.959615
583.317837	2510.494615
583.671186	2528.138654
584.024481	2525.618077
584.377721	2467.644808
584.730906	2462.603654
585.084037	2510.494615
585.437113	2507.974038
585.790135	2528.138654
586.143103	2533.179808
586.496016	2439.918462
586.848874	2570.988462
587.201679	2502.932885
587.554428	2568.467885
587.907124	2515.535769
588.259765	2465.124231
588.612352	2490.330000
588.964884	2465.124231
589.317362	2578.550192
589.669786	2528.138654
590.022155	2417.233269
590.374470	2450.000769
590.726731	2467.644808
591.078937	2548.303269
591.431090	2497.891731
591.783188	2487.809423
592.135232	2520.576923
592.487222	2513.015192
592.839157	2583.591346
593.191038	2467.644808
593.542866	2492.850577
593.894639	2505.453462
594.246358	2560.906154
594.598022	2540.741538
594.949633	2417.233269
595.301190	2530.659231
595.652692	2492.850577
596.004141	2510.494615
596.355535	2419.753846
596.706876	2437.397885
597.058162	2525.618077
597.409395	2490.330000
597.760573	2535.700385
598.111698	2490.330000
598.462768	2507.974038
598.813785	2477.727115
599.164748	2470.165385
599.515657	2487.809423
599.866511	2520.576923
600.217312	2472.685962
600.568060	2472.685962
600.918753	2550.823846
601.269392	2528.138654
601.619978	2460.083077
601.970510	2540.741538
602.320988	2455.041923
602.671412	2515.535769
603.021783	2507.974038
603.372100	2515.535769
603.722363	2470.165385
604.072572	2578.550192
604.422728	2482.768269
604.772830	2513.015192
605.122878	2528.138654
605.472872	2505.453462
605.822813	2462.603654
606.172701	2550.823846
606.522534	2505.453462
606.872314	2548.303269
607.222041	2417.233269
607.571714	2480.247692
607.921333	2555.865000
608.270899	2482.768269
608.620411	2326.492500
608.969870	2523.097500
609.319276	2475.206538
609.668627	2588.632500
610.017926	2515.535769
610.367171	2402.109808
610.716362	2490.330000
611.065500	2467.644808
611.414585	2502.932885
611.763616	2548.303269
612.112594	2399.589231
612.461518	2485.288846
612.810389	2487.809423
613.159207	2570.988462
613.507971	2447.480192
613.856682	2510.494615
614.205340	2467.644808
614.553945	2442.439038
614.902496	2510.494615
615.250994	2442.439038
615.599439	2475.206538
615.947830	2462.603654
616.296169	2520.576923
616.644454	2550.823846
616.992686	2450.000769
617.340864	2487.809423
617.688990	2460.083077
618.037063	2540.741538
618.385082	2520.576923
618.733048	2404.630385
619.080961	2507.974038
619.428821	2570.988462
619.776628	2490.330000
620.124382	2540.741538
620.472083	2487.809423
620.819731	2538.220962
621.167326	2495.371154
621.514868	2591.153077
621.862357	2520.576923
622.209793	2533.179808
622.557176	2467.644808
622.904506	2502.932885
623.251783	2530.659231
623.599007	2515.535769
623.946179	2555.865000
624.293297	2513.015192
624.640363	2505.453462
624.987376	2429.836154
625.334336	2467.644808
625.681243	2477.727115
626.028097	2520.576923
626.374899	2593.673654
626.721647	2500.412308
627.068343	2548.303269
627.414987	2422.274423
627.761577	2500.412308
628.108115	2460.083077
628.454600	2480.247692
628.801032	2533.179808
629.147412	2480.247692
629.493739	2540.741538
629.840014	2510.494615
630.186236	2500.412308
630.532405	2525.618077
630.878521	2465.124231
631.224585	2465.124231
631.570597	2550.823846
631.916556	2434.877308
632.262462	2457.562500
632.608316	2533.179808
632.954117	2513.015192
633.299866	2404.630385
633.645562	2507.974038
633.991206	2452.521346
634.336797	2510.494615
634.682336	2450.000769
635.027823	2568.467885
635.373257	2397.068654
635.718639	2470.165385
636.063968	2495.371154
636.409245	2565.947308
636.754470	2578.550192
637.099642	2497.891731
637.444762	2475.206538
637.789829	2467.644808
638.134845	2492.850577
638.479808	2452.521346
638.824719	2492.850577
639.169577	2533.179808
639.514383	2457.562500
639.859137	2586.111923
640.203839	2515.535769
640.548489	2530.659231
640.893086	2434.877308
641.237632	2341.615962
641.582125	2477.727115
641.926566	2472.685962
642.270955	2530.659231
642.615292	2482.768269
642.959576	2510.494615
643.303809	2457.562500
643.647990	2485.288846
643.992118	2525.618077
644.336195	2490.330000
644.680219	2515.535769
645.024192	2487.809423
645.368112	2528.138654
645.711981	2513.015192
646.055797	2510.494615
646.399562	2502.932885
646.743274	2457.562500
647.086935	2513.015192
647.430544	2490.330000
647.774101	2540.741538
648.117606	2490.330000
648.461059	2538.220962
648.804460	2490.330000
649.147810	2500.412308
649.491108	2510.494615
649.834354	2475.206538
650.177548	2613.838269
650.520690	2505.453462
650.863781	2490.330000
651.206820	2570.988462
651.549807	2462.603654
651.892742	2470.165385
652.235626	2518.056346
652.578458	2525.618077
652.921238	2540.741538
653.263967	2550.823846
653.606644	2419.753846
653.949269	2523.097500
654.291843	2462.603654
654.634365	2444.959615
654.976836	2576.029615
655.319255	2480.247692
655.661622	2485.288846
656.003938	2510.494615
656.346203	2447.480192
656.688416	2447.480192
657.030577	2530.659231
657.372687	2432.356731
657.714746	2525.618077
658.056753	2583.591346
658.398708	2422.274423
658.740612	2495.371154
659.082465	2500.412308
659.424266	2477.727115
659.766016	2550.823846
660.107715	2510.494615
660.449362	2518.056346
660.790958	2480.247692
661.132503	2563.426731
661.473996	2444.959615
661.815438	2485.288846
662.156829	2553.344423
662.498168	2581.070769
662.839456	2535.700385
663.180693	2467.644808
663.521879	2492.850577
663.863013	2500.412308
664.204097	2586.111923
664.545129	2447.480192
664.886110	2593.673654
665.227040	2495.371154
665.567918	2545.782692
665.908746	2518.056346
666.249522	2477.727115
666.590248	2475.206538
666.930922	2553.344423
667.271545	2432.356731
667.612118	2558.385577
667.952639	2487.809423
668.293109	2487.809423
668.633528	2465.124231
668.973896	2495.371154
669.314213	2432.356731
669.654480	2477.727115
669.994695	2472.685962
670.334859	2477.727115
670.674973	2371.862885
671.015035	2434.877308
671.355047	2502.932885
671.695008	2576.029615
672.034918	2472.685962
672.374777	2495.371154
672.714585	2497.891731
673.054342	2475.206538
673.394049	2523.097500
673.733705	2475.206538
674.073310	2397.068654
674.412864	2452.521346
674.752368	2533.179808
675.091820	2424.795000
675.431223	2482.768269
675.770574	2523.097500
676.109875	2495.371154
676.449125	2455.041923
676.788324	2452.521346
677.127473	2485.288846
677.466571	2490.330000
677.805619	2482.768269
678.144616	2543.262115
678.483562	2560.906154
678.822458	2432.356731
679.161303	2480.247692
679.500098	2470.165385
679.838842	2439.918462
680.177535	2455.041923
680.516179	2460.083077
680.854771	2510.494615
681.193314	2586.111923
681.531805	2455.041923
681.870247	2507.974038
682.208638	2439.918462
682.546978	2495.371154
682.885268	2497.891731
683.223508	2518.056346
683.561697	2518.056346
683.899836	2520.576923
684.237925	2467.644808
684.575963	2558.385577
684.913951	2492.850577
685.251889	2497.891731
685.589776	2470.165385
685.927614	2477.727115
686.265401	2558.385577
686.603137	2505.453462
686.940824	2437.397885
687.278460	2535.700385
687.616046	2482.768269
687.953582	2518.056346
688.291068	2477.727115
688.628504	2538.220962
688.965889	2462.603654
689.303224	2550.823846
689.640510	2412.192115
689.977745	2507.974038
690.314930	2497.891731
690.652065	2460.083077
690.989150	2424.795000
691.326185	2500.412308
691.663170	2518.056346
692.000105	2538.220962
692.336990	2455.041923
692.673825	2518.056346
693.010610	2510.494615
693.347345	2472.685962
693.684030	2467.644808
694.020665	2513.015192
694.357251	2518.056346
694.693786	2444.959615
695.030272	2490.330000
695.366707	2568.467885
695.703093	2475.206538
696.039429	2502.932885
696.375716	2442.439038
696.711952	2500.412308
697.048139	2533.179808
697.384276	2452.521346
697.720363	2500.412308
698.056400	2515.535769
698.392388	2495.371154
698.728326	2480.247692
699.064214	2490.330000
699.400053	2515.535769
699.735842	2573.509038
700.071581	2376.904038
700.407270	2409.671538
700.742910	2550.823846
701.078501	2518.056346
701.414042	2485.288846
701.749533	2472.685962
702.084974	2505.453462
702.420366	2535.700385
702.755709	2548.303269
703.091002	2497.891731
703.426246	2465.124231
703.761440	2492.850577
704.096584	2482.768269
704.431679	2528.138654
704.766725	2497.891731
705.101721	2417.233269
705.436668	2550.823846
705.771565	2550.823846
706.106413	2538.220962
706.441212	2513.015192
706.775961	2336.574808
707.110661	2535.700385
707.445311	2470.165385
707.779913	2563.426731
708.114465	2495.371154
708.448967	2568.467885
708.783421	2563.426731
709.117825	2495.371154
709.452180	2576.029615
709.786485	2467.644808
710.120742	2472.685962
710.454949	2424.795000
710.789107	2568.467885
711.123216	2462.603654
711.457275	2543.262115
711.791286	2505.453462
712.125247	2462.603654
712.459159	2533.179808
712.793023	2419.753846
713.126837	2500.412308
713.460602	2467.644808
713.794318	2535.700385
714.127985	2570.988462
714.461602	2505.453462
714.795171	2485.288846
715.128691	2432.356731
715.462162	2447.480192
715.795584	2450.000769
716.128957	2568.467885
716.462281	2598.714808
716.795556	2505.453462
717.128782	2523.097500
717.461960	2450.000769
717.795088	2437.397885
718.128167	2518.056346
718.461198	2487.809423
718.794180	2500.412308
719.127113	2455.041923
719.459997	2497.891731
719.792833	2477.727115
720.125619	2523.097500
720.458357	2485.288846
720.791046	2513.015192
721.123686	2553.344423
721.456278	2487.809423
721.788821	2525.618077
722.121315	2477.727115
722.453761	2495.371154
722.786158	2444.959615
723.118506	2573.509038
723.450805	2502.932885
723.783056	2437.397885
724.115259	2502.932885
724.447412	2513.015192
724.779518	2460.083077
725.111574	2555.865000
725.443582	2533.179808
725.775542	2500.412308
726.107453	2399.589231
726.439315	2525.618077
726.771129	2457.562500
727.102895	2510.494615
727.434612	2460.083077
727.766281	2565.947308
728.097901	2452.521346
728.429473	2437.397885
728.760996	2596.194231
729.092471	2480.247692
729.423897	2492.850577
729.755276	2444.959615
730.086606	2427.315577
730.417887	2553.344423
730.749120	2419.753846
731.080305	2434.877308
731.411442	2568.467885
731.742530	2528.138654
732.073570	2460.083077
732.404562	2510.494615
732.735506	2518.056346
733.066401	2548.303269
733.397249	2523.097500
733.728048	2470.165385
734.058798	2570.988462
734.389501	2477.727115
734.720156	2563.426731
735.050762	2404.630385
735.381320	2535.700385
735.711831	2530.659231
736.042293	2477.727115
736.372707	2535.700385
736.703073	2513.015192
737.033391	2366.821731
737.363661	2510.494615
737.693883	2477.727115
738.024056	2533.179808
738.354182	2535.700385
738.684260	2482.768269
739.014290	2470.165385
739.344272	2523.097500
739.674207	2550.823846
740.004093	2467.644808
740.333931	2419.753846
740.663722	2515.535769
740.993464	2530.659231
741.323159	2530.659231
741.652806	2533.179808
741.982405	2515.535769
742.311956	2502.932885
742.641460	2545.782692
742.970915	2505.453462
743.300323	2545.782692
743.629683	2518.056346
743.958996	2495.371154
744.288260	2477.727115
744.617477	2502.932885
744.946647	2442.439038
745.275768	2553.344423
745.604842	2492.850577
745.933869	2442.439038
746.262847	2565.947308
746.591778	2570.988462
746.920662	2576.029615
747.249498	2510.494615
747.578286	2515.535769
747.907027	2482.768269
748.235720	2581.070769
748.564365	2477.727115
748.892963	2510.494615
749.221514	2462.603654
749.550017	2495.371154
749.878473	2550.823846
750.206881	2497.891731
750.535242	2540.741538
750.863555	2485.288846
751.191821	2518.056346
751.520039	2495.371154
751.848210	2472.685962
752.176334	2490.330000
752.504411	2543.262115
752.832440	2427.315577
753.160421	2457.562500
753.488356	2389.506923
753.816243	2465.124231
754.144082	2480.247692
754.471875	2523.097500
754.799620	2523.097500
755.127318	2500.412308
755.454969	2497.891731
755.782572	2495.371154
756.110129	2525.618077
756.437638	2384.465769
756.765100	2515.535769
757.092515	2548.303269
757.419882	2543.262115
757.747203	2513.015192
758.074477	2462.603654
758.401703	2477.727115
758.728882	2432.356731
759.056014	2419.753846
759.383099	2560.906154
759.710138	2480.247692
760.037129	2543.262115
760.364073	2540.741538
760.690970	2485.288846
761.017820	2515.535769
761.344623	2389.506923
761.671379	2434.877308
761.998088	2460.083077
762.324751	2518.056346
762.651366	2442.439038
762.977935	2429.836154
763.304456	2523.097500
763.630931	2475.206538
763.957359	2497.891731
764.283740	2525.618077
764.610074	2490.330000
764.936362	2439.918462
765.262602	2502.932885
765.588796	2523.097500
765.914943	2487.809423
766.241044	2465.124231
766.567097	2540.741538
766.893104	2505.453462
767.219064	2444.959615
767.544978	2447.480192
767.870845	2543.262115
768.196665	2560.906154
768.522438	2507.974038
768.848165	2487.809423
769.173846	2543.262115
769.499479	2409.671538
769.825066	2480.247692
770.150607	2497.891731
770.476101	2502.932885
770.801548	2419.753846
771.126949	2470.165385
771.452303	2429.836154
771.777611	2442.439038
772.102872	2540.741538
772.428087	2470.165385
772.753256	2505.453462
773.078378	2530.659231
773.403453	2470.165385
773.728482	2404.630385
774.053465	2444.959615
774.378401	2467.644808
774.703291	2510.494615
775.028135	2470.165385
775.352932	2513.015192
775.677683	2487.809423
776.002388	2472.685962
776.327046	2475.206538
776.651658	2560.906154
776.976224	2470.165385
777.300743	2543.262115
777.625216	2485.288846
777.949643	2457.562500
778.274024	2460.083077
778.598359	2485.288846
778.922647	2434.877308
779.246889	2477.727115
779.571086	2507.974038
779.895236	2520.576923
780.219339	2497.891731
780.543397	2487.809423
780.867409	2507.974038
781.191374	2442.439038
781.515294	2409.671538
781.839167	2452.521346
782.162995	2402.109808
782.486776	2553.344423
782.810511	2510.494615
783.134201	2505.453462
783.457844	2490.330000
783.781441	2550.823846
784.104993	2485.288846
784.428498	2460.083077
784.751958	2422.274423
785.075372	2510.494615
785.398739	2515.535769
785.722061	2397.068654
786.045337	2525.618077
786.368568	2470.165385
786.691752	2444.959615
787.014891	2553.344423
787.337983	2457.562500
787.661030	2548.303269
787.984031	2470.165385
788.306987	2482.768269
788.629897	2550.823846
788.952760	2422.274423
789.275579	2457.562500
789.598351	2525.618077
789.921078	2465.124231
790.243759	2500.412308
790.566395	2455.041923
790.888984	2477.727115
791.211529	2518.056346
791.534027	2447.480192
791.856480	2424.795000
792.178888	2502.932885
792.501249	2523.097500
792.823566	2462.603654
793.145836	2462.603654
793.468062	2553.344423
793.790241	2495.371154
794.112375	2570.988462
794.434464	2520.576923
794.756507	2444.959615
795.078505	2545.782692
795.400457	2371.862885
795.722364	2520.576923
796.044226	2475.206538
796.366042	2492.850577
796.687812	2543.262115
797.009538	2490.330000
797.331218	2500.412308
797.652852	2447.480192
797.974442	2515.535769
798.295986	2500.412308
798.617484	2505.453462
798.938938	2485.288846
799.260346	2513.015192
799.581709	2432.356731
799.903026	2510.494615
800.224299	2437.397885
800.545526	2477.727115
800.866708	2480.247692
801.187845	2505.453462
801.508936	2475.206538
801.829983	2487.809423
802.150984	2492.850577
802.471940	2485.288846
802.792851	2442.439038
803.113717	2528.138654
803.434538	2568.467885
803.755314	2555.865000
804.076045	2452.521346
804.396731	2465.124231
804.717372	2462.603654
805.037967	2482.768269
805.358518	2588.632500
805.679024	2465.124231
805.999485	2548.303269
806.319901	2444.959615
806.640272	2470.165385
806.960598	2462.603654
807.280879	2462.603654
807.601115	2583.591346
807.921306	2507.974038
808.241453	2424.795000
808.561554	2495.371154
808.881611	2470.165385
809.201623	2560.906154
809.521590	2558.385577
809.841513	2482.768269
810.161390	2533.179808
810.481223	2444.959615
810.801011	2419.753846
811.120755	2492.850577
811.440453	2404.630385
811.760107	2470.165385
812.079716	2467.644808
812.399281	2545.782692
812.718801	2450.000769
813.038276	2492.850577
813.357707	2475.206538
813.677093	2472.685962
813.996434	2502.932885
814.315731	2500.412308
814.634983	2485.288846
814.954191	2472.685962
815.273354	2450.000769
815.592473	2450.000769
815.911547	2510.494615
816.230577	2482.768269
816.549562	2555.865000
816.868502	2465.124231
817.187399	2505.453462
817.506250	2576.029615
817.825058	2545.782692
818.143821	2507.974038
818.462539	2437.397885
818.781213	2467.644808
819.099843	2392.027500
819.418429	2528.138654
819.736970	2558.385577
820.055466	2472.685962
820.373919	2548.303269
820.692327	2525.618077
821.010691	2528.138654
821.329011	2563.426731
821.647286	2611.317692
821.965517	2457.562500
822.283704	2538.220962
822.601847	2513.015192
822.919945	2475.206538
823.237999	2555.865000
823.556010	2502.932885
823.873976	2553.344423
824.191897	2520.576923
824.509775	2437.397885
824.827609	2548.303269
825.145398	2515.535769
825.463144	2505.453462
825.780845	2555.865000
826.098502	2482.768269
826.416116	2507.974038
826.733685	2518.056346
827.051210	2467.644808
827.368692	2467.644808
827.686129	2495.371154
828.003522	2502.932885
828.320872	2553.344423
828.638177	2472.685962
828.955439	2497.891731
829.272656	2462.603654
829.589830	2505.453462
829.906960	2444.959615
830.224046	2545.782692
830.541088	2457.562500
830.858086	2429.836154
831.175041	2472.685962
831.491952	2563.426731
831.808819	2472.685962
832.125642	2502.932885
832.442421	2465.124231
832.759157	2525.618077
833.075849	2550.823846
833.392497	2495.371154
833.709101	2465.124231
834.025662	2422.274423
834.342179	2538.220962
834.658653	2465.124231
834.975083	2533.179808
835.291469	2482.768269
835.607811	2520.576923
835.924110	2533.179808
836.240366	2437.397885
836.556578	2500.412308
836.872746	2475.206538
837.188871	2530.659231
837.504952	2525.618077
837.820990	2472.685962
838.136984	2530.659231
838.452935	2553.344423
838.768842	2525.618077
839.084706	2427.315577
839.400526	2510.494615
839.716303	2540.741538
840.032037	2465.124231
840.347727	2487.809423
840.663373	2477.727115
840.978977	2505.453462
841.294537	2495.371154
841.610054	2487.809423
841.925527	2497.891731
842.240957	2593.673654
842.556344	2472.685962
842.871687	2568.467885
843.186987	2422.274423
843.502244	2538.220962
843.817458	2429.836154
844.132629	2540.741538
844.447756	2452.521346
844.762840	2601.235385
845.077881	2497.891731
845.392879	2450.000769
845.707833	2500.412308
846.022745	2510.494615
846.337613	2555.865000
846.652438	2472.685962
846.967221	2505.453462
847.281960	2570.988462
847.596656	2419.753846
847.911309	2497.891731
848.225919	2475.206538
848.540485	2437.397885
848.855009	2495.371154
849.169490	2500.412308
849.483928	2482.768269
849.798323	2477.727115
850.112675	2497.891731
850.426984	2533.179808
850.741251	2450.000769
851.055474	2485.288846
851.369654	2553.344423
851.683792	2507.974038
851.997887	2510.494615
852.311938	2535.700385
852.625947	2558.385577
852.939914	2591.153077
853.253837	2482.768269
853.567718	2485.288846
853.881555	2573.509038
854.195350	2502.932885
854.509103	2455.041923
854.822812	2444.959615
855.136479	2422.274423
855.450103	2510.494615
855.763685	2475.206538
856.077224	2462.603654
856.390720	2533.179808
856.704173	2475.206538
857.017584	2490.330000
857.330953	2467.644808
857.644278	2510.494615
857.957561	2545.782692
858.270802	2467.644808
858.584000	2520.576923
858.897155	2553.344423
859.210268	2389.506923
859.523339	2507.974038
859.836367	2417.233269
860.149352	2500.412308
860.462295	2434.877308
860.775195	2485.288846
861.088054	2487.809423
861.400869	2427.315577
861.713642	2500.412308
862.026373	2407.150962
862.339062	2482.768269
862.651708	2497.891731
862.964312	2507.974038
863.276873	2596.194231
863.589392	2507.974038
863.901869	2465.124231
864.214303	2462.603654
864.526696	2523.097500
864.839045	2523.097500
865.151353	2507.974038
865.463619	2477.727115
865.775842	2510.494615
866.088023	2439.918462
866.400162	2470.165385
866.712258	2543.262115
867.024313	2477.727115
867.336325	2515.535769
867.648296	2525.618077
867.960224	2500.412308
868.272110	2475.206538
868.583954	2502.932885
868.895755	2437.397885
869.207515	2523.097500
869.519233	2470.165385
869.830909	2487.809423
870.142542	2540.741538
870.454134	2386.986346
870.765684	2444.959615
871.077191	2520.576923
871.388657	2412.192115
871.700081	2460.083077
872.011463	2462.603654
872.322803	2442.439038
872.634101	2485.288846
872.945357	2540.741538
873.256571	2439.918462
873.567744	2525.618077
873.878874	2409.671538
874.189963	2442.439038
874.501010	2570.988462
874.812015	2470.165385
875.122979	2487.809423
875.433900	2560.906154
875.744780	2500.412308
876.055618	2460.083077
876.366415	2545.782692
876.677169	2528.138654
876.987882	2455.041923
877.298554	2480.247692
877.609183	2485.288846
877.919771	2507.974038
878.230317	2462.603654
878.540822	2492.850577
878.851285	2535.700385
879.161707	2518.056346
879.472087	2452.521346
879.782425	2495.371154
880.092722	2485.288846
880.402977	2477.727115
880.713191	2528.138654
881.023363	2505.453462
881.333494	2432.356731
881.643583	2528.138654
881.953631	2482.768269
882.263637	2497.891731
882.573602	2487.809423
882.883526	2540.741538
883.193408	2472.685962
883.503248	2460.083077
883.813048	2573.509038
884.122806	2442.439038
884.432522	2565.947308
884.742197	2455.041923
885.051831	2455.041923
885.361424	2470.165385
885.670975	2475.206538
885.980485	2533.179808
886.289954	2507.974038
886.599382	2487.809423
886.908768	2555.865000
887.218113	2502.932885
887.527417	2505.453462
887.836680	2457.562500
888.145901	2492.850577
888.455082	2467.644808
888.764221	2419.753846
889.073319	2492.850577
889.382376	2437.397885
889.691392	2475.206538
890.000366	2472.685962
890.309300	2480.247692
890.618193	2495.371154
890.927044	2447.480192
891.235855	2543.262115
891.544625	2530.659231
891.853353	2450.000769
892.162041	2573.509038
892.470687	2457.562500
892.779293	2490.330000
893.087858	2520.576923
893.396381	2505.453462
893.704864	2490.330000
894.013306	2432.356731
894.321707	2414.712692
894.630068	2505.453462
894.938387	2477.727115
895.246665	2485.288846
895.554903	2490.330000
895.863100	2497.891731
896.171256	2467.644808
896.479371	2492.850577
896.787446	2386.986346
897.095480	2510.494615
897.403473	2417.233269
897.711425	2442.439038
898.019336	2455.041923
898.327207	2472.685962
898.635038	2550.823846
898.942827	2457.562500
899.250576	2530.659231
899.558284	2528.138654
899.865952	2465.124231
900.173579	2475.206538
900.481165	2477.727115
900.788711	2495.371154
901.096216	2507.974038
901.403681	2462.603654
901.711105	2573.509038
902.018489	2467.644808
902.325832	2502.932885
902.633135	2427.315577
902.940397	2545.782692
903.247619	2525.618077
903.554800	2457.562500
903.861941	2550.823846
904.169041	2492.850577
904.476101	2472.685962
904.783121	2563.426731
905.090100	2442.439038
905.397039	2444.959615
905.703938	2455.041923
906.010796	2444.959615
906.317614	2490.330000
906.624391	2495.371154
906.931129	2432.356731
907.237826	2528.138654
907.544483	2578.550192
907.851099	2586.111923
908.157675	2502.932885
908.464211	2470.165385
908.770707	2447.480192
909.077163	2467.644808
909.383578	2502.932885
909.689954	2515.535769
909.996289	2480.247692
910.302584	2487.809423
910.608839	2502.932885
910.915054	2470.165385
911.221229	2462.603654
911.527363	2434.877308
911.833458	2497.891731
912.139513	2419.753846
912.445527	2500.412308
912.751502	2530.659231
913.057436	2462.603654
913.363331	2548.303269
913.669186	2591.153077
913.975000	2470.165385
914.280775	2565.947308
914.586510	2470.165385
914.892205	2492.850577
915.197859	2520.576923
915.503475	2545.782692
915.809050	2492.850577
916.114585	2465.124231
916.420081	2475.206538
916.725536	2530.659231
917.030952	2513.015192
917.336328	2429.836154
917.641665	2477.727115
917.946961	2472.685962
918.252218	2510.494615
918.557435	2500.412308
918.862612	2525.618077
919.167750	2492.850577
919.472848	2450.000769
919.777906	2505.453462
920.082925	2429.836154
920.387904	2538.220962
920.692843	2495.371154
920.997743	2444.959615
921.302603	2477.727115
921.607423	2525.618077
921.912204	2472.685962
922.216946	2472.685962
922.521647	2578.550192
922.826310	2523.097500
923.130932	2437.397885
923.435516	2465.124231
923.740059	2500.412308
924.044564	2513.015192
924.349028	2460.083077
924.653454	2487.809423
924.957840	2467.644808
925.262186	2460.083077
925.566493	2570.988462
925.870761	2465.124231
926.174989	2518.056346
926.479178	2497.891731
926.783328	2485.288846
927.087438	2510.494615
927.391509	2487.809423
927.695541	2502.932885
927.999533	2417.233269
928.303486	2427.315577
928.607400	2470.165385
928.911275	2442.439038
929.215110	2424.795000
929.518906	2427.315577
929.822663	2482.768269
930.126381	2424.795000
930.430060	2555.865000
930.733699	2442.439038
931.037299	2472.685962
931.340861	2480.247692
931.644383	2603.755962
931.947866	2528.138654
932.251309	2439.918462
932.554714	2505.453462
932.858080	2439.918462
933.161407	2500.412308
933.464694	2518.056346
933.767943	2500.412308
934.071153	2447.480192
934.374323	2480.247692
934.677455	2550.823846
934.980548	2477.727115
935.283602	2475.206538
935.586617	2472.685962
935.889593	2545.782692
936.192530	2460.083077
936.495428	2507.974038
936.798287	2467.644808
937.101108	2515.535769
937.403890	2548.303269
937.706632	2520.576923
938.009336	2563.426731
938.312002	2477.727115
938.614628	2513.015192
938.917216	2558.385577
939.219765	2530.659231
939.522275	2450.000769
939.824747	2447.480192
940.127179	2455.041923
940.429573	2578.550192
940.731929	2530.659231
941.034246	2419.753846
941.336524	2568.467885
941.638763	2427.315577
941.940964	2462.603654
942.243126	2576.029615
942.545250	2485.288846
942.847335	2533.179808
943.149381	2462.603654
943.451389	2515.535769
943.753359	2472.685962
944.055290	2548.303269
944.357182	2520.576923
944.659036	2450.000769
944.960851	2518.056346
945.262628	2525.618077
945.564367	2482.768269
945.866067	2419.753846
946.167729	2465.124231
946.469352	2528.138654
946.770937	2482.768269
947.072484	2470.165385
947.373992	2510.494615
947.675462	2513.015192
947.976893	2518.056346
948.278286	2429.836154
948.579641	2565.947308
948.880958	2455.041923
949.182236	2495.371154
949.483476	2467.644808
949.784678	2500.412308
950.085841	2598.714808
950.386967	2477.727115
950.688054	2452.521346
950.989103	2412.192115
951.290114	2515.535769
951.591087	2518.056346
951.892021	2523.097500
952.192917	2525.618077
952.493776	2540.741538
952.794596	2568.467885
953.095378	2563.426731
953.396122	2434.877308
953.696828	2482.768269
953.997496	2419.753846
954.298126	2598.714808
954.598718	2460.083077
954.899272	2447.480192
955.199788	2470.165385
955.500266	2545.782692
955.800706	2553.344423
956.101108	2465.124231
956.401472	2533.179808
956.701798	2475.206538
957.002087	2497.891731
957.302337	2475.206538
957.602550	2513.015192
957.902724	2455.041923
958.202861	2452.521346
958.502960	2578.550192
958.803022	2467.644808
959.103045	2520.576923
959.403031	2452.521346
959.702979	2470.165385
960.002889	2513.015192
960.302762	2533.179808
960.602596	2485.288846
960.902393	2485.288846
961.202153	2414.712692
961.501875	2530.659231
961.801559	2450.000769
962.101205	2543.262115
962.400814	2452.521346
962.700385	2442.439038
962.999918	2530.659231
963.299414	2510.494615
963.598873	2505.453462
963.898293	2520.576923
964.197677	2530.659231
964.497022	2495.371154
964.796331	2500.412308
965.095601	2422.274423
965.394835	2434.877308
965.694030	2525.618077
965.993189	2452.521346
966.292309	2540.741538
966.591393	2545.782692
966.890439	2538.220962
967.189447	2462.603654
967.488419	2510.494615
967.787353	2480.247692
968.086249	2472.685962
968.385108	2533.179808
968.683930	2439.918462
968.982714	2525.618077
969.281462	2505.453462
969.580172	2455.041923
969.878844	2485.288846
970.177480	2490.330000
970.476078	2528.138654
970.774639	2437.397885
971.073162	2447.480192
971.371649	2548.303269
971.670098	2505.453462
971.968510	2477.727115
972.266885	2563.426731
972.565223	2507.974038
972.863524	2513.015192
973.161788	2386.986346
973.460014	2432.356731
973.758204	2414.712692
974.056356	2452.521346
974.354471	2510.494615
974.652550	2457.562500
974.950591	2515.535769
975.248595	2497.891731
975.546563	2500.412308
975.844493	2490.330000
976.142386	2573.509038
976.440243	2477.727115
976.738062	2442.439038
977.035845	2485.288846
977.333590	2515.535769
977.631299	2530.659231
977.928971	2538.220962
978.226606	2505.453462
978.524204	2507.974038
978.821765	2462.603654
979.119290	2475.206538
979.416777	2452.521346
979.714228	2482.768269
980.011642	2523.097500
980.309020	2500.412308
980.606360	2432.356731
980.903664	2444.959615
981.200931	2455.041923
981.498162	2500.412308
981.795356	2510.494615
982.092513	2480.247692
982.389633	2563.426731
982.686717	2472.685962
982.983764	2530.659231
983.280775	2434.877308
983.577749	2510.494615
983.874686	2475.206538
984.171587	2495.371154
984.468451	2505.453462
984.765279	2507.974038
985.062070	2480.247692
985.358824	2513.015192
985.655543	2528.138654
985.952224	2432.356731
986.248869	2497.891731
986.545478	2500.412308
986.842050	2545.782692
987.138586	2507.974038
987.435086	2550.823846
987.731549	2472.685962
988.027975	2475.206538
988.324366	2583.591346
988.620719	2492.850577
988.917037	2404.630385
989.213318	2495.371154
989.509563	2507.974038
989.805772	2500.412308
990.101944	2505.453462
990.398080	2472.685962
990.694180	2528.138654
990.990244	2412.192115
991.286271	2465.124231
991.582262	2482.768269
991.878217	2490.330000
992.174136	2447.480192
992.470019	2505.453462
992.765865	2432.356731
993.061676	2570.988462
993.357450	2520.576923
993.653188	2497.891731
993.948890	2397.068654
994.244556	2480.247692
994.540186	2434.877308
994.835780	2535.700385
995.131337	2507.974038
995.426859	2528.138654
995.722345	2490.330000
996.017795	2553.344423
996.313208	2492.850577
996.608586	2507.974038
996.903928	2381.945192
997.199234	2591.153077
997.494504	2530.659231
997.789738	2450.000769
998.084936	2583.591346
998.380099	2424.795000
998.675225	2505.453462
998.970316	2550.823846
999.265371	2535.700385
999.560390	2510.494615
999.855373	2513.015192
1000.150320	2412.192115
1000.445232	2520.576923
1000.740108	2447.480192
1001.034948	2515.535769
1001.329752	2444.959615
1001.624521	2490.330000
1001.919254	2455.041923
1002.213951	2482.768269
1002.508613	2492.850577
1002.803239	2543.262115
1003.097829	2470.165385
1003.392384	2427.315577
1003.686903	2485.288846
1003.981386	2460.083077
1004.275834	2545.782692
1004.570246	2485.288846
1004.864623	2513.015192
1005.158964	2462.603654
1005.453270	2515.535769
1005.747540	2417.233269
1006.041775	2492.850577
1006.335974	2495.371154
1006.630138	2530.659231
1006.924266	2467.644808
1007.218359	2513.015192
1007.512416	2480.247692
1007.806438	2523.097500
1008.100425	2470.165385
1008.394376	2497.891731
1008.688292	2450.000769
1008.982172	2424.795000
1009.276017	2460.083077
1009.569827	2475.206538
1009.863602	2442.439038
1010.157341	2470.165385
1010.451045	2487.809423
1010.744714	2455.041923
1011.038347	2528.138654
1011.331945	2384.465769
1011.625508	2399.589231
1011.919036	2518.056346
1012.212528	2523.097500
1012.505986	2507.974038
1012.799408	2417.233269
1013.092795	2429.836154
1013.386147	2381.945192
1013.679464	2490.330000
1013.972745	2437.397885
1014.265992	2513.015192
1014.559204	2505.453462
1014.852380	2520.576923
1015.145521	2505.453462
1015.438628	2422.274423
1015.731699	2490.330000
1016.024736	2513.015192
1016.317737	2520.576923
1016.610703	2467.644808
1016.903635	2444.959615
1017.196531	2480.247692
1017.489393	2470.165385
1017.782219	2525.618077
1018.075011	2543.262115
1018.367768	2407.150962
1018.660490	2450.000769
1018.953177	2450.000769
1019.245829	2450.000769
