Dividing Wavelength (nm)	Counts (n)	Blue Motor Position (mm): 8.000000	Red Motor Position (mm): 0.000000	
326.493990	2170.216731
326.888308	2170.216731
327.282561	2170.216731
327.676750	2177.778462
328.070874	2097.120000
328.464933	2177.778462
328.858929	2150.052115
329.252859	2205.504808
329.646726	2187.860769
330.040528	2223.148846
330.434265	2197.943077
330.827938	2248.354615
331.221547	2260.957500
331.615091	2213.066538
332.008571	2336.574808
332.401986	2329.013077
332.795338	2329.013077
333.188625	2339.095385
333.581847	2346.657115
333.975006	2392.027500
334.368100	2470.165385
334.761129	2490.330000
335.154095	2490.330000
335.546996	2402.109808
335.939833	2480.247692
336.332606	2515.535769
336.725315	2460.083077
337.117960	2490.330000
337.510540	2545.782692
337.903056	2470.165385
338.295508	2487.809423
338.687896	2570.988462
339.080220	2570.988462
339.472480	2578.550192
339.864676	2520.576923
340.256807	2593.673654
340.648875	2570.988462
341.040879	2515.535769
341.432818	2573.509038
341.824694	2439.918462
342.216506	2500.412308
342.608253	2545.782692
342.999937	2568.467885
343.391557	2510.494615
343.783113	2545.782692
344.174605	2656.688077
344.566033	2618.879423
344.957397	2543.262115
345.348697	2555.865000
345.739934	2518.056346
346.131106	2608.797115
346.522215	2568.467885
346.913260	2581.070769
347.304241	2613.838269
347.695159	2608.797115
348.086012	2538.220962
348.476802	2598.714808
348.867528	2565.947308
349.258191	2530.659231
349.648789	2603.755962
350.039324	2558.385577
350.429796	2588.632500
350.820203	2523.097500
351.210548	2570.988462
351.600828	2581.070769
351.991045	2538.220962
352.381198	2558.385577
352.771288	2636.523462
353.161314	2510.494615
353.551276	2570.988462
353.941175	2558.385577
354.331010	2578.550192
354.720782	2573.509038
355.110490	2495.371154
355.500135	2500.412308
355.889717	2583.591346
356.279235	2608.797115
356.668689	2591.153077
357.058080	2513.015192
357.447408	2515.535769
357.836672	2621.400000
358.225873	2482.768269
358.615010	2495.371154
359.004084	2581.070769
359.393095	2608.797115
359.782043	2560.906154
360.170927	2480.247692
360.559748	2563.426731
360.948505	2550.823846
361.337199	2573.509038
361.725830	2520.576923
362.114398	2500.412308
362.502903	2576.029615
362.891344	2500.412308
363.279722	2535.700385
363.668037	2515.535769
364.056289	2601.235385
364.444478	2487.809423
364.832603	2565.947308
365.220665	2497.891731
365.608665	2608.797115
365.996601	2515.535769
366.384474	2568.467885
366.772284	2598.714808
367.160031	2548.303269
367.547715	2497.891731
367.935336	2583.591346
368.322893	2553.344423
368.710388	2568.467885
369.097820	2492.850577
369.485189	2558.385577
369.872495	2565.947308
370.259738	2515.535769
370.646918	2659.208654
371.034035	2641.564615
371.421090	2477.727115
371.808081	2603.755962
372.195010	2538.220962
372.581875	2578.550192
372.968678	2565.947308
373.355418	2598.714808
373.742096	2591.153077
374.128710	2548.303269
374.515262	2558.385577
374.901751	2588.632500
375.288177	2518.056346
375.674540	2545.782692
376.060841	2467.644808
376.447079	2553.344423
376.833254	2634.002885
377.219367	2538.220962
377.605417	2659.208654
377.991404	2573.509038
378.377329	2545.782692
378.763191	2520.576923
379.148991	2598.714808
379.534727	2623.920577
379.920402	2555.865000
380.306013	2533.179808
380.691563	2581.070769
381.077049	2659.208654
381.462474	2550.823846
381.847835	2538.220962
382.233134	2591.153077
382.618371	2525.618077
383.003545	2568.467885
383.388657	2530.659231
383.773706	2649.126346
384.158693	2525.618077
384.543618	2598.714808
384.928480	2573.509038
385.313280	2490.330000
385.698017	2518.056346
386.082692	2623.920577
386.467305	2568.467885
386.851856	2515.535769
387.236344	2550.823846
387.620770	2613.838269
388.005133	2530.659231
388.389435	2644.085192
388.773674	2583.591346
389.157851	2525.618077
389.541965	2565.947308
389.926018	2646.605769
390.310008	2591.153077
390.693936	2631.482308
391.077802	2613.838269
391.461606	2548.303269
391.845348	2588.632500
392.229027	2576.029615
392.612645	2505.453462
392.996200	2570.988462
393.379694	2593.673654
393.763125	2543.262115
394.146494	2598.714808
394.529801	2578.550192
394.913047	2651.646923
395.296230	2626.441154
395.679351	2515.535769
396.062410	2654.167500
396.445408	2583.591346
396.828343	2545.782692
397.211217	2568.467885
397.594028	2664.249808
397.976778	2540.741538
398.359466	2550.823846
398.742092	2613.838269
399.124656	2603.755962
399.507158	2601.235385
399.889598	2651.646923
400.271977	2631.482308
400.654294	2581.070769
401.036549	2596.194231
401.418742	2631.482308
401.800874	2510.494615
402.182944	2560.906154
402.564952	2560.906154
402.946898	2583.591346
403.328783	2636.523462
403.710606	2636.523462
404.092367	2535.700385
404.474067	2505.453462
404.855705	2601.235385
405.237282	2528.138654
405.618797	2523.097500
406.000250	2548.303269
406.381642	2583.591346
406.762972	2530.659231
407.144240	2568.467885
407.525447	2505.453462
407.906593	2558.385577
408.287677	2555.865000
408.668700	2626.441154
409.049661	2588.632500
409.430560	2573.509038
409.811399	2598.714808
410.192176	2628.961731
410.572891	2623.920577
410.953545	2628.961731
411.334138	2535.700385
411.714669	2563.426731
412.095139	2593.673654
412.475547	2641.564615
412.855894	2558.385577
413.236180	2664.249808
413.616405	2656.688077
413.996568	2540.741538
414.376670	2570.988462
414.756711	2623.920577
415.136691	2515.535769
415.516609	2588.632500
415.896466	2651.646923
416.276262	2520.576923
416.655997	2636.523462
417.035670	2669.290962
417.415283	2538.220962
417.794834	2671.811538
418.174324	2535.700385
418.553753	2528.138654
418.933121	2649.126346
419.312428	2618.879423
419.691674	2636.523462
420.070859	2639.044038
420.449983	2603.755962
420.829045	2583.591346
421.208047	2654.167500
421.586988	2669.290962
421.965867	2492.850577
422.344686	2540.741538
422.723444	2565.947308
423.102141	2500.412308
423.480777	2613.838269
423.859352	2439.918462
424.237866	2535.700385
424.616319	2664.249808
424.994712	2636.523462
425.373044	2591.153077
425.751314	2530.659231
426.129524	2573.509038
426.507673	2666.770385
426.885762	2628.961731
427.263789	2611.317692
427.641756	2626.441154
428.019662	2636.523462
428.397508	2598.714808
428.775292	2583.591346
429.153016	2621.400000
429.530679	2634.002885
429.908282	2553.344423
430.285824	2568.467885
430.663305	2646.605769
431.040726	2535.700385
431.418086	2606.276538
431.795385	2596.194231
432.172624	2613.838269
432.549802	2613.838269
432.926920	2598.714808
433.303977	2644.085192
433.680974	2613.838269
434.057910	2565.947308
434.434786	2611.317692
434.811601	2573.509038
435.188355	2631.482308
435.565050	2646.605769
435.941683	2578.550192
436.318257	2666.770385
436.694770	2651.646923
437.071222	2702.058462
437.447614	2724.743654
437.823946	2634.002885
438.200218	2598.714808
438.576429	2681.893846
438.952580	2611.317692
439.328670	2621.400000
439.704700	2686.935000
440.080670	2659.208654
440.456580	2631.482308
440.832429	2621.400000
441.208218	2697.017308
441.583947	2729.784808
441.959616	2689.455577
442.335224	2747.428846
442.710773	2767.593462
443.086261	2760.031731
443.461689	2795.319808
443.837057	2785.237500
444.212365	2845.731346
444.587612	2865.895962
444.962800	2936.472115
445.337927	2903.704615
445.712995	2923.869231
446.088002	3059.980385
446.462949	2964.198462
446.837837	3059.980385
447.212664	3039.815769
447.587431	3155.762308
447.962139	3289.352885
448.336786	3559.054615
448.711374	3546.451731
449.085901	3390.175962
449.460369	3523.766538
449.834776	3488.478462
450.209124	3589.301538
450.583412	3899.332500
450.957640	4027.881923
451.331808	3909.414808
451.705917	3891.770769
452.079965	3811.112308
452.453954	4085.855192
452.827883	4161.472500
453.201752	4111.060962
453.575562	4249.692692
453.949311	4411.009615
454.323001	4537.038462
454.696632	4806.740192
455.070202	4862.192885
455.443713	4968.057115
455.817164	5149.538654
456.190556	5323.458462
456.563888	5497.378269
456.937160	5575.516154
457.310373	5572.995577
457.683526	5870.423654
458.056619	5908.232308
458.429653	5923.355769
458.802628	6014.096538
459.175542	6273.715962
459.548398	6755.146154
459.921194	7067.697692
460.293930	7342.440577
460.666607	7786.062115
461.039224	8559.879231
461.411782	8932.924615
461.784280	9023.665385
462.156719	9069.035769
462.529099	8963.171538
462.901419	8847.225000
463.273680	8801.854615
463.645882	9043.830000
464.018024	9071.556346
464.390106	9290.846538
464.762130	10014.252115
465.134094	10808.233846
465.505999	12532.308462
465.877845	14757.977885
466.249631	16391.311731
466.621358	15914.922692
466.993026	15163.790769
467.364634	15289.819615
467.736184	14793.265962
468.107674	14319.397500
468.479105	14707.566346
468.850477	14573.975769
469.221790	14586.578654
469.593043	14029.531154
469.964238	13868.214231
470.335373	13956.434423
470.706449	14768.060192
471.077467	14924.335962
471.448425	16860.139038
471.819324	20484.728654
472.190164	20774.595000
472.560945	17787.711346
472.931667	16479.531923
473.302330	16766.877692
473.672934	16396.352885
474.043479	16497.175962
474.413965	16545.066923
474.784393	16285.447500
475.154761	17402.063077
475.525070	17255.869615
475.895321	17402.063077
476.265513	17870.890385
476.635645	18838.791923
477.005719	18722.845385
477.375734	18584.213654
477.745691	19514.306538
478.115588	20071.354038
478.485427	20721.662885
478.855207	22055.048077
479.224928	24258.032308
479.594591	25898.927885
479.964194	25646.870192
480.333739	25619.143846
480.703226	25435.141731
481.072653	25503.197308
481.442022	26468.578269
481.811333	27270.121731
482.180584	26879.432308
482.549777	25646.870192
482.918912	26181.232500
483.287988	26239.205769
483.657005	25672.075962
484.025964	25805.666538
484.394864	24996.561346
484.763706	24668.886346
485.132489	24588.227885
485.501213	24368.937692
485.869879	24487.404808
486.238487	24409.266923
486.607036	24316.005577
486.975527	23953.042500
487.343959	24036.221538
487.712333	23796.766731
488.080648	23486.735769
488.448905	23862.301731
488.817104	23600.161731
489.185244	24313.485000
489.553326	24353.814231
489.921350	25041.931731
490.289315	27204.586731
490.657222	28505.204423
491.025070	28399.340192
491.392861	28253.146731
491.760593	26851.705962
492.128267	25624.185000
492.495883	24620.995385
492.863440	23595.120577
493.230939	22791.056538
493.598380	22498.669615
493.965763	21866.004808
494.333088	21273.669231
494.700354	21313.998462
495.067563	20847.691731
495.434713	20545.222500
495.801805	20136.889038
496.168839	20008.339615
496.535815	19751.240769
496.902733	19582.362115
497.269593	18800.983269
497.636395	19000.108846
498.003139	18528.760962
498.369825	18077.577692
498.736453	18208.647692
499.103023	17873.410962
499.469535	17732.258654
499.835989	17611.270962
500.202385	17215.540385
500.568723	17094.552692
500.935003	16703.863269
501.301226	16451.805577
501.667390	16618.163654
502.033497	16315.694423
502.399546	15982.978269
502.765537	15478.862885
503.131470	15614.974038
503.497345	15617.494615
503.863163	14977.268077
504.228923	14715.128077
504.594625	14700.004615
504.960269	14122.792500
505.325856	14271.506538
505.691385	13785.035192
506.056856	13674.129808
506.422270	13500.210000
506.787625	12998.615192
507.152924	12943.162500
507.518164	12975.930000
507.883347	12360.909231
508.248472	11942.493462
508.613540	11972.740385
508.978550	11743.367885
509.343503	11670.271154
509.708398	11251.855385
510.073236	11395.528269
510.438016	11042.647500
510.802738	10967.030192
511.167403	10750.260577
511.532010	10409.982692
511.896561	10465.435385
512.261053	10097.431154
512.625488	9716.824038
512.989866	9593.315769
513.354186	9515.177885
513.718449	9321.093462
514.082655	9338.737500
514.446803	8945.527500
514.810894	8748.922500
515.174927	8602.729038
515.538904	8406.124038
515.902822	8343.109615
516.266684	8151.545769
516.630488	7886.885192
516.994235	7702.883077
517.357925	7478.551731
517.721558	7372.687500
518.085133	7221.452885
518.448651	7087.862308
518.812112	6926.545385
519.175516	6823.201731
519.538863	6825.722308
519.902152	6704.734615
520.265385	6422.430000
520.628560	6387.141923
520.991678	6142.645962
521.354739	6135.084231
521.717743	6034.261154
522.080690	5696.503846
522.443580	5769.600577
522.806413	5580.557308
523.169189	5613.324808
523.531908	5497.378269
523.894569	5338.581923
524.257174	5242.800000
524.619722	5104.168269
524.982213	5063.839038
525.344647	4925.207308
525.707025	4746.246346
526.069345	4703.396538
526.431608	4698.355385
526.793815	4693.314231
527.155964	4529.476731
527.518057	4383.283269
527.880093	4322.789423
528.242072	4204.322308
528.603995	4116.102115
528.965860	4068.211154
529.327669	4085.855192
529.689421	4060.649423
530.051117	4048.046538
530.412755	3992.593846
530.774337	3889.250192
531.135862	3770.783077
531.497331	3758.180192
531.858743	3667.439423
532.220098	3680.042308
532.581396	3606.945577
532.942638	3579.219231
533.303824	3591.822115
533.664953	3541.410577
534.026025	3407.820000
534.387040	3309.517500
534.747999	3382.614231
535.108902	3266.667692
535.469748	3236.420769
535.830537	3301.955769
536.191270	3251.544231
536.551947	3259.105962
536.912567	3130.556538
537.273131	3201.132692
537.633638	3228.859038
537.994089	3153.241731
538.354483	3059.980385
538.714821	3082.665577
539.075103	3047.377500
539.435328	3024.692308
539.795497	2961.677885
540.155609	2981.842500
540.515665	2971.760192
540.875665	2964.198462
541.235609	2928.910385
541.595496	2936.472115
541.955328	2941.513269
542.315102	2870.937115
542.674821	2823.046154
543.034483	2881.019423
543.394090	2878.498846
543.753640	2870.937115
544.113134	2845.731346
544.472571	2838.169615
544.831953	2810.443269
545.191278	2729.784808
545.550548	2770.114038
545.909761	2898.663462
546.268918	2810.443269
546.628019	2795.319808
546.987064	2724.743654
547.346053	2765.072885
547.704986	2800.360962
548.063863	2744.908269
548.422684	2762.552308
548.781449	2732.305385
549.140158	2707.099615
549.498811	2744.908269
549.857408	2742.387692
550.215949	2646.605769
550.574434	2737.346538
550.932864	2689.455577
551.291237	2717.181923
551.649555	2691.976154
552.007817	2765.072885
552.366022	2780.196346
552.724173	2729.784808
553.082267	2734.825962
553.440305	2737.346538
553.798288	2616.358846
554.156215	2659.208654
554.514086	2694.496731
554.871902	2752.470000
555.229661	2694.496731
555.587365	2664.249808
555.945014	2719.702500
556.302606	2717.181923
556.660143	2691.976154
557.017625	2681.893846
557.375050	2727.264231
557.732421	2699.537885
558.089735	2709.620192
558.446994	2691.976154
558.804197	2702.058462
559.161345	2598.714808
559.518437	2664.249808
559.875474	2593.673654
560.232455	2697.017308
560.589381	2691.976154
560.946251	2719.702500
561.303065	2757.511154
561.659825	2686.935000
562.016528	2644.085192
562.373177	2641.564615
562.729770	2694.496731
563.086307	2714.661346
563.442789	2618.879423
563.799216	2570.988462
564.155587	2661.729231
564.511904	2626.441154
564.868164	2661.729231
565.224370	2659.208654
565.580520	2651.646923
565.936615	2702.058462
566.292654	2623.920577
566.648638	2641.564615
567.004567	2699.537885
567.360441	2616.358846
567.716260	2676.852692
568.072023	2656.688077
568.427732	2646.605769
568.783385	2704.579038
569.138982	2669.290962
569.494525	2674.332115
569.850013	2644.085192
570.205445	2613.838269
570.560823	2702.058462
570.916145	2628.961731
571.271412	2651.646923
571.626625	2646.605769
571.981782	2616.358846
572.336884	2686.935000
572.691931	2659.208654
573.046923	2631.482308
573.401860	2664.249808
573.756743	2588.632500
574.111570	2694.496731
574.466342	2618.879423
574.821059	2661.729231
575.175722	2631.482308
575.530330	2623.920577
575.884882	2636.523462
576.239380	2608.797115
576.593823	2631.482308
576.948211	2596.194231
577.302544	2611.317692
577.656823	2618.879423
578.011047	2623.920577
578.365216	2636.523462
578.719330	2654.167500
579.073389	2717.181923
579.427394	2664.249808
579.781344	2616.358846
580.135239	2583.591346
580.489080	2656.688077
580.842866	2634.002885
581.196597	2550.823846
581.550273	2689.455577
581.903895	2676.852692
582.257463	2644.085192
582.610975	2581.070769
582.964434	2656.688077
583.317837	2613.838269
583.671186	2623.920577
584.024481	2570.988462
584.377721	2626.441154
584.730906	2639.044038
585.084037	2641.564615
585.437113	2681.893846
585.790135	2661.729231
586.143103	2684.414423
586.496016	2654.167500
586.848874	2641.564615
587.201679	2621.400000
587.554428	2611.317692
587.907124	2601.235385
588.259765	2631.482308
588.612352	2712.140769
588.964884	2646.605769
589.317362	2646.605769
589.669786	2601.235385
590.022155	2646.605769
590.374470	2691.976154
590.726731	2749.949423
591.078937	2729.784808
591.431090	2646.605769
591.783188	2623.920577
592.135232	2651.646923
592.487222	2694.496731
592.839157	2709.620192
593.191038	2593.673654
593.542866	2661.729231
593.894639	2616.358846
594.246358	2485.288846
594.598022	2649.126346
594.949633	2626.441154
595.301190	2686.935000
595.652692	2649.126346
596.004141	2608.797115
596.355535	2578.550192
596.706876	2704.579038
597.058162	2613.838269
597.409395	2659.208654
597.760573	2639.044038
598.111698	2664.249808
598.462768	2631.482308
598.813785	2737.346538
599.164748	2613.838269
599.515657	2583.591346
599.866511	2581.070769
600.217312	2591.153077
600.568060	2644.085192
600.918753	2616.358846
601.269392	2565.947308
601.619978	2576.029615
601.970510	2611.317692
602.320988	2681.893846
602.671412	2669.290962
603.021783	2770.114038
603.372100	2558.385577
603.722363	2606.276538
604.072572	2727.264231
604.422728	2674.332115
604.772830	2623.920577
605.122878	2608.797115
605.472872	2664.249808
605.822813	2649.126346
606.172701	2651.646923
606.522534	2606.276538
606.872314	2618.879423
607.222041	2636.523462
607.571714	2603.755962
607.921333	2636.523462
608.270899	2659.208654
608.620411	2704.579038
608.969870	2694.496731
609.319276	2641.564615
609.668627	2623.920577
610.017926	2694.496731
610.367171	2646.605769
610.716362	2631.482308
611.065500	2681.893846
611.414585	2697.017308
611.763616	2737.346538
612.112594	2654.167500
612.461518	2712.140769
612.810389	2586.111923
613.159207	2689.455577
613.507971	2603.755962
613.856682	2611.317692
614.205340	2591.153077
614.553945	2659.208654
614.902496	2593.673654
615.250994	2681.893846
615.599439	2656.688077
615.947830	2646.605769
616.296169	2618.879423
616.644454	2560.906154
616.992686	2621.400000
617.340864	2669.290962
617.688990	2578.550192
618.037063	2583.591346
618.385082	2596.194231
618.733048	2545.782692
619.080961	2628.961731
619.428821	2704.579038
619.776628	2666.770385
620.124382	2613.838269
620.472083	2669.290962
620.819731	2553.344423
621.167326	2666.770385
621.514868	2644.085192
621.862357	2631.482308
622.209793	2623.920577
622.557176	2606.276538
622.904506	2639.044038
623.251783	2606.276538
623.599007	2621.400000
623.946179	2651.646923
624.293297	2583.591346
624.640363	2664.249808
624.987376	2639.044038
625.334336	2641.564615
625.681243	2626.441154
626.028097	2606.276538
626.374899	2686.935000
626.721647	2603.755962
627.068343	2621.400000
627.414987	2689.455577
627.761577	2613.838269
628.108115	2654.167500
628.454600	2581.070769
628.801032	2651.646923
629.147412	2623.920577
629.493739	2646.605769
629.840014	2611.317692
630.186236	2591.153077
630.532405	2651.646923
630.878521	2621.400000
631.224585	2623.920577
631.570597	2702.058462
631.916556	2641.564615
632.262462	2555.865000
632.608316	2641.564615
632.954117	2666.770385
633.299866	2611.317692
633.645562	2646.605769
633.991206	2613.838269
634.336797	2601.235385
634.682336	2634.002885
635.027823	2656.688077
635.373257	2639.044038
635.718639	2697.017308
636.063968	2661.729231
636.409245	2596.194231
636.754470	2588.632500
637.099642	2644.085192
637.444762	2618.879423
637.789829	2636.523462
638.134845	2603.755962
638.479808	2608.797115
638.824719	2666.770385
639.169577	2649.126346
639.514383	2709.620192
639.859137	2570.988462
640.203839	2649.126346
640.548489	2613.838269
640.893086	2563.426731
641.237632	2644.085192
641.582125	2611.317692
641.926566	2568.467885
642.270955	2681.893846
642.615292	2681.893846
642.959576	2510.494615
643.303809	2601.235385
643.647990	2543.262115
643.992118	2576.029615
644.336195	2626.441154
644.680219	2596.194231
645.024192	2596.194231
645.368112	2626.441154
645.711981	2558.385577
646.055797	2598.714808
646.399562	2639.044038
646.743274	2623.920577
647.086935	2598.714808
647.430544	2613.838269
647.774101	2618.879423
648.117606	2684.414423
648.461059	2576.029615
648.804460	2644.085192
649.147810	2666.770385
649.491108	2593.673654
649.834354	2565.947308
650.177548	2649.126346
650.520690	2601.235385
650.863781	2608.797115
651.206820	2606.276538
651.549807	2644.085192
651.892742	2684.414423
652.235626	2702.058462
652.578458	2659.208654
652.921238	2598.714808
653.263967	2666.770385
653.606644	2616.358846
653.949269	2616.358846
654.291843	2644.085192
654.634365	2679.373269
654.976836	2623.920577
655.319255	2644.085192
655.661622	2654.167500
656.003938	2591.153077
656.346203	2523.097500
656.688416	2631.482308
657.030577	2570.988462
657.372687	2601.235385
657.714746	2515.535769
658.056753	2646.605769
658.398708	2586.111923
658.740612	2646.605769
659.082465	2626.441154
659.424266	2543.262115
659.766016	2583.591346
660.107715	2704.579038
660.449362	2613.838269
660.790958	2583.591346
661.132503	2586.111923
661.473996	2596.194231
661.815438	2591.153077
662.156829	2606.276538
662.498168	2651.646923
662.839456	2628.961731
663.180693	2623.920577
663.521879	2606.276538
663.863013	2588.632500
664.204097	2636.523462
664.545129	2598.714808
664.886110	2596.194231
665.227040	2634.002885
665.567918	2613.838269
665.908746	2644.085192
666.249522	2649.126346
666.590248	2649.126346
666.930922	2651.646923
667.271545	2601.235385
667.612118	2681.893846
667.952639	2679.373269
668.293109	2608.797115
668.633528	2631.482308
668.973896	2601.235385
669.314213	2646.605769
669.654480	2669.290962
669.994695	2694.496731
670.334859	2651.646923
670.674973	2671.811538
671.015035	2634.002885
671.355047	2598.714808
671.695008	2601.235385
672.034918	2686.935000
672.374777	2586.111923
672.714585	2681.893846
673.054342	2684.414423
673.394049	2601.235385
673.733705	2603.755962
674.073310	2623.920577
674.412864	2656.688077
674.752368	2691.976154
675.091820	2560.906154
675.431223	2621.400000
675.770574	2601.235385
676.109875	2608.797115
676.449125	2581.070769
676.788324	2646.605769
677.127473	2651.646923
677.466571	2606.276538
677.805619	2613.838269
678.144616	2611.317692
678.483562	2538.220962
678.822458	2641.564615
679.161303	2538.220962
679.500098	2581.070769
679.838842	2626.441154
680.177535	2618.879423
680.516179	2631.482308
680.854771	2573.509038
681.193314	2656.688077
681.531805	2618.879423
681.870247	2724.743654
682.208638	2626.441154
682.546978	2676.852692
682.885268	2563.426731
683.223508	2608.797115
683.561697	2631.482308
683.899836	2598.714808
684.237925	2634.002885
684.575963	2661.729231
684.913951	2553.344423
685.251889	2671.811538
685.589776	2608.797115
685.927614	2676.852692
686.265401	2666.770385
686.603137	2691.976154
686.940824	2661.729231
687.278460	2593.673654
687.616046	2618.879423
687.953582	2558.385577
688.291068	2661.729231
688.628504	2586.111923
688.965889	2591.153077
689.303224	2618.879423
689.640510	2659.208654
689.977745	2576.029615
690.314930	2618.879423
690.652065	2565.947308
690.989150	2634.002885
691.326185	2634.002885
691.663170	2603.755962
692.000105	2588.632500
692.336990	2654.167500
692.673825	2555.865000
693.010610	2671.811538
693.347345	2661.729231
693.684030	2573.509038
694.020665	2661.729231
694.357251	2664.249808
694.693786	2641.564615
695.030272	2651.646923
695.366707	2641.564615
695.703093	2586.111923
696.039429	2576.029615
696.375716	2581.070769
696.711952	2581.070769
697.048139	2596.194231
697.384276	2583.591346
697.720363	2598.714808
698.056400	2636.523462
698.392388	2621.400000
698.728326	2684.414423
699.064214	2661.729231
699.400053	2634.002885
699.735842	2618.879423
700.071581	2681.893846
700.407270	2611.317692
700.742910	2646.605769
701.078501	2702.058462
701.414042	2568.467885
701.749533	2586.111923
702.084974	2535.700385
702.420366	2558.385577
702.755709	2606.276538
703.091002	2593.673654
703.426246	2613.838269
703.761440	2649.126346
704.096584	2613.838269
704.431679	2588.632500
704.766725	2576.029615
705.101721	2702.058462
705.436668	2649.126346
705.771565	2565.947308
706.106413	2553.344423
706.441212	2563.426731
706.775961	2616.358846
707.110661	2563.426731
707.445311	2628.961731
707.779913	2686.935000
708.114465	2525.618077
708.448967	2749.949423
708.783421	2530.659231
709.117825	2679.373269
709.452180	2603.755962
709.786485	2639.044038
710.120742	2659.208654
710.454949	2520.576923
710.789107	2593.673654
711.123216	2666.770385
711.457275	2628.961731
711.791286	2603.755962
712.125247	2596.194231
712.459159	2636.523462
712.793023	2598.714808
713.126837	2598.714808
713.460602	2646.605769
713.794318	2573.509038
714.127985	2538.220962
714.461602	2598.714808
714.795171	2674.332115
715.128691	2548.303269
715.462162	2570.988462
715.795584	2558.385577
716.128957	2664.249808
716.462281	2626.441154
716.795556	2664.249808
717.128782	2611.317692
717.461960	2528.138654
717.795088	2586.111923
718.128167	2623.920577
718.461198	2646.605769
718.794180	2611.317692
719.127113	2588.632500
719.459997	2649.126346
719.792833	2636.523462
720.125619	2593.673654
720.458357	2565.947308
720.791046	2649.126346
721.123686	2664.249808
721.456278	2659.208654
721.788821	2646.605769
722.121315	2649.126346
722.453761	2628.961731
722.786158	2560.906154
723.118506	2583.591346
723.450805	2583.591346
723.783056	2684.414423
724.115259	2603.755962
724.447412	2555.865000
724.779518	2636.523462
725.111574	2550.823846
725.443582	2656.688077
725.775542	2616.358846
726.107453	2634.002885
726.439315	2593.673654
726.771129	2606.276538
727.102895	2613.838269
727.434612	2543.262115
727.766281	2636.523462
728.097901	2626.441154
728.429473	2608.797115
728.760996	2636.523462
729.092471	2616.358846
729.423897	2603.755962
729.755276	2679.373269
730.086606	2644.085192
730.417887	2654.167500
730.749120	2553.344423
731.080305	2616.358846
731.411442	2699.537885
731.742530	2601.235385
732.073570	2570.988462
732.404562	2565.947308
732.735506	2669.290962
733.066401	2618.879423
733.397249	2626.441154
733.728048	2560.906154
734.058798	2548.303269
734.389501	2598.714808
734.720156	2659.208654
735.050762	2568.467885
735.381320	2631.482308
735.711831	2603.755962
736.042293	2598.714808
736.372707	2608.797115
736.703073	2644.085192
737.033391	2646.605769
737.363661	2560.906154
737.693883	2618.879423
738.024056	2593.673654
738.354182	2671.811538
738.684260	2654.167500
739.014290	2697.017308
739.344272	2654.167500
739.674207	2656.688077
740.004093	2611.317692
740.333931	2591.153077
740.663722	2618.879423
740.993464	2661.729231
741.323159	2608.797115
741.652806	2636.523462
741.982405	2621.400000
742.311956	2608.797115
742.641460	2621.400000
742.970915	2613.838269
743.300323	2598.714808
743.629683	2621.400000
743.958996	2689.455577
744.288260	2646.605769
744.617477	2621.400000
744.946647	2634.002885
745.275768	2631.482308
745.604842	2558.385577
745.933869	2543.262115
746.262847	2611.317692
746.591778	2606.276538
746.920662	2601.235385
747.249498	2634.002885
747.578286	2646.605769
747.907027	2545.782692
748.235720	2618.879423
748.564365	2570.988462
748.892963	2606.276538
749.221514	2588.632500
749.550017	2608.797115
749.878473	2613.838269
750.206881	2606.276538
750.535242	2628.961731
750.863555	2618.879423
751.191821	2623.920577
751.520039	2646.605769
751.848210	2578.550192
752.176334	2593.673654
752.504411	2623.920577
752.832440	2601.235385
753.160421	2538.220962
753.488356	2649.126346
753.816243	2646.605769
754.144082	2626.441154
754.471875	2686.935000
754.799620	2679.373269
755.127318	2734.825962
755.454969	2613.838269
755.782572	2593.673654
756.110129	2639.044038
756.437638	2628.961731
756.765100	2651.646923
757.092515	2651.646923
757.419882	2606.276538
757.747203	2598.714808
758.074477	2654.167500
758.401703	2651.646923
758.728882	2586.111923
759.056014	2608.797115
759.383099	2659.208654
759.710138	2631.482308
760.037129	2681.893846
760.364073	2634.002885
760.690970	2623.920577
761.017820	2603.755962
761.344623	2515.535769
761.671379	2646.605769
761.998088	2565.947308
762.324751	2631.482308
762.651366	2631.482308
762.977935	2704.579038
763.304456	2613.838269
763.630931	2613.838269
763.957359	2525.618077
764.283740	2621.400000
764.610074	2586.111923
764.936362	2631.482308
765.262602	2576.029615
765.588796	2583.591346
765.914943	2626.441154
766.241044	2573.509038
766.567097	2671.811538
766.893104	2664.249808
767.219064	2570.988462
767.544978	2563.426731
767.870845	2606.276538
768.196665	2666.770385
768.522438	2631.482308
768.848165	2581.070769
769.173846	2641.564615
769.499479	2593.673654
769.825066	2613.838269
770.150607	2611.317692
770.476101	2656.688077
770.801548	2646.605769
771.126949	2621.400000
771.452303	2606.276538
771.777611	2621.400000
772.102872	2583.591346
772.428087	2593.673654
772.753256	2611.317692
773.078378	2543.262115
773.403453	2631.482308
773.728482	2656.688077
774.053465	2641.564615
774.378401	2616.358846
774.703291	2535.700385
775.028135	2581.070769
775.352932	2613.838269
775.677683	2626.441154
776.002388	2603.755962
776.327046	2583.591346
776.651658	2626.441154
776.976224	2636.523462
777.300743	2588.632500
777.625216	2601.235385
777.949643	2520.576923
778.274024	2578.550192
778.598359	2618.879423
778.922647	2543.262115
779.246889	2616.358846
779.571086	2631.482308
779.895236	2578.550192
780.219339	2618.879423
780.543397	2616.358846
780.867409	2583.591346
781.191374	2606.276538
781.515294	2634.002885
781.839167	2598.714808
782.162995	2618.879423
782.486776	2550.823846
782.810511	2618.879423
783.134201	2676.852692
783.457844	2598.714808
783.781441	2618.879423
784.104993	2581.070769
784.428498	2644.085192
784.751958	2694.496731
785.075372	2613.838269
785.398739	2588.632500
785.722061	2570.988462
786.045337	2646.605769
786.368568	2646.605769
786.691752	2661.729231
787.014891	2583.591346
787.337983	2636.523462
787.661030	2644.085192
787.984031	2664.249808
788.306987	2717.181923
788.629897	2601.235385
788.952760	2674.332115
789.275579	2555.865000
789.598351	2606.276538
789.921078	2568.467885
790.243759	2576.029615
790.566395	2611.317692
790.888984	2649.126346
791.211529	2664.249808
791.534027	2623.920577
791.856480	2593.673654
792.178888	2545.782692
792.501249	2654.167500
792.823566	2586.111923
793.145836	2651.646923
793.468062	2606.276538
793.790241	2608.797115
794.112375	2591.153077
794.434464	2649.126346
794.756507	2606.276538
795.078505	2487.809423
795.400457	2598.714808
795.722364	2606.276538
796.044226	2618.879423
796.366042	2618.879423
796.687812	2634.002885
797.009538	2583.591346
797.331218	2628.961731
797.652852	2623.920577
797.974442	2639.044038
798.295986	2581.070769
798.617484	2616.358846
798.938938	2603.755962
799.260346	2641.564615
799.581709	2659.208654
799.903026	2611.317692
800.224299	2613.838269
800.545526	2560.906154
800.866708	2656.688077
801.187845	2618.879423
801.508936	2586.111923
801.829983	2626.441154
802.150984	2611.317692
802.471940	2659.208654
802.792851	2538.220962
803.113717	2588.632500
803.434538	2699.537885
803.755314	2581.070769
804.076045	2583.591346
804.396731	2578.550192
804.717372	2568.467885
805.037967	2523.097500
805.358518	2601.235385
805.679024	2681.893846
805.999485	2573.509038
806.319901	2628.961731
806.640272	2586.111923
806.960598	2576.029615
807.280879	2606.276538
807.601115	2671.811538
807.921306	2583.591346
808.241453	2613.838269
808.561554	2573.509038
808.881611	2628.961731
809.201623	2591.153077
809.521590	2606.276538
809.841513	2616.358846
810.161390	2570.988462
810.481223	2618.879423
810.801011	2550.823846
811.120755	2603.755962
811.440453	2628.961731
811.760107	2641.564615
812.079716	2497.891731
812.399281	2591.153077
812.718801	2621.400000
813.038276	2669.290962
813.357707	2661.729231
813.677093	2593.673654
813.996434	2621.400000
814.315731	2606.276538
814.634983	2543.262115
814.954191	2591.153077
815.273354	2540.741538
815.592473	2586.111923
815.911547	2593.673654
816.230577	2565.947308
816.549562	2671.811538
816.868502	2576.029615
817.187399	2659.208654
817.506250	2697.017308
817.825058	2462.603654
818.143821	2606.276538
818.462539	2618.879423
818.781213	2568.467885
819.099843	2563.426731
819.418429	2621.400000
819.736970	2618.879423
820.055466	2598.714808
820.373919	2608.797115
820.692327	2555.865000
821.010691	2732.305385
821.329011	2654.167500
821.647286	2558.385577
821.965517	2770.114038
822.283704	2734.825962
822.601847	2702.058462
822.919945	2686.935000
823.237999	2664.249808
823.556010	2654.167500
823.873976	2611.317692
824.191897	2576.029615
824.509775	2583.591346
824.827609	2560.906154
825.145398	2606.276538
825.463144	2626.441154
825.780845	2603.755962
826.098502	2570.988462
826.416116	2661.729231
826.733685	2608.797115
827.051210	2613.838269
827.368692	2641.564615
827.686129	2565.947308
828.003522	2631.482308
828.320872	2654.167500
828.638177	2545.782692
828.955439	2581.070769
829.272656	2608.797115
829.589830	2611.317692
829.906960	2646.605769
830.224046	2689.455577
830.541088	2616.358846
830.858086	2613.838269
831.175041	2681.893846
831.491952	2699.537885
831.808819	2689.455577
832.125642	2568.467885
832.442421	2611.317692
832.759157	2636.523462
833.075849	2603.755962
833.392497	2674.332115
833.709101	2623.920577
834.025662	2646.605769
834.342179	2618.879423
834.658653	2616.358846
834.975083	2686.935000
835.291469	2606.276538
835.607811	2639.044038
835.924110	2628.961731
836.240366	2623.920577
836.556578	2623.920577
836.872746	2623.920577
837.188871	2578.550192
837.504952	2634.002885
837.820990	2611.317692
838.136984	2641.564615
838.452935	2626.441154
838.768842	2644.085192
839.084706	2591.153077
839.400526	2530.659231
839.716303	2636.523462
840.032037	2583.591346
840.347727	2666.770385
840.663373	2641.564615
840.978977	2671.811538
841.294537	2583.591346
841.610054	2591.153077
841.925527	2608.797115
842.240957	2626.441154
842.556344	2596.194231
842.871687	2586.111923
843.186987	2570.988462
843.502244	2644.085192
843.817458	2634.002885
844.132629	2644.085192
844.447756	2649.126346
844.762840	2586.111923
845.077881	2631.482308
845.392879	2550.823846
845.707833	2656.688077
846.022745	2618.879423
846.337613	2613.838269
846.652438	2611.317692
846.967221	2626.441154
847.281960	2593.673654
847.596656	2644.085192
847.911309	2606.276538
848.225919	2550.823846
848.540485	2558.385577
848.855009	2581.070769
849.169490	2621.400000
849.483928	2603.755962
849.798323	2636.523462
850.112675	2664.249808
850.426984	2621.400000
850.741251	2550.823846
851.055474	2525.618077
851.369654	2523.097500
851.683792	2560.906154
851.997887	2565.947308
852.311938	2631.482308
852.625947	2639.044038
852.939914	2570.988462
853.253837	2666.770385
853.567718	2563.426731
853.881555	2515.535769
854.195350	2639.044038
854.509103	2596.194231
854.822812	2618.879423
855.136479	2576.029615
855.450103	2593.673654
855.763685	2634.002885
856.077224	2628.961731
856.390720	2533.179808
856.704173	2603.755962
857.017584	2596.194231
857.330953	2555.865000
857.644278	2513.015192
857.957561	2581.070769
858.270802	2586.111923
858.584000	2669.290962
858.897155	2568.467885
859.210268	2616.358846
859.523339	2510.494615
859.836367	2563.426731
860.149352	2553.344423
860.462295	2623.920577
860.775195	2623.920577
861.088054	2626.441154
861.400869	2631.482308
861.713642	2606.276538
862.026373	2565.947308
862.339062	2611.317692
862.651708	2634.002885
862.964312	2596.194231
863.276873	2669.290962
863.589392	2548.303269
863.901869	2697.017308
864.214303	2560.906154
864.526696	2588.632500
864.839045	2502.932885
865.151353	2558.385577
865.463619	2563.426731
865.775842	2570.988462
866.088023	2618.879423
866.400162	2631.482308
866.712258	2644.085192
867.024313	2570.988462
867.336325	2576.029615
867.648296	2618.879423
867.960224	2570.988462
868.272110	2636.523462
868.583954	2520.576923
868.895755	2649.126346
869.207515	2608.797115
869.519233	2671.811538
869.830909	2568.467885
870.142542	2500.412308
870.454134	2513.015192
870.765684	2528.138654
871.077191	2591.153077
871.388657	2598.714808
871.700081	2631.482308
872.011463	2641.564615
872.322803	2543.262115
872.634101	2525.618077
872.945357	2639.044038
873.256571	2646.605769
873.567744	2646.605769
873.878874	2611.317692
874.189963	2603.755962
874.501010	2563.426731
874.812015	2538.220962
875.122979	2608.797115
875.433900	2591.153077
875.744780	2500.412308
876.055618	2616.358846
876.366415	2588.632500
876.677169	2497.891731
876.987882	2591.153077
877.298554	2576.029615
877.609183	2598.714808
877.919771	2598.714808
878.230317	2644.085192
878.540822	2530.659231
878.851285	2659.208654
879.161707	2553.344423
879.472087	2563.426731
879.782425	2581.070769
880.092722	2591.153077
880.402977	2618.879423
880.713191	2631.482308
881.023363	2671.811538
881.333494	2702.058462
881.643583	2661.729231
881.953631	2593.673654
882.263637	2576.029615
882.573602	2601.235385
882.883526	2626.441154
883.193408	2631.482308
883.503248	2671.811538
883.813048	2573.509038
884.122806	2636.523462
884.432522	2618.879423
884.742197	2621.400000
885.051831	2601.235385
885.361424	2611.317692
885.670975	2639.044038
885.980485	2639.044038
886.289954	2646.605769
886.599382	2591.153077
886.908768	2616.358846
887.218113	2654.167500
887.527417	2538.220962
887.836680	2608.797115
888.145901	2601.235385
888.455082	2598.714808
888.764221	2636.523462
889.073319	2654.167500
889.382376	2558.385577
889.691392	2631.482308
890.000366	2654.167500
890.309300	2649.126346
890.618193	2601.235385
890.927044	2563.426731
891.235855	2601.235385
891.544625	2555.865000
891.853353	2583.591346
892.162041	2601.235385
892.470687	2570.988462
892.779293	2681.893846
893.087858	2623.920577
893.396381	2611.317692
893.704864	2606.276538
894.013306	2601.235385
894.321707	2591.153077
894.630068	2616.358846
894.938387	2596.194231
895.246665	2598.714808
895.554903	2616.358846
895.863100	2576.029615
896.171256	2628.961731
896.479371	2533.179808
896.787446	2497.891731
897.095480	2568.467885
897.403473	2649.126346
897.711425	2608.797115
898.019336	2581.070769
898.327207	2573.509038
898.635038	2628.961731
898.942827	2548.303269
899.250576	2613.838269
899.558284	2626.441154
899.865952	2606.276538
900.173579	2659.208654
900.481165	2623.920577
900.788711	2656.688077
901.096216	2649.126346
901.403681	2578.550192
901.711105	2623.920577
902.018489	2560.906154
902.325832	2639.044038
902.633135	2598.714808
902.940397	2628.961731
903.247619	2550.823846
903.554800	2596.194231
903.861941	2628.961731
904.169041	2634.002885
904.476101	2618.879423
904.783121	2691.976154
905.090100	2684.414423
905.397039	2669.290962
905.703938	2581.070769
906.010796	2588.632500
906.317614	2606.276538
906.624391	2606.276538
906.931129	2603.755962
907.237826	2631.482308
907.544483	2639.044038
907.851099	2528.138654
908.157675	2674.332115
908.464211	2591.153077
908.770707	2671.811538
909.077163	2568.467885
909.383578	2583.591346
909.689954	2470.165385
909.996289	2631.482308
910.302584	2616.358846
910.608839	2588.632500
910.915054	2656.688077
911.221229	2576.029615
911.527363	2490.330000
911.833458	2588.632500
912.139513	2628.961731
912.445527	2578.550192
912.751502	2573.509038
913.057436	2495.371154
913.363331	2563.426731
913.669186	2583.591346
913.975000	2563.426731
914.280775	2576.029615
914.586510	2523.097500
914.892205	2565.947308
915.197859	2591.153077
915.503475	2550.823846
915.809050	2644.085192
916.114585	2596.194231
916.420081	2719.702500
916.725536	2581.070769
917.030952	2581.070769
917.336328	2631.482308
917.641665	2634.002885
917.946961	2588.632500
918.252218	2631.482308
918.557435	2616.358846
918.862612	2555.865000
919.167750	2631.482308
919.472848	2603.755962
919.777906	2596.194231
920.082925	2674.332115
920.387904	2618.879423
920.692843	2581.070769
920.997743	2601.235385
921.302603	2578.550192
921.607423	2661.729231
921.912204	2543.262115
922.216946	2626.441154
922.521647	2520.576923
922.826310	2623.920577
923.130932	2581.070769
923.435516	2596.194231
923.740059	2533.179808
924.044564	2581.070769
924.349028	2576.029615
924.653454	2671.811538
924.957840	2608.797115
925.262186	2621.400000
925.566493	2596.194231
925.870761	2639.044038
926.174989	2540.741538
926.479178	2598.714808
926.783328	2576.029615
927.087438	2603.755962
927.391509	2563.426731
927.695541	2616.358846
927.999533	2598.714808
928.303486	2659.208654
928.607400	2555.865000
928.911275	2525.618077
929.215110	2618.879423
929.518906	2568.467885
929.822663	2553.344423
930.126381	2543.262115
930.430060	2608.797115
930.733699	2608.797115
931.037299	2598.714808
931.340861	2626.441154
931.644383	2641.564615
931.947866	2593.673654
932.251309	2603.755962
932.554714	2608.797115
932.858080	2528.138654
933.161407	2626.441154
933.464694	2666.770385
933.767943	2616.358846
934.071153	2644.085192
934.374323	2578.550192
934.677455	2573.509038
934.980548	2472.685962
935.283602	2588.632500
935.586617	2606.276538
935.889593	2497.891731
936.192530	2676.852692
936.495428	2631.482308
936.798287	2583.591346
937.101108	2568.467885
937.403890	2613.838269
937.706632	2573.509038
938.009336	2576.029615
938.312002	2601.235385
938.614628	2583.591346
938.917216	2651.646923
939.219765	2560.906154
939.522275	2573.509038
939.824747	2621.400000
940.127179	2535.700385
940.429573	2626.441154
940.731929	2591.153077
941.034246	2606.276538
941.336524	2570.988462
941.638763	2679.373269
941.940964	2689.455577
942.243126	2601.235385
942.545250	2603.755962
942.847335	2596.194231
943.149381	2664.249808
943.451389	2563.426731
943.753359	2555.865000
944.055290	2555.865000
944.357182	2608.797115
944.659036	2626.441154
944.960851	2565.947308
945.262628	2528.138654
945.564367	2634.002885
945.866067	2639.044038
946.167729	2558.385577
946.469352	2558.385577
946.770937	2593.673654
947.072484	2550.823846
947.373992	2588.632500
947.675462	2588.632500
947.976893	2523.097500
948.278286	2581.070769
948.579641	2545.782692
948.880958	2558.385577
949.182236	2603.755962
949.483476	2586.111923
949.784678	2576.029615
950.085841	2588.632500
950.386967	2618.879423
950.688054	2570.988462
950.989103	2553.344423
951.290114	2578.550192
951.591087	2608.797115
951.892021	2618.879423
952.192917	2591.153077
952.493776	2606.276538
952.794596	2518.056346
953.095378	2593.673654
953.396122	2613.838269
953.696828	2621.400000
953.997496	2588.632500
954.298126	2573.509038
954.598718	2606.276538
954.899272	2631.482308
955.199788	2576.029615
955.500266	2634.002885
955.800706	2666.770385
956.101108	2518.056346
956.401472	2586.111923
956.701798	2654.167500
957.002087	2485.288846
957.302337	2523.097500
957.602550	2573.509038
957.902724	2598.714808
958.202861	2540.741538
958.502960	2593.673654
958.803022	2601.235385
959.103045	2616.358846
959.403031	2608.797115
959.702979	2626.441154
960.002889	2520.576923
960.302762	2570.988462
960.602596	2563.426731
960.902393	2598.714808
961.202153	2654.167500
961.501875	2601.235385
961.801559	2570.988462
962.101205	2581.070769
962.400814	2573.509038
962.700385	2535.700385
962.999918	2641.564615
963.299414	2560.906154
963.598873	2586.111923
963.898293	2581.070769
964.197677	2598.714808
964.497022	2586.111923
964.796331	2616.358846
965.095601	2578.550192
965.394835	2581.070769
965.694030	2623.920577
965.993189	2623.920577
966.292309	2563.426731
966.591393	2634.002885
966.890439	2550.823846
967.189447	2601.235385
967.488419	2570.988462
967.787353	2586.111923
968.086249	2525.618077
968.385108	2641.564615
968.683930	2606.276538
968.982714	2545.782692
969.281462	2603.755962
969.580172	2528.138654
969.878844	2606.276538
970.177480	2628.961731
970.476078	2598.714808
970.774639	2540.741538
971.073162	2507.974038
971.371649	2623.920577
971.670098	2669.290962
971.968510	2664.249808
972.266885	2510.494615
972.565223	2623.920577
972.863524	2596.194231
973.161788	2538.220962
973.460014	2646.605769
973.758204	2616.358846
974.056356	2596.194231
974.354471	2613.838269
974.652550	2623.920577
974.950591	2548.303269
975.248595	2628.961731
975.546563	2518.056346
975.844493	2616.358846
976.142386	2626.441154
976.440243	2608.797115
976.738062	2563.426731
977.035845	2588.632500
977.333590	2694.496731
977.631299	2608.797115
977.928971	2563.426731
978.226606	2560.906154
978.524204	2623.920577
978.821765	2626.441154
979.119290	2583.591346
979.416777	2530.659231
979.714228	2601.235385
980.011642	2631.482308
980.309020	2588.632500
980.606360	2565.947308
980.903664	2550.823846
981.200931	2540.741538
981.498162	2535.700385
981.795356	2593.673654
982.092513	2573.509038
982.389633	2596.194231
982.686717	2505.453462
982.983764	2538.220962
983.280775	2601.235385
983.577749	2565.947308
983.874686	2664.249808
984.171587	2593.673654
984.468451	2583.591346
984.765279	2656.688077
985.062070	2613.838269
985.358824	2550.823846
985.655543	2565.947308
985.952224	2616.358846
986.248869	2583.591346
986.545478	2515.535769
986.842050	2560.906154
987.138586	2523.097500
987.435086	2578.550192
987.731549	2611.317692
988.027975	2618.879423
988.324366	2535.700385
988.620719	2576.029615
988.917037	2578.550192
989.213318	2631.482308
989.509563	2583.591346
989.805772	2664.249808
990.101944	2568.467885
990.398080	2613.838269
990.694180	2555.865000
990.990244	2631.482308
991.286271	2550.823846
991.582262	2548.303269
991.878217	2545.782692
992.174136	2588.632500
992.470019	2611.317692
992.765865	2555.865000
993.061676	2598.714808
993.357450	2573.509038
993.653188	2578.550192
993.948890	2555.865000
994.244556	2528.138654
994.540186	2583.591346
994.835780	2616.358846
995.131337	2644.085192
995.426859	2659.208654
995.722345	2613.838269
996.017795	2560.906154
996.313208	2553.344423
996.608586	2601.235385
996.903928	2588.632500
997.199234	2601.235385
997.494504	2510.494615
997.789738	2576.029615
998.084936	2545.782692
998.380099	2613.838269
998.675225	2651.646923
998.970316	2631.482308
999.265371	2558.385577
999.560390	2608.797115
999.855373	2555.865000
1000.150320	2596.194231
1000.445232	2495.371154
1000.740108	2603.755962
1001.034948	2623.920577
1001.329752	2608.797115
1001.624521	2593.673654
1001.919254	2593.673654
1002.213951	2581.070769
1002.508613	2576.029615
1002.803239	2563.426731
1003.097829	2676.852692
1003.392384	2641.564615
1003.686903	2596.194231
1003.981386	2558.385577
1004.275834	2606.276538
1004.570246	2684.414423
1004.864623	2626.441154
1005.158964	2593.673654
1005.453270	2583.591346
1005.747540	2563.426731
1006.041775	2661.729231
1006.335974	2634.002885
1006.630138	2576.029615
1006.924266	2596.194231
1007.218359	2591.153077
1007.512416	2530.659231
1007.806438	2636.523462
1008.100425	2568.467885
1008.394376	2598.714808
1008.688292	2601.235385
1008.982172	2540.741538
1009.276017	2538.220962
1009.569827	2593.673654
1009.863602	2553.344423
1010.157341	2671.811538
1010.451045	2555.865000
1010.744714	2623.920577
1011.038347	2560.906154
1011.331945	2565.947308
1011.625508	2560.906154
1011.919036	2578.550192
1012.212528	2611.317692
1012.505986	2606.276538
1012.799408	2679.373269
1013.092795	2591.153077
1013.386147	2613.838269
1013.679464	2626.441154
1013.972745	2634.002885
1014.265992	2568.467885
1014.559204	2520.576923
1014.852380	2540.741538
1015.145521	2644.085192
1015.438628	2560.906154
1015.731699	2578.550192
1016.024736	2576.029615
1016.317737	2586.111923
1016.610703	2621.400000
1016.903635	2560.906154
1017.196531	2528.138654
1017.489393	2608.797115
1017.782219	2578.550192
1018.075011	2555.865000
1018.367768	2611.317692
1018.660490	2543.262115
1018.953177	2543.262115
1019.245829	2543.262115
