Dividing Wavelength (nm)	Counts (n)	Blue Motor Position (mm): 6.900000	Red Motor Position (mm): 0.000000	
326.493990	2109.722885
326.888308	2109.722885
327.282561	2109.722885
327.676750	2059.311346
328.070874	2145.010962
328.464933	2081.996538
328.858929	2016.461538
329.252859	2102.161154
329.646726	2071.914231
330.040528	2165.175577
330.434265	2124.846346
330.827938	2132.408077
331.221547	2200.463654
331.615091	2180.299038
332.008571	2099.640577
332.401986	2150.052115
332.795338	2225.669423
333.188625	2228.190000
333.581847	2218.107692
333.975006	2323.971923
334.368100	2303.807308
334.761129	2326.492500
335.154095	2349.177692
335.546996	2298.766154
335.939833	2341.615962
336.332606	2296.245577
336.725315	2432.356731
337.117960	2318.930769
337.510540	2444.959615
337.903056	2404.630385
338.295508	2376.904038
338.687896	2369.342308
339.080220	2394.548077
339.472480	2467.644808
339.864676	2513.015192
340.256807	2422.274423
340.648875	2470.165385
341.040879	2507.974038
341.432818	2442.439038
341.824694	2465.124231
342.216506	2495.371154
342.608253	2434.877308
342.999937	2472.685962
343.391557	2439.918462
343.783113	2513.015192
344.174605	2412.192115
344.566033	2513.015192
344.957397	2480.247692
345.348697	2455.041923
345.739934	2485.288846
346.131106	2465.124231
346.522215	2500.412308
346.913260	2399.589231
347.304241	2361.780577
347.695159	2477.727115
348.086012	2407.150962
348.476802	2434.877308
348.867528	2439.918462
349.258191	2460.083077
349.648789	2402.109808
350.039324	2427.315577
350.429796	2422.274423
350.820203	2444.959615
351.210548	2450.000769
351.600828	2460.083077
351.991045	2402.109808
352.381198	2490.330000
352.771288	2427.315577
353.161314	2424.795000
353.551276	2394.548077
353.941175	2470.165385
354.331010	2450.000769
354.720782	2402.109808
355.110490	2452.521346
355.500135	2442.439038
355.889717	2399.589231
356.279235	2530.659231
356.668689	2409.671538
357.058080	2450.000769
357.447408	2439.918462
357.836672	2429.836154
358.225873	2389.506923
358.615010	2419.753846
359.004084	2455.041923
359.393095	2510.494615
359.782043	2601.235385
360.170927	2505.453462
360.559748	2399.589231
360.948505	2407.150962
361.337199	2460.083077
361.725830	2399.589231
362.114398	2341.615962
362.502903	2439.918462
362.891344	2472.685962
363.279722	2480.247692
363.668037	2535.700385
364.056289	2444.959615
364.444478	2394.548077
364.832603	2505.453462
365.220665	2404.630385
365.608665	2457.562500
365.996601	2447.480192
366.384474	2437.397885
366.772284	2447.480192
367.160031	2518.056346
367.547715	2492.850577
367.935336	2397.068654
368.322893	2457.562500
368.710388	2427.315577
369.097820	2507.974038
369.485189	2500.412308
369.872495	2502.932885
370.259738	2437.397885
370.646918	2361.780577
371.034035	2437.397885
371.421090	2424.795000
371.808081	2495.371154
372.195010	2462.603654
372.581875	2480.247692
372.968678	2502.932885
373.355418	2447.480192
373.742096	2528.138654
374.128710	2455.041923
374.515262	2475.206538
374.901751	2424.795000
375.288177	2487.809423
375.674540	2507.974038
376.060841	2361.780577
376.447079	2497.891731
376.833254	2437.397885
377.219367	2533.179808
377.605417	2427.315577
377.991404	2399.589231
378.377329	2502.932885
378.763191	2487.809423
379.148991	2565.947308
379.534727	2533.179808
379.920402	2475.206538
380.306013	2399.589231
380.691563	2533.179808
381.077049	2462.603654
381.462474	2409.671538
381.847835	2392.027500
382.233134	2419.753846
382.618371	2450.000769
383.003545	2404.630385
383.388657	2515.535769
383.773706	2485.288846
384.158693	2465.124231
384.543618	2429.836154
384.928480	2386.986346
385.313280	2497.891731
385.698017	2457.562500
386.082692	2417.233269
386.467305	2460.083077
386.851856	2487.809423
387.236344	2518.056346
387.620770	2442.439038
388.005133	2427.315577
388.389435	2394.548077
388.773674	2452.521346
389.157851	2487.809423
389.541965	2460.083077
389.926018	2386.986346
390.310008	2447.480192
390.693936	2465.124231
391.077802	2497.891731
391.461606	2450.000769
391.845348	2533.179808
392.229027	2442.439038
392.612645	2457.562500
392.996200	2442.439038
393.379694	2384.465769
393.763125	2455.041923
394.146494	2460.083077
394.529801	2427.315577
394.913047	2450.000769
395.296230	2487.809423
395.679351	2447.480192
396.062410	2525.618077
396.445408	2518.056346
396.828343	2424.795000
397.211217	2528.138654
397.594028	2447.480192
397.976778	2482.768269
398.359466	2422.274423
398.742092	2548.303269
399.124656	2432.356731
399.507158	2467.644808
399.889598	2480.247692
400.271977	2460.083077
400.654294	2492.850577
401.036549	2429.836154
401.418742	2487.809423
401.800874	2450.000769
402.182944	2455.041923
402.564952	2434.877308
402.946898	2465.124231
403.328783	2442.439038
403.710606	2520.576923
404.092367	2467.644808
404.474067	2381.945192
404.855705	2487.809423
405.237282	2475.206538
405.618797	2444.959615
406.000250	2487.809423
406.381642	2460.083077
406.762972	2502.932885
407.144240	2558.385577
407.525447	2457.562500
407.906593	2442.439038
408.287677	2500.412308
408.668700	2444.959615
409.049661	2513.015192
409.430560	2548.303269
409.811399	2510.494615
410.192176	2424.795000
410.572891	2533.179808
410.953545	2515.535769
411.334138	2442.439038
411.714669	2480.247692
412.095139	2472.685962
412.475547	2505.453462
412.855894	2427.315577
413.236180	2480.247692
413.616405	2515.535769
413.996568	2480.247692
414.376670	2538.220962
414.756711	2442.439038
415.136691	2570.988462
415.516609	2457.562500
415.896466	2460.083077
416.276262	2457.562500
416.655997	2470.165385
417.035670	2475.206538
417.415283	2477.727115
417.794834	2399.589231
418.174324	2523.097500
418.553753	2460.083077
418.933121	2492.850577
419.312428	2472.685962
419.691674	2510.494615
420.070859	2414.712692
420.449983	2480.247692
420.829045	2570.988462
421.208047	2500.412308
421.586988	2465.124231
421.965867	2538.220962
422.344686	2540.741538
422.723444	2510.494615
423.102141	2439.918462
423.480777	2397.068654
423.859352	2497.891731
424.237866	2475.206538
424.616319	2419.753846
424.994712	2450.000769
425.373044	2462.603654
425.751314	2447.480192
426.129524	2477.727115
426.507673	2520.576923
426.885762	2510.494615
427.263789	2505.453462
427.641756	2487.809423
428.019662	2467.644808
428.397508	2450.000769
428.775292	2495.371154
429.153016	2457.562500
429.530679	2513.015192
429.908282	2502.932885
430.285824	2450.000769
430.663305	2477.727115
431.040726	2492.850577
431.418086	2460.083077
431.795385	2490.330000
432.172624	2480.247692
432.549802	2502.932885
432.926920	2460.083077
433.303977	2540.741538
433.680974	2540.741538
434.057910	2470.165385
434.434786	2389.506923
434.811601	2505.453462
435.188355	2480.247692
435.565050	2455.041923
435.941683	2450.000769
436.318257	2470.165385
436.694770	2492.850577
437.071222	2535.700385
437.447614	2397.068654
437.823946	2505.453462
438.200218	2429.836154
438.576429	2490.330000
438.952580	2472.685962
439.328670	2477.727115
439.704700	2447.480192
440.080670	2490.330000
440.456580	2475.206538
440.832429	2535.700385
441.208218	2487.809423
441.583947	2437.397885
441.959616	2525.618077
442.335224	2507.974038
442.710773	2447.480192
443.086261	2513.015192
443.461689	2487.809423
443.837057	2482.768269
444.212365	2452.521346
444.587612	2457.562500
444.962800	2480.247692
445.337927	2492.850577
445.712995	2581.070769
446.088002	2439.918462
446.462949	2371.862885
446.837837	2450.000769
447.212664	2581.070769
447.587431	2450.000769
447.962139	2520.576923
448.336786	2515.535769
448.711374	2495.371154
449.085901	2495.371154
449.460369	2450.000769
449.834776	2394.548077
450.209124	2497.891731
450.583412	2507.974038
450.957640	2528.138654
451.331808	2460.083077
451.705917	2417.233269
452.079965	2402.109808
452.453954	2356.739423
452.827883	2497.891731
453.201752	2495.371154
453.575562	2497.891731
453.949311	2460.083077
454.323001	2538.220962
454.696632	2407.150962
455.070202	2477.727115
455.443713	2447.480192
455.817164	2444.959615
456.190556	2548.303269
456.563888	2502.932885
456.937160	2603.755962
457.310373	2502.932885
457.683526	2442.439038
458.056619	2507.974038
458.429653	2515.535769
458.802628	2450.000769
459.175542	2495.371154
459.548398	2581.070769
459.921194	2447.480192
460.293930	2563.426731
460.666607	2460.083077
461.039224	2467.644808
461.411782	2480.247692
461.784280	2487.809423
462.156719	2550.823846
462.529099	2424.795000
462.901419	2487.809423
463.273680	2490.330000
463.645882	2518.056346
464.018024	2434.877308
464.390106	2487.809423
464.762130	2533.179808
465.134094	2470.165385
465.505999	2502.932885
465.877845	2497.891731
466.249631	2472.685962
466.621358	2490.330000
466.993026	2576.029615
467.364634	2455.041923
467.736184	2583.591346
468.107674	2450.000769
468.479105	2560.906154
468.850477	2457.562500
469.221790	2507.974038
469.593043	2495.371154
469.964238	2510.494615
470.335373	2480.247692
470.706449	2523.097500
471.077467	2507.974038
471.448425	2608.797115
471.819324	2586.111923
472.190164	2545.782692
472.560945	2550.823846
472.931667	2452.521346
473.302330	2462.603654
473.672934	2432.356731
474.043479	2452.521346
474.413965	2495.371154
474.784393	2596.194231
475.154761	2495.371154
475.525070	2520.576923
475.895321	2535.700385
476.265513	2502.932885
476.635645	2513.015192
477.005719	2533.179808
477.375734	2510.494615
477.745691	2432.356731
478.115588	2480.247692
478.485427	2490.330000
478.855207	2530.659231
479.224928	2490.330000
479.594591	2429.836154
479.964194	2540.741538
480.333739	2505.453462
480.703226	2530.659231
481.072653	2490.330000
481.442022	2601.235385
481.811333	2515.535769
482.180584	2518.056346
482.549777	2560.906154
482.918912	2500.412308
483.287988	2520.576923
483.657005	2513.015192
484.025964	2447.480192
484.394864	2500.412308
484.763706	2465.124231
485.132489	2520.576923
485.501213	2525.618077
485.869879	2477.727115
486.238487	2535.700385
486.607036	2497.891731
486.975527	2465.124231
487.343959	2417.233269
487.712333	2507.974038
488.080648	2417.233269
488.448905	2452.521346
488.817104	2447.480192
489.185244	2497.891731
489.553326	2432.356731
489.921350	2492.850577
490.289315	2480.247692
490.657222	2457.562500
491.025070	2462.603654
491.392861	2460.083077
491.760593	2444.959615
492.128267	2510.494615
492.495883	2507.974038
492.863440	2500.412308
493.230939	2480.247692
493.598380	2492.850577
493.965763	2535.700385
494.333088	2543.262115
494.700354	2545.782692
495.067563	2535.700385
495.434713	2485.288846
495.801805	2397.068654
496.168839	2535.700385
496.535815	2442.439038
496.902733	2538.220962
497.269593	2467.644808
497.636395	2528.138654
498.003139	2492.850577
498.369825	2530.659231
498.736453	2502.932885
499.103023	2497.891731
499.469535	2457.562500
499.835989	2606.276538
500.202385	2555.865000
500.568723	2550.823846
500.935003	2563.426731
501.301226	2578.550192
501.667390	2482.768269
502.033497	2573.509038
502.399546	2455.041923
502.765537	2530.659231
503.131470	2467.644808
503.497345	2480.247692
503.863163	2475.206538
504.228923	2386.986346
504.594625	2510.494615
504.960269	2397.068654
505.325856	2465.124231
505.691385	2482.768269
506.056856	2502.932885
506.422270	2419.753846
506.787625	2492.850577
507.152924	2543.262115
507.518164	2530.659231
507.883347	2510.494615
508.248472	2535.700385
508.613540	2480.247692
508.978550	2490.330000
509.343503	2535.700385
509.708398	2495.371154
510.073236	2528.138654
510.438016	2555.865000
510.802738	2475.206538
511.167403	2523.097500
511.532010	2593.673654
511.896561	2492.850577
512.261053	2477.727115
512.625488	2487.809423
512.989866	2455.041923
513.354186	2465.124231
513.718449	2495.371154
514.082655	2513.015192
514.446803	2553.344423
514.810894	2497.891731
515.174927	2477.727115
515.538904	2518.056346
515.902822	2505.453462
516.266684	2439.918462
516.630488	2558.385577
516.994235	2477.727115
517.357925	2507.974038
517.721558	2402.109808
518.085133	2540.741538
518.448651	2528.138654
518.812112	2487.809423
519.175516	2462.603654
519.538863	2490.330000
519.902152	2510.494615
520.265385	2523.097500
520.628560	2502.932885
520.991678	2550.823846
521.354739	2475.206538
521.717743	2545.782692
522.080690	2581.070769
522.443580	2550.823846
522.806413	2475.206538
523.169189	2523.097500
523.531908	2563.426731
523.894569	2485.288846
524.257174	2530.659231
524.619722	2568.467885
524.982213	2505.453462
525.344647	2480.247692
525.707025	2533.179808
526.069345	2480.247692
526.431608	2538.220962
526.793815	2573.509038
527.155964	2535.700385
527.518057	2510.494615
527.880093	2490.330000
528.242072	2467.644808
528.603995	2485.288846
528.965860	2507.974038
529.327669	2419.753846
529.689421	2520.576923
530.051117	2497.891731
530.412755	2472.685962
530.774337	2528.138654
531.135862	2505.453462
531.497331	2485.288846
531.858743	2487.809423
532.220098	2455.041923
532.581396	2513.015192
532.942638	2467.644808
533.303824	2518.056346
533.664953	2492.850577
534.026025	2513.015192
534.387040	2490.330000
534.747999	2487.809423
535.108902	2492.850577
535.469748	2530.659231
535.830537	2525.618077
536.191270	2525.618077
536.551947	2462.603654
536.912567	2480.247692
537.273131	2470.165385
537.633638	2563.426731
537.994089	2507.974038
538.354483	2434.877308
538.714821	2500.412308
539.075103	2485.288846
539.435328	2520.576923
539.795497	2568.467885
540.155609	2477.727115
540.515665	2520.576923
540.875665	2487.809423
541.235609	2465.124231
541.595496	2487.809423
541.955328	2462.603654
542.315102	2480.247692
542.674821	2513.015192
543.034483	2487.809423
543.394090	2386.986346
543.753640	2535.700385
544.113134	2510.494615
544.472571	2515.535769
544.831953	2523.097500
545.191278	2543.262115
545.550548	2518.056346
545.909761	2510.494615
546.268918	2533.179808
546.628019	2434.877308
546.987064	2525.618077
547.346053	2563.426731
547.704986	2450.000769
548.063863	2555.865000
548.422684	2407.150962
548.781449	2578.550192
549.140158	2444.959615
549.498811	2500.412308
549.857408	2462.603654
550.215949	2533.179808
550.574434	2563.426731
550.932864	2462.603654
551.291237	2530.659231
551.649555	2490.330000
552.007817	2520.576923
552.366022	2465.124231
552.724173	2470.165385
553.082267	2505.453462
553.440305	2555.865000
553.798288	2576.029615
554.156215	2518.056346
554.514086	2525.618077
554.871902	2492.850577
555.229661	2497.891731
555.587365	2462.603654
555.945014	2507.974038
556.302606	2513.015192
556.660143	2439.918462
557.017625	2457.562500
557.375050	2550.823846
557.732421	2462.603654
558.089735	2439.918462
558.446994	2444.959615
558.804197	2598.714808
559.161345	2565.947308
559.518437	2475.206538
559.875474	2545.782692
560.232455	2402.109808
560.589381	2457.562500
560.946251	2472.685962
561.303065	2588.632500
561.659825	2492.850577
562.016528	2455.041923
562.373177	2487.809423
562.729770	2439.918462
563.086307	2477.727115
563.442789	2490.330000
563.799216	2513.015192
564.155587	2502.932885
564.511904	2404.630385
564.868164	2558.385577
565.224370	2475.206538
565.580520	2515.535769
565.936615	2490.330000
566.292654	2482.768269
566.648638	2513.015192
567.004567	2553.344423
567.360441	2528.138654
567.716260	2424.795000
568.072023	2510.494615
568.427732	2465.124231
568.783385	2470.165385
569.138982	2563.426731
569.494525	2513.015192
569.850013	2520.576923
570.205445	2548.303269
570.560823	2455.041923
570.916145	2485.288846
571.271412	2520.576923
571.626625	2475.206538
571.981782	2553.344423
572.336884	2422.274423
572.691931	2402.109808
573.046923	2520.576923
573.401860	2386.986346
573.756743	2510.494615
574.111570	2490.330000
574.466342	2520.576923
574.821059	2525.618077
575.175722	2442.439038
575.530330	2530.659231
575.884882	2555.865000
576.239380	2505.453462
576.593823	2523.097500
576.948211	2525.618077
577.302544	2480.247692
577.656823	2477.727115
578.011047	2533.179808
578.365216	2470.165385
578.719330	2502.932885
579.073389	2570.988462
579.427394	2507.974038
579.781344	2409.671538
580.135239	2424.795000
580.489080	2470.165385
580.842866	2495.371154
581.196597	2553.344423
581.550273	2455.041923
581.903895	2447.480192
582.257463	2439.918462
582.610975	2462.603654
582.964434	2485.288846
583.317837	2457.562500
583.671186	2427.315577
584.024481	2429.836154
584.377721	2495.371154
584.730906	2477.727115
585.084037	2482.768269
585.437113	2533.179808
585.790135	2550.823846
586.143103	2447.480192
586.496016	2553.344423
586.848874	2485.288846
587.201679	2419.753846
587.554428	2495.371154
587.907124	2472.685962
588.259765	2560.906154
588.612352	2452.521346
588.964884	2581.070769
589.317362	2432.356731
589.669786	2495.371154
590.022155	2515.535769
590.374470	2510.494615
590.726731	2434.877308
591.078937	2480.247692
591.431090	2472.685962
591.783188	2543.262115
592.135232	2485.288846
592.487222	2497.891731
592.839157	2495.371154
593.191038	2439.918462
593.542866	2419.753846
593.894639	2502.932885
594.246358	2518.056346
594.598022	2533.179808
594.949633	2480.247692
595.301190	2389.506923
595.652692	2540.741538
596.004141	2457.562500
596.355535	2510.494615
596.706876	2555.865000
597.058162	2495.371154
597.409395	2611.317692
597.760573	2513.015192
598.111698	2475.206538
598.462768	2528.138654
598.813785	2523.097500
599.164748	2505.453462
599.515657	2540.741538
599.866511	2462.603654
600.217312	2482.768269
600.568060	2500.412308
600.918753	2623.920577
601.269392	2520.576923
601.619978	2450.000769
601.970510	2480.247692
602.320988	2475.206538
602.671412	2485.288846
603.021783	2550.823846
603.372100	2535.700385
603.722363	2510.494615
604.072572	2477.727115
604.422728	2543.262115
604.772830	2404.630385
605.122878	2487.809423
605.472872	2540.741538
605.822813	2507.974038
606.172701	2450.000769
606.522534	2487.809423
606.872314	2497.891731
607.222041	2510.494615
607.571714	2497.891731
607.921333	2500.412308
608.270899	2507.974038
608.620411	2497.891731
608.969870	2535.700385
609.319276	2457.562500
609.668627	2586.111923
610.017926	2442.439038
610.367171	2513.015192
610.716362	2477.727115
611.065500	2548.303269
611.414585	2371.862885
611.763616	2510.494615
612.112594	2480.247692
612.461518	2472.685962
612.810389	2548.303269
613.159207	2455.041923
613.507971	2475.206538
613.856682	2379.424615
614.205340	2429.836154
614.553945	2497.891731
614.902496	2497.891731
615.250994	2518.056346
615.599439	2460.083077
615.947830	2520.576923
616.296169	2518.056346
616.644454	2543.262115
616.992686	2447.480192
617.340864	2545.782692
617.688990	2439.918462
618.037063	2523.097500
618.385082	2515.535769
618.733048	2533.179808
619.080961	2548.303269
619.428821	2500.412308
619.776628	2490.330000
620.124382	2507.974038
620.472083	2429.836154
620.819731	2492.850577
621.167326	2570.988462
621.514868	2500.412308
621.862357	2523.097500
622.209793	2434.877308
622.557176	2409.671538
622.904506	2450.000769
623.251783	2480.247692
623.599007	2490.330000
623.946179	2507.974038
624.293297	2485.288846
624.640363	2429.836154
624.987376	2505.453462
625.334336	2444.959615
625.681243	2523.097500
626.028097	2477.727115
626.374899	2444.959615
626.721647	2442.439038
627.068343	2472.685962
627.414987	2434.877308
627.761577	2507.974038
628.108115	2457.562500
628.454600	2505.453462
628.801032	2470.165385
629.147412	2467.644808
629.493739	2467.644808
629.840014	2432.356731
630.186236	2397.068654
630.532405	2475.206538
630.878521	2583.591346
631.224585	2427.315577
631.570597	2470.165385
631.916556	2402.109808
632.262462	2477.727115
632.608316	2414.712692
632.954117	2467.644808
633.299866	2505.453462
633.645562	2485.288846
633.991206	2487.809423
634.336797	2538.220962
634.682336	2482.768269
635.027823	2528.138654
635.373257	2462.603654
635.718639	2492.850577
636.063968	2507.974038
636.409245	2560.906154
636.754470	2568.467885
637.099642	2465.124231
637.444762	2485.288846
637.789829	2427.315577
638.134845	2515.535769
638.479808	2407.150962
638.824719	2507.974038
639.169577	2442.439038
639.514383	2538.220962
639.859137	2497.891731
640.203839	2523.097500
640.548489	2492.850577
640.893086	2455.041923
641.237632	2507.974038
641.582125	2497.891731
641.926566	2465.124231
642.270955	2480.247692
642.615292	2507.974038
642.959576	2482.768269
643.303809	2477.727115
643.647990	2528.138654
643.992118	2424.795000
644.336195	2543.262115
644.680219	2465.124231
645.024192	2472.685962
645.368112	2528.138654
645.711981	2437.397885
646.055797	2485.288846
646.399562	2538.220962
646.743274	2470.165385
647.086935	2487.809423
647.430544	2487.809423
647.774101	2467.644808
648.117606	2502.932885
648.461059	2505.453462
648.804460	2523.097500
649.147810	2442.439038
649.491108	2487.809423
649.834354	2540.741538
650.177548	2487.809423
650.520690	2490.330000
650.863781	2409.671538
651.206820	2507.974038
651.549807	2510.494615
651.892742	2543.262115
652.235626	2505.453462
652.578458	2490.330000
652.921238	2442.439038
653.263967	2505.453462
653.606644	2490.330000
653.949269	2558.385577
654.291843	2500.412308
654.634365	2616.358846
654.976836	2487.809423
655.319255	2379.424615
655.661622	2603.755962
656.003938	2485.288846
656.346203	2543.262115
656.688416	2487.809423
657.030577	2545.782692
657.372687	2616.358846
657.714746	2472.685962
658.056753	2500.412308
658.398708	2447.480192
658.740612	2457.562500
659.082465	2538.220962
659.424266	2545.782692
659.766016	2515.535769
660.107715	2558.385577
660.449362	2518.056346
660.790958	2497.891731
661.132503	2538.220962
661.473996	2422.274423
661.815438	2452.521346
662.156829	2502.932885
662.498168	2487.809423
662.839456	2507.974038
663.180693	2450.000769
663.521879	2525.618077
663.863013	2485.288846
664.204097	2543.262115
664.545129	2447.480192
664.886110	2490.330000
665.227040	2533.179808
665.567918	2492.850577
665.908746	2444.959615
666.249522	2472.685962
666.590248	2560.906154
666.930922	2525.618077
667.271545	2505.453462
667.612118	2558.385577
667.952639	2444.959615
668.293109	2485.288846
668.633528	2447.480192
668.973896	2553.344423
669.314213	2442.439038
669.654480	2482.768269
669.994695	2472.685962
670.334859	2492.850577
670.674973	2515.535769
671.015035	2505.453462
671.355047	2525.618077
671.695008	2434.877308
672.034918	2555.865000
672.374777	2442.439038
672.714585	2528.138654
673.054342	2543.262115
673.394049	2452.521346
673.733705	2538.220962
674.073310	2485.288846
674.412864	2477.727115
674.752368	2450.000769
675.091820	2591.153077
675.431223	2487.809423
675.770574	2487.809423
676.109875	2477.727115
676.449125	2439.918462
676.788324	2510.494615
677.127473	2462.603654
677.466571	2487.809423
677.805619	2447.480192
678.144616	2480.247692
678.483562	2460.083077
678.822458	2581.070769
679.161303	2528.138654
679.500098	2497.891731
679.838842	2490.330000
680.177535	2525.618077
680.516179	2470.165385
680.854771	2568.467885
681.193314	2548.303269
681.531805	2490.330000
681.870247	2513.015192
682.208638	2500.412308
682.546978	2482.768269
682.885268	2417.233269
683.223508	2581.070769
683.561697	2439.918462
683.899836	2500.412308
684.237925	2490.330000
684.575963	2523.097500
684.913951	2550.823846
685.251889	2500.412308
685.589776	2525.618077
685.927614	2490.330000
686.265401	2550.823846
686.603137	2409.671538
686.940824	2510.494615
687.278460	2528.138654
687.616046	2505.453462
687.953582	2570.988462
688.291068	2550.823846
688.628504	2545.782692
688.965889	2467.644808
689.303224	2543.262115
689.640510	2500.412308
689.977745	2475.206538
690.314930	2563.426731
690.652065	2427.315577
690.989150	2525.618077
691.326185	2550.823846
691.663170	2507.974038
692.000105	2565.947308
692.336990	2518.056346
692.673825	2487.809423
693.010610	2520.576923
693.347345	2528.138654
693.684030	2447.480192
694.020665	2442.439038
694.357251	2558.385577
694.693786	2520.576923
695.030272	2502.932885
695.366707	2487.809423
695.703093	2500.412308
696.039429	2487.809423
696.375716	2500.412308
696.711952	2525.618077
697.048139	2472.685962
697.384276	2555.865000
697.720363	2447.480192
698.056400	2581.070769
698.392388	2588.632500
698.728326	2545.782692
699.064214	2467.644808
699.400053	2437.397885
699.735842	2540.741538
700.071581	2477.727115
700.407270	2462.603654
700.742910	2528.138654
701.078501	2487.809423
701.414042	2505.453462
701.749533	2467.644808
702.084974	2480.247692
702.420366	2497.891731
702.755709	2437.397885
703.091002	2548.303269
703.426246	2482.768269
703.761440	2550.823846
704.096584	2452.521346
704.431679	2472.685962
704.766725	2553.344423
705.101721	2545.782692
705.436668	2475.206538
705.771565	2525.618077
706.106413	2515.535769
706.441212	2520.576923
706.775961	2528.138654
707.110661	2533.179808
707.445311	2507.974038
707.779913	2432.356731
708.114465	2530.659231
708.448967	2447.480192
708.783421	2611.317692
709.117825	2538.220962
709.452180	2540.741538
709.786485	2475.206538
710.120742	2568.467885
710.454949	2480.247692
710.789107	2553.344423
711.123216	2570.988462
711.457275	2472.685962
711.791286	2507.974038
712.125247	2475.206538
712.459159	2500.412308
712.793023	2480.247692
713.126837	2550.823846
713.460602	2487.809423
713.794318	2482.768269
714.127985	2505.453462
714.461602	2490.330000
714.795171	2500.412308
715.128691	2442.439038
715.462162	2515.535769
715.795584	2467.644808
716.128957	2505.453462
716.462281	2450.000769
716.795556	2480.247692
717.128782	2492.850577
717.461960	2497.891731
717.795088	2507.974038
718.128167	2550.823846
718.461198	2520.576923
718.794180	2475.206538
719.127113	2523.097500
719.459997	2523.097500
719.792833	2444.959615
720.125619	2540.741538
720.458357	2543.262115
720.791046	2510.494615
721.123686	2495.371154
721.456278	2442.439038
721.788821	2500.412308
722.121315	2495.371154
722.453761	2480.247692
722.786158	2492.850577
723.118506	2550.823846
723.450805	2500.412308
723.783056	2502.932885
724.115259	2490.330000
724.447412	2480.247692
724.779518	2540.741538
725.111574	2450.000769
725.443582	2485.288846
725.775542	2500.412308
726.107453	2515.535769
726.439315	2545.782692
726.771129	2444.959615
727.102895	2507.974038
727.434612	2455.041923
727.766281	2447.480192
728.097901	2502.932885
728.429473	2462.603654
728.760996	2487.809423
729.092471	2437.397885
729.423897	2467.644808
729.755276	2545.782692
730.086606	2515.535769
730.417887	2523.097500
730.749120	2487.809423
731.080305	2548.303269
731.411442	2477.727115
731.742530	2447.480192
732.073570	2586.111923
732.404562	2497.891731
732.735506	2482.768269
733.066401	2528.138654
733.397249	2442.439038
733.728048	2487.809423
734.058798	2452.521346
734.389501	2495.371154
734.720156	2467.644808
735.050762	2555.865000
735.381320	2502.932885
735.711831	2520.576923
736.042293	2437.397885
736.372707	2482.768269
736.703073	2492.850577
737.033391	2505.453462
737.363661	2485.288846
737.693883	2563.426731
738.024056	2626.441154
738.354182	2475.206538
738.684260	2472.685962
739.014290	2407.150962
739.344272	2525.618077
739.674207	2467.644808
740.004093	2462.603654
740.333931	2505.453462
740.663722	2573.509038
740.993464	2523.097500
741.323159	2573.509038
741.652806	2349.177692
741.982405	2528.138654
742.311956	2470.165385
742.641460	2500.412308
742.970915	2419.753846
743.300323	2455.041923
743.629683	2487.809423
743.958996	2535.700385
744.288260	2505.453462
744.617477	2490.330000
744.946647	2518.056346
745.275768	2417.233269
745.604842	2518.056346
745.933869	2568.467885
746.262847	2414.712692
746.591778	2598.714808
746.920662	2543.262115
747.249498	2502.932885
747.578286	2437.397885
747.907027	2452.521346
748.235720	2528.138654
748.564365	2490.330000
748.892963	2485.288846
749.221514	2492.850577
749.550017	2576.029615
749.878473	2477.727115
750.206881	2510.494615
750.535242	2452.521346
750.863555	2510.494615
751.191821	2502.932885
751.520039	2578.550192
751.848210	2560.906154
752.176334	2475.206538
752.504411	2515.535769
752.832440	2460.083077
753.160421	2528.138654
753.488356	2485.288846
753.816243	2457.562500
754.144082	2553.344423
754.471875	2429.836154
754.799620	2518.056346
755.127318	2437.397885
755.454969	2502.932885
755.782572	2510.494615
756.110129	2520.576923
756.437638	2513.015192
756.765100	2492.850577
757.092515	2535.700385
757.419882	2495.371154
757.747203	2460.083077
758.074477	2500.412308
758.401703	2404.630385
758.728882	2492.850577
759.056014	2538.220962
759.383099	2510.494615
759.710138	2485.288846
760.037129	2528.138654
760.364073	2535.700385
760.690970	2497.891731
761.017820	2379.424615
761.344623	2543.262115
761.671379	2432.356731
761.998088	2427.315577
762.324751	2472.685962
762.651366	2475.206538
762.977935	2460.083077
763.304456	2470.165385
763.630931	2487.809423
763.957359	2485.288846
764.283740	2462.603654
764.610074	2530.659231
764.936362	2545.782692
765.262602	2553.344423
765.588796	2518.056346
765.914943	2475.206538
766.241044	2510.494615
766.567097	2422.274423
766.893104	2550.823846
767.219064	2528.138654
767.544978	2492.850577
767.870845	2475.206538
768.196665	2601.235385
768.522438	2439.918462
768.848165	2492.850577
769.173846	2490.330000
769.499479	2578.550192
769.825066	2530.659231
770.150607	2540.741538
770.476101	2444.959615
770.801548	2455.041923
771.126949	2563.426731
771.452303	2535.700385
771.777611	2520.576923
772.102872	2467.644808
772.428087	2568.467885
772.753256	2490.330000
773.078378	2538.220962
773.403453	2455.041923
773.728482	2523.097500
774.053465	2533.179808
774.378401	2581.070769
774.703291	2437.397885
775.028135	2533.179808
775.352932	2470.165385
775.677683	2505.453462
776.002388	2500.412308
776.327046	2518.056346
776.651658	2570.988462
776.976224	2475.206538
777.300743	2518.056346
777.625216	2555.865000
777.949643	2492.850577
778.274024	2495.371154
778.598359	2528.138654
778.922647	2543.262115
779.246889	2553.344423
779.571086	2515.535769
779.895236	2447.480192
780.219339	2457.562500
780.543397	2475.206538
780.867409	2455.041923
781.191374	2533.179808
781.515294	2502.932885
781.839167	2543.262115
782.162995	2477.727115
782.486776	2507.974038
782.810511	2505.453462
783.134201	2545.782692
783.457844	2520.576923
783.781441	2543.262115
784.104993	2513.015192
784.428498	2588.632500
784.751958	2492.850577
785.075372	2560.906154
785.398739	2455.041923
785.722061	2535.700385
786.045337	2497.891731
786.368568	2450.000769
786.691752	2565.947308
787.014891	2533.179808
787.337983	2553.344423
787.661030	2588.632500
787.984031	2545.782692
788.306987	2492.850577
788.629897	2480.247692
788.952760	2550.823846
789.275579	2492.850577
789.598351	2523.097500
789.921078	2419.753846
790.243759	2495.371154
790.566395	2490.330000
790.888984	2530.659231
791.211529	2500.412308
791.534027	2480.247692
791.856480	2558.385577
792.178888	2545.782692
792.501249	2495.371154
792.823566	2490.330000
793.145836	2480.247692
793.468062	2543.262115
793.790241	2467.644808
794.112375	2472.685962
794.434464	2535.700385
794.756507	2394.548077
795.078505	2419.753846
795.400457	2487.809423
795.722364	2480.247692
796.044226	2462.603654
796.366042	2528.138654
796.687812	2545.782692
797.009538	2457.562500
797.331218	2530.659231
797.652852	2525.618077
797.974442	2548.303269
798.295986	2492.850577
798.617484	2497.891731
798.938938	2450.000769
799.260346	2553.344423
799.581709	2482.768269
799.903026	2530.659231
800.224299	2422.274423
800.545526	2470.165385
800.866708	2520.576923
801.187845	2505.453462
801.508936	2560.906154
801.829983	2485.288846
802.150984	2495.371154
802.471940	2505.453462
802.792851	2492.850577
803.113717	2485.288846
803.434538	2447.480192
803.755314	2442.439038
804.076045	2553.344423
804.396731	2540.741538
804.717372	2507.974038
805.037967	2518.056346
805.358518	2515.535769
805.679024	2475.206538
805.999485	2530.659231
806.319901	2477.727115
806.640272	2452.521346
806.960598	2497.891731
807.280879	2427.315577
807.601115	2495.371154
807.921306	2457.562500
808.241453	2520.576923
808.561554	2497.891731
808.881611	2482.768269
809.201623	2457.562500
809.521590	2492.850577
809.841513	2429.836154
810.161390	2457.562500
810.481223	2525.618077
810.801011	2548.303269
811.120755	2500.412308
811.440453	2460.083077
811.760107	2543.262115
812.079716	2492.850577
812.399281	2502.932885
812.718801	2444.959615
813.038276	2550.823846
813.357707	2465.124231
813.677093	2480.247692
813.996434	2540.741538
814.315731	2397.068654
814.634983	2460.083077
814.954191	2467.644808
815.273354	2490.330000
815.592473	2505.453462
815.911547	2513.015192
816.230577	2540.741538
816.549562	2482.768269
816.868502	2525.618077
817.187399	2497.891731
817.506250	2510.494615
817.825058	2520.576923
818.143821	2450.000769
818.462539	2502.932885
818.781213	2513.015192
819.099843	2586.111923
819.418429	2505.453462
819.736970	2510.494615
820.055466	2555.865000
820.373919	2480.247692
820.692327	2523.097500
821.010691	2528.138654
821.329011	2485.288846
821.647286	2548.303269
821.965517	2429.836154
822.283704	2460.083077
822.601847	2533.179808
822.919945	2543.262115
823.237999	2447.480192
823.556010	2510.494615
823.873976	2560.906154
824.191897	2560.906154
824.509775	2525.618077
824.827609	2482.768269
825.145398	2490.330000
825.463144	2545.782692
825.780845	2505.453462
826.098502	2573.509038
826.416116	2480.247692
826.733685	2414.712692
827.051210	2518.056346
827.368692	2573.509038
827.686129	2495.371154
828.003522	2465.124231
828.320872	2492.850577
828.638177	2543.262115
828.955439	2439.918462
829.272656	2492.850577
829.589830	2573.509038
829.906960	2455.041923
830.224046	2379.424615
830.541088	2475.206538
830.858086	2434.877308
831.175041	2500.412308
831.491952	2502.932885
831.808819	2505.453462
832.125642	2507.974038
832.442421	2507.974038
832.759157	2560.906154
833.075849	2535.700385
833.392497	2553.344423
833.709101	2528.138654
834.025662	2432.356731
834.342179	2515.535769
834.658653	2467.644808
834.975083	2515.535769
835.291469	2477.727115
835.607811	2500.412308
835.924110	2553.344423
836.240366	2457.562500
836.556578	2538.220962
836.872746	2492.850577
837.188871	2535.700385
837.504952	2450.000769
837.820990	2538.220962
838.136984	2578.550192
838.452935	2439.918462
838.768842	2518.056346
839.084706	2470.165385
839.400526	2523.097500
839.716303	2452.521346
840.032037	2525.618077
840.347727	2442.439038
840.663373	2500.412308
840.978977	2490.330000
841.294537	2460.083077
841.610054	2558.385577
841.925527	2520.576923
842.240957	2495.371154
842.556344	2500.412308
842.871687	2510.494615
843.186987	2447.480192
843.502244	2470.165385
843.817458	2477.727115
844.132629	2525.618077
844.447756	2450.000769
844.762840	2502.932885
845.077881	2465.124231
845.392879	2437.397885
845.707833	2457.562500
846.022745	2500.412308
846.337613	2465.124231
846.652438	2553.344423
846.967221	2623.920577
847.281960	2447.480192
847.596656	2485.288846
847.911309	2502.932885
848.225919	2535.700385
848.540485	2429.836154
848.855009	2487.809423
849.169490	2422.274423
849.483928	2399.589231
849.798323	2538.220962
850.112675	2495.371154
850.426984	2487.809423
850.741251	2500.412308
851.055474	2485.288846
851.369654	2477.727115
851.683792	2502.932885
851.997887	2467.644808
852.311938	2540.741538
852.625947	2482.768269
852.939914	2533.179808
853.253837	2465.124231
853.567718	2492.850577
853.881555	2444.959615
854.195350	2444.959615
854.509103	2460.083077
854.822812	2487.809423
855.136479	2565.947308
855.450103	2412.192115
855.763685	2452.521346
856.077224	2500.412308
856.390720	2407.150962
856.704173	2518.056346
857.017584	2510.494615
857.330953	2439.918462
857.644278	2480.247692
857.957561	2518.056346
858.270802	2497.891731
858.584000	2515.535769
858.897155	2465.124231
859.210268	2490.330000
859.523339	2457.562500
859.836367	2513.015192
860.149352	2472.685962
860.462295	2457.562500
860.775195	2480.247692
861.088054	2507.974038
861.400869	2545.782692
861.713642	2475.206538
862.026373	2548.303269
862.339062	2465.124231
862.651708	2492.850577
862.964312	2472.685962
863.276873	2553.344423
863.589392	2462.603654
863.901869	2437.397885
864.214303	2480.247692
864.526696	2470.165385
864.839045	2530.659231
865.151353	2540.741538
865.463619	2553.344423
865.775842	2455.041923
866.088023	2480.247692
866.400162	2444.959615
866.712258	2500.412308
867.024313	2465.124231
867.336325	2467.644808
867.648296	2444.959615
867.960224	2482.768269
868.272110	2465.124231
868.583954	2482.768269
868.895755	2528.138654
869.207515	2477.727115
869.519233	2429.836154
869.830909	2472.685962
870.142542	2470.165385
870.454134	2518.056346
870.765684	2472.685962
871.077191	2434.877308
871.388657	2485.288846
871.700081	2470.165385
872.011463	2507.974038
872.322803	2505.453462
872.634101	2422.274423
872.945357	2507.974038
873.256571	2409.671538
873.567744	2422.274423
873.878874	2603.755962
874.189963	2475.206538
874.501010	2492.850577
874.812015	2470.165385
875.122979	2465.124231
875.433900	2500.412308
875.744780	2462.603654
876.055618	2475.206538
876.366415	2444.959615
876.677169	2482.768269
876.987882	2570.988462
877.298554	2439.918462
877.609183	2507.974038
877.919771	2452.521346
878.230317	2535.700385
878.540822	2545.782692
878.851285	2515.535769
879.161707	2437.397885
879.472087	2485.288846
879.782425	2457.562500
880.092722	2523.097500
880.402977	2518.056346
880.713191	2492.850577
881.023363	2472.685962
881.333494	2507.974038
881.643583	2465.124231
881.953631	2497.891731
882.263637	2424.795000
882.573602	2495.371154
882.883526	2548.303269
883.193408	2472.685962
883.503248	2467.644808
883.813048	2432.356731
884.122806	2472.685962
884.432522	2472.685962
884.742197	2525.618077
885.051831	2482.768269
885.361424	2565.947308
885.670975	2470.165385
885.980485	2515.535769
886.289954	2457.562500
886.599382	2475.206538
886.908768	2442.439038
887.218113	2545.782692
887.527417	2523.097500
887.836680	2386.986346
888.145901	2447.480192
888.455082	2439.918462
888.764221	2492.850577
889.073319	2485.288846
889.382376	2507.974038
889.691392	2447.480192
890.000366	2470.165385
890.309300	2475.206538
890.618193	2472.685962
890.927044	2467.644808
891.235855	2432.356731
891.544625	2460.083077
891.853353	2447.480192
892.162041	2530.659231
892.470687	2513.015192
892.779293	2520.576923
893.087858	2455.041923
893.396381	2513.015192
893.704864	2460.083077
894.013306	2535.700385
894.321707	2500.412308
894.630068	2462.603654
894.938387	2525.618077
895.246665	2495.371154
895.554903	2553.344423
895.863100	2475.206538
896.171256	2439.918462
896.479371	2462.603654
896.787446	2513.015192
897.095480	2565.947308
897.403473	2513.015192
897.711425	2490.330000
898.019336	2439.918462
898.327207	2434.877308
898.635038	2417.233269
898.942827	2475.206538
899.250576	2565.947308
899.558284	2480.247692
899.865952	2492.850577
900.173579	2568.467885
900.481165	2497.891731
900.788711	2558.385577
901.096216	2505.453462
901.403681	2495.371154
901.711105	2417.233269
902.018489	2523.097500
902.325832	2467.644808
902.633135	2538.220962
902.940397	2492.850577
903.247619	2518.056346
903.554800	2470.165385
903.861941	2472.685962
904.169041	2477.727115
904.476101	2565.947308
904.783121	2502.932885
905.090100	2510.494615
905.397039	2510.494615
905.703938	2492.850577
906.010796	2467.644808
906.317614	2490.330000
906.624391	2439.918462
906.931129	2535.700385
907.237826	2500.412308
907.544483	2513.015192
907.851099	2475.206538
908.157675	2465.124231
908.464211	2528.138654
908.770707	2500.412308
909.077163	2515.535769
909.383578	2447.480192
909.689954	2497.891731
909.996289	2497.891731
910.302584	2500.412308
910.608839	2437.397885
910.915054	2528.138654
911.221229	2442.439038
911.527363	2518.056346
911.833458	2439.918462
912.139513	2553.344423
912.445527	2477.727115
912.751502	2510.494615
913.057436	2386.986346
913.363331	2495.371154
913.669186	2434.877308
913.975000	2528.138654
914.280775	2414.712692
914.586510	2477.727115
914.892205	2513.015192
915.197859	2462.603654
915.503475	2381.945192
915.809050	2437.397885
916.114585	2467.644808
916.420081	2419.753846
916.725536	2555.865000
917.030952	2530.659231
917.336328	2497.891731
917.641665	2518.056346
917.946961	2455.041923
918.252218	2528.138654
918.557435	2500.412308
918.862612	2447.480192
919.167750	2568.467885
919.472848	2548.303269
919.777906	2502.932885
920.082925	2475.206538
920.387904	2543.262115
920.692843	2407.150962
920.997743	2518.056346
921.302603	2505.453462
921.607423	2492.850577
921.912204	2450.000769
922.216946	2523.097500
922.521647	2482.768269
922.826310	2452.521346
923.130932	2455.041923
923.435516	2535.700385
923.740059	2470.165385
924.044564	2550.823846
924.349028	2444.959615
924.653454	2492.850577
924.957840	2467.644808
925.262186	2480.247692
925.566493	2444.959615
925.870761	2507.974038
926.174989	2500.412308
926.479178	2543.262115
926.783328	2505.453462
927.087438	2502.932885
927.391509	2533.179808
927.695541	2444.959615
927.999533	2520.576923
928.303486	2502.932885
928.607400	2520.576923
928.911275	2429.836154
929.215110	2588.632500
929.518906	2475.206538
929.822663	2450.000769
930.126381	2510.494615
930.430060	2535.700385
930.733699	2492.850577
931.037299	2548.303269
931.340861	2525.618077
931.644383	2510.494615
931.947866	2452.521346
932.251309	2450.000769
932.554714	2417.233269
932.858080	2467.644808
933.161407	2520.576923
933.464694	2455.041923
933.767943	2394.548077
934.071153	2518.056346
934.374323	2467.644808
934.677455	2465.124231
934.980548	2518.056346
935.283602	2482.768269
935.586617	2497.891731
935.889593	2513.015192
936.192530	2492.850577
936.495428	2457.562500
936.798287	2510.494615
937.101108	2477.727115
937.403890	2495.371154
937.706632	2429.836154
938.009336	2477.727115
938.312002	2515.535769
938.614628	2553.344423
938.917216	2583.591346
939.219765	2480.247692
939.522275	2543.262115
939.824747	2457.562500
940.127179	2495.371154
940.429573	2424.795000
940.731929	2369.342308
941.034246	2505.453462
941.336524	2518.056346
941.638763	2427.315577
941.940964	2462.603654
942.243126	2535.700385
942.545250	2563.426731
942.847335	2497.891731
943.149381	2538.220962
943.451389	2525.618077
943.753359	2492.850577
944.055290	2485.288846
944.357182	2376.904038
944.659036	2477.727115
944.960851	2477.727115
945.262628	2485.288846
945.564367	2371.862885
945.866067	2492.850577
946.167729	2467.644808
946.469352	2482.768269
946.770937	2452.521346
947.072484	2470.165385
947.373992	2490.330000
947.675462	2558.385577
947.976893	2495.371154
948.278286	2560.906154
948.579641	2510.494615
948.880958	2444.959615
949.182236	2583.591346
949.483476	2543.262115
949.784678	2404.630385
950.085841	2520.576923
950.386967	2442.439038
950.688054	2555.865000
950.989103	2495.371154
951.290114	2452.521346
951.591087	2414.712692
951.892021	2485.288846
952.192917	2492.850577
952.493776	2533.179808
952.794596	2515.535769
953.095378	2507.974038
953.396122	2467.644808
953.696828	2550.823846
953.997496	2434.877308
954.298126	2523.097500
954.598718	2513.015192
954.899272	2548.303269
955.199788	2520.576923
955.500266	2467.644808
955.800706	2485.288846
956.101108	2495.371154
956.401472	2497.891731
956.701798	2455.041923
957.002087	2497.891731
957.302337	2558.385577
957.602550	2472.685962
957.902724	2568.467885
958.202861	2528.138654
958.502960	2507.974038
958.803022	2487.809423
959.103045	2480.247692
959.403031	2427.315577
959.702979	2432.356731
960.002889	2492.850577
960.302762	2502.932885
960.602596	2535.700385
960.902393	2523.097500
961.202153	2505.453462
961.501875	2485.288846
961.801559	2444.959615
962.101205	2513.015192
962.400814	2384.465769
962.700385	2492.850577
962.999918	2447.480192
963.299414	2568.467885
963.598873	2576.029615
963.898293	2518.056346
964.197677	2450.000769
964.497022	2467.644808
964.796331	2507.974038
965.095601	2452.521346
965.394835	2588.632500
965.694030	2429.836154
965.993189	2457.562500
966.292309	2482.768269
966.591393	2394.548077
966.890439	2442.439038
967.189447	2470.165385
967.488419	2558.385577
967.787353	2450.000769
968.086249	2497.891731
968.385108	2409.671538
968.683930	2540.741538
968.982714	2528.138654
969.281462	2450.000769
969.580172	2502.932885
969.878844	2495.371154
970.177480	2560.906154
970.476078	2437.397885
970.774639	2510.494615
971.073162	2515.535769
971.371649	2407.150962
971.670098	2545.782692
971.968510	2497.891731
972.266885	2591.153077
972.565223	2563.426731
972.863524	2513.015192
973.161788	2462.603654
973.460014	2432.356731
973.758204	2475.206538
974.056356	2515.535769
974.354471	2455.041923
974.652550	2470.165385
974.950591	2409.671538
975.248595	2568.467885
975.546563	2588.632500
975.844493	2497.891731
976.142386	2455.041923
976.440243	2485.288846
976.738062	2518.056346
977.035845	2513.015192
977.333590	2472.685962
977.631299	2583.591346
977.928971	2477.727115
978.226606	2533.179808
978.524204	2444.959615
978.821765	2500.412308
979.119290	2490.330000
979.416777	2492.850577
979.714228	2535.700385
980.011642	2487.809423
980.309020	2460.083077
980.606360	2409.671538
980.903664	2379.424615
981.200931	2513.015192
981.498162	2442.439038
981.795356	2515.535769
982.092513	2460.083077
982.389633	2500.412308
982.686717	2475.206538
982.983764	2616.358846
983.280775	2417.233269
983.577749	2500.412308
983.874686	2470.165385
984.171587	2402.109808
984.468451	2482.768269
984.765279	2397.068654
985.062070	2540.741538
985.358824	2520.576923
985.655543	2495.371154
985.952224	2550.823846
986.248869	2533.179808
986.545478	2460.083077
986.842050	2485.288846
987.138586	2452.521346
987.435086	2540.741538
987.731549	2515.535769
988.027975	2495.371154
988.324366	2452.521346
988.620719	2444.959615
988.917037	2515.535769
989.213318	2427.315577
989.509563	2502.932885
989.805772	2429.836154
990.101944	2472.685962
990.398080	2462.603654
990.694180	2442.439038
990.990244	2465.124231
991.286271	2500.412308
991.582262	2465.124231
991.878217	2545.782692
992.174136	2555.865000
992.470019	2457.562500
992.765865	2555.865000
993.061676	2472.685962
993.357450	2543.262115
993.653188	2507.974038
993.948890	2548.303269
994.244556	2467.644808
994.540186	2500.412308
994.835780	2455.041923
995.131337	2598.714808
995.426859	2538.220962
995.722345	2553.344423
996.017795	2450.000769
996.313208	2462.603654
996.608586	2523.097500
996.903928	2487.809423
997.199234	2455.041923
997.494504	2419.753846
997.789738	2495.371154
998.084936	2500.412308
998.380099	2538.220962
998.675225	2502.932885
998.970316	2455.041923
999.265371	2487.809423
999.560390	2339.095385
999.855373	2593.673654
1000.150320	2465.124231
1000.445232	2533.179808
1000.740108	2432.356731
1001.034948	2470.165385
1001.329752	2565.947308
1001.624521	2487.809423
1001.919254	2500.412308
1002.213951	2450.000769
1002.508613	2500.412308
1002.803239	2553.344423
1003.097829	2417.233269
1003.392384	2450.000769
1003.686903	2470.165385
1003.981386	2475.206538
1004.275834	2465.124231
1004.570246	2502.932885
1004.864623	2470.165385
1005.158964	2490.330000
1005.453270	2533.179808
1005.747540	2417.233269
1006.041775	2515.535769
1006.335974	2450.000769
1006.630138	2576.029615
1006.924266	2475.206538
1007.218359	2487.809423
1007.512416	2472.685962
1007.806438	2470.165385
1008.100425	2482.768269
1008.394376	2397.068654
1008.688292	2462.603654
1008.982172	2439.918462
1009.276017	2475.206538
1009.569827	2510.494615
1009.863602	2467.644808
1010.157341	2515.535769
1010.451045	2565.947308
1010.744714	2533.179808
1011.038347	2495.371154
1011.331945	2502.932885
1011.625508	2422.274423
1011.919036	2528.138654
1012.212528	2439.918462
1012.505986	2422.274423
1012.799408	2444.959615
1013.092795	2495.371154
1013.386147	2467.644808
1013.679464	2520.576923
1013.972745	2510.494615
1014.265992	2472.685962
1014.559204	2533.179808
1014.852380	2502.932885
1015.145521	2434.877308
1015.438628	2475.206538
1015.731699	2636.523462
1016.024736	2545.782692
1016.317737	2530.659231
1016.610703	2538.220962
1016.903635	2462.603654
1017.196531	2523.097500
1017.489393	2548.303269
1017.782219	2581.070769
1018.075011	2447.480192
1018.367768	2465.124231
1018.660490	2495.371154
1018.953177	2495.371154
1019.245829	2495.371154
