Dividing Wavelength (nm)	Counts (n)	Blue Motor Position (mm): 9.200000	Red Motor Position (mm): 0.000000	
326.493990	2114.764038
326.888308	2114.764038
327.282561	2114.764038
327.676750	2069.393654
328.070874	2044.187885
328.464933	2018.982115
328.858929	2041.667308
329.252859	2049.229038
329.646726	2102.161154
330.040528	2064.352500
330.434265	2092.078846
330.827938	2134.928654
331.221547	2152.572692
331.615091	2099.640577
332.008571	2165.175577
332.401986	2250.875192
332.795338	2155.093269
333.188625	2301.286731
333.581847	2288.683846
333.975006	2351.698269
334.368100	2263.478077
334.761129	2376.904038
335.154095	2293.725000
335.546996	2339.095385
335.939833	2424.795000
336.332606	2402.109808
336.725315	2442.439038
337.117960	2402.109808
337.510540	2389.506923
337.903056	2392.027500
338.295508	2399.589231
338.687896	2404.630385
339.080220	2490.330000
339.472480	2475.206538
339.864676	2485.288846
340.256807	2460.083077
340.648875	2538.220962
341.040879	2450.000769
341.432818	2523.097500
341.824694	2543.262115
342.216506	2414.712692
342.608253	2442.439038
342.999937	2490.330000
343.391557	2470.165385
343.783113	2470.165385
344.174605	2462.603654
344.566033	2515.535769
344.957397	2419.753846
345.348697	2505.453462
345.739934	2470.165385
346.131106	2515.535769
346.522215	2548.303269
346.913260	2394.548077
347.304241	2472.685962
347.695159	2475.206538
348.086012	2492.850577
348.476802	2407.150962
348.867528	2457.562500
349.258191	2475.206538
349.648789	2422.274423
350.039324	2404.630385
350.429796	2402.109808
350.820203	2442.439038
351.210548	2548.303269
351.600828	2424.795000
351.991045	2533.179808
352.381198	2465.124231
352.771288	2475.206538
353.161314	2351.698269
353.551276	2487.809423
353.941175	2339.095385
354.331010	2462.603654
354.720782	2452.521346
355.110490	2515.535769
355.500135	2452.521346
355.889717	2409.671538
356.279235	2465.124231
356.668689	2439.918462
357.058080	2321.451346
357.447408	2434.877308
357.836672	2460.083077
358.225873	2381.945192
358.615010	2485.288846
359.004084	2510.494615
359.393095	2397.068654
359.782043	2444.959615
360.170927	2429.836154
360.559748	2397.068654
360.948505	2424.795000
361.337199	2437.397885
361.725830	2407.150962
362.114398	2485.288846
362.502903	2432.356731
362.891344	2457.562500
363.279722	2543.262115
363.668037	2492.850577
364.056289	2457.562500
364.444478	2495.371154
364.832603	2447.480192
365.220665	2434.877308
365.608665	2374.383462
365.996601	2376.904038
366.384474	2487.809423
366.772284	2386.986346
367.160031	2518.056346
367.547715	2427.315577
367.935336	2442.439038
368.322893	2437.397885
368.710388	2447.480192
369.097820	2518.056346
369.485189	2487.809423
369.872495	2409.671538
370.259738	2548.303269
370.646918	2427.315577
371.034035	2462.603654
371.421090	2507.974038
371.808081	2450.000769
372.195010	2407.150962
372.581875	2578.550192
372.968678	2439.918462
373.355418	2452.521346
373.742096	2485.288846
374.128710	2467.644808
374.515262	2447.480192
374.901751	2434.877308
375.288177	2555.865000
375.674540	2467.644808
376.060841	2427.315577
376.447079	2482.768269
376.833254	2467.644808
377.219367	2477.727115
377.605417	2412.192115
377.991404	2457.562500
378.377329	2429.836154
378.763191	2497.891731
379.148991	2407.150962
379.534727	2424.795000
379.920402	2437.397885
380.306013	2379.424615
380.691563	2442.439038
381.077049	2447.480192
381.462474	2477.727115
381.847835	2523.097500
382.233134	2525.618077
382.618371	2470.165385
383.003545	2442.439038
383.388657	2447.480192
383.773706	2515.535769
384.158693	2497.891731
384.543618	2354.218846
384.928480	2450.000769
385.313280	2528.138654
385.698017	2427.315577
386.082692	2477.727115
386.467305	2507.974038
386.851856	2470.165385
387.236344	2472.685962
387.620770	2497.891731
388.005133	2392.027500
388.389435	2437.397885
388.773674	2460.083077
389.157851	2460.083077
389.541965	2487.809423
389.926018	2460.083077
390.310008	2518.056346
390.693936	2434.877308
391.077802	2460.083077
391.461606	2477.727115
391.845348	2525.618077
392.229027	2432.356731
392.612645	2432.356731
392.996200	2515.535769
393.379694	2462.603654
393.763125	2497.891731
394.146494	2475.206538
394.529801	2520.576923
394.913047	2447.480192
395.296230	2490.330000
395.679351	2432.356731
396.062410	2487.809423
396.445408	2444.959615
396.828343	2492.850577
397.211217	2470.165385
397.594028	2485.288846
397.976778	2467.644808
398.359466	2487.809423
398.742092	2460.083077
399.124656	2434.877308
399.507158	2467.644808
399.889598	2437.397885
400.271977	2528.138654
400.654294	2424.795000
401.036549	2482.768269
401.418742	2447.480192
401.800874	2518.056346
402.182944	2452.521346
402.564952	2467.644808
402.946898	2515.535769
403.328783	2437.397885
403.710606	2442.439038
404.092367	2434.877308
404.474067	2427.315577
404.855705	2482.768269
405.237282	2467.644808
405.618797	2470.165385
406.000250	2437.397885
406.381642	2472.685962
406.762972	2399.589231
407.144240	2472.685962
407.525447	2424.795000
407.906593	2417.233269
408.287677	2520.576923
408.668700	2434.877308
409.049661	2525.618077
409.430560	2402.109808
409.811399	2477.727115
410.192176	2455.041923
410.572891	2538.220962
410.953545	2447.480192
411.334138	2525.618077
411.714669	2422.274423
412.095139	2563.426731
412.475547	2538.220962
412.855894	2518.056346
413.236180	2457.562500
413.616405	2465.124231
413.996568	2480.247692
414.376670	2442.439038
414.756711	2492.850577
415.136691	2467.644808
415.516609	2442.439038
415.896466	2530.659231
416.276262	2460.083077
416.655997	2455.041923
417.035670	2457.562500
417.415283	2434.877308
417.794834	2505.453462
418.174324	2465.124231
418.553753	2386.986346
418.933121	2523.097500
419.312428	2407.150962
419.691674	2386.986346
420.070859	2462.603654
420.449983	2543.262115
420.829045	2485.288846
421.208047	2523.097500
421.586988	2502.932885
421.965867	2455.041923
422.344686	2570.988462
422.723444	2523.097500
423.102141	2510.494615
423.480777	2510.494615
423.859352	2477.727115
424.237866	2465.124231
424.616319	2560.906154
424.994712	2480.247692
425.373044	2540.741538
425.751314	2513.015192
426.129524	2467.644808
426.507673	2465.124231
426.885762	2444.959615
427.263789	2540.741538
427.641756	2505.453462
428.019662	2437.397885
428.397508	2437.397885
428.775292	2432.356731
429.153016	2424.795000
429.530679	2487.809423
429.908282	2457.562500
430.285824	2497.891731
430.663305	2404.630385
431.040726	2497.891731
431.418086	2533.179808
431.795385	2477.727115
432.172624	2432.356731
432.549802	2533.179808
432.926920	2447.480192
433.303977	2530.659231
433.680974	2482.768269
434.057910	2485.288846
434.434786	2490.330000
434.811601	2442.439038
435.188355	2389.506923
435.565050	2510.494615
435.941683	2457.562500
436.318257	2424.795000
436.694770	2439.918462
437.071222	2560.906154
437.447614	2485.288846
437.823946	2467.644808
438.200218	2502.932885
438.576429	2444.959615
438.952580	2515.535769
439.328670	2528.138654
439.704700	2452.521346
440.080670	2455.041923
440.456580	2452.521346
440.832429	2477.727115
441.208218	2477.727115
441.583947	2475.206538
441.959616	2447.480192
442.335224	2545.782692
442.710773	2437.397885
443.086261	2548.303269
443.461689	2523.097500
443.837057	2487.809423
444.212365	2452.521346
444.587612	2472.685962
444.962800	2467.644808
445.337927	2530.659231
445.712995	2487.809423
446.088002	2510.494615
446.462949	2596.194231
446.837837	2427.315577
447.212664	2475.206538
447.587431	2482.768269
447.962139	2480.247692
448.336786	2518.056346
448.711374	2452.521346
449.085901	2472.685962
449.460369	2485.288846
449.834776	2439.918462
450.209124	2477.727115
450.583412	2465.124231
450.957640	2424.795000
451.331808	2528.138654
451.705917	2490.330000
452.079965	2538.220962
452.453954	2442.439038
452.827883	2507.974038
453.201752	2437.397885
453.575562	2475.206538
453.949311	2462.603654
454.323001	2419.753846
454.696632	2452.521346
455.070202	2528.138654
455.443713	2472.685962
455.817164	2480.247692
456.190556	2530.659231
456.563888	2465.124231
456.937160	2417.233269
457.310373	2374.383462
457.683526	2434.877308
458.056619	2475.206538
458.429653	2442.439038
458.802628	2578.550192
459.175542	2523.097500
459.548398	2477.727115
459.921194	2422.274423
460.293930	2505.453462
460.666607	2402.109808
461.039224	2460.083077
461.411782	2588.632500
461.784280	2510.494615
462.156719	2543.262115
462.529099	2429.836154
462.901419	2470.165385
463.273680	2462.603654
463.645882	2525.618077
464.018024	2495.371154
464.390106	2480.247692
464.762130	2500.412308
465.134094	2510.494615
465.505999	2502.932885
465.877845	2518.056346
466.249631	2515.535769
466.621358	2419.753846
466.993026	2444.959615
467.364634	2480.247692
467.736184	2502.932885
468.107674	2422.274423
468.479105	2520.576923
468.850477	2472.685962
469.221790	2495.371154
469.593043	2444.959615
469.964238	2424.795000
470.335373	2444.959615
470.706449	2480.247692
471.077467	2497.891731
471.448425	2528.138654
471.819324	2432.356731
472.190164	2502.932885
472.560945	2515.535769
472.931667	2553.344423
473.302330	2462.603654
473.672934	2485.288846
474.043479	2460.083077
474.413965	2472.685962
474.784393	2475.206538
475.154761	2475.206538
475.525070	2543.262115
475.895321	2485.288846
476.265513	2490.330000
476.635645	2437.397885
477.005719	2376.904038
477.375734	2500.412308
477.745691	2482.768269
478.115588	2530.659231
478.485427	2467.644808
478.855207	2442.439038
479.224928	2485.288846
479.594591	2475.206538
479.964194	2444.959615
480.333739	2442.439038
480.703226	2444.959615
481.072653	2578.550192
481.442022	2447.480192
481.811333	2447.480192
482.180584	2576.029615
482.549777	2528.138654
482.918912	2457.562500
483.287988	2452.521346
483.657005	2507.974038
484.025964	2457.562500
484.394864	2533.179808
484.763706	2442.439038
485.132489	2545.782692
485.501213	2618.879423
485.869879	2472.685962
486.238487	2560.906154
486.607036	2480.247692
486.975527	2507.974038
487.343959	2392.027500
487.712333	2465.124231
488.080648	2540.741538
488.448905	2480.247692
488.817104	2507.974038
489.185244	2485.288846
489.553326	2513.015192
489.921350	2465.124231
490.289315	2515.535769
490.657222	2457.562500
491.025070	2518.056346
491.392861	2470.165385
491.760593	2487.809423
492.128267	2477.727115
492.495883	2497.891731
492.863440	2523.097500
493.230939	2535.700385
493.598380	2553.344423
493.965763	2518.056346
494.333088	2543.262115
494.700354	2490.330000
495.067563	2472.685962
495.434713	2404.630385
495.801805	2523.097500
496.168839	2429.836154
496.535815	2424.795000
496.902733	2515.535769
497.269593	2523.097500
497.636395	2535.700385
498.003139	2495.371154
498.369825	2477.727115
498.736453	2452.521346
499.103023	2505.453462
499.469535	2523.097500
499.835989	2507.974038
500.202385	2497.891731
500.568723	2389.506923
500.935003	2472.685962
501.301226	2475.206538
501.667390	2482.768269
502.033497	2523.097500
502.399546	2470.165385
502.765537	2525.618077
503.131470	2502.932885
503.497345	2510.494615
503.863163	2555.865000
504.228923	2525.618077
504.594625	2497.891731
504.960269	2500.412308
505.325856	2404.630385
505.691385	2548.303269
506.056856	2538.220962
506.422270	2583.591346
506.787625	2460.083077
507.152924	2487.809423
507.518164	2513.015192
507.883347	2472.685962
508.248472	2606.276538
508.613540	2485.288846
508.978550	2533.179808
509.343503	2465.124231
509.708398	2465.124231
510.073236	2518.056346
510.438016	2523.097500
510.802738	2540.741538
511.167403	2497.891731
511.532010	2507.974038
511.896561	2518.056346
512.261053	2560.906154
512.625488	2490.330000
512.989866	2523.097500
513.354186	2548.303269
513.718449	2477.727115
514.082655	2480.247692
514.446803	2490.330000
514.810894	2480.247692
515.174927	2437.397885
515.538904	2497.891731
515.902822	2545.782692
516.266684	2475.206538
516.630488	2560.906154
516.994235	2497.891731
517.357925	2507.974038
517.721558	2528.138654
518.085133	2492.850577
518.448651	2540.741538
518.812112	2482.768269
519.175516	2518.056346
519.538863	2472.685962
519.902152	2480.247692
520.265385	2601.235385
520.628560	2480.247692
520.991678	2482.768269
521.354739	2460.083077
521.717743	2520.576923
522.080690	2444.959615
522.443580	2450.000769
522.806413	2510.494615
523.169189	2399.589231
523.531908	2419.753846
523.894569	2533.179808
524.257174	2414.712692
524.619722	2510.494615
524.982213	2424.795000
525.344647	2525.618077
525.707025	2470.165385
526.069345	2462.603654
526.431608	2480.247692
526.793815	2533.179808
527.155964	2482.768269
527.518057	2565.947308
527.880093	2535.700385
528.242072	2470.165385
528.603995	2535.700385
528.965860	2586.111923
529.327669	2477.727115
529.689421	2497.891731
530.051117	2510.494615
530.412755	2507.974038
530.774337	2487.809423
531.135862	2543.262115
531.497331	2457.562500
531.858743	2495.371154
532.220098	2492.850577
532.581396	2427.315577
532.942638	2480.247692
533.303824	2507.974038
533.664953	2528.138654
534.026025	2510.494615
534.387040	2603.755962
534.747999	2495.371154
535.108902	2528.138654
535.469748	2442.439038
535.830537	2500.412308
536.191270	2424.795000
536.551947	2447.480192
536.912567	2477.727115
537.273131	2570.988462
537.633638	2495.371154
537.994089	2502.932885
538.354483	2548.303269
538.714821	2477.727115
539.075103	2545.782692
539.435328	2467.644808
539.795497	2485.288846
540.155609	2558.385577
540.515665	2497.891731
540.875665	2533.179808
541.235609	2513.015192
541.595496	2507.974038
541.955328	2467.644808
542.315102	2513.015192
542.674821	2515.535769
543.034483	2510.494615
543.394090	2558.385577
543.753640	2553.344423
544.113134	2475.206538
544.472571	2422.274423
544.831953	2540.741538
545.191278	2533.179808
545.550548	2505.453462
545.909761	2492.850577
546.268918	2540.741538
546.628019	2455.041923
546.987064	2500.412308
547.346053	2497.891731
547.704986	2495.371154
548.063863	2525.618077
548.422684	2558.385577
548.781449	2500.412308
549.140158	2492.850577
549.498811	2487.809423
549.857408	2523.097500
550.215949	2558.385577
550.574434	2515.535769
550.932864	2520.576923
551.291237	2452.521346
551.649555	2480.247692
552.007817	2513.015192
552.366022	2492.850577
552.724173	2515.535769
553.082267	2470.165385
553.440305	2510.494615
553.798288	2495.371154
554.156215	2475.206538
554.514086	2507.974038
554.871902	2505.453462
555.229661	2581.070769
555.587365	2578.550192
555.945014	2492.850577
556.302606	2467.644808
556.660143	2442.439038
557.017625	2480.247692
557.375050	2548.303269
557.732421	2485.288846
558.089735	2533.179808
558.446994	2535.700385
558.804197	2485.288846
559.161345	2492.850577
559.518437	2432.356731
559.875474	2505.453462
560.232455	2447.480192
560.589381	2563.426731
560.946251	2515.535769
561.303065	2384.465769
561.659825	2538.220962
562.016528	2482.768269
562.373177	2550.823846
562.729770	2598.714808
563.086307	2502.932885
563.442789	2467.644808
563.799216	2530.659231
564.155587	2530.659231
564.511904	2452.521346
564.868164	2545.782692
565.224370	2568.467885
565.580520	2470.165385
565.936615	2545.782692
566.292654	2576.029615
566.648638	2437.397885
567.004567	2507.974038
567.360441	2500.412308
567.716260	2518.056346
568.072023	2502.932885
568.427732	2437.397885
568.783385	2497.891731
569.138982	2525.618077
569.494525	2553.344423
569.850013	2439.918462
570.205445	2492.850577
570.560823	2467.644808
570.916145	2518.056346
571.271412	2500.412308
571.626625	2510.494615
571.981782	2505.453462
572.336884	2452.521346
572.691931	2462.603654
573.046923	2470.165385
573.401860	2515.535769
573.756743	2477.727115
574.111570	2444.959615
574.466342	2419.753846
574.821059	2505.453462
575.175722	2563.426731
575.530330	2467.644808
575.884882	2563.426731
576.239380	2510.494615
576.593823	2518.056346
576.948211	2429.836154
577.302544	2523.097500
577.656823	2540.741538
578.011047	2490.330000
578.365216	2472.685962
578.719330	2409.671538
579.073389	2505.453462
579.427394	2550.823846
579.781344	2434.877308
580.135239	2414.712692
580.489080	2384.465769
580.842866	2472.685962
581.196597	2570.988462
581.550273	2502.932885
581.903895	2472.685962
582.257463	2513.015192
582.610975	2576.029615
582.964434	2470.165385
583.317837	2500.412308
583.671186	2359.260000
584.024481	2515.535769
584.377721	2538.220962
584.730906	2394.548077
585.084037	2505.453462
585.437113	2470.165385
585.790135	2457.562500
586.143103	2528.138654
586.496016	2548.303269
586.848874	2502.932885
587.201679	2576.029615
587.554428	2492.850577
587.907124	2518.056346
588.259765	2432.356731
588.612352	2470.165385
588.964884	2513.015192
589.317362	2490.330000
589.669786	2497.891731
590.022155	2465.124231
590.374470	2530.659231
590.726731	2465.124231
591.078937	2465.124231
591.431090	2492.850577
591.783188	2583.591346
592.135232	2480.247692
592.487222	2523.097500
592.839157	2487.809423
593.191038	2530.659231
593.542866	2525.618077
593.894639	2495.371154
594.246358	2560.906154
594.598022	2623.920577
594.949633	2455.041923
595.301190	2462.603654
595.652692	2452.521346
596.004141	2581.070769
596.355535	2555.865000
596.706876	2553.344423
597.058162	2465.124231
597.409395	2490.330000
597.760573	2460.083077
598.111698	2507.974038
598.462768	2565.947308
598.813785	2487.809423
599.164748	2505.453462
599.515657	2379.424615
599.866511	2553.344423
600.217312	2507.974038
600.568060	2482.768269
600.918753	2427.315577
601.269392	2510.494615
601.619978	2465.124231
601.970510	2497.891731
602.320988	2510.494615
602.671412	2528.138654
603.021783	2444.959615
603.372100	2497.891731
603.722363	2492.850577
604.072572	2510.494615
604.422728	2477.727115
604.772830	2422.274423
605.122878	2422.274423
605.472872	2525.618077
605.822813	2465.124231
606.172701	2533.179808
606.522534	2490.330000
606.872314	2505.453462
607.222041	2482.768269
607.571714	2482.768269
607.921333	2515.535769
608.270899	2525.618077
608.620411	2573.509038
608.969870	2470.165385
609.319276	2480.247692
609.668627	2427.315577
610.017926	2487.809423
610.367171	2525.618077
610.716362	2475.206538
611.065500	2450.000769
611.414585	2482.768269
611.763616	2523.097500
612.112594	2558.385577
612.461518	2427.315577
612.810389	2505.453462
613.159207	2404.630385
613.507971	2480.247692
613.856682	2538.220962
614.205340	2422.274423
614.553945	2528.138654
614.902496	2497.891731
615.250994	2565.947308
615.599439	2487.809423
615.947830	2470.165385
616.296169	2497.891731
616.644454	2523.097500
616.992686	2492.850577
617.340864	2462.603654
617.688990	2460.083077
618.037063	2482.768269
618.385082	2495.371154
618.733048	2439.918462
619.080961	2409.671538
619.428821	2480.247692
619.776628	2480.247692
620.124382	2513.015192
620.472083	2510.494615
620.819731	2505.453462
621.167326	2500.412308
621.514868	2444.959615
621.862357	2520.576923
622.209793	2500.412308
622.557176	2477.727115
622.904506	2329.013077
623.251783	2447.480192
623.599007	2500.412308
623.946179	2576.029615
624.293297	2573.509038
624.640363	2495.371154
624.987376	2462.603654
625.334336	2495.371154
625.681243	2467.644808
626.028097	2409.671538
626.374899	2538.220962
626.721647	2465.124231
627.068343	2502.932885
627.414987	2497.891731
627.761577	2505.453462
628.108115	2507.974038
628.454600	2513.015192
628.801032	2475.206538
629.147412	2513.015192
629.493739	2573.509038
629.840014	2528.138654
630.186236	2495.371154
630.532405	2457.562500
630.878521	2480.247692
631.224585	2439.918462
631.570597	2533.179808
631.916556	2482.768269
632.262462	2452.521346
632.608316	2550.823846
632.954117	2520.576923
633.299866	2485.288846
633.645562	2535.700385
633.991206	2545.782692
634.336797	2444.959615
634.682336	2565.947308
635.027823	2447.480192
635.373257	2497.891731
635.718639	2492.850577
636.063968	2523.097500
636.409245	2467.644808
636.754470	2523.097500
637.099642	2427.315577
637.444762	2515.535769
637.789829	2570.988462
638.134845	2452.521346
638.479808	2520.576923
638.824719	2412.192115
639.169577	2543.262115
639.514383	2414.712692
639.859137	2505.453462
640.203839	2576.029615
640.548489	2485.288846
640.893086	2530.659231
641.237632	2482.768269
641.582125	2502.932885
641.926566	2487.809423
642.270955	2518.056346
642.615292	2475.206538
642.959576	2505.453462
643.303809	2429.836154
643.647990	2422.274423
643.992118	2518.056346
644.336195	2487.809423
644.680219	2492.850577
645.024192	2515.535769
645.368112	2545.782692
645.711981	2492.850577
646.055797	2533.179808
646.399562	2475.206538
646.743274	2457.562500
647.086935	2533.179808
647.430544	2540.741538
647.774101	2540.741538
648.117606	2437.397885
648.461059	2381.945192
648.804460	2470.165385
649.147810	2520.576923
649.491108	2570.988462
649.834354	2472.685962
650.177548	2419.753846
650.520690	2545.782692
650.863781	2460.083077
651.206820	2540.741538
651.549807	2485.288846
651.892742	2560.906154
652.235626	2457.562500
652.578458	2505.453462
652.921238	2505.453462
653.263967	2467.644808
653.606644	2530.659231
653.949269	2487.809423
654.291843	2513.015192
654.634365	2477.727115
654.976836	2462.603654
655.319255	2470.165385
655.661622	2533.179808
656.003938	2475.206538
656.346203	2538.220962
656.688416	2450.000769
657.030577	2505.453462
657.372687	2535.700385
657.714746	2487.809423
658.056753	2523.097500
658.398708	2414.712692
658.740612	2578.550192
659.082465	2437.397885
659.424266	2538.220962
659.766016	2490.330000
660.107715	2548.303269
660.449362	2482.768269
660.790958	2518.056346
661.132503	2472.685962
661.473996	2434.877308
661.815438	2482.768269
662.156829	2520.576923
662.498168	2472.685962
662.839456	2485.288846
663.180693	2442.439038
663.521879	2540.741538
663.863013	2550.823846
664.204097	2515.535769
664.545129	2528.138654
664.886110	2505.453462
665.227040	2550.823846
665.567918	2480.247692
665.908746	2507.974038
666.249522	2427.315577
666.590248	2492.850577
666.930922	2455.041923
667.271545	2550.823846
667.612118	2437.397885
667.952639	2432.356731
668.293109	2490.330000
668.633528	2513.015192
668.973896	2510.494615
669.314213	2432.356731
669.654480	2545.782692
669.994695	2540.741538
670.334859	2510.494615
670.674973	2535.700385
671.015035	2475.206538
671.355047	2513.015192
671.695008	2349.177692
672.034918	2530.659231
672.374777	2472.685962
672.714585	2402.109808
673.054342	2510.494615
673.394049	2414.712692
673.733705	2389.506923
674.073310	2485.288846
674.412864	2475.206538
674.752368	2530.659231
675.091820	2553.344423
675.431223	2520.576923
675.770574	2427.315577
676.109875	2422.274423
676.449125	2495.371154
676.788324	2424.795000
677.127473	2550.823846
677.466571	2518.056346
677.805619	2505.453462
678.144616	2497.891731
678.483562	2462.603654
678.822458	2525.618077
679.161303	2573.509038
679.500098	2563.426731
679.838842	2467.644808
680.177535	2505.453462
680.516179	2467.644808
680.854771	2530.659231
681.193314	2455.041923
681.531805	2513.015192
681.870247	2477.727115
682.208638	2528.138654
682.546978	2490.330000
682.885268	2523.097500
683.223508	2550.823846
683.561697	2477.727115
683.899836	2482.768269
684.237925	2525.618077
684.575963	2515.535769
684.913951	2444.959615
685.251889	2528.138654
685.589776	2480.247692
685.927614	2492.850577
686.265401	2507.974038
686.603137	2492.850577
686.940824	2518.056346
687.278460	2495.371154
687.616046	2540.741538
687.953582	2381.945192
688.291068	2550.823846
688.628504	2538.220962
688.965889	2523.097500
689.303224	2480.247692
689.640510	2444.959615
689.977745	2545.782692
690.314930	2472.685962
690.652065	2500.412308
690.989150	2500.412308
691.326185	2558.385577
691.663170	2502.932885
692.000105	2475.206538
692.336990	2520.576923
692.673825	2424.795000
693.010610	2472.685962
693.347345	2570.988462
693.684030	2427.315577
694.020665	2525.618077
694.357251	2502.932885
694.693786	2505.453462
695.030272	2525.618077
695.366707	2462.603654
695.703093	2432.356731
696.039429	2500.412308
696.375716	2397.068654
696.711952	2417.233269
697.048139	2485.288846
697.384276	2510.494615
697.720363	2505.453462
698.056400	2482.768269
698.392388	2482.768269
698.728326	2513.015192
699.064214	2475.206538
699.400053	2513.015192
699.735842	2480.247692
700.071581	2490.330000
700.407270	2510.494615
700.742910	2447.480192
701.078501	2515.535769
701.414042	2500.412308
701.749533	2374.383462
702.084974	2424.795000
702.420366	2588.632500
702.755709	2588.632500
703.091002	2550.823846
703.426246	2523.097500
703.761440	2603.755962
704.096584	2543.262115
704.431679	2472.685962
704.766725	2520.576923
705.101721	2596.194231
705.436668	2530.659231
705.771565	2565.947308
706.106413	2570.988462
706.441212	2439.918462
706.775961	2568.467885
707.110661	2495.371154
707.445311	2432.356731
707.779913	2525.618077
708.114465	2399.589231
708.448967	2513.015192
708.783421	2538.220962
709.117825	2505.453462
709.452180	2538.220962
709.786485	2399.589231
710.120742	2525.618077
710.454949	2472.685962
710.789107	2472.685962
711.123216	2432.356731
711.457275	2576.029615
711.791286	2538.220962
712.125247	2465.124231
712.459159	2490.330000
712.793023	2424.795000
713.126837	2442.439038
713.460602	2513.015192
713.794318	2497.891731
714.127985	2444.959615
714.461602	2492.850577
714.795171	2434.877308
715.128691	2444.959615
715.462162	2533.179808
715.795584	2507.974038
716.128957	2535.700385
716.462281	2563.426731
716.795556	2513.015192
717.128782	2530.659231
717.461960	2538.220962
717.795088	2402.109808
718.128167	2434.877308
718.461198	2510.494615
718.794180	2500.412308
719.127113	2553.344423
719.459997	2460.083077
719.792833	2513.015192
720.125619	2455.041923
720.458357	2560.906154
720.791046	2525.618077
721.123686	2475.206538
721.456278	2439.918462
721.788821	2487.809423
722.121315	2525.618077
722.453761	2467.644808
722.786158	2487.809423
723.118506	2565.947308
723.450805	2487.809423
723.783056	2528.138654
724.115259	2472.685962
724.447412	2472.685962
724.779518	2502.932885
725.111574	2447.480192
725.443582	2442.439038
725.775542	2530.659231
726.107453	2515.535769
726.439315	2530.659231
726.771129	2507.974038
727.102895	2424.795000
727.434612	2480.247692
727.766281	2457.562500
728.097901	2470.165385
728.429473	2477.727115
728.760996	2417.233269
729.092471	2465.124231
729.423897	2507.974038
729.755276	2540.741538
730.086606	2548.303269
730.417887	2528.138654
730.749120	2437.397885
731.080305	2497.891731
731.411442	2530.659231
731.742530	2543.262115
732.073570	2613.838269
732.404562	2492.850577
732.735506	2487.809423
733.066401	2475.206538
733.397249	2495.371154
733.728048	2485.288846
734.058798	2530.659231
734.389501	2487.809423
734.720156	2447.480192
735.050762	2457.562500
735.381320	2492.850577
735.711831	2460.083077
736.042293	2528.138654
736.372707	2502.932885
736.703073	2528.138654
737.033391	2480.247692
737.363661	2525.618077
737.693883	2457.562500
738.024056	2490.330000
738.354182	2417.233269
738.684260	2560.906154
739.014290	2422.274423
739.344272	2523.097500
739.674207	2465.124231
740.004093	2523.097500
740.333931	2460.083077
740.663722	2510.494615
740.993464	2495.371154
741.323159	2502.932885
741.652806	2515.535769
741.982405	2545.782692
742.311956	2460.083077
742.641460	2533.179808
742.970915	2520.576923
743.300323	2487.809423
743.629683	2558.385577
743.958996	2409.671538
744.288260	2480.247692
744.617477	2460.083077
744.946647	2538.220962
745.275768	2457.562500
745.604842	2465.124231
745.933869	2530.659231
746.262847	2434.877308
746.591778	2502.932885
746.920662	2482.768269
747.249498	2447.480192
747.578286	2505.453462
747.907027	2502.932885
748.235720	2490.330000
748.564365	2515.535769
748.892963	2452.521346
749.221514	2497.891731
749.550017	2434.877308
749.878473	2530.659231
750.206881	2523.097500
750.535242	2480.247692
750.863555	2543.262115
751.191821	2437.397885
751.520039	2560.906154
751.848210	2550.823846
752.176334	2470.165385
752.504411	2510.494615
752.832440	2502.932885
753.160421	2500.412308
753.488356	2495.371154
753.816243	2530.659231
754.144082	2444.959615
754.471875	2475.206538
754.799620	2500.412308
755.127318	2528.138654
755.454969	2470.165385
755.782572	2497.891731
756.110129	2457.562500
756.437638	2470.165385
756.765100	2477.727115
757.092515	2525.618077
757.419882	2472.685962
757.747203	2553.344423
758.074477	2525.618077
758.401703	2492.850577
758.728882	2598.714808
759.056014	2465.124231
759.383099	2540.741538
759.710138	2548.303269
760.037129	2384.465769
760.364073	2497.891731
760.690970	2513.015192
761.017820	2555.865000
761.344623	2573.509038
761.671379	2598.714808
761.998088	2457.562500
762.324751	2465.124231
762.651366	2513.015192
762.977935	2520.576923
763.304456	2457.562500
763.630931	2407.150962
763.957359	2477.727115
764.283740	2444.959615
764.610074	2485.288846
764.936362	2442.439038
765.262602	2507.974038
765.588796	2608.797115
765.914943	2553.344423
766.241044	2548.303269
766.567097	2495.371154
766.893104	2487.809423
767.219064	2497.891731
767.544978	2510.494615
767.870845	2492.850577
768.196665	2507.974038
768.522438	2502.932885
768.848165	2533.179808
769.173846	2465.124231
769.499479	2510.494615
769.825066	2523.097500
770.150607	2500.412308
770.476101	2535.700385
770.801548	2513.015192
771.126949	2500.412308
771.452303	2475.206538
771.777611	2485.288846
772.102872	2452.521346
772.428087	2525.618077
772.753256	2465.124231
773.078378	2518.056346
773.403453	2518.056346
773.728482	2475.206538
774.053465	2472.685962
774.378401	2447.480192
774.703291	2513.015192
775.028135	2462.603654
775.352932	2437.397885
775.677683	2535.700385
776.002388	2447.480192
776.327046	2495.371154
776.651658	2465.124231
776.976224	2447.480192
777.300743	2513.015192
777.625216	2422.274423
777.949643	2457.562500
778.274024	2528.138654
778.598359	2528.138654
778.922647	2550.823846
779.246889	2505.453462
779.571086	2558.385577
779.895236	2618.879423
780.219339	2442.439038
780.543397	2455.041923
780.867409	2457.562500
781.191374	2402.109808
781.515294	2477.727115
781.839167	2450.000769
782.162995	2487.809423
782.486776	2427.315577
782.810511	2470.165385
783.134201	2513.015192
783.457844	2475.206538
783.781441	2437.397885
784.104993	2518.056346
784.428498	2480.247692
784.751958	2510.494615
785.075372	2497.891731
785.398739	2513.015192
785.722061	2502.932885
786.045337	2379.424615
786.368568	2444.959615
786.691752	2457.562500
787.014891	2500.412308
787.337983	2510.494615
787.661030	2465.124231
787.984031	2487.809423
788.306987	2598.714808
788.629897	2545.782692
788.952760	2500.412308
789.275579	2472.685962
789.598351	2548.303269
789.921078	2538.220962
790.243759	2553.344423
790.566395	2475.206538
790.888984	2480.247692
791.211529	2513.015192
791.534027	2412.192115
791.856480	2490.330000
792.178888	2457.562500
792.501249	2485.288846
792.823566	2485.288846
793.145836	2540.741538
793.468062	2439.918462
793.790241	2523.097500
794.112375	2497.891731
794.434464	2482.768269
794.756507	2394.548077
795.078505	2490.330000
795.400457	2490.330000
795.722364	2457.562500
796.044226	2470.165385
796.366042	2452.521346
796.687812	2525.618077
797.009538	2560.906154
797.331218	2457.562500
797.652852	2495.371154
797.974442	2520.576923
798.295986	2467.644808
798.617484	2510.494615
798.938938	2397.068654
799.260346	2533.179808
799.581709	2490.330000
799.903026	2563.426731
800.224299	2530.659231
800.545526	2482.768269
800.866708	2540.741538
801.187845	2591.153077
801.508936	2495.371154
801.829983	2490.330000
802.150984	2480.247692
802.471940	2455.041923
802.792851	2485.288846
803.113717	2507.974038
803.434538	2475.206538
803.755314	2505.453462
804.076045	2497.891731
804.396731	2573.509038
804.717372	2507.974038
805.037967	2447.480192
805.358518	2518.056346
805.679024	2482.768269
805.999485	2550.823846
806.319901	2392.027500
806.640272	2518.056346
806.960598	2432.356731
807.280879	2515.535769
807.601115	2465.124231
807.921306	2596.194231
808.241453	2467.644808
808.561554	2540.741538
808.881611	2507.974038
809.201623	2518.056346
809.521590	2487.809423
809.841513	2543.262115
810.161390	2399.589231
810.481223	2487.809423
810.801011	2487.809423
811.120755	2558.385577
811.440453	2570.988462
811.760107	2495.371154
812.079716	2427.315577
812.399281	2412.192115
812.718801	2442.439038
813.038276	2429.836154
813.357707	2513.015192
813.677093	2472.685962
813.996434	2495.371154
814.315731	2419.753846
814.634983	2485.288846
814.954191	2490.330000
815.273354	2475.206538
815.592473	2422.274423
815.911547	2455.041923
816.230577	2518.056346
816.549562	2460.083077
816.868502	2472.685962
817.187399	2500.412308
817.506250	2477.727115
817.825058	2502.932885
818.143821	2409.671538
818.462539	2520.576923
818.781213	2525.618077
819.099843	2477.727115
819.418429	2505.453462
819.736970	2581.070769
820.055466	2510.494615
820.373919	2497.891731
820.692327	2477.727115
821.010691	2502.932885
821.329011	2475.206538
821.647286	2520.576923
821.965517	2432.356731
822.283704	2523.097500
822.601847	2500.412308
822.919945	2502.932885
823.237999	2505.453462
823.556010	2475.206538
823.873976	2460.083077
824.191897	2450.000769
824.509775	2520.576923
824.827609	2437.397885
825.145398	2538.220962
825.463144	2450.000769
825.780845	2500.412308
826.098502	2520.576923
826.416116	2482.768269
826.733685	2492.850577
827.051210	2500.412308
827.368692	2465.124231
827.686129	2510.494615
828.003522	2475.206538
828.320872	2414.712692
828.638177	2520.576923
828.955439	2467.644808
829.272656	2500.412308
829.589830	2507.974038
829.906960	2507.974038
830.224046	2460.083077
830.541088	2482.768269
830.858086	2475.206538
831.175041	2482.768269
831.491952	2482.768269
831.808819	2540.741538
832.125642	2490.330000
832.442421	2528.138654
832.759157	2460.083077
833.075849	2530.659231
833.392497	2475.206538
833.709101	2525.618077
834.025662	2497.891731
834.342179	2570.988462
834.658653	2434.877308
834.975083	2462.603654
835.291469	2487.809423
835.607811	2447.480192
835.924110	2475.206538
836.240366	2513.015192
836.556578	2520.576923
836.872746	2477.727115
837.188871	2447.480192
837.504952	2523.097500
837.820990	2596.194231
838.136984	2485.288846
838.452935	2548.303269
838.768842	2613.838269
839.084706	2465.124231
839.400526	2492.850577
839.716303	2447.480192
840.032037	2507.974038
840.347727	2434.877308
840.663373	2502.932885
840.978977	2500.412308
841.294537	2472.685962
841.610054	2507.974038
841.925527	2563.426731
842.240957	2510.494615
842.556344	2505.453462
842.871687	2591.153077
843.186987	2513.015192
843.502244	2450.000769
843.817458	2455.041923
844.132629	2472.685962
844.447756	2545.782692
844.762840	2505.453462
845.077881	2495.371154
845.392879	2452.521346
845.707833	2500.412308
846.022745	2467.644808
846.337613	2482.768269
846.652438	2482.768269
846.967221	2505.453462
847.281960	2510.494615
847.596656	2513.015192
847.911309	2480.247692
848.225919	2490.330000
848.540485	2422.274423
848.855009	2515.535769
849.169490	2495.371154
849.483928	2465.124231
849.798323	2485.288846
850.112675	2475.206538
850.426984	2533.179808
850.741251	2442.439038
851.055474	2407.150962
851.369654	2513.015192
851.683792	2507.974038
851.997887	2470.165385
852.311938	2540.741538
852.625947	2492.850577
852.939914	2444.959615
853.253837	2417.233269
853.567718	2424.795000
853.881555	2505.453462
854.195350	2606.276538
854.509103	2548.303269
854.822812	2412.192115
855.136479	2407.150962
855.450103	2477.727115
855.763685	2513.015192
856.077224	2472.685962
856.390720	2470.165385
856.704173	2538.220962
857.017584	2447.480192
857.330953	2460.083077
857.644278	2530.659231
857.957561	2444.959615
858.270802	2477.727115
858.584000	2513.015192
858.897155	2540.741538
859.210268	2424.795000
859.523339	2563.426731
859.836367	2492.850577
860.149352	2480.247692
860.462295	2460.083077
860.775195	2558.385577
861.088054	2485.288846
861.400869	2515.535769
861.713642	2480.247692
862.026373	2485.288846
862.339062	2528.138654
862.651708	2578.550192
862.964312	2442.439038
863.276873	2500.412308
863.589392	2422.274423
863.901869	2543.262115
864.214303	2427.315577
864.526696	2500.412308
864.839045	2505.453462
865.151353	2530.659231
865.463619	2465.124231
865.775842	2563.426731
866.088023	2525.618077
866.400162	2568.467885
866.712258	2434.877308
867.024313	2482.768269
867.336325	2455.041923
867.648296	2583.591346
867.960224	2452.521346
868.272110	2533.179808
868.583954	2530.659231
868.895755	2528.138654
869.207515	2465.124231
869.519233	2429.836154
869.830909	2439.918462
870.142542	2429.836154
870.454134	2543.262115
870.765684	2518.056346
871.077191	2520.576923
871.388657	2495.371154
871.700081	2510.494615
872.011463	2470.165385
872.322803	2502.932885
872.634101	2530.659231
872.945357	2502.932885
873.256571	2475.206538
873.567744	2530.659231
873.878874	2480.247692
874.189963	2495.371154
874.501010	2470.165385
874.812015	2558.385577
875.122979	2490.330000
875.433900	2535.700385
875.744780	2482.768269
876.055618	2460.083077
876.366415	2467.644808
876.677169	2480.247692
876.987882	2482.768269
877.298554	2545.782692
877.609183	2510.494615
877.919771	2528.138654
878.230317	2419.753846
878.540822	2510.494615
878.851285	2457.562500
879.161707	2510.494615
879.472087	2477.727115
879.782425	2505.453462
880.092722	2470.165385
880.402977	2528.138654
880.713191	2444.959615
881.023363	2427.315577
881.333494	2497.891731
881.643583	2490.330000
881.953631	2482.768269
882.263637	2563.426731
882.573602	2492.850577
882.883526	2487.809423
883.193408	2465.124231
883.503248	2495.371154
883.813048	2424.795000
884.122806	2525.618077
884.432522	2528.138654
884.742197	2472.685962
885.051831	2442.439038
885.361424	2417.233269
885.670975	2487.809423
885.980485	2447.480192
886.289954	2419.753846
886.599382	2434.877308
886.908768	2487.809423
887.218113	2497.891731
887.527417	2447.480192
887.836680	2530.659231
888.145901	2568.467885
888.455082	2563.426731
888.764221	2482.768269
889.073319	2492.850577
889.382376	2535.700385
889.691392	2523.097500
890.000366	2510.494615
890.309300	2470.165385
890.618193	2414.712692
890.927044	2417.233269
891.235855	2485.288846
891.544625	2500.412308
891.853353	2490.330000
892.162041	2447.480192
892.470687	2513.015192
892.779293	2563.426731
893.087858	2439.918462
893.396381	2545.782692
893.704864	2437.397885
894.013306	2439.918462
894.321707	2545.782692
894.630068	2439.918462
894.938387	2507.974038
895.246665	2533.179808
895.554903	2495.371154
895.863100	2583.591346
896.171256	2601.235385
896.479371	2417.233269
896.787446	2485.288846
897.095480	2462.603654
897.403473	2530.659231
897.711425	2409.671538
898.019336	2462.603654
898.327207	2412.192115
898.635038	2601.235385
898.942827	2545.782692
899.250576	2465.124231
899.558284	2465.124231
899.865952	2419.753846
900.173579	2419.753846
900.481165	2523.097500
900.788711	2477.727115
901.096216	2528.138654
901.403681	2500.412308
901.711105	2439.918462
902.018489	2520.576923
902.325832	2523.097500
902.633135	2533.179808
902.940397	2545.782692
903.247619	2555.865000
903.554800	2530.659231
903.861941	2545.782692
904.169041	2460.083077
904.476101	2472.685962
904.783121	2457.562500
905.090100	2444.959615
905.397039	2487.809423
905.703938	2389.506923
906.010796	2419.753846
906.317614	2533.179808
906.624391	2462.603654
906.931129	2462.603654
907.237826	2500.412308
907.544483	2439.918462
907.851099	2490.330000
908.157675	2535.700385
908.464211	2470.165385
908.770707	2480.247692
909.077163	2485.288846
909.383578	2515.535769
909.689954	2482.768269
909.996289	2450.000769
910.302584	2414.712692
910.608839	2528.138654
910.915054	2563.426731
911.221229	2455.041923
911.527363	2515.535769
911.833458	2472.685962
912.139513	2543.262115
912.445527	2460.083077
912.751502	2502.932885
913.057436	2513.015192
913.363331	2495.371154
913.669186	2505.453462
913.975000	2414.712692
914.280775	2525.618077
914.586510	2434.877308
914.892205	2523.097500
915.197859	2417.233269
915.503475	2467.644808
915.809050	2427.315577
916.114585	2513.015192
916.420081	2465.124231
916.725536	2543.262115
917.030952	2507.974038
917.336328	2462.603654
917.641665	2455.041923
917.946961	2538.220962
918.252218	2596.194231
918.557435	2487.809423
918.862612	2500.412308
919.167750	2472.685962
919.472848	2477.727115
919.777906	2467.644808
920.082925	2432.356731
920.387904	2409.671538
920.692843	2550.823846
920.997743	2618.879423
921.302603	2507.974038
921.607423	2480.247692
921.912204	2545.782692
922.216946	2434.877308
922.521647	2553.344423
922.826310	2482.768269
923.130932	2455.041923
923.435516	2412.192115
923.740059	2513.015192
924.044564	2439.918462
924.349028	2500.412308
924.653454	2487.809423
924.957840	2439.918462
925.262186	2545.782692
925.566493	2500.412308
925.870761	2490.330000
926.174989	2467.644808
926.479178	2500.412308
926.783328	2447.480192
927.087438	2450.000769
927.391509	2540.741538
927.695541	2563.426731
927.999533	2500.412308
928.303486	2487.809423
928.607400	2475.206538
928.911275	2414.712692
929.215110	2485.288846
929.518906	2510.494615
929.822663	2487.809423
930.126381	2507.974038
930.430060	2518.056346
930.733699	2513.015192
931.037299	2455.041923
931.340861	2492.850577
931.644383	2477.727115
931.947866	2422.274423
932.251309	2460.083077
932.554714	2507.974038
932.858080	2535.700385
933.161407	2447.480192
933.464694	2480.247692
933.767943	2450.000769
934.071153	2507.974038
934.374323	2563.426731
934.677455	2507.974038
934.980548	2419.753846
935.283602	2480.247692
935.586617	2462.603654
935.889593	2465.124231
936.192530	2452.521346
936.495428	2455.041923
936.798287	2515.535769
937.101108	2500.412308
937.403890	2492.850577
937.706632	2565.947308
938.009336	2482.768269
938.312002	2482.768269
938.614628	2500.412308
938.917216	2525.618077
939.219765	2538.220962
939.522275	2500.412308
939.824747	2480.247692
940.127179	2510.494615
940.429573	2422.274423
940.731929	2447.480192
941.034246	2475.206538
941.336524	2439.918462
941.638763	2470.165385
941.940964	2505.453462
942.243126	2462.603654
942.545250	2472.685962
942.847335	2485.288846
943.149381	2540.741538
943.451389	2487.809423
943.753359	2495.371154
944.055290	2530.659231
944.357182	2477.727115
944.659036	2505.453462
944.960851	2457.562500
945.262628	2422.274423
945.564367	2510.494615
945.866067	2442.439038
946.167729	2548.303269
946.469352	2502.932885
946.770937	2520.576923
947.072484	2535.700385
947.373992	2389.506923
947.675462	2381.945192
947.976893	2505.453462
948.278286	2480.247692
948.579641	2497.891731
948.880958	2535.700385
949.182236	2485.288846
949.483476	2507.974038
949.784678	2505.453462
950.085841	2492.850577
950.386967	2467.644808
950.688054	2477.727115
950.989103	2427.315577
951.290114	2447.480192
951.591087	2439.918462
951.892021	2402.109808
952.192917	2432.356731
952.493776	2492.850577
952.794596	2533.179808
953.095378	2485.288846
953.396122	2475.206538
953.696828	2475.206538
953.997496	2455.041923
954.298126	2475.206538
954.598718	2487.809423
954.899272	2427.315577
955.199788	2583.591346
955.500266	2447.480192
955.800706	2452.521346
956.101108	2447.480192
956.401472	2437.397885
956.701798	2419.753846
957.002087	2467.644808
957.302337	2495.371154
957.602550	2533.179808
957.902724	2467.644808
958.202861	2490.330000
958.502960	2553.344423
958.803022	2492.850577
959.103045	2525.618077
959.403031	2457.562500
959.702979	2490.330000
960.002889	2439.918462
960.302762	2550.823846
960.602596	2548.303269
960.902393	2608.797115
961.202153	2444.959615
961.501875	2404.630385
961.801559	2591.153077
962.101205	2548.303269
962.400814	2523.097500
962.700385	2513.015192
962.999918	2477.727115
963.299414	2565.947308
963.598873	2447.480192
963.898293	2535.700385
964.197677	2434.877308
964.497022	2528.138654
964.796331	2452.521346
965.095601	2346.657115
965.394835	2513.015192
965.694030	2412.192115
965.993189	2543.262115
966.292309	2404.630385
966.591393	2553.344423
966.890439	2470.165385
967.189447	2460.083077
967.488419	2540.741538
967.787353	2593.673654
968.086249	2555.865000
968.385108	2500.412308
968.683930	2525.618077
968.982714	2429.836154
969.281462	2455.041923
969.580172	2518.056346
969.878844	2530.659231
970.177480	2462.603654
970.476078	2555.865000
970.774639	2518.056346
971.073162	2528.138654
971.371649	2480.247692
971.670098	2525.618077
971.968510	2472.685962
972.266885	2487.809423
972.565223	2533.179808
972.863524	2460.083077
973.161788	2548.303269
973.460014	2465.124231
973.758204	2523.097500
974.056356	2535.700385
974.354471	2495.371154
974.652550	2502.932885
974.950591	2588.632500
975.248595	2419.753846
975.546563	2513.015192
975.844493	2543.262115
976.142386	2444.959615
976.440243	2507.974038
976.738062	2520.576923
977.035845	2485.288846
977.333590	2520.576923
977.631299	2533.179808
977.928971	2472.685962
978.226606	2505.453462
978.524204	2492.850577
978.821765	2510.494615
979.119290	2460.083077
979.416777	2525.618077
979.714228	2538.220962
980.011642	2530.659231
980.309020	2475.206538
980.606360	2455.041923
980.903664	2487.809423
981.200931	2528.138654
981.498162	2465.124231
981.795356	2472.685962
982.092513	2467.644808
982.389633	2472.685962
982.686717	2402.109808
982.983764	2533.179808
983.280775	2455.041923
983.577749	2497.891731
983.874686	2480.247692
984.171587	2586.111923
984.468451	2500.412308
984.765279	2482.768269
985.062070	2528.138654
985.358824	2485.288846
985.655543	2422.274423
985.952224	2500.412308
986.248869	2490.330000
986.545478	2487.809423
986.842050	2477.727115
987.138586	2485.288846
987.435086	2601.235385
987.731549	2505.453462
988.027975	2427.315577
988.324366	2533.179808
988.620719	2568.467885
988.917037	2470.165385
989.213318	2578.550192
989.509563	2502.932885
989.805772	2510.494615
990.101944	2432.356731
990.398080	2525.618077
990.694180	2518.056346
990.990244	2540.741538
991.286271	2475.206538
991.582262	2515.535769
991.878217	2533.179808
992.174136	2518.056346
992.470019	2560.906154
992.765865	2482.768269
993.061676	2422.274423
993.357450	2480.247692
993.653188	2422.274423
993.948890	2470.165385
994.244556	2535.700385
994.540186	2444.959615
994.835780	2444.959615
995.131337	2444.959615
995.426859	2500.412308
995.722345	2502.932885
996.017795	2553.344423
996.313208	2467.644808
996.608586	2502.932885
996.903928	2480.247692
997.199234	2500.412308
997.494504	2535.700385
997.789738	2477.727115
998.084936	2434.877308
998.380099	2455.041923
998.675225	2485.288846
998.970316	2513.015192
999.265371	2477.727115
999.560390	2472.685962
999.855373	2518.056346
1000.150320	2538.220962
1000.445232	2444.959615
1000.740108	2482.768269
1001.034948	2540.741538
1001.329752	2502.932885
1001.624521	2487.809423
1001.919254	2533.179808
1002.213951	2470.165385
1002.508613	2581.070769
1002.803239	2520.576923
1003.097829	2548.303269
1003.392384	2515.535769
1003.686903	2399.589231
1003.981386	2470.165385
1004.275834	2490.330000
1004.570246	2502.932885
1004.864623	2487.809423
1005.158964	2485.288846
1005.453270	2570.988462
1005.747540	2485.288846
1006.041775	2470.165385
1006.335974	2513.015192
1006.630138	2558.385577
1006.924266	2450.000769
1007.218359	2533.179808
1007.512416	2450.000769
1007.806438	2439.918462
1008.100425	2523.097500
1008.394376	2515.535769
1008.688292	2515.535769
1008.982172	2510.494615
1009.276017	2465.124231
1009.569827	2490.330000
1009.863602	2422.274423
1010.157341	2538.220962
1010.451045	2570.988462
1010.744714	2422.274423
1011.038347	2455.041923
1011.331945	2450.000769
1011.625508	2502.932885
1011.919036	2495.371154
1012.212528	2515.535769
1012.505986	2482.768269
1012.799408	2394.548077
1013.092795	2485.288846
1013.386147	2447.480192
1013.679464	2477.727115
1013.972745	2460.083077
1014.265992	2437.397885
1014.559204	2467.644808
1014.852380	2492.850577
1015.145521	2472.685962
1015.438628	2485.288846
1015.731699	2578.550192
1016.024736	2533.179808
1016.317737	2495.371154
1016.610703	2465.124231
1016.903635	2477.727115
1017.196531	2417.233269
1017.489393	2515.535769
1017.782219	2467.644808
1018.075011	2427.315577
1018.367768	2518.056346
1018.660490	2482.768269
1018.953177	2482.768269
1019.245829	2482.768269
