Dividing Wavelength (nm)	Counts (n)	Blue Motor Position (mm): 3.500000	Red Motor Position (mm): 0.000000	
326.493990	2112.243462
326.888308	2112.243462
327.282561	2112.243462
327.676750	2026.543846
328.070874	2079.475962
328.464933	2155.093269
328.858929	2127.366923
329.252859	2099.640577
329.646726	2167.696154
330.040528	2066.873077
330.434265	2119.805192
330.827938	2081.996538
331.221547	2112.243462
331.615091	2107.202308
332.008571	2182.819615
332.401986	2187.860769
332.795338	2230.710577
333.188625	2276.080962
333.581847	2293.725000
333.975006	2210.545962
334.368100	2263.478077
334.761129	2228.190000
335.154095	2407.150962
335.546996	2397.068654
335.939833	2313.889615
336.332606	2351.698269
336.725315	2334.054231
337.117960	2457.562500
337.510540	2386.986346
337.903056	2376.904038
338.295508	2379.424615
338.687896	2386.986346
339.080220	2386.986346
339.472480	2492.850577
339.864676	2513.015192
340.256807	2515.535769
340.648875	2477.727115
341.040879	2452.521346
341.432818	2485.288846
341.824694	2414.712692
342.216506	2402.109808
342.608253	2507.974038
342.999937	2555.865000
343.391557	2513.015192
343.783113	2432.356731
344.174605	2555.865000
344.566033	2442.439038
344.957397	2442.439038
345.348697	2434.877308
345.739934	2565.947308
346.131106	2412.192115
346.522215	2455.041923
346.913260	2439.918462
347.304241	2518.056346
347.695159	2548.303269
348.086012	2465.124231
348.476802	2452.521346
348.867528	2424.795000
349.258191	2422.274423
349.648789	2467.644808
350.039324	2417.233269
350.429796	2434.877308
350.820203	2376.904038
351.210548	2455.041923
351.600828	2437.397885
351.991045	2457.562500
352.381198	2432.356731
352.771288	2417.233269
353.161314	2447.480192
353.551276	2467.644808
353.941175	2518.056346
354.331010	2470.165385
354.720782	2467.644808
355.110490	2487.809423
355.500135	2472.685962
355.889717	2523.097500
356.279235	2404.630385
356.668689	2462.603654
357.058080	2462.603654
357.447408	2465.124231
357.836672	2540.741538
358.225873	2422.274423
358.615010	2384.465769
359.004084	2470.165385
359.393095	2437.397885
359.782043	2475.206538
360.170927	2444.959615
360.559748	2397.068654
360.948505	2460.083077
361.337199	2497.891731
361.725830	2457.562500
362.114398	2402.109808
362.502903	2477.727115
362.891344	2480.247692
363.279722	2386.986346
363.668037	2497.891731
364.056289	2465.124231
364.444478	2442.439038
364.832603	2374.383462
365.220665	2397.068654
365.608665	2477.727115
365.996601	2407.150962
366.384474	2444.959615
366.772284	2487.809423
367.160031	2336.574808
367.547715	2376.904038
367.935336	2452.521346
368.322893	2507.974038
368.710388	2422.274423
369.097820	2538.220962
369.485189	2442.439038
369.872495	2505.453462
370.259738	2417.233269
370.646918	2434.877308
371.034035	2407.150962
371.421090	2450.000769
371.808081	2452.521346
372.195010	2477.727115
372.581875	2402.109808
372.968678	2422.274423
373.355418	2404.630385
373.742096	2505.453462
374.128710	2432.356731
374.515262	2495.371154
374.901751	2434.877308
375.288177	2518.056346
375.674540	2386.986346
376.060841	2465.124231
376.447079	2452.521346
376.833254	2467.644808
377.219367	2482.768269
377.605417	2392.027500
377.991404	2381.945192
378.377329	2399.589231
378.763191	2376.904038
379.148991	2510.494615
379.534727	2565.947308
379.920402	2490.330000
380.306013	2450.000769
380.691563	2407.150962
381.077049	2475.206538
381.462474	2437.397885
381.847835	2444.959615
382.233134	2429.836154
382.618371	2487.809423
383.003545	2467.644808
383.388657	2467.644808
383.773706	2452.521346
384.158693	2414.712692
384.543618	2447.480192
384.928480	2482.768269
385.313280	2437.397885
385.698017	2460.083077
386.082692	2497.891731
386.467305	2472.685962
386.851856	2414.712692
387.236344	2482.768269
387.620770	2394.548077
388.005133	2442.439038
388.389435	2480.247692
388.773674	2407.150962
389.157851	2414.712692
389.541965	2402.109808
389.926018	2500.412308
390.310008	2465.124231
390.693936	2462.603654
391.077802	2467.644808
391.461606	2545.782692
391.845348	2439.918462
392.229027	2482.768269
392.612645	2434.877308
392.996200	2457.562500
393.379694	2467.644808
393.763125	2364.301154
394.146494	2399.589231
394.529801	2543.262115
394.913047	2452.521346
395.296230	2472.685962
395.679351	2442.439038
396.062410	2470.165385
396.445408	2520.576923
396.828343	2414.712692
397.211217	2424.795000
397.594028	2540.741538
397.976778	2465.124231
398.359466	2510.494615
398.742092	2477.727115
399.124656	2407.150962
399.507158	2399.589231
399.889598	2467.644808
400.271977	2384.465769
400.654294	2513.015192
401.036549	2417.233269
401.418742	2439.918462
401.800874	2432.356731
402.182944	2477.727115
402.564952	2510.494615
402.946898	2472.685962
403.328783	2409.671538
403.710606	2475.206538
404.092367	2528.138654
404.474067	2344.136538
404.855705	2495.371154
405.237282	2439.918462
405.618797	2482.768269
406.000250	2528.138654
406.381642	2477.727115
406.762972	2513.015192
407.144240	2470.165385
407.525447	2515.535769
407.906593	2417.233269
408.287677	2467.644808
408.668700	2505.453462
409.049661	2465.124231
409.430560	2487.809423
409.811399	2462.603654
410.192176	2447.480192
410.572891	2437.397885
410.953545	2467.644808
411.334138	2467.644808
411.714669	2429.836154
412.095139	2412.192115
412.475547	2502.932885
412.855894	2462.603654
413.236180	2467.644808
413.616405	2450.000769
413.996568	2510.494615
414.376670	2394.548077
414.756711	2470.165385
415.136691	2427.315577
415.516609	2490.330000
415.896466	2495.371154
416.276262	2563.426731
416.655997	2399.589231
417.035670	2507.974038
417.415283	2495.371154
417.794834	2528.138654
418.174324	2419.753846
418.553753	2424.795000
418.933121	2397.068654
419.312428	2432.356731
419.691674	2568.467885
420.070859	2419.753846
420.449983	2472.685962
420.829045	2492.850577
421.208047	2434.877308
421.586988	2563.426731
421.965867	2485.288846
422.344686	2455.041923
422.723444	2485.288846
423.102141	2487.809423
423.480777	2480.247692
423.859352	2452.521346
424.237866	2563.426731
424.616319	2523.097500
424.994712	2477.727115
425.373044	2485.288846
425.751314	2389.506923
426.129524	2470.165385
426.507673	2550.823846
426.885762	2437.397885
427.263789	2518.056346
427.641756	2505.453462
428.019662	2485.288846
428.397508	2540.741538
428.775292	2467.644808
429.153016	2553.344423
429.530679	2593.673654
429.908282	2477.727115
430.285824	2470.165385
430.663305	2538.220962
431.040726	2460.083077
431.418086	2475.206538
431.795385	2533.179808
432.172624	2439.918462
432.549802	2513.015192
432.926920	2465.124231
433.303977	2452.521346
433.680974	2480.247692
434.057910	2515.535769
434.434786	2540.741538
434.811601	2462.603654
435.188355	2439.918462
435.565050	2520.576923
435.941683	2462.603654
436.318257	2525.618077
436.694770	2460.083077
437.071222	2485.288846
437.447614	2500.412308
437.823946	2525.618077
438.200218	2376.904038
438.576429	2505.453462
438.952580	2432.356731
439.328670	2530.659231
439.704700	2513.015192
440.080670	2513.015192
440.456580	2538.220962
440.832429	2510.494615
441.208218	2470.165385
441.583947	2455.041923
441.959616	2465.124231
442.335224	2507.974038
442.710773	2465.124231
443.086261	2545.782692
443.461689	2452.521346
443.837057	2497.891731
444.212365	2487.809423
444.587612	2472.685962
444.962800	2477.727115
445.337927	2470.165385
445.712995	2462.603654
446.088002	2513.015192
446.462949	2475.206538
446.837837	2523.097500
447.212664	2460.083077
447.587431	2510.494615
447.962139	2480.247692
448.336786	2507.974038
448.711374	2399.589231
449.085901	2414.712692
449.460369	2515.535769
449.834776	2525.618077
450.209124	2502.932885
450.583412	2480.247692
450.957640	2477.727115
451.331808	2376.904038
451.705917	2472.685962
452.079965	2414.712692
452.453954	2515.535769
452.827883	2427.315577
453.201752	2477.727115
453.575562	2389.506923
453.949311	2487.809423
454.323001	2432.356731
454.696632	2492.850577
455.070202	2457.562500
455.443713	2455.041923
455.817164	2513.015192
456.190556	2565.947308
456.563888	2500.412308
456.937160	2528.138654
457.310373	2462.603654
457.683526	2495.371154
458.056619	2422.274423
458.429653	2550.823846
458.802628	2432.356731
459.175542	2555.865000
459.548398	2432.356731
459.921194	2465.124231
460.293930	2434.877308
460.666607	2525.618077
461.039224	2492.850577
461.411782	2525.618077
461.784280	2523.097500
462.156719	2497.891731
462.529099	2442.439038
462.901419	2505.453462
463.273680	2437.397885
463.645882	2500.412308
464.018024	2477.727115
464.390106	2535.700385
464.762130	2533.179808
465.134094	2523.097500
465.505999	2470.165385
465.877845	2492.850577
466.249631	2533.179808
466.621358	2444.959615
466.993026	2480.247692
467.364634	2520.576923
467.736184	2455.041923
468.107674	2510.494615
468.479105	2558.385577
468.850477	2399.589231
469.221790	2520.576923
469.593043	2477.727115
469.964238	2409.671538
470.335373	2482.768269
470.706449	2480.247692
471.077467	2540.741538
471.448425	2507.974038
471.819324	2495.371154
472.190164	2455.041923
472.560945	2535.700385
472.931667	2505.453462
473.302330	2502.932885
473.672934	2442.439038
474.043479	2558.385577
474.413965	2487.809423
474.784393	2523.097500
475.154761	2475.206538
475.525070	2485.288846
475.895321	2518.056346
476.265513	2467.644808
476.635645	2480.247692
477.005719	2492.850577
477.375734	2497.891731
477.745691	2548.303269
478.115588	2407.150962
478.485427	2434.877308
478.855207	2480.247692
479.224928	2467.644808
479.594591	2402.109808
479.964194	2583.591346
480.333739	2482.768269
480.703226	2515.535769
481.072653	2487.809423
481.442022	2520.576923
481.811333	2550.823846
482.180584	2485.288846
482.549777	2442.439038
482.918912	2497.891731
483.287988	2465.124231
483.657005	2525.618077
484.025964	2523.097500
484.394864	2545.782692
484.763706	2533.179808
485.132489	2523.097500
485.501213	2417.233269
485.869879	2530.659231
486.238487	2462.603654
486.607036	2475.206538
486.975527	2419.753846
487.343959	2497.891731
487.712333	2500.412308
488.080648	2515.535769
488.448905	2523.097500
488.817104	2500.412308
489.185244	2563.426731
489.553326	2455.041923
489.921350	2502.932885
490.289315	2465.124231
490.657222	2455.041923
491.025070	2450.000769
491.392861	2538.220962
491.760593	2500.412308
492.128267	2482.768269
492.495883	2558.385577
492.863440	2500.412308
493.230939	2487.809423
493.598380	2465.124231
493.965763	2525.618077
494.333088	2477.727115
494.700354	2515.535769
495.067563	2528.138654
495.434713	2513.015192
495.801805	2553.344423
496.168839	2502.932885
496.535815	2502.932885
496.902733	2386.986346
497.269593	2480.247692
497.636395	2470.165385
498.003139	2545.782692
498.369825	2460.083077
498.736453	2568.467885
499.103023	2555.865000
499.469535	2495.371154
499.835989	2492.850577
500.202385	2515.535769
500.568723	2447.480192
500.935003	2477.727115
501.301226	2523.097500
501.667390	2394.548077
502.033497	2482.768269
502.399546	2487.809423
502.765537	2487.809423
503.131470	2485.288846
503.497345	2573.509038
503.863163	2399.589231
504.228923	2523.097500
504.594625	2467.644808
504.960269	2543.262115
505.325856	2515.535769
505.691385	2505.453462
506.056856	2374.383462
506.422270	2548.303269
506.787625	2500.412308
507.152924	2518.056346
507.518164	2462.603654
507.883347	2472.685962
508.248472	2407.150962
508.613540	2505.453462
508.978550	2472.685962
509.343503	2389.506923
509.708398	2465.124231
510.073236	2422.274423
510.438016	2513.015192
510.802738	2455.041923
511.167403	2500.412308
511.532010	2472.685962
511.896561	2581.070769
512.261053	2520.576923
512.625488	2462.603654
512.989866	2545.782692
513.354186	2510.494615
513.718449	2434.877308
514.082655	2570.988462
514.446803	2555.865000
514.810894	2492.850577
515.174927	2505.453462
515.538904	2472.685962
515.902822	2525.618077
516.266684	2528.138654
516.630488	2591.153077
516.994235	2497.891731
517.357925	2510.494615
517.721558	2437.397885
518.085133	2538.220962
518.448651	2455.041923
518.812112	2477.727115
519.175516	2505.453462
519.538863	2507.974038
519.902152	2603.755962
520.265385	2477.727115
520.628560	2487.809423
520.991678	2533.179808
521.354739	2437.397885
521.717743	2550.823846
522.080690	2523.097500
522.443580	2482.768269
522.806413	2510.494615
523.169189	2472.685962
523.531908	2480.247692
523.894569	2530.659231
524.257174	2495.371154
524.619722	2545.782692
524.982213	2465.124231
525.344647	2500.412308
525.707025	2439.918462
526.069345	2497.891731
526.431608	2553.344423
526.793815	2447.480192
527.155964	2444.959615
527.518057	2535.700385
527.880093	2432.356731
528.242072	2495.371154
528.603995	2507.974038
528.965860	2497.891731
529.327669	2548.303269
529.689421	2429.836154
530.051117	2558.385577
530.412755	2452.521346
530.774337	2528.138654
531.135862	2598.714808
531.497331	2475.206538
531.858743	2457.562500
532.220098	2520.576923
532.581396	2523.097500
532.942638	2502.932885
533.303824	2472.685962
533.664953	2482.768269
534.026025	2515.535769
534.387040	2505.453462
534.747999	2450.000769
535.108902	2465.124231
535.469748	2429.836154
535.830537	2523.097500
536.191270	2427.315577
536.551947	2485.288846
536.912567	2462.603654
537.273131	2475.206538
537.633638	2500.412308
537.994089	2437.397885
538.354483	2533.179808
538.714821	2480.247692
539.075103	2528.138654
539.435328	2480.247692
539.795497	2487.809423
540.155609	2530.659231
540.515665	2460.083077
540.875665	2452.521346
541.235609	2495.371154
541.595496	2518.056346
541.955328	2480.247692
542.315102	2550.823846
542.674821	2555.865000
543.034483	2457.562500
543.394090	2523.097500
543.753640	2434.877308
544.113134	2505.453462
544.472571	2452.521346
544.831953	2487.809423
545.191278	2535.700385
545.550548	2482.768269
545.909761	2543.262115
546.268918	2500.412308
546.628019	2467.644808
546.987064	2497.891731
547.346053	2535.700385
547.704986	2550.823846
548.063863	2540.741538
548.422684	2427.315577
548.781449	2361.780577
549.140158	2452.521346
549.498811	2520.576923
549.857408	2455.041923
550.215949	2553.344423
550.574434	2444.959615
550.932864	2490.330000
551.291237	2525.618077
551.649555	2518.056346
552.007817	2485.288846
552.366022	2528.138654
552.724173	2545.782692
553.082267	2528.138654
553.440305	2497.891731
553.798288	2502.932885
554.156215	2523.097500
554.514086	2553.344423
554.871902	2462.603654
555.229661	2492.850577
555.587365	2490.330000
555.945014	2520.576923
556.302606	2495.371154
556.660143	2434.877308
557.017625	2404.630385
557.375050	2601.235385
557.732421	2450.000769
558.089735	2538.220962
558.446994	2482.768269
558.804197	2482.768269
559.161345	2450.000769
559.518437	2515.535769
559.875474	2432.356731
560.232455	2465.124231
560.589381	2505.453462
560.946251	2535.700385
561.303065	2497.891731
561.659825	2429.836154
562.016528	2482.768269
562.373177	2472.685962
562.729770	2528.138654
563.086307	2528.138654
563.442789	2525.618077
563.799216	2475.206538
564.155587	2530.659231
564.511904	2502.932885
564.868164	2492.850577
565.224370	2513.015192
565.580520	2442.439038
565.936615	2485.288846
566.292654	2444.959615
566.648638	2505.453462
567.004567	2480.247692
567.360441	2470.165385
567.716260	2507.974038
568.072023	2482.768269
568.427732	2437.397885
568.783385	2591.153077
569.138982	2404.630385
569.494525	2482.768269
569.850013	2500.412308
570.205445	2543.262115
570.560823	2550.823846
570.916145	2492.850577
571.271412	2530.659231
571.626625	2475.206538
571.981782	2439.918462
572.336884	2460.083077
572.691931	2359.260000
573.046923	2515.535769
573.401860	2447.480192
573.756743	2570.988462
574.111570	2520.576923
574.466342	2510.494615
574.821059	2533.179808
575.175722	2502.932885
575.530330	2565.947308
575.884882	2424.795000
576.239380	2550.823846
576.593823	2500.412308
576.948211	2480.247692
577.302544	2563.426731
577.656823	2497.891731
578.011047	2510.494615
578.365216	2515.535769
578.719330	2525.618077
579.073389	2525.618077
579.427394	2482.768269
579.781344	2424.795000
580.135239	2518.056346
580.489080	2402.109808
580.842866	2553.344423
581.196597	2470.165385
581.550273	2497.891731
581.903895	2502.932885
582.257463	2480.247692
582.610975	2515.535769
582.964434	2505.453462
583.317837	2502.932885
583.671186	2450.000769
584.024481	2475.206538
584.377721	2392.027500
584.730906	2553.344423
585.084037	2475.206538
585.437113	2510.494615
585.790135	2497.891731
586.143103	2621.400000
586.496016	2485.288846
586.848874	2452.521346
587.201679	2520.576923
587.554428	2507.974038
587.907124	2525.618077
588.259765	2518.056346
588.612352	2480.247692
588.964884	2500.412308
589.317362	2563.426731
589.669786	2528.138654
590.022155	2427.315577
590.374470	2535.700385
590.726731	2520.576923
591.078937	2485.288846
591.431090	2442.439038
591.783188	2457.562500
592.135232	2558.385577
592.487222	2455.041923
592.839157	2447.480192
593.191038	2505.453462
593.542866	2502.932885
593.894639	2412.192115
594.246358	2543.262115
594.598022	2432.356731
594.949633	2588.632500
595.301190	2495.371154
595.652692	2490.330000
596.004141	2540.741538
596.355535	2490.330000
596.706876	2462.603654
597.058162	2432.356731
597.409395	2500.412308
597.760573	2439.918462
598.111698	2429.836154
598.462768	2480.247692
598.813785	2495.371154
599.164748	2520.576923
599.515657	2450.000769
599.866511	2485.288846
600.217312	2510.494615
600.568060	2558.385577
600.918753	2505.453462
601.269392	2470.165385
601.619978	2392.027500
601.970510	2520.576923
602.320988	2548.303269
602.671412	2513.015192
603.021783	2540.741538
603.372100	2505.453462
603.722363	2460.083077
604.072572	2482.768269
604.422728	2505.453462
604.772830	2444.959615
605.122878	2467.644808
605.472872	2545.782692
605.822813	2515.535769
606.172701	2507.974038
606.522534	2412.192115
606.872314	2427.315577
607.222041	2497.891731
607.571714	2477.727115
607.921333	2528.138654
608.270899	2530.659231
608.620411	2518.056346
608.969870	2578.550192
609.319276	2502.932885
609.668627	2482.768269
610.017926	2520.576923
610.367171	2497.891731
610.716362	2467.644808
611.065500	2545.782692
611.414585	2424.795000
611.763616	2515.535769
612.112594	2467.644808
612.461518	2502.932885
612.810389	2482.768269
613.159207	2497.891731
613.507971	2467.644808
613.856682	2538.220962
614.205340	2460.083077
614.553945	2455.041923
614.902496	2467.644808
615.250994	2502.932885
615.599439	2437.397885
615.947830	2510.494615
616.296169	2447.480192
616.644454	2548.303269
616.992686	2364.301154
617.340864	2482.768269
617.688990	2460.083077
618.037063	2502.932885
618.385082	2523.097500
618.733048	2502.932885
619.080961	2455.041923
619.428821	2535.700385
619.776628	2545.782692
620.124382	2591.153077
620.472083	2470.165385
620.819731	2568.467885
621.167326	2472.685962
621.514868	2573.509038
621.862357	2520.576923
622.209793	2505.453462
622.557176	2518.056346
622.904506	2475.206538
623.251783	2465.124231
623.599007	2530.659231
623.946179	2462.603654
624.293297	2447.480192
624.640363	2583.591346
624.987376	2472.685962
625.334336	2540.741538
625.681243	2490.330000
626.028097	2528.138654
626.374899	2555.865000
626.721647	2470.165385
627.068343	2530.659231
627.414987	2450.000769
627.761577	2482.768269
628.108115	2432.356731
628.454600	2535.700385
628.801032	2475.206538
629.147412	2555.865000
629.493739	2500.412308
629.840014	2550.823846
630.186236	2462.603654
630.532405	2513.015192
630.878521	2386.986346
631.224585	2560.906154
631.570597	2470.165385
631.916556	2444.959615
632.262462	2485.288846
632.608316	2487.809423
632.954117	2490.330000
633.299866	2444.959615
633.645562	2492.850577
633.991206	2482.768269
634.336797	2497.891731
634.682336	2510.494615
635.027823	2543.262115
635.373257	2565.947308
635.718639	2586.111923
636.063968	2452.521346
636.409245	2470.165385
636.754470	2460.083077
637.099642	2452.521346
637.444762	2513.015192
637.789829	2490.330000
638.134845	2444.959615
638.479808	2450.000769
638.824719	2475.206538
639.169577	2535.700385
639.514383	2555.865000
639.859137	2482.768269
640.203839	2480.247692
640.548489	2502.932885
640.893086	2457.562500
641.237632	2502.932885
641.582125	2586.111923
641.926566	2465.124231
642.270955	2545.782692
642.615292	2457.562500
642.959576	2465.124231
643.303809	2533.179808
643.647990	2487.809423
643.992118	2452.521346
644.336195	2472.685962
644.680219	2538.220962
645.024192	2505.453462
645.368112	2467.644808
645.711981	2450.000769
646.055797	2545.782692
646.399562	2472.685962
646.743274	2477.727115
647.086935	2513.015192
647.430544	2520.576923
647.774101	2452.521346
648.117606	2540.741538
648.461059	2472.685962
648.804460	2465.124231
649.147810	2510.494615
649.491108	2495.371154
649.834354	2470.165385
650.177548	2576.029615
650.520690	2558.385577
650.863781	2480.247692
651.206820	2467.644808
651.549807	2510.494615
651.892742	2538.220962
652.235626	2538.220962
652.578458	2460.083077
652.921238	2563.426731
653.263967	2500.412308
653.606644	2507.974038
653.949269	2492.850577
654.291843	2520.576923
654.634365	2570.988462
654.976836	2485.288846
655.319255	2492.850577
655.661622	2485.288846
656.003938	2565.947308
656.346203	2419.753846
656.688416	2518.056346
657.030577	2409.671538
657.372687	2533.179808
657.714746	2442.439038
658.056753	2515.535769
658.398708	2497.891731
658.740612	2626.441154
659.082465	2570.988462
659.424266	2480.247692
659.766016	2518.056346
660.107715	2507.974038
660.449362	2502.932885
660.790958	2500.412308
661.132503	2510.494615
661.473996	2457.562500
661.815438	2507.974038
662.156829	2450.000769
662.498168	2530.659231
662.839456	2505.453462
663.180693	2502.932885
663.521879	2467.644808
663.863013	2444.959615
664.204097	2576.029615
664.545129	2523.097500
664.886110	2596.194231
665.227040	2492.850577
665.567918	2513.015192
665.908746	2492.850577
666.249522	2490.330000
666.590248	2502.932885
666.930922	2510.494615
667.271545	2525.618077
667.612118	2530.659231
667.952639	2495.371154
668.293109	2450.000769
668.633528	2520.576923
668.973896	2452.521346
669.314213	2520.576923
669.654480	2497.891731
669.994695	2409.671538
670.334859	2444.959615
670.674973	2515.535769
671.015035	2530.659231
671.355047	2497.891731
671.695008	2490.330000
672.034918	2442.439038
672.374777	2507.974038
672.714585	2540.741538
673.054342	2477.727115
673.394049	2550.823846
673.733705	2465.124231
674.073310	2507.974038
674.412864	2475.206538
674.752368	2543.262115
675.091820	2475.206538
675.431223	2563.426731
675.770574	2502.932885
676.109875	2558.385577
676.449125	2530.659231
676.788324	2477.727115
677.127473	2409.671538
677.466571	2505.453462
677.805619	2462.603654
678.144616	2485.288846
678.483562	2497.891731
678.822458	2545.782692
679.161303	2502.932885
679.500098	2424.795000
679.838842	2467.644808
680.177535	2397.068654
680.516179	2513.015192
680.854771	2510.494615
681.193314	2502.932885
681.531805	2487.809423
681.870247	2462.603654
682.208638	2460.083077
682.546978	2475.206538
682.885268	2480.247692
683.223508	2507.974038
683.561697	2444.959615
683.899836	2434.877308
684.237925	2472.685962
684.575963	2439.918462
684.913951	2533.179808
685.251889	2482.768269
685.589776	2502.932885
685.927614	2455.041923
686.265401	2470.165385
686.603137	2419.753846
686.940824	2505.453462
687.278460	2475.206538
687.616046	2513.015192
687.953582	2581.070769
688.291068	2520.576923
688.628504	2553.344423
688.965889	2462.603654
689.303224	2475.206538
689.640510	2424.795000
689.977745	2465.124231
690.314930	2475.206538
690.652065	2500.412308
690.989150	2437.397885
691.326185	2482.768269
691.663170	2452.521346
692.000105	2452.521346
692.336990	2500.412308
692.673825	2457.562500
693.010610	2434.877308
693.347345	2490.330000
693.684030	2495.371154
694.020665	2525.618077
694.357251	2538.220962
694.693786	2573.509038
695.030272	2455.041923
695.366707	2543.262115
695.703093	2442.439038
696.039429	2487.809423
696.375716	2465.124231
696.711952	2472.685962
697.048139	2419.753846
697.384276	2480.247692
697.720363	2477.727115
698.056400	2533.179808
698.392388	2535.700385
698.728326	2530.659231
699.064214	2485.288846
699.400053	2381.945192
699.735842	2434.877308
700.071581	2452.521346
700.407270	2520.576923
700.742910	2437.397885
701.078501	2485.288846
701.414042	2437.397885
701.749533	2389.506923
702.084974	2581.070769
702.420366	2538.220962
702.755709	2492.850577
703.091002	2518.056346
703.426246	2545.782692
703.761440	2460.083077
704.096584	2497.891731
704.431679	2470.165385
704.766725	2502.932885
705.101721	2543.262115
705.436668	2475.206538
705.771565	2513.015192
706.106413	2450.000769
706.441212	2510.494615
706.775961	2490.330000
707.110661	2482.768269
707.445311	2439.918462
707.779913	2495.371154
708.114465	2455.041923
708.448967	2510.494615
708.783421	2460.083077
709.117825	2500.412308
709.452180	2563.426731
709.786485	2538.220962
710.120742	2465.124231
710.454949	2480.247692
710.789107	2515.535769
711.123216	2525.618077
711.457275	2598.714808
711.791286	2462.603654
712.125247	2525.618077
712.459159	2593.673654
712.793023	2513.015192
713.126837	2437.397885
713.460602	2465.124231
713.794318	2593.673654
714.127985	2495.371154
714.461602	2515.535769
714.795171	2497.891731
715.128691	2573.509038
715.462162	2540.741538
715.795584	2457.562500
716.128957	2462.603654
716.462281	2533.179808
716.795556	2555.865000
717.128782	2409.671538
717.461960	2593.673654
717.795088	2505.453462
718.128167	2525.618077
718.461198	2467.644808
718.794180	2500.412308
719.127113	2500.412308
719.459997	2487.809423
719.792833	2462.603654
720.125619	2497.891731
720.458357	2475.206538
720.791046	2540.741538
721.123686	2457.562500
721.456278	2535.700385
721.788821	2487.809423
722.121315	2543.262115
722.453761	2450.000769
722.786158	2513.015192
723.118506	2417.233269
723.450805	2477.727115
723.783056	2434.877308
724.115259	2545.782692
724.447412	2535.700385
724.779518	2477.727115
725.111574	2427.315577
725.443582	2523.097500
725.775542	2492.850577
726.107453	2502.932885
726.439315	2513.015192
726.771129	2497.891731
727.102895	2565.947308
727.434612	2439.918462
727.766281	2505.453462
728.097901	2555.865000
728.429473	2467.644808
728.760996	2457.562500
729.092471	2510.494615
729.423897	2563.426731
729.755276	2462.603654
730.086606	2523.097500
730.417887	2452.521346
730.749120	2490.330000
731.080305	2480.247692
731.411442	2525.618077
731.742530	2495.371154
732.073570	2495.371154
732.404562	2465.124231
732.735506	2510.494615
733.066401	2573.509038
733.397249	2472.685962
733.728048	2427.315577
734.058798	2452.521346
734.389501	2429.836154
734.720156	2414.712692
735.050762	2586.111923
735.381320	2568.467885
735.711831	2591.153077
736.042293	2545.782692
736.372707	2523.097500
736.703073	2513.015192
737.033391	2502.932885
737.363661	2515.535769
737.693883	2467.644808
738.024056	2545.782692
738.354182	2455.041923
738.684260	2530.659231
739.014290	2452.521346
739.344272	2533.179808
739.674207	2447.480192
740.004093	2412.192115
740.333931	2591.153077
740.663722	2470.165385
740.993464	2540.741538
741.323159	2467.644808
741.652806	2485.288846
741.982405	2515.535769
742.311956	2490.330000
742.641460	2520.576923
742.970915	2492.850577
743.300323	2477.727115
743.629683	2533.179808
743.958996	2424.795000
744.288260	2550.823846
744.617477	2480.247692
744.946647	2462.603654
745.275768	2450.000769
745.604842	2538.220962
745.933869	2490.330000
746.262847	2520.576923
746.591778	2460.083077
746.920662	2480.247692
747.249498	2588.632500
747.578286	2565.947308
747.907027	2480.247692
748.235720	2515.535769
748.564365	2439.918462
748.892963	2462.603654
749.221514	2442.439038
749.550017	2520.576923
749.878473	2482.768269
750.206881	2490.330000
750.535242	2450.000769
750.863555	2414.712692
751.191821	2490.330000
751.520039	2500.412308
751.848210	2444.959615
752.176334	2500.412308
752.504411	2548.303269
752.832440	2470.165385
753.160421	2505.453462
753.488356	2518.056346
753.816243	2500.412308
754.144082	2507.974038
754.471875	2450.000769
754.799620	2492.850577
755.127318	2457.562500
755.454969	2515.535769
755.782572	2543.262115
756.110129	2475.206538
756.437638	2500.412308
756.765100	2467.644808
757.092515	2497.891731
757.419882	2616.358846
757.747203	2548.303269
758.074477	2520.576923
758.401703	2548.303269
758.728882	2598.714808
759.056014	2548.303269
759.383099	2528.138654
759.710138	2560.906154
760.037129	2563.426731
760.364073	2442.439038
760.690970	2548.303269
761.017820	2528.138654
761.344623	2455.041923
761.671379	2581.070769
761.998088	2495.371154
762.324751	2467.644808
762.651366	2502.932885
762.977935	2447.480192
763.304456	2485.288846
763.630931	2452.521346
763.957359	2502.932885
764.283740	2515.535769
764.610074	2452.521346
764.936362	2578.550192
765.262602	2439.918462
765.588796	2535.700385
765.914943	2417.233269
766.241044	2490.330000
766.567097	2477.727115
766.893104	2500.412308
767.219064	2513.015192
767.544978	2472.685962
767.870845	2399.589231
768.196665	2523.097500
768.522438	2450.000769
768.848165	2540.741538
769.173846	2495.371154
769.499479	2535.700385
769.825066	2465.124231
770.150607	2515.535769
770.476101	2424.795000
770.801548	2457.562500
771.126949	2381.945192
771.452303	2568.467885
771.777611	2518.056346
772.102872	2492.850577
772.428087	2442.439038
772.753256	2460.083077
773.078378	2417.233269
773.403453	2477.727115
773.728482	2485.288846
774.053465	2550.823846
774.378401	2444.959615
774.703291	2482.768269
775.028135	2437.397885
775.352932	2548.303269
775.677683	2565.947308
776.002388	2528.138654
776.327046	2429.836154
776.651658	2432.356731
776.976224	2553.344423
777.300743	2507.974038
777.625216	2507.974038
777.949643	2424.795000
778.274024	2439.918462
778.598359	2555.865000
778.922647	2518.056346
779.246889	2538.220962
779.571086	2442.439038
779.895236	2530.659231
780.219339	2533.179808
780.543397	2502.932885
780.867409	2523.097500
781.191374	2500.412308
781.515294	2525.618077
781.839167	2419.753846
782.162995	2470.165385
782.486776	2455.041923
782.810511	2480.247692
783.134201	2558.385577
783.457844	2560.906154
783.781441	2560.906154
784.104993	2432.356731
784.428498	2530.659231
784.751958	2513.015192
785.075372	2490.330000
785.398739	2470.165385
785.722061	2565.947308
786.045337	2555.865000
786.368568	2450.000769
786.691752	2540.741538
787.014891	2530.659231
787.337983	2492.850577
787.661030	2538.220962
787.984031	2545.782692
788.306987	2465.124231
788.629897	2500.412308
788.952760	2565.947308
789.275579	2437.397885
789.598351	2497.891731
789.921078	2477.727115
790.243759	2490.330000
790.566395	2381.945192
790.888984	2487.809423
791.211529	2502.932885
791.534027	2528.138654
791.856480	2465.124231
792.178888	2515.535769
792.501249	2447.480192
792.823566	2510.494615
793.145836	2482.768269
793.468062	2578.550192
793.790241	2523.097500
794.112375	2392.027500
794.434464	2455.041923
794.756507	2450.000769
795.078505	2533.179808
795.400457	2480.247692
795.722364	2510.494615
796.044226	2447.480192
796.366042	2555.865000
796.687812	2490.330000
797.009538	2545.782692
797.331218	2530.659231
797.652852	2563.426731
797.974442	2487.809423
798.295986	2475.206538
798.617484	2381.945192
798.938938	2475.206538
799.260346	2480.247692
799.581709	2507.974038
799.903026	2452.521346
800.224299	2581.070769
800.545526	2497.891731
800.866708	2535.700385
801.187845	2558.385577
801.508936	2465.124231
801.829983	2495.371154
802.150984	2497.891731
802.471940	2523.097500
802.792851	2568.467885
803.113717	2462.603654
803.434538	2523.097500
803.755314	2518.056346
804.076045	2535.700385
804.396731	2452.521346
804.717372	2515.535769
805.037967	2444.959615
805.358518	2513.015192
805.679024	2497.891731
805.999485	2465.124231
806.319901	2513.015192
806.640272	2492.850577
806.960598	2500.412308
807.280879	2437.397885
807.601115	2568.467885
807.921306	2460.083077
808.241453	2429.836154
808.561554	2535.700385
808.881611	2457.562500
809.201623	2457.562500
809.521590	2601.235385
809.841513	2555.865000
810.161390	2462.603654
810.481223	2497.891731
810.801011	2457.562500
811.120755	2480.247692
811.440453	2437.397885
811.760107	2576.029615
812.079716	2477.727115
812.399281	2477.727115
812.718801	2576.029615
813.038276	2548.303269
813.357707	2497.891731
813.677093	2513.015192
813.996434	2442.439038
814.315731	2442.439038
814.634983	2442.439038
814.954191	2507.974038
815.273354	2530.659231
815.592473	2505.453462
815.911547	2540.741538
816.230577	2570.988462
816.549562	2533.179808
816.868502	2455.041923
817.187399	2502.932885
817.506250	2490.330000
817.825058	2465.124231
818.143821	2424.795000
818.462539	2588.632500
818.781213	2485.288846
819.099843	2500.412308
819.418429	2507.974038
819.736970	2598.714808
820.055466	2528.138654
820.373919	2578.550192
820.692327	2560.906154
821.010691	2553.344423
821.329011	2442.439038
821.647286	2538.220962
821.965517	2553.344423
822.283704	2485.288846
822.601847	2540.741538
822.919945	2439.918462
823.237999	2477.727115
823.556010	2520.576923
823.873976	2412.192115
824.191897	2555.865000
824.509775	2586.111923
824.827609	2548.303269
825.145398	2510.494615
825.463144	2500.412308
825.780845	2487.809423
826.098502	2452.521346
826.416116	2518.056346
826.733685	2515.535769
827.051210	2480.247692
827.368692	2477.727115
827.686129	2500.412308
828.003522	2513.015192
828.320872	2513.015192
828.638177	2510.494615
828.955439	2457.562500
829.272656	2470.165385
829.589830	2399.589231
829.906960	2515.535769
830.224046	2434.877308
830.541088	2518.056346
830.858086	2515.535769
831.175041	2545.782692
831.491952	2482.768269
831.808819	2543.262115
832.125642	2472.685962
832.442421	2422.274423
832.759157	2538.220962
833.075849	2465.124231
833.392497	2530.659231
833.709101	2545.782692
834.025662	2444.959615
834.342179	2568.467885
834.658653	2533.179808
834.975083	2515.535769
835.291469	2603.755962
835.607811	2507.974038
835.924110	2513.015192
836.240366	2485.288846
836.556578	2528.138654
836.872746	2555.865000
837.188871	2482.768269
837.504952	2470.165385
837.820990	2477.727115
838.136984	2457.562500
838.452935	2543.262115
838.768842	2490.330000
839.084706	2460.083077
839.400526	2487.809423
839.716303	2462.603654
840.032037	2490.330000
840.347727	2455.041923
840.663373	2495.371154
840.978977	2507.974038
841.294537	2460.083077
841.610054	2510.494615
841.925527	2477.727115
842.240957	2472.685962
842.556344	2523.097500
842.871687	2510.494615
843.186987	2500.412308
843.502244	2548.303269
843.817458	2470.165385
844.132629	2490.330000
844.447756	2500.412308
844.762840	2525.618077
845.077881	2502.932885
845.392879	2414.712692
845.707833	2510.494615
846.022745	2520.576923
846.337613	2412.192115
846.652438	2535.700385
846.967221	2528.138654
847.281960	2444.959615
847.596656	2530.659231
847.911309	2601.235385
848.225919	2482.768269
848.540485	2523.097500
848.855009	2467.644808
849.169490	2444.959615
849.483928	2465.124231
849.798323	2460.083077
850.112675	2515.535769
850.426984	2462.603654
850.741251	2487.809423
851.055474	2467.644808
851.369654	2429.836154
851.683792	2482.768269
851.997887	2515.535769
852.311938	2472.685962
852.625947	2573.509038
852.939914	2475.206538
853.253837	2439.918462
853.567718	2533.179808
853.881555	2500.412308
854.195350	2540.741538
854.509103	2502.932885
854.822812	2530.659231
855.136479	2490.330000
855.450103	2505.453462
855.763685	2470.165385
856.077224	2560.906154
856.390720	2480.247692
856.704173	2550.823846
857.017584	2487.809423
857.330953	2460.083077
857.644278	2570.988462
857.957561	2465.124231
858.270802	2535.700385
858.584000	2543.262115
858.897155	2465.124231
859.210268	2485.288846
859.523339	2467.644808
859.836367	2457.562500
860.149352	2505.453462
860.462295	2578.550192
860.775195	2462.603654
861.088054	2518.056346
861.400869	2507.974038
861.713642	2507.974038
862.026373	2507.974038
862.339062	2500.412308
862.651708	2467.644808
862.964312	2538.220962
863.276873	2543.262115
863.589392	2487.809423
863.901869	2510.494615
864.214303	2467.644808
864.526696	2376.904038
864.839045	2515.535769
865.151353	2502.932885
865.463619	2565.947308
865.775842	2548.303269
866.088023	2558.385577
866.400162	2422.274423
866.712258	2455.041923
867.024313	2507.974038
867.336325	2497.891731
867.648296	2523.097500
867.960224	2545.782692
868.272110	2548.303269
868.583954	2603.755962
868.895755	2467.644808
869.207515	2520.576923
869.519233	2427.315577
869.830909	2507.974038
870.142542	2505.453462
870.454134	2487.809423
870.765684	2429.836154
871.077191	2553.344423
871.388657	2457.562500
871.700081	2492.850577
872.011463	2432.356731
872.322803	2505.453462
872.634101	2444.959615
872.945357	2502.932885
873.256571	2540.741538
873.567744	2424.795000
873.878874	2457.562500
874.189963	2482.768269
874.501010	2480.247692
874.812015	2505.453462
875.122979	2507.974038
875.433900	2437.397885
875.744780	2434.877308
876.055618	2439.918462
876.366415	2533.179808
876.677169	2538.220962
876.987882	2462.603654
877.298554	2497.891731
877.609183	2429.836154
877.919771	2520.576923
878.230317	2467.644808
878.540822	2475.206538
878.851285	2487.809423
879.161707	2434.877308
879.472087	2510.494615
879.782425	2467.644808
880.092722	2462.603654
880.402977	2467.644808
880.713191	2452.521346
881.023363	2485.288846
881.333494	2502.932885
881.643583	2495.371154
881.953631	2452.521346
882.263637	2460.083077
882.573602	2497.891731
882.883526	2530.659231
883.193408	2462.603654
883.503248	2434.877308
883.813048	2465.124231
884.122806	2492.850577
884.432522	2520.576923
884.742197	2555.865000
885.051831	2477.727115
885.361424	2513.015192
885.670975	2560.906154
885.980485	2455.041923
886.289954	2563.426731
886.599382	2457.562500
886.908768	2520.576923
887.218113	2500.412308
887.527417	2432.356731
887.836680	2450.000769
888.145901	2472.685962
888.455082	2409.671538
888.764221	2490.330000
889.073319	2505.453462
889.382376	2424.795000
889.691392	2535.700385
890.000366	2465.124231
890.309300	2515.535769
890.618193	2482.768269
890.927044	2528.138654
891.235855	2513.015192
891.544625	2467.644808
891.853353	2492.850577
892.162041	2455.041923
892.470687	2392.027500
892.779293	2505.453462
893.087858	2507.974038
893.396381	2460.083077
893.704864	2432.356731
894.013306	2525.618077
894.321707	2462.603654
894.630068	2518.056346
894.938387	2495.371154
895.246665	2444.959615
895.554903	2538.220962
895.863100	2460.083077
896.171256	2573.509038
896.479371	2482.768269
896.787446	2417.233269
897.095480	2487.809423
897.403473	2460.083077
897.711425	2545.782692
898.019336	2399.589231
898.327207	2533.179808
898.635038	2492.850577
898.942827	2520.576923
899.250576	2462.603654
899.558284	2450.000769
899.865952	2565.947308
900.173579	2555.865000
900.481165	2530.659231
900.788711	2465.124231
901.096216	2475.206538
901.403681	2442.439038
901.711105	2437.397885
902.018489	2530.659231
902.325832	2487.809423
902.633135	2553.344423
902.940397	2460.083077
903.247619	2482.768269
903.554800	2389.506923
903.861941	2502.932885
904.169041	2344.136538
904.476101	2505.453462
904.783121	2560.906154
905.090100	2545.782692
905.397039	2480.247692
905.703938	2558.385577
906.010796	2467.644808
906.317614	2495.371154
906.624391	2523.097500
906.931129	2429.836154
907.237826	2467.644808
907.544483	2538.220962
907.851099	2528.138654
908.157675	2535.700385
908.464211	2475.206538
908.770707	2533.179808
909.077163	2412.192115
909.383578	2523.097500
909.689954	2467.644808
909.996289	2462.603654
910.302584	2414.712692
910.608839	2465.124231
910.915054	2550.823846
911.221229	2513.015192
911.527363	2535.700385
911.833458	2487.809423
912.139513	2462.603654
912.445527	2480.247692
912.751502	2485.288846
913.057436	2462.603654
913.363331	2543.262115
913.669186	2520.576923
913.975000	2485.288846
914.280775	2462.603654
914.586510	2510.494615
914.892205	2525.618077
915.197859	2495.371154
915.503475	2482.768269
915.809050	2510.494615
916.114585	2510.494615
916.420081	2502.932885
916.725536	2528.138654
917.030952	2530.659231
917.336328	2515.535769
917.641665	2465.124231
917.946961	2500.412308
918.252218	2417.233269
918.557435	2530.659231
918.862612	2487.809423
919.167750	2412.192115
919.472848	2555.865000
919.777906	2457.562500
920.082925	2535.700385
920.387904	2573.509038
920.692843	2460.083077
920.997743	2447.480192
921.302603	2518.056346
921.607423	2417.233269
921.912204	2530.659231
922.216946	2525.618077
922.521647	2543.262115
922.826310	2472.685962
923.130932	2477.727115
923.435516	2429.836154
923.740059	2497.891731
924.044564	2520.576923
924.349028	2525.618077
924.653454	2437.397885
924.957840	2515.535769
925.262186	2462.603654
925.566493	2500.412308
925.870761	2513.015192
926.174989	2472.685962
926.479178	2528.138654
926.783328	2470.165385
927.087438	2500.412308
927.391509	2490.330000
927.695541	2485.288846
927.999533	2502.932885
928.303486	2439.918462
928.607400	2500.412308
928.911275	2555.865000
929.215110	2513.015192
929.518906	2545.782692
929.822663	2465.124231
930.126381	2465.124231
930.430060	2533.179808
930.733699	2490.330000
931.037299	2513.015192
931.340861	2467.644808
931.644383	2523.097500
931.947866	2530.659231
932.251309	2480.247692
932.554714	2510.494615
932.858080	2477.727115
933.161407	2490.330000
933.464694	2505.453462
933.767943	2535.700385
934.071153	2450.000769
934.374323	2523.097500
934.677455	2495.371154
934.980548	2457.562500
935.283602	2392.027500
935.586617	2550.823846
935.889593	2434.877308
936.192530	2482.768269
936.495428	2487.809423
936.798287	2510.494615
937.101108	2480.247692
937.403890	2502.932885
937.706632	2570.988462
938.009336	2432.356731
938.312002	2434.877308
938.614628	2465.124231
938.917216	2460.083077
939.219765	2444.959615
939.522275	2480.247692
939.824747	2518.056346
940.127179	2432.356731
940.429573	2475.206538
940.731929	2518.056346
941.034246	2429.836154
941.336524	2528.138654
941.638763	2429.836154
941.940964	2497.891731
942.243126	2563.426731
942.545250	2455.041923
942.847335	2457.562500
943.149381	2581.070769
943.451389	2392.027500
943.753359	2525.618077
944.055290	2432.356731
944.357182	2528.138654
944.659036	2465.124231
944.960851	2560.906154
945.262628	2482.768269
945.564367	2485.288846
945.866067	2497.891731
946.167729	2442.439038
946.469352	2500.412308
946.770937	2439.918462
947.072484	2533.179808
947.373992	2507.974038
947.675462	2525.618077
947.976893	2535.700385
948.278286	2520.576923
948.579641	2470.165385
948.880958	2502.932885
949.182236	2462.603654
949.483476	2507.974038
949.784678	2414.712692
950.085841	2500.412308
950.386967	2455.041923
950.688054	2505.453462
950.989103	2553.344423
951.290114	2457.562500
951.591087	2535.700385
951.892021	2502.932885
952.192917	2467.644808
952.493776	2460.083077
952.794596	2518.056346
953.095378	2523.097500
953.396122	2540.741538
953.696828	2447.480192
953.997496	2480.247692
954.298126	2502.932885
954.598718	2540.741538
954.899272	2540.741538
955.199788	2482.768269
955.500266	2560.906154
955.800706	2475.206538
956.101108	2490.330000
956.401472	2570.988462
956.701798	2565.947308
957.002087	2515.535769
957.302337	2437.397885
957.602550	2525.618077
957.902724	2485.288846
958.202861	2528.138654
958.502960	2467.644808
958.803022	2487.809423
959.103045	2502.932885
959.403031	2513.015192
959.702979	2482.768269
960.002889	2578.550192
960.302762	2457.562500
960.602596	2555.865000
960.902393	2485.288846
961.202153	2510.494615
961.501875	2507.974038
961.801559	2427.315577
962.101205	2497.891731
962.400814	2472.685962
962.700385	2465.124231
962.999918	2417.233269
963.299414	2538.220962
963.598873	2472.685962
963.898293	2480.247692
964.197677	2528.138654
964.497022	2487.809423
964.796331	2538.220962
965.095601	2586.111923
965.394835	2475.206538
965.694030	2523.097500
965.993189	2442.439038
966.292309	2392.027500
966.591393	2412.192115
966.890439	2482.768269
967.189447	2490.330000
967.488419	2475.206538
967.787353	2570.988462
968.086249	2565.947308
968.385108	2424.795000
968.683930	2560.906154
968.982714	2462.603654
969.281462	2495.371154
969.580172	2538.220962
969.878844	2492.850577
970.177480	2490.330000
970.476078	2460.083077
970.774639	2497.891731
971.073162	2442.439038
971.371649	2490.330000
971.670098	2475.206538
971.968510	2475.206538
972.266885	2392.027500
972.565223	2450.000769
972.863524	2480.247692
973.161788	2528.138654
973.460014	2538.220962
973.758204	2505.453462
974.056356	2530.659231
974.354471	2565.947308
974.652550	2442.439038
974.950591	2457.562500
975.248595	2538.220962
975.546563	2510.494615
975.844493	2467.644808
976.142386	2480.247692
976.440243	2538.220962
976.738062	2543.262115
977.035845	2500.412308
977.333590	2402.109808
977.631299	2495.371154
977.928971	2417.233269
978.226606	2455.041923
978.524204	2470.165385
978.821765	2485.288846
979.119290	2472.685962
979.416777	2452.521346
979.714228	2523.097500
980.011642	2510.494615
980.309020	2462.603654
980.606360	2460.083077
980.903664	2495.371154
981.200931	2601.235385
981.498162	2450.000769
981.795356	2535.700385
982.092513	2485.288846
982.389633	2528.138654
982.686717	2460.083077
982.983764	2570.988462
983.280775	2563.426731
983.577749	2518.056346
983.874686	2462.603654
984.171587	2490.330000
984.468451	2480.247692
984.765279	2490.330000
985.062070	2513.015192
985.358824	2444.959615
985.655543	2439.918462
985.952224	2576.029615
986.248869	2570.988462
986.545478	2485.288846
986.842050	2477.727115
987.138586	2545.782692
987.435086	2472.685962
987.731549	2495.371154
988.027975	2417.233269
988.324366	2467.644808
988.620719	2472.685962
988.917037	2570.988462
989.213318	2513.015192
989.509563	2553.344423
989.805772	2492.850577
990.101944	2550.823846
990.398080	2495.371154
990.694180	2465.124231
990.990244	2500.412308
991.286271	2485.288846
991.582262	2414.712692
991.878217	2482.768269
992.174136	2487.809423
992.470019	2520.576923
992.765865	2513.015192
993.061676	2492.850577
993.357450	2515.535769
993.653188	2492.850577
993.948890	2490.330000
994.244556	2414.712692
994.540186	2505.453462
994.835780	2502.932885
995.131337	2560.906154
995.426859	2450.000769
995.722345	2381.945192
996.017795	2477.727115
996.313208	2505.453462
996.608586	2515.535769
996.903928	2439.918462
997.199234	2591.153077
997.494504	2487.809423
997.789738	2386.986346
998.084936	2639.044038
998.380099	2475.206538
998.675225	2485.288846
998.970316	2472.685962
999.265371	2518.056346
999.560390	2462.603654
999.855373	2392.027500
1000.150320	2507.974038
1000.445232	2535.700385
1000.740108	2467.644808
1001.034948	2470.165385
1001.329752	2515.535769
1001.624521	2442.439038
1001.919254	2502.932885
1002.213951	2518.056346
1002.508613	2490.330000
1002.803239	2381.945192
1003.097829	2409.671538
1003.392384	2530.659231
1003.686903	2462.603654
1003.981386	2565.947308
1004.275834	2460.083077
1004.570246	2460.083077
1004.864623	2444.959615
1005.158964	2455.041923
1005.453270	2523.097500
1005.747540	2374.383462
1006.041775	2460.083077
1006.335974	2457.562500
1006.630138	2467.644808
1006.924266	2460.083077
1007.218359	2492.850577
1007.512416	2520.576923
1007.806438	2457.562500
1008.100425	2452.521346
1008.394376	2424.795000
1008.688292	2434.877308
1008.982172	2535.700385
1009.276017	2507.974038
1009.569827	2540.741538
1009.863602	2497.891731
1010.157341	2477.727115
1010.451045	2502.932885
1010.744714	2497.891731
1011.038347	2515.535769
1011.331945	2437.397885
1011.625508	2482.768269
1011.919036	2485.288846
1012.212528	2507.974038
1012.505986	2502.932885
1012.799408	2482.768269
1013.092795	2505.453462
1013.386147	2497.891731
1013.679464	2412.192115
1013.972745	2550.823846
1014.265992	2460.083077
1014.559204	2518.056346
1014.852380	2452.521346
1015.145521	2455.041923
1015.438628	2520.576923
1015.731699	2515.535769
1016.024736	2492.850577
1016.317737	2465.124231
1016.610703	2397.068654
1016.903635	2434.877308
1017.196531	2487.809423
1017.489393	2404.630385
1017.782219	2492.850577
1018.075011	2492.850577
1018.367768	2538.220962
1018.660490	2477.727115
1018.953177	2477.727115
1019.245829	2477.727115
