Dividing Wavelength (nm)	Counts (n)	Blue Motor Position (mm): 5.900000	Red Motor Position (mm): 0.000000	
326.493990	2127.366923
326.888308	2127.366923
327.282561	2127.366923
327.676750	2071.914231
328.070874	2061.831923
328.464933	2031.585000
328.858929	2150.052115
329.252859	2044.187885
329.646726	2084.517115
330.040528	2099.640577
330.434265	2104.681731
330.827938	2122.325769
331.221547	2185.340192
331.615091	2150.052115
332.008571	2213.066538
332.401986	2190.381346
332.795338	2165.175577
333.188625	2230.710577
333.581847	2202.984231
333.975006	2265.998654
334.368100	2162.655000
334.761129	2316.410192
335.154095	2364.301154
335.546996	2311.369038
335.939833	2271.039808
336.332606	2351.698269
336.725315	2497.891731
337.117960	2447.480192
337.510540	2429.836154
337.903056	2434.877308
338.295508	2384.465769
338.687896	2356.739423
339.080220	2417.233269
339.472480	2424.795000
339.864676	2412.192115
340.256807	2502.932885
340.648875	2447.480192
341.040879	2432.356731
341.432818	2402.109808
341.824694	2429.836154
342.216506	2439.918462
342.608253	2457.562500
342.999937	2470.165385
343.391557	2505.453462
343.783113	2465.124231
344.174605	2490.330000
344.566033	2432.356731
344.957397	2530.659231
345.348697	2442.439038
345.739934	2513.015192
346.131106	2495.371154
346.522215	2515.535769
346.913260	2475.206538
347.304241	2500.412308
347.695159	2394.548077
348.086012	2518.056346
348.476802	2432.356731
348.867528	2462.603654
349.258191	2455.041923
349.648789	2507.974038
350.039324	2417.233269
350.429796	2470.165385
350.820203	2384.465769
351.210548	2452.521346
351.600828	2447.480192
351.991045	2533.179808
352.381198	2455.041923
352.771288	2467.644808
353.161314	2520.576923
353.551276	2533.179808
353.941175	2384.465769
354.331010	2417.233269
354.720782	2371.862885
355.110490	2480.247692
355.500135	2480.247692
355.889717	2452.521346
356.279235	2487.809423
356.668689	2424.795000
357.058080	2515.535769
357.447408	2439.918462
357.836672	2495.371154
358.225873	2472.685962
358.615010	2462.603654
359.004084	2361.780577
359.393095	2485.288846
359.782043	2462.603654
360.170927	2460.083077
360.559748	2470.165385
360.948505	2480.247692
361.337199	2417.233269
361.725830	2434.877308
362.114398	2439.918462
362.502903	2384.465769
362.891344	2419.753846
363.279722	2447.480192
363.668037	2452.521346
364.056289	2470.165385
364.444478	2427.315577
364.832603	2419.753846
365.220665	2402.109808
365.608665	2450.000769
365.996601	2480.247692
366.384474	2477.727115
366.772284	2409.671538
367.160031	2434.877308
367.547715	2490.330000
367.935336	2530.659231
368.322893	2457.562500
368.710388	2525.618077
369.097820	2543.262115
369.485189	2485.288846
369.872495	2399.589231
370.259738	2381.945192
370.646918	2407.150962
371.034035	2495.371154
371.421090	2442.439038
371.808081	2429.836154
372.195010	2409.671538
372.581875	2467.644808
372.968678	2417.233269
373.355418	2465.124231
373.742096	2455.041923
374.128710	2419.753846
374.515262	2457.562500
374.901751	2482.768269
375.288177	2507.974038
375.674540	2513.015192
376.060841	2450.000769
376.447079	2417.233269
376.833254	2485.288846
377.219367	2462.603654
377.605417	2505.453462
377.991404	2475.206538
378.377329	2492.850577
378.763191	2558.385577
379.148991	2525.618077
379.534727	2422.274423
379.920402	2518.056346
380.306013	2419.753846
380.691563	2402.109808
381.077049	2462.603654
381.462474	2419.753846
381.847835	2472.685962
382.233134	2434.877308
382.618371	2540.741538
383.003545	2424.795000
383.388657	2490.330000
383.773706	2429.836154
384.158693	2472.685962
384.543618	2374.383462
384.928480	2528.138654
385.313280	2419.753846
385.698017	2455.041923
386.082692	2444.959615
386.467305	2487.809423
386.851856	2386.986346
387.236344	2505.453462
387.620770	2548.303269
388.005133	2497.891731
388.389435	2447.480192
388.773674	2502.932885
389.157851	2477.727115
389.541965	2492.850577
389.926018	2467.644808
390.310008	2497.891731
390.693936	2419.753846
391.077802	2477.727115
391.461606	2439.918462
391.845348	2402.109808
392.229027	2437.397885
392.612645	2349.177692
392.996200	2381.945192
393.379694	2470.165385
393.763125	2475.206538
394.146494	2467.644808
394.529801	2424.795000
394.913047	2429.836154
395.296230	2495.371154
395.679351	2507.974038
396.062410	2457.562500
396.445408	2386.986346
396.828343	2475.206538
397.211217	2492.850577
397.594028	2507.974038
397.976778	2432.356731
398.359466	2381.945192
398.742092	2467.644808
399.124656	2434.877308
399.507158	2447.480192
399.889598	2439.918462
400.271977	2495.371154
400.654294	2407.150962
401.036549	2548.303269
401.418742	2528.138654
401.800874	2530.659231
402.182944	2422.274423
402.564952	2563.426731
402.946898	2432.356731
403.328783	2492.850577
403.710606	2485.288846
404.092367	2525.618077
404.474067	2429.836154
404.855705	2475.206538
405.237282	2475.206538
405.618797	2452.521346
406.000250	2417.233269
406.381642	2490.330000
406.762972	2558.385577
407.144240	2487.809423
407.525447	2460.083077
407.906593	2472.685962
408.287677	2409.671538
408.668700	2507.974038
409.049661	2507.974038
409.430560	2510.494615
409.811399	2495.371154
410.192176	2439.918462
410.572891	2341.615962
410.953545	2432.356731
411.334138	2535.700385
411.714669	2538.220962
412.095139	2450.000769
412.475547	2540.741538
412.855894	2424.795000
413.236180	2487.809423
413.616405	2507.974038
413.996568	2495.371154
414.376670	2505.453462
414.756711	2482.768269
415.136691	2563.426731
415.516609	2538.220962
415.896466	2477.727115
416.276262	2482.768269
416.655997	2439.918462
417.035670	2560.906154
417.415283	2492.850577
417.794834	2497.891731
418.174324	2475.206538
418.553753	2480.247692
418.933121	2455.041923
419.312428	2500.412308
419.691674	2452.521346
420.070859	2502.932885
420.449983	2475.206538
420.829045	2432.356731
421.208047	2475.206538
421.586988	2409.671538
421.965867	2480.247692
422.344686	2467.644808
422.723444	2525.618077
423.102141	2452.521346
423.480777	2490.330000
423.859352	2505.453462
424.237866	2492.850577
424.616319	2427.315577
424.994712	2550.823846
425.373044	2439.918462
425.751314	2507.974038
426.129524	2419.753846
426.507673	2533.179808
426.885762	2485.288846
427.263789	2515.535769
427.641756	2523.097500
428.019662	2525.618077
428.397508	2439.918462
428.775292	2502.932885
429.153016	2487.809423
429.530679	2500.412308
429.908282	2533.179808
430.285824	2404.630385
430.663305	2455.041923
431.040726	2523.097500
431.418086	2495.371154
431.795385	2439.918462
432.172624	2407.150962
432.549802	2437.397885
432.926920	2490.330000
433.303977	2513.015192
433.680974	2485.288846
434.057910	2507.974038
434.434786	2518.056346
434.811601	2515.535769
435.188355	2525.618077
435.565050	2442.439038
435.941683	2507.974038
436.318257	2427.315577
436.694770	2462.603654
437.071222	2487.809423
437.447614	2545.782692
437.823946	2457.562500
438.200218	2538.220962
438.576429	2434.877308
438.952580	2412.192115
439.328670	2437.397885
439.704700	2477.727115
440.080670	2432.356731
440.456580	2432.356731
440.832429	2444.959615
441.208218	2417.233269
441.583947	2422.274423
441.959616	2505.453462
442.335224	2530.659231
442.710773	2472.685962
443.086261	2507.974038
443.461689	2485.288846
443.837057	2523.097500
444.212365	2424.795000
444.587612	2495.371154
444.962800	2548.303269
445.337927	2578.550192
445.712995	2444.959615
446.088002	2563.426731
446.462949	2447.480192
446.837837	2558.385577
447.212664	2513.015192
447.587431	2427.315577
447.962139	2545.782692
448.336786	2548.303269
448.711374	2482.768269
449.085901	2444.959615
449.460369	2492.850577
449.834776	2558.385577
450.209124	2538.220962
450.583412	2490.330000
450.957640	2427.315577
451.331808	2535.700385
451.705917	2482.768269
452.079965	2447.480192
452.453954	2465.124231
452.827883	2588.632500
453.201752	2563.426731
453.575562	2485.288846
453.949311	2497.891731
454.323001	2422.274423
454.696632	2518.056346
455.070202	2535.700385
455.443713	2487.809423
455.817164	2447.480192
456.190556	2576.029615
456.563888	2492.850577
456.937160	2482.768269
457.310373	2558.385577
457.683526	2573.509038
458.056619	2452.521346
458.429653	2475.206538
458.802628	2505.453462
459.175542	2538.220962
459.548398	2404.630385
459.921194	2515.535769
460.293930	2528.138654
460.666607	2487.809423
461.039224	2442.439038
461.411782	2502.932885
461.784280	2618.879423
462.156719	2457.562500
462.529099	2507.974038
462.901419	2404.630385
463.273680	2525.618077
463.645882	2432.356731
464.018024	2507.974038
464.390106	2417.233269
464.762130	2422.274423
465.134094	2452.521346
465.505999	2434.877308
465.877845	2518.056346
466.249631	2427.315577
466.621358	2525.618077
466.993026	2500.412308
467.364634	2482.768269
467.736184	2417.233269
468.107674	2437.397885
468.479105	2447.480192
468.850477	2586.111923
469.221790	2520.576923
469.593043	2543.262115
469.964238	2397.068654
470.335373	2482.768269
470.706449	2492.850577
471.077467	2495.371154
471.448425	2586.111923
471.819324	2513.015192
472.190164	2555.865000
472.560945	2444.959615
472.931667	2497.891731
473.302330	2432.356731
473.672934	2465.124231
474.043479	2442.439038
474.413965	2492.850577
474.784393	2467.644808
475.154761	2500.412308
475.525070	2513.015192
475.895321	2525.618077
476.265513	2470.165385
476.635645	2553.344423
477.005719	2535.700385
477.375734	2540.741538
477.745691	2361.780577
478.115588	2515.535769
478.485427	2465.124231
478.855207	2417.233269
479.224928	2535.700385
479.594591	2510.494615
479.964194	2427.315577
480.333739	2507.974038
480.703226	2588.632500
481.072653	2492.850577
481.442022	2500.412308
481.811333	2427.315577
482.180584	2462.603654
482.549777	2528.138654
482.918912	2465.124231
483.287988	2525.618077
483.657005	2497.891731
484.025964	2495.371154
484.394864	2417.233269
484.763706	2497.891731
485.132489	2447.480192
485.501213	2558.385577
485.869879	2467.644808
486.238487	2528.138654
486.607036	2543.262115
486.975527	2563.426731
487.343959	2467.644808
487.712333	2482.768269
488.080648	2528.138654
488.448905	2606.276538
488.817104	2520.576923
489.185244	2543.262115
489.553326	2500.412308
489.921350	2548.303269
490.289315	2437.397885
490.657222	2399.589231
491.025070	2495.371154
491.392861	2409.671538
491.760593	2487.809423
492.128267	2457.562500
492.495883	2495.371154
492.863440	2407.150962
493.230939	2535.700385
493.598380	2548.303269
493.965763	2588.632500
494.333088	2467.644808
494.700354	2472.685962
495.067563	2563.426731
495.434713	2437.397885
495.801805	2558.385577
496.168839	2533.179808
496.535815	2495.371154
496.902733	2515.535769
497.269593	2523.097500
497.636395	2563.426731
498.003139	2470.165385
498.369825	2462.603654
498.736453	2437.397885
499.103023	2495.371154
499.469535	2500.412308
499.835989	2560.906154
500.202385	2576.029615
500.568723	2523.097500
500.935003	2507.974038
501.301226	2535.700385
501.667390	2394.548077
502.033497	2507.974038
502.399546	2444.959615
502.765537	2472.685962
503.131470	2472.685962
503.497345	2457.562500
503.863163	2513.015192
504.228923	2457.562500
504.594625	2545.782692
504.960269	2414.712692
505.325856	2558.385577
505.691385	2500.412308
506.056856	2442.439038
506.422270	2467.644808
506.787625	2462.603654
507.152924	2502.932885
507.518164	2465.124231
507.883347	2550.823846
508.248472	2548.303269
508.613540	2535.700385
508.978550	2530.659231
509.343503	2467.644808
509.708398	2510.494615
510.073236	2518.056346
510.438016	2427.315577
510.802738	2399.589231
511.167403	2462.603654
511.532010	2555.865000
511.896561	2507.974038
512.261053	2513.015192
512.625488	2465.124231
512.989866	2510.494615
513.354186	2548.303269
513.718449	2412.192115
514.082655	2480.247692
514.446803	2528.138654
514.810894	2555.865000
515.174927	2507.974038
515.538904	2485.288846
515.902822	2424.795000
516.266684	2462.603654
516.630488	2437.397885
516.994235	2497.891731
517.357925	2497.891731
517.721558	2482.768269
518.085133	2409.671538
518.448651	2397.068654
518.812112	2437.397885
519.175516	2482.768269
519.538863	2576.029615
519.902152	2460.083077
520.265385	2497.891731
520.628560	2427.315577
520.991678	2470.165385
521.354739	2543.262115
521.717743	2480.247692
522.080690	2487.809423
522.443580	2457.562500
522.806413	2530.659231
523.169189	2540.741538
523.531908	2434.877308
523.894569	2507.974038
524.257174	2502.932885
524.619722	2424.795000
524.982213	2505.453462
525.344647	2462.603654
525.707025	2543.262115
526.069345	2611.317692
526.431608	2538.220962
526.793815	2533.179808
527.155964	2394.548077
527.518057	2515.535769
527.880093	2450.000769
528.242072	2432.356731
528.603995	2485.288846
528.965860	2497.891731
529.327669	2573.509038
529.689421	2429.836154
530.051117	2530.659231
530.412755	2543.262115
530.774337	2487.809423
531.135862	2419.753846
531.497331	2505.453462
531.858743	2409.671538
532.220098	2414.712692
532.581396	2578.550192
532.942638	2475.206538
533.303824	2467.644808
533.664953	2490.330000
534.026025	2513.015192
534.387040	2472.685962
534.747999	2518.056346
535.108902	2482.768269
535.469748	2535.700385
535.830537	2545.782692
536.191270	2439.918462
536.551947	2518.056346
536.912567	2510.494615
537.273131	2487.809423
537.633638	2543.262115
537.994089	2520.576923
538.354483	2558.385577
538.714821	2419.753846
539.075103	2507.974038
539.435328	2429.836154
539.795497	2520.576923
540.155609	2513.015192
540.515665	2525.618077
540.875665	2603.755962
541.235609	2475.206538
541.595496	2510.494615
541.955328	2470.165385
542.315102	2462.603654
542.674821	2520.576923
543.034483	2528.138654
543.394090	2480.247692
543.753640	2465.124231
544.113134	2565.947308
544.472571	2535.700385
544.831953	2482.768269
545.191278	2550.823846
545.550548	2492.850577
545.909761	2487.809423
546.268918	2507.974038
546.628019	2555.865000
546.987064	2510.494615
547.346053	2550.823846
547.704986	2427.315577
548.063863	2513.015192
548.422684	2482.768269
548.781449	2505.453462
549.140158	2581.070769
549.498811	2533.179808
549.857408	2515.535769
550.215949	2439.918462
550.574434	2518.056346
550.932864	2510.494615
551.291237	2495.371154
551.649555	2462.603654
552.007817	2424.795000
552.366022	2502.932885
552.724173	2439.918462
553.082267	2523.097500
553.440305	2460.083077
553.798288	2452.521346
554.156215	2460.083077
554.514086	2540.741538
554.871902	2429.836154
555.229661	2530.659231
555.587365	2475.206538
555.945014	2424.795000
556.302606	2485.288846
556.660143	2535.700385
557.017625	2475.206538
557.375050	2487.809423
557.732421	2568.467885
558.089735	2427.315577
558.446994	2452.521346
558.804197	2502.932885
559.161345	2502.932885
559.518437	2523.097500
559.875474	2462.603654
560.232455	2560.906154
560.589381	2515.535769
560.946251	2581.070769
561.303065	2465.124231
561.659825	2475.206538
562.016528	2505.453462
562.373177	2528.138654
562.729770	2465.124231
563.086307	2518.056346
563.442789	2563.426731
563.799216	2452.521346
564.155587	2462.603654
564.511904	2437.397885
564.868164	2558.385577
565.224370	2485.288846
565.580520	2455.041923
565.936615	2475.206538
566.292654	2462.603654
566.648638	2452.521346
567.004567	2543.262115
567.360441	2477.727115
567.716260	2558.385577
568.072023	2555.865000
568.427732	2560.906154
568.783385	2414.712692
569.138982	2492.850577
569.494525	2467.644808
569.850013	2492.850577
570.205445	2505.453462
570.560823	2457.562500
570.916145	2485.288846
571.271412	2462.603654
571.626625	2500.412308
571.981782	2432.356731
572.336884	2553.344423
572.691931	2432.356731
573.046923	2550.823846
573.401860	2485.288846
573.756743	2485.288846
574.111570	2581.070769
574.466342	2510.494615
574.821059	2429.836154
575.175722	2422.274423
575.530330	2472.685962
575.884882	2540.741538
576.239380	2560.906154
576.593823	2364.301154
576.948211	2490.330000
577.302544	2520.576923
577.656823	2581.070769
578.011047	2490.330000
578.365216	2487.809423
578.719330	2470.165385
579.073389	2480.247692
579.427394	2500.412308
579.781344	2550.823846
580.135239	2477.727115
580.489080	2525.618077
580.842866	2465.124231
581.196597	2460.083077
581.550273	2510.494615
581.903895	2507.974038
582.257463	2573.509038
582.610975	2492.850577
582.964434	2515.535769
583.317837	2515.535769
583.671186	2588.632500
584.024481	2565.947308
584.377721	2450.000769
584.730906	2467.644808
585.084037	2558.385577
585.437113	2523.097500
585.790135	2487.809423
586.143103	2500.412308
586.496016	2518.056346
586.848874	2487.809423
587.201679	2470.165385
587.554428	2447.480192
587.907124	2510.494615
588.259765	2513.015192
588.612352	2472.685962
588.964884	2439.918462
589.317362	2452.521346
589.669786	2565.947308
590.022155	2495.371154
590.374470	2495.371154
590.726731	2515.535769
591.078937	2490.330000
591.431090	2523.097500
591.783188	2528.138654
592.135232	2502.932885
592.487222	2487.809423
592.839157	2515.535769
593.191038	2505.453462
593.542866	2487.809423
593.894639	2439.918462
594.246358	2492.850577
594.598022	2538.220962
594.949633	2417.233269
595.301190	2477.727115
595.652692	2570.988462
596.004141	2535.700385
596.355535	2462.603654
596.706876	2518.056346
597.058162	2457.562500
597.409395	2530.659231
597.760573	2432.356731
598.111698	2470.165385
598.462768	2548.303269
598.813785	2573.509038
599.164748	2460.083077
599.515657	2434.877308
599.866511	2434.877308
600.217312	2482.768269
600.568060	2485.288846
600.918753	2540.741538
601.269392	2568.467885
601.619978	2502.932885
601.970510	2510.494615
602.320988	2487.809423
602.671412	2490.330000
603.021783	2553.344423
603.372100	2510.494615
603.722363	2586.111923
604.072572	2502.932885
604.422728	2560.906154
604.772830	2505.453462
605.122878	2596.194231
605.472872	2523.097500
605.822813	2470.165385
606.172701	2500.412308
606.522534	2518.056346
606.872314	2437.397885
607.222041	2525.618077
607.571714	2439.918462
607.921333	2515.535769
608.270899	2507.974038
608.620411	2462.603654
608.969870	2513.015192
609.319276	2470.165385
609.668627	2497.891731
610.017926	2477.727115
610.367171	2444.959615
610.716362	2505.453462
611.065500	2530.659231
611.414585	2482.768269
611.763616	2538.220962
612.112594	2528.138654
612.461518	2467.644808
612.810389	2460.083077
613.159207	2424.795000
613.507971	2462.603654
613.856682	2543.262115
614.205340	2553.344423
614.553945	2450.000769
614.902496	2502.932885
615.250994	2500.412308
615.599439	2576.029615
615.947830	2485.288846
616.296169	2485.288846
616.644454	2490.330000
616.992686	2419.753846
617.340864	2462.603654
617.688990	2462.603654
618.037063	2583.591346
618.385082	2525.618077
618.733048	2530.659231
619.080961	2510.494615
619.428821	2475.206538
619.776628	2389.506923
620.124382	2472.685962
620.472083	2510.494615
620.819731	2555.865000
621.167326	2523.097500
621.514868	2525.618077
621.862357	2570.988462
622.209793	2485.288846
622.557176	2507.974038
622.904506	2525.618077
623.251783	2422.274423
623.599007	2550.823846
623.946179	2553.344423
624.293297	2533.179808
624.640363	2442.439038
624.987376	2470.165385
625.334336	2455.041923
625.681243	2495.371154
626.028097	2470.165385
626.374899	2495.371154
626.721647	2485.288846
627.068343	2578.550192
627.414987	2477.727115
627.761577	2525.618077
628.108115	2513.015192
628.454600	2583.591346
628.801032	2538.220962
629.147412	2482.768269
629.493739	2533.179808
629.840014	2480.247692
630.186236	2475.206538
630.532405	2523.097500
630.878521	2500.412308
631.224585	2570.988462
631.570597	2439.918462
631.916556	2507.974038
632.262462	2535.700385
632.608316	2475.206538
632.954117	2450.000769
633.299866	2500.412308
633.645562	2487.809423
633.991206	2507.974038
634.336797	2487.809423
634.682336	2490.330000
635.027823	2495.371154
635.373257	2548.303269
635.718639	2553.344423
636.063968	2452.521346
636.409245	2475.206538
636.754470	2447.480192
637.099642	2568.467885
637.444762	2369.342308
637.789829	2560.906154
638.134845	2457.562500
638.479808	2548.303269
638.824719	2502.932885
639.169577	2505.453462
639.514383	2429.836154
639.859137	2502.932885
640.203839	2472.685962
640.548489	2490.330000
640.893086	2502.932885
641.237632	2414.712692
641.582125	2560.906154
641.926566	2470.165385
642.270955	2510.494615
642.615292	2485.288846
642.959576	2507.974038
643.303809	2565.947308
643.647990	2439.918462
643.992118	2485.288846
644.336195	2452.521346
644.680219	2462.603654
645.024192	2442.439038
645.368112	2540.741538
645.711981	2487.809423
646.055797	2530.659231
646.399562	2515.535769
646.743274	2475.206538
647.086935	2439.918462
647.430544	2578.550192
647.774101	2480.247692
648.117606	2467.644808
648.461059	2457.562500
648.804460	2439.918462
649.147810	2477.727115
649.491108	2475.206538
649.834354	2513.015192
650.177548	2533.179808
650.520690	2490.330000
650.863781	2502.932885
651.206820	2502.932885
651.549807	2444.959615
651.892742	2570.988462
652.235626	2545.782692
652.578458	2550.823846
652.921238	2414.712692
653.263967	2543.262115
653.606644	2535.700385
653.949269	2462.603654
654.291843	2596.194231
654.634365	2558.385577
654.976836	2515.535769
655.319255	2502.932885
655.661622	2510.494615
656.003938	2538.220962
656.346203	2477.727115
656.688416	2497.891731
657.030577	2515.535769
657.372687	2455.041923
657.714746	2412.192115
658.056753	2402.109808
658.398708	2538.220962
658.740612	2467.644808
659.082465	2462.603654
659.424266	2465.124231
659.766016	2460.083077
660.107715	2583.591346
660.449362	2533.179808
660.790958	2500.412308
661.132503	2492.850577
661.473996	2540.741538
661.815438	2490.330000
662.156829	2525.618077
662.498168	2470.165385
662.839456	2520.576923
663.180693	2490.330000
663.521879	2535.700385
663.863013	2432.356731
664.204097	2500.412308
664.545129	2434.877308
664.886110	2455.041923
665.227040	2482.768269
665.567918	2530.659231
665.908746	2505.453462
666.249522	2523.097500
666.590248	2477.727115
666.930922	2475.206538
667.271545	2439.918462
667.612118	2588.632500
667.952639	2450.000769
668.293109	2487.809423
668.633528	2427.315577
668.973896	2515.535769
669.314213	2548.303269
669.654480	2500.412308
669.994695	2467.644808
670.334859	2487.809423
670.674973	2502.932885
671.015035	2432.356731
671.355047	2535.700385
671.695008	2447.480192
672.034918	2497.891731
672.374777	2429.836154
672.714585	2515.535769
673.054342	2513.015192
673.394049	2477.727115
673.733705	2518.056346
674.073310	2379.424615
674.412864	2518.056346
674.752368	2465.124231
675.091820	2538.220962
675.431223	2442.439038
675.770574	2480.247692
676.109875	2457.562500
676.449125	2472.685962
676.788324	2467.644808
677.127473	2581.070769
677.466571	2515.535769
677.805619	2477.727115
678.144616	2465.124231
678.483562	2462.603654
678.822458	2515.535769
679.161303	2492.850577
679.500098	2432.356731
679.838842	2502.932885
680.177535	2465.124231
680.516179	2442.439038
680.854771	2540.741538
681.193314	2525.618077
681.531805	2525.618077
681.870247	2507.974038
682.208638	2515.535769
682.546978	2480.247692
682.885268	2472.685962
683.223508	2523.097500
683.561697	2467.644808
683.899836	2507.974038
684.237925	2550.823846
684.575963	2500.412308
684.913951	2540.741538
685.251889	2548.303269
685.589776	2492.850577
685.927614	2581.070769
686.265401	2444.959615
686.603137	2530.659231
686.940824	2507.974038
687.278460	2460.083077
687.616046	2581.070769
687.953582	2447.480192
688.291068	2505.453462
688.628504	2457.562500
688.965889	2540.741538
689.303224	2550.823846
689.640510	2447.480192
689.977745	2502.932885
690.314930	2502.932885
690.652065	2470.165385
690.989150	2560.906154
691.326185	2472.685962
691.663170	2535.700385
692.000105	2409.671538
692.336990	2510.494615
692.673825	2450.000769
693.010610	2535.700385
693.347345	2467.644808
693.684030	2525.618077
694.020665	2404.630385
694.357251	2530.659231
694.693786	2543.262115
695.030272	2518.056346
695.366707	2538.220962
695.703093	2502.932885
696.039429	2510.494615
696.375716	2550.823846
696.711952	2593.673654
697.048139	2497.891731
697.384276	2535.700385
697.720363	2495.371154
698.056400	2470.165385
698.392388	2455.041923
698.728326	2487.809423
699.064214	2472.685962
699.400053	2528.138654
699.735842	2444.959615
700.071581	2502.932885
700.407270	2472.685962
700.742910	2520.576923
701.078501	2563.426731
701.414042	2548.303269
701.749533	2490.330000
702.084974	2500.412308
702.420366	2535.700385
702.755709	2550.823846
703.091002	2477.727115
703.426246	2540.741538
703.761440	2500.412308
704.096584	2538.220962
704.431679	2550.823846
704.766725	2482.768269
705.101721	2520.576923
705.436668	2500.412308
705.771565	2558.385577
706.106413	2565.947308
706.441212	2495.371154
706.775961	2424.795000
707.110661	2555.865000
707.445311	2487.809423
707.779913	2543.262115
708.114465	2462.603654
708.448967	2507.974038
708.783421	2462.603654
709.117825	2528.138654
709.452180	2565.947308
709.786485	2535.700385
710.120742	2467.644808
710.454949	2470.165385
710.789107	2472.685962
711.123216	2528.138654
711.457275	2487.809423
711.791286	2487.809423
712.125247	2515.535769
712.459159	2470.165385
712.793023	2467.644808
713.126837	2533.179808
713.460602	2513.015192
713.794318	2502.932885
714.127985	2515.535769
714.461602	2568.467885
714.795171	2515.535769
715.128691	2470.165385
715.462162	2460.083077
715.795584	2518.056346
716.128957	2457.562500
716.462281	2563.426731
716.795556	2424.795000
717.128782	2591.153077
717.461960	2518.056346
717.795088	2513.015192
718.128167	2500.412308
718.461198	2497.891731
718.794180	2510.494615
719.127113	2452.521346
719.459997	2565.947308
719.792833	2450.000769
720.125619	2507.974038
720.458357	2490.330000
720.791046	2485.288846
721.123686	2492.850577
721.456278	2500.412308
721.788821	2482.768269
722.121315	2500.412308
722.453761	2563.426731
722.786158	2429.836154
723.118506	2505.453462
723.450805	2520.576923
723.783056	2465.124231
724.115259	2495.371154
724.447412	2550.823846
724.779518	2452.521346
725.111574	2439.918462
725.443582	2487.809423
725.775542	2447.480192
726.107453	2505.453462
726.439315	2465.124231
726.771129	2525.618077
727.102895	2437.397885
727.434612	2422.274423
727.766281	2563.426731
728.097901	2462.603654
728.429473	2553.344423
728.760996	2477.727115
729.092471	2480.247692
729.423897	2505.453462
729.755276	2525.618077
730.086606	2455.041923
730.417887	2462.603654
730.749120	2434.877308
731.080305	2523.097500
731.411442	2487.809423
731.742530	2507.974038
732.073570	2581.070769
732.404562	2422.274423
732.735506	2550.823846
733.066401	2452.521346
733.397249	2523.097500
733.728048	2374.383462
734.058798	2475.206538
734.389501	2485.288846
734.720156	2480.247692
735.050762	2540.741538
735.381320	2482.768269
735.711831	2507.974038
736.042293	2422.274423
736.372707	2465.124231
736.703073	2530.659231
737.033391	2465.124231
737.363661	2492.850577
737.693883	2540.741538
738.024056	2437.397885
738.354182	2540.741538
738.684260	2452.521346
739.014290	2596.194231
739.344272	2485.288846
739.674207	2442.439038
740.004093	2550.823846
740.333931	2495.371154
740.663722	2457.562500
740.993464	2482.768269
741.323159	2450.000769
741.652806	2439.918462
741.982405	2492.850577
742.311956	2553.344423
742.641460	2439.918462
742.970915	2409.671538
743.300323	2434.877308
743.629683	2510.494615
743.958996	2490.330000
744.288260	2470.165385
744.617477	2429.836154
744.946647	2477.727115
745.275768	2475.206538
745.604842	2515.535769
745.933869	2434.877308
746.262847	2424.795000
746.591778	2533.179808
746.920662	2457.562500
747.249498	2543.262115
747.578286	2548.303269
747.907027	2422.274423
748.235720	2455.041923
748.564365	2482.768269
748.892963	2460.083077
749.221514	2578.550192
749.550017	2525.618077
749.878473	2558.385577
750.206881	2455.041923
750.535242	2520.576923
750.863555	2507.974038
751.191821	2497.891731
751.520039	2533.179808
751.848210	2548.303269
752.176334	2450.000769
752.504411	2442.439038
752.832440	2513.015192
753.160421	2525.618077
753.488356	2507.974038
753.816243	2419.753846
754.144082	2505.453462
754.471875	2591.153077
754.799620	2513.015192
755.127318	2442.439038
755.454969	2439.918462
755.782572	2523.097500
756.110129	2465.124231
756.437638	2565.947308
756.765100	2581.070769
757.092515	2500.412308
757.419882	2545.782692
757.747203	2553.344423
758.074477	2518.056346
758.401703	2535.700385
758.728882	2495.371154
759.056014	2477.727115
759.383099	2510.494615
759.710138	2528.138654
760.037129	2492.850577
760.364073	2402.109808
760.690970	2523.097500
761.017820	2576.029615
761.344623	2518.056346
761.671379	2520.576923
761.998088	2455.041923
762.324751	2540.741538
762.651366	2518.056346
762.977935	2518.056346
763.304456	2450.000769
763.630931	2553.344423
763.957359	2475.206538
764.283740	2482.768269
764.610074	2518.056346
764.936362	2555.865000
765.262602	2450.000769
765.588796	2487.809423
765.914943	2520.576923
766.241044	2568.467885
766.567097	2452.521346
766.893104	2444.959615
767.219064	2392.027500
767.544978	2495.371154
767.870845	2432.356731
768.196665	2500.412308
768.522438	2452.521346
768.848165	2565.947308
769.173846	2457.562500
769.499479	2490.330000
769.825066	2480.247692
770.150607	2485.288846
770.476101	2467.644808
770.801548	2472.685962
771.126949	2515.535769
771.452303	2444.959615
771.777611	2452.521346
772.102872	2447.480192
772.428087	2525.618077
772.753256	2548.303269
773.078378	2482.768269
773.403453	2429.836154
773.728482	2452.521346
774.053465	2533.179808
774.378401	2513.015192
774.703291	2550.823846
775.028135	2520.576923
775.352932	2455.041923
775.677683	2429.836154
776.002388	2530.659231
776.327046	2530.659231
776.651658	2525.618077
776.976224	2462.603654
777.300743	2555.865000
777.625216	2490.330000
777.949643	2505.453462
778.274024	2427.315577
778.598359	2525.618077
778.922647	2437.397885
779.246889	2444.959615
779.571086	2507.974038
779.895236	2442.439038
780.219339	2482.768269
780.543397	2573.509038
780.867409	2492.850577
781.191374	2518.056346
781.515294	2455.041923
781.839167	2424.795000
782.162995	2465.124231
782.486776	2500.412308
782.810511	2467.644808
783.134201	2507.974038
783.457844	2553.344423
783.781441	2583.591346
784.104993	2485.288846
784.428498	2573.509038
784.751958	2402.109808
785.075372	2500.412308
785.398739	2515.535769
785.722061	2472.685962
786.045337	2455.041923
786.368568	2475.206538
786.691752	2535.700385
787.014891	2523.097500
787.337983	2520.576923
787.661030	2513.015192
787.984031	2467.644808
788.306987	2432.356731
788.629897	2510.494615
788.952760	2570.988462
789.275579	2535.700385
789.598351	2563.426731
789.921078	2485.288846
790.243759	2404.630385
790.566395	2455.041923
790.888984	2513.015192
791.211529	2505.453462
791.534027	2447.480192
791.856480	2487.809423
792.178888	2412.192115
792.501249	2439.918462
792.823566	2467.644808
793.145836	2523.097500
793.468062	2568.467885
793.790241	2490.330000
794.112375	2450.000769
794.434464	2533.179808
794.756507	2429.836154
795.078505	2432.356731
795.400457	2495.371154
795.722364	2495.371154
796.044226	2429.836154
796.366042	2490.330000
796.687812	2495.371154
797.009538	2492.850577
797.331218	2457.562500
797.652852	2550.823846
797.974442	2500.412308
798.295986	2407.150962
798.617484	2485.288846
798.938938	2462.603654
799.260346	2490.330000
799.581709	2510.494615
799.903026	2528.138654
800.224299	2497.891731
800.545526	2450.000769
800.866708	2460.083077
801.187845	2455.041923
801.508936	2523.097500
801.829983	2518.056346
802.150984	2434.877308
802.471940	2550.823846
802.792851	2543.262115
803.113717	2525.618077
803.434538	2492.850577
803.755314	2568.467885
804.076045	2475.206538
804.396731	2530.659231
804.717372	2442.439038
805.037967	2525.618077
805.358518	2507.974038
805.679024	2513.015192
805.999485	2414.712692
806.319901	2510.494615
806.640272	2513.015192
806.960598	2462.603654
807.280879	2500.412308
807.601115	2487.809423
807.921306	2429.836154
808.241453	2535.700385
808.561554	2505.453462
808.881611	2439.918462
809.201623	2507.974038
809.521590	2455.041923
809.841513	2482.768269
810.161390	2497.891731
810.481223	2515.535769
810.801011	2523.097500
811.120755	2467.644808
811.440453	2515.535769
811.760107	2472.685962
812.079716	2427.315577
812.399281	2460.083077
812.718801	2558.385577
813.038276	2528.138654
813.357707	2409.671538
813.677093	2487.809423
813.996434	2460.083077
814.315731	2467.644808
814.634983	2462.603654
814.954191	2465.124231
815.273354	2533.179808
815.592473	2475.206538
815.911547	2518.056346
816.230577	2505.453462
816.549562	2427.315577
816.868502	2444.959615
817.187399	2487.809423
817.506250	2538.220962
817.825058	2507.974038
818.143821	2507.974038
818.462539	2497.891731
818.781213	2507.974038
819.099843	2497.891731
819.418429	2482.768269
819.736970	2472.685962
820.055466	2548.303269
820.373919	2528.138654
820.692327	2497.891731
821.010691	2540.741538
821.329011	2470.165385
821.647286	2502.932885
821.965517	2502.932885
822.283704	2452.521346
822.601847	2611.317692
822.919945	2475.206538
823.237999	2460.083077
823.556010	2465.124231
823.873976	2505.453462
824.191897	2434.877308
824.509775	2518.056346
824.827609	2465.124231
825.145398	2528.138654
825.463144	2548.303269
825.780845	2427.315577
826.098502	2518.056346
826.416116	2513.015192
826.733685	2513.015192
827.051210	2518.056346
827.368692	2482.768269
827.686129	2563.426731
828.003522	2540.741538
828.320872	2450.000769
828.638177	2513.015192
828.955439	2475.206538
829.272656	2475.206538
829.589830	2495.371154
829.906960	2540.741538
830.224046	2555.865000
830.541088	2523.097500
830.858086	2457.562500
831.175041	2452.521346
831.491952	2475.206538
831.808819	2457.562500
832.125642	2485.288846
832.442421	2497.891731
832.759157	2495.371154
833.075849	2518.056346
833.392497	2492.850577
833.709101	2482.768269
834.025662	2558.385577
834.342179	2548.303269
834.658653	2497.891731
834.975083	2530.659231
835.291469	2434.877308
835.607811	2467.644808
835.924110	2412.192115
836.240366	2533.179808
836.556578	2500.412308
836.872746	2543.262115
837.188871	2497.891731
837.504952	2490.330000
837.820990	2520.576923
838.136984	2520.576923
838.452935	2460.083077
838.768842	2507.974038
839.084706	2490.330000
839.400526	2535.700385
839.716303	2414.712692
840.032037	2465.124231
840.347727	2492.850577
840.663373	2550.823846
840.978977	2507.974038
841.294537	2402.109808
841.610054	2533.179808
841.925527	2480.247692
842.240957	2515.535769
842.556344	2477.727115
842.871687	2515.535769
843.186987	2439.918462
843.502244	2540.741538
843.817458	2427.315577
844.132629	2472.685962
844.447756	2507.974038
844.762840	2535.700385
845.077881	2490.330000
845.392879	2487.809423
845.707833	2409.671538
846.022745	2467.644808
846.337613	2492.850577
846.652438	2515.535769
846.967221	2502.932885
847.281960	2490.330000
847.596656	2442.439038
847.911309	2525.618077
848.225919	2457.562500
848.540485	2465.124231
848.855009	2450.000769
849.169490	2500.412308
849.483928	2533.179808
849.798323	2502.932885
850.112675	2523.097500
850.426984	2540.741538
850.741251	2475.206538
851.055474	2475.206538
851.369654	2540.741538
851.683792	2414.712692
851.997887	2434.877308
852.311938	2548.303269
852.625947	2543.262115
852.939914	2500.412308
853.253837	2462.603654
853.567718	2422.274423
853.881555	2472.685962
854.195350	2475.206538
854.509103	2480.247692
854.822812	2520.576923
855.136479	2560.906154
855.450103	2530.659231
855.763685	2462.603654
856.077224	2450.000769
856.390720	2480.247692
856.704173	2505.453462
857.017584	2485.288846
857.330953	2515.535769
857.644278	2510.494615
857.957561	2480.247692
858.270802	2457.562500
858.584000	2457.562500
858.897155	2518.056346
859.210268	2470.165385
859.523339	2520.576923
859.836367	2573.509038
860.149352	2513.015192
860.462295	2507.974038
860.775195	2475.206538
861.088054	2389.506923
861.400869	2525.618077
861.713642	2465.124231
862.026373	2573.509038
862.339062	2467.644808
862.651708	2525.618077
862.964312	2467.644808
863.276873	2518.056346
863.589392	2540.741538
863.901869	2422.274423
864.214303	2432.356731
864.526696	2462.603654
864.839045	2513.015192
865.151353	2505.453462
865.463619	2480.247692
865.775842	2470.165385
866.088023	2419.753846
866.400162	2470.165385
866.712258	2442.439038
867.024313	2505.453462
867.336325	2591.153077
867.648296	2500.412308
867.960224	2525.618077
868.272110	2444.959615
868.583954	2538.220962
868.895755	2444.959615
869.207515	2434.877308
869.519233	2417.233269
869.830909	2533.179808
870.142542	2427.315577
870.454134	2523.097500
870.765684	2462.603654
871.077191	2523.097500
871.388657	2505.453462
871.700081	2497.891731
872.011463	2520.576923
872.322803	2414.712692
872.634101	2535.700385
872.945357	2553.344423
873.256571	2558.385577
873.567744	2475.206538
873.878874	2543.262115
874.189963	2497.891731
874.501010	2475.206538
874.812015	2507.974038
875.122979	2472.685962
875.433900	2520.576923
875.744780	2538.220962
876.055618	2477.727115
876.366415	2518.056346
876.677169	2470.165385
876.987882	2465.124231
877.298554	2472.685962
877.609183	2528.138654
877.919771	2533.179808
878.230317	2520.576923
878.540822	2432.356731
878.851285	2525.618077
879.161707	2437.397885
879.472087	2565.947308
879.782425	2525.618077
880.092722	2455.041923
880.402977	2538.220962
880.713191	2528.138654
881.023363	2518.056346
881.333494	2457.562500
881.643583	2462.603654
881.953631	2533.179808
882.263637	2452.521346
882.573602	2437.397885
882.883526	2492.850577
883.193408	2520.576923
883.503248	2540.741538
883.813048	2515.535769
884.122806	2523.097500
884.432522	2490.330000
884.742197	2500.412308
885.051831	2495.371154
885.361424	2523.097500
885.670975	2480.247692
885.980485	2450.000769
886.289954	2540.741538
886.599382	2447.480192
886.908768	2485.288846
887.218113	2515.535769
887.527417	2495.371154
887.836680	2545.782692
888.145901	2548.303269
888.455082	2482.768269
888.764221	2482.768269
889.073319	2533.179808
889.382376	2472.685962
889.691392	2497.891731
890.000366	2525.618077
890.309300	2399.589231
890.618193	2540.741538
890.927044	2455.041923
891.235855	2497.891731
891.544625	2502.932885
891.853353	2450.000769
892.162041	2515.535769
892.470687	2447.480192
892.779293	2553.344423
893.087858	2485.288846
893.396381	2450.000769
893.704864	2523.097500
894.013306	2523.097500
894.321707	2515.535769
894.630068	2407.150962
894.938387	2596.194231
895.246665	2439.918462
895.554903	2480.247692
895.863100	2533.179808
896.171256	2477.727115
896.479371	2563.426731
896.787446	2570.988462
897.095480	2475.206538
897.403473	2450.000769
897.711425	2548.303269
898.019336	2490.330000
898.327207	2505.453462
898.635038	2543.262115
898.942827	2444.959615
899.250576	2432.356731
899.558284	2475.206538
899.865952	2558.385577
900.173579	2480.247692
900.481165	2528.138654
900.788711	2500.412308
901.096216	2553.344423
901.403681	2492.850577
901.711105	2510.494615
902.018489	2543.262115
902.325832	2429.836154
902.633135	2520.576923
902.940397	2570.988462
903.247619	2455.041923
903.554800	2525.618077
903.861941	2515.535769
904.169041	2495.371154
904.476101	2550.823846
904.783121	2472.685962
905.090100	2462.603654
905.397039	2472.685962
905.703938	2543.262115
906.010796	2470.165385
906.317614	2550.823846
906.624391	2424.795000
906.931129	2485.288846
907.237826	2535.700385
907.544483	2560.906154
907.851099	2475.206538
908.157675	2523.097500
908.464211	2568.467885
908.770707	2507.974038
909.077163	2505.453462
909.383578	2497.891731
909.689954	2444.959615
909.996289	2523.097500
910.302584	2502.932885
910.608839	2482.768269
910.915054	2467.644808
911.221229	2452.521346
911.527363	2450.000769
911.833458	2480.247692
912.139513	2394.548077
912.445527	2477.727115
912.751502	2495.371154
913.057436	2465.124231
913.363331	2530.659231
913.669186	2442.439038
913.975000	2422.274423
914.280775	2563.426731
914.586510	2548.303269
914.892205	2540.741538
915.197859	2450.000769
915.503475	2485.288846
915.809050	2601.235385
916.114585	2376.904038
916.420081	2525.618077
916.725536	2490.330000
917.030952	2381.945192
917.336328	2530.659231
917.641665	2502.932885
917.946961	2417.233269
918.252218	2565.947308
918.557435	2510.494615
918.862612	2570.988462
919.167750	2480.247692
919.472848	2533.179808
919.777906	2518.056346
920.082925	2540.741538
920.387904	2540.741538
920.692843	2480.247692
920.997743	2485.288846
921.302603	2462.603654
921.607423	2485.288846
921.912204	2525.618077
922.216946	2424.795000
922.521647	2518.056346
922.826310	2490.330000
923.130932	2447.480192
923.435516	2376.904038
923.740059	2492.850577
924.044564	2492.850577
924.349028	2434.877308
924.653454	2523.097500
924.957840	2482.768269
925.262186	2495.371154
925.566493	2560.906154
925.870761	2472.685962
926.174989	2505.453462
926.479178	2480.247692
926.783328	2507.974038
927.087438	2495.371154
927.391509	2560.906154
927.695541	2442.439038
927.999533	2475.206538
928.303486	2462.603654
928.607400	2437.397885
928.911275	2500.412308
929.215110	2565.947308
929.518906	2472.685962
929.822663	2465.124231
930.126381	2417.233269
930.430060	2525.618077
930.733699	2502.932885
931.037299	2495.371154
931.340861	2487.809423
931.644383	2477.727115
931.947866	2407.150962
932.251309	2525.618077
932.554714	2497.891731
932.858080	2588.632500
933.161407	2477.727115
933.464694	2543.262115
933.767943	2467.644808
934.071153	2608.797115
934.374323	2513.015192
934.677455	2417.233269
934.980548	2444.959615
935.283602	2492.850577
935.586617	2422.274423
935.889593	2419.753846
936.192530	2543.262115
936.495428	2502.932885
936.798287	2525.618077
937.101108	2480.247692
937.403890	2460.083077
937.706632	2444.959615
938.009336	2495.371154
938.312002	2442.439038
938.614628	2495.371154
938.917216	2444.959615
939.219765	2507.974038
939.522275	2487.809423
939.824747	2586.111923
940.127179	2523.097500
940.429573	2487.809423
940.731929	2487.809423
941.034246	2528.138654
941.336524	2477.727115
941.638763	2515.535769
941.940964	2457.562500
942.243126	2432.356731
942.545250	2533.179808
942.847335	2437.397885
943.149381	2528.138654
943.451389	2442.439038
943.753359	2545.782692
944.055290	2444.959615
944.357182	2457.562500
944.659036	2482.768269
944.960851	2535.700385
945.262628	2497.891731
945.564367	2487.809423
945.866067	2513.015192
946.167729	2444.959615
946.469352	2518.056346
946.770937	2482.768269
947.072484	2568.467885
947.373992	2525.618077
947.675462	2482.768269
947.976893	2518.056346
948.278286	2434.877308
948.579641	2538.220962
948.880958	2492.850577
949.182236	2470.165385
949.483476	2487.809423
949.784678	2543.262115
950.085841	2518.056346
950.386967	2545.782692
950.688054	2455.041923
950.989103	2492.850577
951.290114	2439.918462
951.591087	2558.385577
951.892021	2528.138654
952.192917	2513.015192
952.493776	2460.083077
952.794596	2535.700385
953.095378	2528.138654
953.396122	2477.727115
953.696828	2414.712692
953.997496	2434.877308
954.298126	2376.904038
954.598718	2528.138654
954.899272	2457.562500
955.199788	2533.179808
955.500266	2442.439038
955.800706	2502.932885
956.101108	2437.397885
956.401472	2487.809423
956.701798	2379.424615
957.002087	2475.206538
957.302337	2520.576923
957.602550	2482.768269
957.902724	2513.015192
958.202861	2505.453462
958.502960	2452.521346
958.803022	2535.700385
959.103045	2429.836154
959.403031	2475.206538
959.702979	2492.850577
960.002889	2490.330000
960.302762	2528.138654
960.602596	2626.441154
960.902393	2427.315577
961.202153	2505.453462
961.501875	2515.535769
961.801559	2502.932885
962.101205	2452.521346
962.400814	2492.850577
962.700385	2593.673654
962.999918	2603.755962
963.299414	2485.288846
963.598873	2434.877308
963.898293	2369.342308
964.197677	2525.618077
964.497022	2490.330000
964.796331	2513.015192
965.095601	2447.480192
965.394835	2439.918462
965.694030	2482.768269
965.993189	2480.247692
966.292309	2500.412308
966.591393	2457.562500
966.890439	2475.206538
967.189447	2439.918462
967.488419	2520.576923
967.787353	2515.535769
968.086249	2487.809423
968.385108	2543.262115
968.683930	2490.330000
968.982714	2450.000769
969.281462	2487.809423
969.580172	2467.644808
969.878844	2480.247692
970.177480	2470.165385
970.476078	2434.877308
970.774639	2598.714808
971.073162	2482.768269
971.371649	2455.041923
971.670098	2424.795000
971.968510	2447.480192
972.266885	2528.138654
972.565223	2480.247692
972.863524	2437.397885
973.161788	2432.356731
973.460014	2472.685962
973.758204	2467.644808
974.056356	2480.247692
974.354471	2487.809423
974.652550	2480.247692
974.950591	2505.453462
975.248595	2482.768269
975.546563	2470.165385
975.844493	2402.109808
976.142386	2450.000769
976.440243	2437.397885
976.738062	2490.330000
977.035845	2565.947308
977.333590	2500.412308
977.631299	2414.712692
977.928971	2477.727115
978.226606	2434.877308
978.524204	2432.356731
978.821765	2576.029615
979.119290	2533.179808
979.416777	2497.891731
979.714228	2472.685962
980.011642	2505.453462
980.309020	2518.056346
980.606360	2485.288846
980.903664	2502.932885
981.200931	2429.836154
981.498162	2442.439038
981.795356	2462.603654
982.092513	2407.150962
982.389633	2439.918462
982.686717	2444.959615
982.983764	2490.330000
983.280775	2485.288846
983.577749	2402.109808
983.874686	2470.165385
984.171587	2523.097500
984.468451	2515.535769
984.765279	2492.850577
985.062070	2460.083077
985.358824	2515.535769
985.655543	2429.836154
985.952224	2452.521346
986.248869	2450.000769
986.545478	2399.589231
986.842050	2437.397885
987.138586	2419.753846
987.435086	2409.671538
987.731549	2500.412308
988.027975	2490.330000
988.324366	2497.891731
988.620719	2480.247692
988.917037	2515.535769
989.213318	2500.412308
989.509563	2490.330000
989.805772	2533.179808
990.101944	2470.165385
990.398080	2507.974038
990.694180	2530.659231
990.990244	2570.988462
991.286271	2555.865000
991.582262	2404.630385
991.878217	2568.467885
992.174136	2535.700385
992.470019	2525.618077
992.765865	2472.685962
993.061676	2538.220962
993.357450	2392.027500
993.653188	2528.138654
993.948890	2386.986346
994.244556	2429.836154
994.540186	2447.480192
994.835780	2359.260000
995.131337	2507.974038
995.426859	2502.932885
995.722345	2570.988462
996.017795	2457.562500
996.313208	2530.659231
996.608586	2477.727115
996.903928	2520.576923
997.199234	2465.124231
997.494504	2528.138654
997.789738	2555.865000
998.084936	2583.591346
998.380099	2480.247692
998.675225	2417.233269
998.970316	2447.480192
999.265371	2513.015192
999.560390	2495.371154
999.855373	2520.576923
1000.150320	2583.591346
1000.445232	2447.480192
1000.740108	2444.959615
1001.034948	2376.904038
1001.329752	2450.000769
1001.624521	2369.342308
1001.919254	2513.015192
1002.213951	2397.068654
1002.508613	2477.727115
1002.803239	2495.371154
1003.097829	2550.823846
1003.392384	2500.412308
1003.686903	2432.356731
1003.981386	2507.974038
1004.275834	2412.192115
1004.570246	2500.412308
1004.864623	2500.412308
1005.158964	2515.535769
1005.453270	2432.356731
1005.747540	2545.782692
1006.041775	2475.206538
1006.335974	2510.494615
1006.630138	2487.809423
1006.924266	2475.206538
1007.218359	2492.850577
1007.512416	2472.685962
1007.806438	2490.330000
1008.100425	2502.932885
1008.394376	2553.344423
1008.688292	2450.000769
1008.982172	2540.741538
1009.276017	2480.247692
1009.569827	2530.659231
1009.863602	2530.659231
1010.157341	2480.247692
1010.451045	2419.753846
1010.744714	2434.877308
1011.038347	2434.877308
1011.331945	2470.165385
1011.625508	2470.165385
1011.919036	2465.124231
1012.212528	2533.179808
1012.505986	2467.644808
1012.799408	2424.795000
1013.092795	2404.630385
1013.386147	2558.385577
1013.679464	2414.712692
1013.972745	2442.439038
1014.265992	2371.862885
1014.559204	2538.220962
1014.852380	2447.480192
1015.145521	2528.138654
1015.438628	2414.712692
1015.731699	2505.453462
1016.024736	2447.480192
1016.317737	2518.056346
1016.610703	2578.550192
1016.903635	2487.809423
1017.196531	2492.850577
1017.489393	2502.932885
1017.782219	2497.891731
1018.075011	2502.932885
1018.367768	2477.727115
1018.660490	2475.206538
1018.953177	2475.206538
1019.245829	2475.206538
