Dividing Wavelength (nm)	Counts (n)	Blue Motor Position (mm): 0.600000	Red Motor Position (mm): 0.000000	
326.493990	2114.764038
326.888308	2114.764038
327.282561	2114.764038
327.676750	2039.146731
328.070874	2031.585000
328.464933	2079.475962
328.858929	2066.873077
329.252859	2165.175577
329.646726	2076.955385
330.040528	2150.052115
330.434265	2142.490385
330.827938	2117.284615
331.221547	2205.504808
331.615091	2152.572692
332.008571	2187.860769
332.401986	2175.257885
332.795338	2228.190000
333.188625	2250.875192
333.581847	2210.545962
333.975006	2329.013077
334.368100	2286.163269
334.761129	2298.766154
335.154095	2344.136538
335.546996	2359.260000
335.939833	2268.519231
336.332606	2422.274423
336.725315	2409.671538
337.117960	2361.780577
337.510540	2475.206538
337.903056	2374.383462
338.295508	2394.548077
338.687896	2414.712692
339.080220	2505.453462
339.472480	2467.644808
339.864676	2472.685962
340.256807	2457.562500
340.648875	2437.397885
341.040879	2477.727115
341.432818	2422.274423
341.824694	2465.124231
342.216506	2523.097500
342.608253	2528.138654
342.999937	2402.109808
343.391557	2404.630385
343.783113	2492.850577
344.174605	2429.836154
344.566033	2376.904038
344.957397	2520.576923
345.348697	2538.220962
345.739934	2545.782692
346.131106	2399.589231
346.522215	2492.850577
346.913260	2389.506923
347.304241	2477.727115
347.695159	2376.904038
348.086012	2475.206538
348.476802	2460.083077
348.867528	2414.712692
349.258191	2457.562500
349.648789	2432.356731
350.039324	2452.521346
350.429796	2535.700385
350.820203	2502.932885
351.210548	2502.932885
351.600828	2460.083077
351.991045	2470.165385
352.381198	2392.027500
352.771288	2475.206538
353.161314	2414.712692
353.551276	2404.630385
353.941175	2389.506923
354.331010	2455.041923
354.720782	2427.315577
355.110490	2432.356731
355.500135	2472.685962
355.889717	2429.836154
356.279235	2422.274423
356.668689	2392.027500
357.058080	2439.918462
357.447408	2424.795000
357.836672	2384.465769
358.225873	2455.041923
358.615010	2409.671538
359.004084	2495.371154
359.393095	2437.397885
359.782043	2528.138654
360.170927	2402.109808
360.559748	2374.383462
360.948505	2487.809423
361.337199	2452.521346
361.725830	2472.685962
362.114398	2419.753846
362.502903	2533.179808
362.891344	2417.233269
363.279722	2414.712692
363.668037	2515.535769
364.056289	2419.753846
364.444478	2480.247692
364.832603	2427.315577
365.220665	2457.562500
365.608665	2386.986346
365.996601	2439.918462
366.384474	2450.000769
366.772284	2432.356731
367.160031	2462.603654
367.547715	2457.562500
367.935336	2444.959615
368.322893	2460.083077
368.710388	2470.165385
369.097820	2485.288846
369.485189	2447.480192
369.872495	2447.480192
370.259738	2419.753846
370.646918	2460.083077
371.034035	2437.397885
371.421090	2462.603654
371.808081	2442.439038
372.195010	2460.083077
372.581875	2480.247692
372.968678	2422.274423
373.355418	2495.371154
373.742096	2389.506923
374.128710	2419.753846
374.515262	2460.083077
374.901751	2520.576923
375.288177	2422.274423
375.674540	2535.700385
376.060841	2429.836154
376.447079	2450.000769
376.833254	2444.959615
377.219367	2450.000769
377.605417	2497.891731
377.991404	2359.260000
378.377329	2429.836154
378.763191	2432.356731
379.148991	2409.671538
379.534727	2427.315577
379.920402	2535.700385
380.306013	2455.041923
380.691563	2500.412308
381.077049	2444.959615
381.462474	2447.480192
381.847835	2422.274423
382.233134	2528.138654
382.618371	2404.630385
383.003545	2442.439038
383.388657	2437.397885
383.773706	2444.959615
384.158693	2523.097500
384.543618	2477.727115
384.928480	2434.877308
385.313280	2507.974038
385.698017	2437.397885
386.082692	2379.424615
386.467305	2432.356731
386.851856	2487.809423
387.236344	2452.521346
387.620770	2457.562500
388.005133	2510.494615
388.389435	2419.753846
388.773674	2513.015192
389.157851	2460.083077
389.541965	2487.809423
389.926018	2424.795000
390.310008	2455.041923
390.693936	2465.124231
391.077802	2404.630385
391.461606	2548.303269
391.845348	2487.809423
392.229027	2507.974038
392.612645	2397.068654
392.996200	2457.562500
393.379694	2417.233269
393.763125	2482.768269
394.146494	2437.397885
394.529801	2523.097500
394.913047	2482.768269
395.296230	2447.480192
395.679351	2414.712692
396.062410	2462.603654
396.445408	2450.000769
396.828343	2455.041923
397.211217	2432.356731
397.594028	2427.315577
397.976778	2389.506923
398.359466	2510.494615
398.742092	2422.274423
399.124656	2455.041923
399.507158	2427.315577
399.889598	2515.535769
400.271977	2455.041923
400.654294	2495.371154
401.036549	2447.480192
401.418742	2467.644808
401.800874	2447.480192
402.182944	2533.179808
402.564952	2528.138654
402.946898	2523.097500
403.328783	2427.315577
403.710606	2538.220962
404.092367	2480.247692
404.474067	2477.727115
404.855705	2490.330000
405.237282	2518.056346
405.618797	2548.303269
406.000250	2500.412308
406.381642	2452.521346
406.762972	2505.453462
407.144240	2462.603654
407.525447	2583.591346
407.906593	2439.918462
408.287677	2500.412308
408.668700	2467.644808
409.049661	2434.877308
409.430560	2535.700385
409.811399	2465.124231
410.192176	2485.288846
410.572891	2412.192115
410.953545	2497.891731
411.334138	2543.262115
411.714669	2523.097500
412.095139	2477.727115
412.475547	2485.288846
412.855894	2538.220962
413.236180	2520.576923
413.616405	2480.247692
413.996568	2477.727115
414.376670	2457.562500
414.756711	2452.521346
415.136691	2505.453462
415.516609	2424.795000
415.896466	2467.644808
416.276262	2412.192115
416.655997	2434.877308
417.035670	2472.685962
417.415283	2422.274423
417.794834	2482.768269
418.174324	2434.877308
418.553753	2487.809423
418.933121	2581.070769
419.312428	2535.700385
419.691674	2540.741538
420.070859	2507.974038
420.449983	2386.986346
420.829045	2510.494615
421.208047	2472.685962
421.586988	2490.330000
421.965867	2523.097500
422.344686	2558.385577
422.723444	2439.918462
423.102141	2434.877308
423.480777	2444.959615
423.859352	2485.288846
424.237866	2402.109808
424.616319	2470.165385
424.994712	2336.574808
425.373044	2482.768269
425.751314	2447.480192
426.129524	2500.412308
426.507673	2490.330000
426.885762	2513.015192
427.263789	2444.959615
427.641756	2497.891731
428.019662	2470.165385
428.397508	2520.576923
428.775292	2434.877308
429.153016	2437.397885
429.530679	2462.603654
429.908282	2439.918462
430.285824	2475.206538
430.663305	2381.945192
431.040726	2487.809423
431.418086	2429.836154
431.795385	2404.630385
432.172624	2472.685962
432.549802	2570.988462
432.926920	2442.439038
433.303977	2535.700385
433.680974	2467.644808
434.057910	2581.070769
434.434786	2520.576923
434.811601	2535.700385
435.188355	2482.768269
435.565050	2523.097500
435.941683	2540.741538
436.318257	2505.453462
436.694770	2513.015192
437.071222	2495.371154
437.447614	2510.494615
437.823946	2485.288846
438.200218	2381.945192
438.576429	2525.618077
438.952580	2467.644808
439.328670	2450.000769
439.704700	2492.850577
440.080670	2439.918462
440.456580	2462.603654
440.832429	2507.974038
441.208218	2490.330000
441.583947	2439.918462
441.959616	2450.000769
442.335224	2404.630385
442.710773	2523.097500
443.086261	2424.795000
443.461689	2535.700385
443.837057	2505.453462
444.212365	2472.685962
444.587612	2520.576923
444.962800	2447.480192
445.337927	2523.097500
445.712995	2492.850577
446.088002	2490.330000
446.462949	2460.083077
446.837837	2422.274423
447.212664	2424.795000
447.587431	2525.618077
447.962139	2419.753846
448.336786	2439.918462
448.711374	2505.453462
449.085901	2563.426731
449.460369	2487.809423
449.834776	2475.206538
450.209124	2510.494615
450.583412	2513.015192
450.957640	2424.795000
451.331808	2462.603654
451.705917	2518.056346
452.079965	2540.741538
452.453954	2500.412308
452.827883	2432.356731
453.201752	2545.782692
453.575562	2447.480192
453.949311	2475.206538
454.323001	2450.000769
454.696632	2485.288846
455.070202	2427.315577
455.443713	2472.685962
455.817164	2523.097500
456.190556	2535.700385
456.563888	2432.356731
456.937160	2457.562500
457.310373	2505.453462
457.683526	2550.823846
458.056619	2528.138654
458.429653	2525.618077
458.802628	2452.521346
459.175542	2528.138654
459.548398	2505.453462
459.921194	2422.274423
460.293930	2432.356731
460.666607	2495.371154
461.039224	2502.932885
461.411782	2462.603654
461.784280	2581.070769
462.156719	2439.918462
462.529099	2402.109808
462.901419	2404.630385
463.273680	2495.371154
463.645882	2444.959615
464.018024	2480.247692
464.390106	2434.877308
464.762130	2538.220962
465.134094	2442.439038
465.505999	2548.303269
465.877845	2444.959615
466.249631	2477.727115
466.621358	2548.303269
466.993026	2555.865000
467.364634	2407.150962
467.736184	2397.068654
468.107674	2467.644808
468.479105	2513.015192
468.850477	2518.056346
469.221790	2507.974038
469.593043	2548.303269
469.964238	2513.015192
470.335373	2505.453462
470.706449	2497.891731
471.077467	2452.521346
471.448425	2543.262115
471.819324	2419.753846
472.190164	2492.850577
472.560945	2507.974038
472.931667	2495.371154
473.302330	2495.371154
473.672934	2434.877308
474.043479	2525.618077
474.413965	2482.768269
474.784393	2487.809423
475.154761	2477.727115
475.525070	2497.891731
475.895321	2427.315577
476.265513	2525.618077
476.635645	2482.768269
477.005719	2467.644808
477.375734	2518.056346
477.745691	2513.015192
478.115588	2533.179808
478.485427	2515.535769
478.855207	2558.385577
479.224928	2487.809423
479.594591	2439.918462
479.964194	2510.494615
480.333739	2507.974038
480.703226	2573.509038
481.072653	2442.439038
481.442022	2450.000769
481.811333	2455.041923
482.180584	2558.385577
482.549777	2520.576923
482.918912	2455.041923
483.287988	2485.288846
483.657005	2472.685962
484.025964	2467.644808
484.394864	2495.371154
484.763706	2452.521346
485.132489	2518.056346
485.501213	2434.877308
485.869879	2447.480192
486.238487	2533.179808
486.607036	2505.453462
486.975527	2452.521346
487.343959	2533.179808
487.712333	2513.015192
488.080648	2450.000769
488.448905	2497.891731
488.817104	2616.358846
489.185244	2485.288846
489.553326	2530.659231
489.921350	2510.494615
490.289315	2452.521346
490.657222	2497.891731
491.025070	2457.562500
491.392861	2404.630385
491.760593	2545.782692
492.128267	2475.206538
492.495883	2497.891731
492.863440	2427.315577
493.230939	2507.974038
493.598380	2386.986346
493.965763	2523.097500
494.333088	2593.673654
494.700354	2538.220962
495.067563	2502.932885
495.434713	2467.644808
495.801805	2510.494615
496.168839	2465.124231
496.535815	2513.015192
496.902733	2460.083077
497.269593	2533.179808
497.636395	2470.165385
498.003139	2452.521346
498.369825	2560.906154
498.736453	2470.165385
499.103023	2379.424615
499.469535	2550.823846
499.835989	2525.618077
500.202385	2495.371154
500.568723	2535.700385
500.935003	2475.206538
501.301226	2535.700385
501.667390	2518.056346
502.033497	2442.439038
502.399546	2513.015192
502.765537	2397.068654
503.131470	2487.809423
503.497345	2502.932885
503.863163	2500.412308
504.228923	2480.247692
504.594625	2573.509038
504.960269	2477.727115
505.325856	2520.576923
505.691385	2505.453462
506.056856	2505.453462
506.422270	2535.700385
506.787625	2568.467885
507.152924	2434.877308
507.518164	2507.974038
507.883347	2492.850577
508.248472	2432.356731
508.613540	2533.179808
508.978550	2518.056346
509.343503	2487.809423
509.708398	2455.041923
510.073236	2439.918462
510.438016	2510.494615
510.802738	2437.397885
511.167403	2513.015192
511.532010	2477.727115
511.896561	2439.918462
512.261053	2540.741538
512.625488	2467.644808
512.989866	2500.412308
513.354186	2477.727115
513.718449	2570.988462
514.082655	2384.465769
514.446803	2472.685962
514.810894	2515.535769
515.174927	2558.385577
515.538904	2434.877308
515.902822	2482.768269
516.266684	2379.424615
516.630488	2462.603654
516.994235	2543.262115
517.357925	2533.179808
517.721558	2480.247692
518.085133	2510.494615
518.448651	2480.247692
518.812112	2545.782692
519.175516	2515.535769
519.538863	2520.576923
519.902152	2419.753846
520.265385	2545.782692
520.628560	2538.220962
520.991678	2457.562500
521.354739	2550.823846
521.717743	2500.412308
522.080690	2392.027500
522.443580	2513.015192
522.806413	2462.603654
523.169189	2515.535769
523.531908	2480.247692
523.894569	2500.412308
524.257174	2470.165385
524.619722	2540.741538
524.982213	2447.480192
525.344647	2485.288846
525.707025	2505.453462
526.069345	2535.700385
526.431608	2515.535769
526.793815	2492.850577
527.155964	2553.344423
527.518057	2548.303269
527.880093	2462.603654
528.242072	2417.233269
528.603995	2460.083077
528.965860	2560.906154
529.327669	2462.603654
529.689421	2460.083077
530.051117	2492.850577
530.412755	2485.288846
530.774337	2545.782692
531.135862	2439.918462
531.497331	2495.371154
531.858743	2444.959615
532.220098	2603.755962
532.581396	2528.138654
532.942638	2480.247692
533.303824	2472.685962
533.664953	2462.603654
534.026025	2434.877308
534.387040	2548.303269
534.747999	2490.330000
535.108902	2470.165385
535.469748	2465.124231
535.830537	2457.562500
536.191270	2533.179808
536.551947	2520.576923
536.912567	2545.782692
537.273131	2553.344423
537.633638	2518.056346
537.994089	2475.206538
538.354483	2530.659231
538.714821	2442.439038
539.075103	2495.371154
539.435328	2447.480192
539.795497	2487.809423
540.155609	2465.124231
540.515665	2565.947308
540.875665	2462.603654
541.235609	2487.809423
541.595496	2513.015192
541.955328	2523.097500
542.315102	2583.591346
542.674821	2485.288846
543.034483	2432.356731
543.394090	2485.288846
543.753640	2520.576923
544.113134	2505.453462
544.472571	2482.768269
544.831953	2535.700385
545.191278	2528.138654
545.550548	2510.494615
545.909761	2366.821731
546.268918	2495.371154
546.628019	2472.685962
546.987064	2518.056346
547.346053	2480.247692
547.704986	2472.685962
548.063863	2477.727115
548.422684	2465.124231
548.781449	2563.426731
549.140158	2586.111923
549.498811	2540.741538
549.857408	2548.303269
550.215949	2523.097500
550.574434	2500.412308
550.932864	2417.233269
551.291237	2460.083077
551.649555	2472.685962
552.007817	2490.330000
552.366022	2460.083077
552.724173	2462.603654
553.082267	2555.865000
553.440305	2606.276538
553.798288	2434.877308
554.156215	2485.288846
554.514086	2505.453462
554.871902	2457.562500
555.229661	2513.015192
555.587365	2518.056346
555.945014	2558.385577
556.302606	2523.097500
556.660143	2558.385577
557.017625	2525.618077
557.375050	2573.509038
557.732421	2482.768269
558.089735	2480.247692
558.446994	2467.644808
558.804197	2528.138654
559.161345	2455.041923
559.518437	2525.618077
559.875474	2510.494615
560.232455	2497.891731
560.589381	2477.727115
560.946251	2442.439038
561.303065	2492.850577
561.659825	2560.906154
562.016528	2538.220962
562.373177	2477.727115
562.729770	2455.041923
563.086307	2520.576923
563.442789	2576.029615
563.799216	2467.644808
564.155587	2578.550192
564.511904	2437.397885
564.868164	2545.782692
565.224370	2538.220962
565.580520	2523.097500
565.936615	2442.439038
566.292654	2543.262115
566.648638	2603.755962
567.004567	2462.603654
567.360441	2515.535769
567.716260	2470.165385
568.072023	2495.371154
568.427732	2535.700385
568.783385	2475.206538
569.138982	2553.344423
569.494525	2510.494615
569.850013	2502.932885
570.205445	2472.685962
570.560823	2472.685962
570.916145	2379.424615
571.271412	2555.865000
571.626625	2465.124231
571.981782	2540.741538
572.336884	2444.959615
572.691931	2505.453462
573.046923	2528.138654
573.401860	2472.685962
573.756743	2530.659231
574.111570	2513.015192
574.466342	2487.809423
574.821059	2427.315577
575.175722	2439.918462
575.530330	2505.453462
575.884882	2570.988462
576.239380	2507.974038
576.593823	2553.344423
576.948211	2520.576923
577.302544	2412.192115
577.656823	2470.165385
578.011047	2497.891731
578.365216	2505.453462
578.719330	2424.795000
579.073389	2520.576923
579.427394	2510.494615
579.781344	2487.809423
580.135239	2507.974038
580.489080	2518.056346
580.842866	2389.506923
581.196597	2460.083077
581.550273	2543.262115
581.903895	2502.932885
582.257463	2462.603654
582.610975	2530.659231
582.964434	2535.700385
583.317837	2565.947308
583.671186	2510.494615
584.024481	2490.330000
584.377721	2470.165385
584.730906	2447.480192
585.084037	2563.426731
585.437113	2525.618077
585.790135	2520.576923
586.143103	2540.741538
586.496016	2523.097500
586.848874	2470.165385
587.201679	2472.685962
587.554428	2515.535769
587.907124	2510.494615
588.259765	2510.494615
588.612352	2419.753846
588.964884	2510.494615
589.317362	2523.097500
589.669786	2495.371154
590.022155	2545.782692
590.374470	2515.535769
590.726731	2520.576923
591.078937	2510.494615
591.431090	2487.809423
591.783188	2583.591346
592.135232	2472.685962
592.487222	2500.412308
592.839157	2475.206538
593.191038	2553.344423
593.542866	2560.906154
593.894639	2495.371154
594.246358	2439.918462
594.598022	2457.562500
594.949633	2455.041923
595.301190	2500.412308
595.652692	2497.891731
596.004141	2485.288846
596.355535	2513.015192
596.706876	2497.891731
597.058162	2535.700385
597.409395	2553.344423
597.760573	2502.932885
598.111698	2439.918462
598.462768	2533.179808
598.813785	2513.015192
599.164748	2495.371154
599.515657	2394.548077
599.866511	2535.700385
600.217312	2570.988462
600.568060	2581.070769
600.918753	2477.727115
601.269392	2467.644808
601.619978	2598.714808
601.970510	2414.712692
602.320988	2450.000769
602.671412	2538.220962
603.021783	2558.385577
603.372100	2518.056346
603.722363	2558.385577
604.072572	2545.782692
604.422728	2538.220962
604.772830	2447.480192
605.122878	2447.480192
605.472872	2533.179808
605.822813	2502.932885
606.172701	2558.385577
606.522534	2507.974038
606.872314	2422.274423
607.222041	2359.260000
607.571714	2450.000769
607.921333	2492.850577
608.270899	2492.850577
608.620411	2444.959615
608.969870	2460.083077
609.319276	2510.494615
609.668627	2515.535769
610.017926	2419.753846
610.367171	2538.220962
610.716362	2485.288846
611.065500	2570.988462
611.414585	2437.397885
611.763616	2525.618077
612.112594	2467.644808
612.461518	2528.138654
612.810389	2475.206538
613.159207	2523.097500
613.507971	2523.097500
613.856682	2518.056346
614.205340	2452.521346
614.553945	2528.138654
614.902496	2500.412308
615.250994	2510.494615
615.599439	2477.727115
615.947830	2455.041923
616.296169	2392.027500
616.644454	2586.111923
616.992686	2485.288846
617.340864	2518.056346
617.688990	2447.480192
618.037063	2500.412308
618.385082	2457.562500
618.733048	2477.727115
619.080961	2407.150962
619.428821	2487.809423
619.776628	2450.000769
620.124382	2528.138654
620.472083	2518.056346
620.819731	2533.179808
621.167326	2452.521346
621.514868	2485.288846
621.862357	2497.891731
622.209793	2533.179808
622.557176	2480.247692
622.904506	2404.630385
623.251783	2437.397885
623.599007	2553.344423
623.946179	2535.700385
624.293297	2485.288846
624.640363	2477.727115
624.987376	2472.685962
625.334336	2424.795000
625.681243	2513.015192
626.028097	2437.397885
626.374899	2558.385577
626.721647	2570.988462
627.068343	2507.974038
627.414987	2520.576923
627.761577	2467.644808
628.108115	2457.562500
628.454600	2485.288846
628.801032	2482.768269
629.147412	2555.865000
629.493739	2502.932885
629.840014	2497.891731
630.186236	2482.768269
630.532405	2565.947308
630.878521	2452.521346
631.224585	2495.371154
631.570597	2507.974038
631.916556	2444.959615
632.262462	2422.274423
632.608316	2550.823846
632.954117	2407.150962
633.299866	2573.509038
633.645562	2603.755962
633.991206	2565.947308
634.336797	2535.700385
634.682336	2477.727115
635.027823	2470.165385
635.373257	2460.083077
635.718639	2407.150962
636.063968	2502.932885
636.409245	2472.685962
636.754470	2525.618077
637.099642	2500.412308
637.444762	2462.603654
637.789829	2399.589231
638.134845	2470.165385
638.479808	2432.356731
638.824719	2470.165385
639.169577	2515.535769
639.514383	2480.247692
639.859137	2470.165385
640.203839	2450.000769
640.548489	2586.111923
640.893086	2447.480192
641.237632	2505.453462
641.582125	2444.959615
641.926566	2460.083077
642.270955	2502.932885
642.615292	2462.603654
642.959576	2422.274423
643.303809	2518.056346
643.647990	2535.700385
643.992118	2505.453462
644.336195	2525.618077
644.680219	2424.795000
645.024192	2538.220962
645.368112	2462.603654
645.711981	2497.891731
646.055797	2467.644808
646.399562	2457.562500
646.743274	2513.015192
647.086935	2485.288846
647.430544	2548.303269
647.774101	2523.097500
648.117606	2492.850577
648.461059	2540.741538
648.804460	2523.097500
649.147810	2507.974038
649.491108	2439.918462
649.834354	2490.330000
650.177548	2560.906154
650.520690	2606.276538
650.863781	2523.097500
651.206820	2520.576923
651.549807	2480.247692
651.892742	2475.206538
652.235626	2528.138654
652.578458	2465.124231
652.921238	2550.823846
653.263967	2475.206538
653.606644	2427.315577
653.949269	2472.685962
654.291843	2563.426731
654.634365	2495.371154
654.976836	2518.056346
655.319255	2467.644808
655.661622	2530.659231
656.003938	2560.906154
656.346203	2417.233269
656.688416	2472.685962
657.030577	2427.315577
657.372687	2515.535769
657.714746	2460.083077
658.056753	2462.603654
658.398708	2495.371154
658.740612	2467.644808
659.082465	2563.426731
659.424266	2520.576923
659.766016	2530.659231
660.107715	2523.097500
660.449362	2462.603654
660.790958	2485.288846
661.132503	2434.877308
661.473996	2545.782692
661.815438	2520.576923
662.156829	2444.959615
662.498168	2482.768269
662.839456	2392.027500
663.180693	2563.426731
663.521879	2429.836154
663.863013	2538.220962
664.204097	2455.041923
664.545129	2470.165385
664.886110	2545.782692
665.227040	2596.194231
665.567918	2442.439038
665.908746	2467.644808
666.249522	2520.576923
666.590248	2518.056346
666.930922	2533.179808
667.271545	2560.906154
667.612118	2487.809423
667.952639	2545.782692
668.293109	2513.015192
668.633528	2480.247692
668.973896	2439.918462
669.314213	2482.768269
669.654480	2487.809423
669.994695	2520.576923
670.334859	2485.288846
670.674973	2500.412308
671.015035	2535.700385
671.355047	2513.015192
671.695008	2490.330000
672.034918	2437.397885
672.374777	2475.206538
672.714585	2397.068654
673.054342	2394.548077
673.394049	2394.548077
673.733705	2513.015192
674.073310	2533.179808
674.412864	2482.768269
674.752368	2507.974038
675.091820	2507.974038
675.431223	2560.906154
675.770574	2485.288846
676.109875	2510.494615
676.449125	2502.932885
676.788324	2497.891731
677.127473	2510.494615
677.466571	2497.891731
677.805619	2530.659231
678.144616	2419.753846
678.483562	2452.521346
678.822458	2450.000769
679.161303	2447.480192
679.500098	2565.947308
679.838842	2520.576923
680.177535	2560.906154
680.516179	2424.795000
680.854771	2467.644808
681.193314	2502.932885
681.531805	2570.988462
681.870247	2490.330000
682.208638	2492.850577
682.546978	2452.521346
682.885268	2414.712692
683.223508	2465.124231
683.561697	2570.988462
683.899836	2485.288846
684.237925	2485.288846
684.575963	2477.727115
684.913951	2492.850577
685.251889	2520.576923
685.589776	2477.727115
685.927614	2442.439038
686.265401	2407.150962
686.603137	2520.576923
686.940824	2500.412308
687.278460	2447.480192
687.616046	2540.741538
687.953582	2447.480192
688.291068	2500.412308
688.628504	2475.206538
688.965889	2472.685962
689.303224	2490.330000
689.640510	2497.891731
689.977745	2525.618077
690.314930	2482.768269
690.652065	2470.165385
690.989150	2404.630385
691.326185	2507.974038
691.663170	2568.467885
692.000105	2520.576923
692.336990	2540.741538
692.673825	2492.850577
693.010610	2427.315577
693.347345	2518.056346
693.684030	2450.000769
694.020665	2540.741538
694.357251	2434.877308
694.693786	2427.315577
695.030272	2528.138654
695.366707	2460.083077
695.703093	2399.589231
696.039429	2533.179808
696.375716	2593.673654
696.711952	2477.727115
697.048139	2545.782692
697.384276	2450.000769
697.720363	2495.371154
698.056400	2560.906154
698.392388	2457.562500
698.728326	2513.015192
699.064214	2540.741538
699.400053	2513.015192
699.735842	2480.247692
700.071581	2523.097500
700.407270	2500.412308
700.742910	2480.247692
701.078501	2475.206538
701.414042	2439.918462
701.749533	2485.288846
702.084974	2490.330000
702.420366	2480.247692
702.755709	2523.097500
703.091002	2540.741538
703.426246	2462.603654
703.761440	2495.371154
704.096584	2530.659231
704.431679	2460.083077
704.766725	2475.206538
705.101721	2475.206538
705.436668	2583.591346
705.771565	2460.083077
706.106413	2480.247692
706.441212	2568.467885
706.775961	2472.685962
707.110661	2475.206538
707.445311	2505.453462
707.779913	2545.782692
708.114465	2497.891731
708.448967	2560.906154
708.783421	2447.480192
709.117825	2482.768269
709.452180	2462.603654
709.786485	2558.385577
710.120742	2490.330000
710.454949	2528.138654
710.789107	2586.111923
711.123216	2480.247692
711.457275	2507.974038
711.791286	2444.959615
712.125247	2528.138654
712.459159	2462.603654
712.793023	2525.618077
713.126837	2472.685962
713.460602	2523.097500
713.794318	2563.426731
714.127985	2465.124231
714.461602	2533.179808
714.795171	2465.124231
715.128691	2460.083077
715.462162	2414.712692
715.795584	2462.603654
716.128957	2545.782692
716.462281	2462.603654
716.795556	2515.535769
717.128782	2497.891731
717.461960	2576.029615
717.795088	2573.509038
718.128167	2505.453462
718.461198	2528.138654
718.794180	2477.727115
719.127113	2528.138654
719.459997	2520.576923
719.792833	2502.932885
720.125619	2497.891731
720.458357	2523.097500
720.791046	2548.303269
721.123686	2480.247692
721.456278	2530.659231
721.788821	2548.303269
722.121315	2460.083077
722.453761	2502.932885
722.786158	2550.823846
723.118506	2460.083077
723.450805	2442.439038
723.783056	2470.165385
724.115259	2570.988462
724.447412	2525.618077
724.779518	2520.576923
725.111574	2520.576923
725.443582	2555.865000
725.775542	2475.206538
726.107453	2563.426731
726.439315	2525.618077
726.771129	2510.494615
727.102895	2492.850577
727.434612	2467.644808
727.766281	2465.124231
728.097901	2381.945192
728.429473	2510.494615
728.760996	2545.782692
729.092471	2447.480192
729.423897	2528.138654
729.755276	2545.782692
730.086606	2540.741538
730.417887	2427.315577
730.749120	2507.974038
731.080305	2477.727115
731.411442	2507.974038
731.742530	2419.753846
732.073570	2497.891731
732.404562	2518.056346
732.735506	2507.974038
733.066401	2462.603654
733.397249	2455.041923
733.728048	2588.632500
734.058798	2482.768269
734.389501	2548.303269
734.720156	2444.959615
735.050762	2502.932885
735.381320	2477.727115
735.711831	2540.741538
736.042293	2497.891731
736.372707	2553.344423
736.703073	2550.823846
737.033391	2477.727115
737.363661	2439.918462
737.693883	2447.480192
738.024056	2394.548077
738.354182	2500.412308
738.684260	2538.220962
739.014290	2560.906154
739.344272	2548.303269
739.674207	2538.220962
740.004093	2500.412308
740.333931	2533.179808
740.663722	2505.453462
740.993464	2497.891731
741.323159	2427.315577
741.652806	2515.535769
741.982405	2434.877308
742.311956	2507.974038
742.641460	2397.068654
742.970915	2513.015192
743.300323	2472.685962
743.629683	2482.768269
743.958996	2558.385577
744.288260	2427.315577
744.617477	2495.371154
744.946647	2530.659231
745.275768	2465.124231
745.604842	2507.974038
745.933869	2467.644808
746.262847	2533.179808
746.591778	2450.000769
746.920662	2528.138654
747.249498	2548.303269
747.578286	2472.685962
747.907027	2485.288846
748.235720	2480.247692
748.564365	2462.603654
748.892963	2487.809423
749.221514	2535.700385
749.550017	2437.397885
749.878473	2475.206538
750.206881	2540.741538
750.535242	2533.179808
750.863555	2452.521346
751.191821	2502.932885
751.520039	2563.426731
751.848210	2480.247692
752.176334	2500.412308
752.504411	2475.206538
752.832440	2515.535769
753.160421	2450.000769
753.488356	2490.330000
753.816243	2540.741538
754.144082	2397.068654
754.471875	2502.932885
754.799620	2535.700385
755.127318	2475.206538
755.454969	2480.247692
755.782572	2548.303269
756.110129	2555.865000
756.437638	2472.685962
756.765100	2543.262115
757.092515	2434.877308
757.419882	2543.262115
757.747203	2452.521346
758.074477	2460.083077
758.401703	2485.288846
758.728882	2507.974038
759.056014	2576.029615
759.383099	2465.124231
759.710138	2490.330000
760.037129	2502.932885
760.364073	2528.138654
760.690970	2513.015192
761.017820	2452.521346
761.344623	2510.494615
761.671379	2414.712692
761.998088	2452.521346
762.324751	2465.124231
762.651366	2515.535769
762.977935	2555.865000
763.304456	2518.056346
763.630931	2525.618077
763.957359	2513.015192
764.283740	2598.714808
764.610074	2507.974038
764.936362	2548.303269
765.262602	2513.015192
765.588796	2460.083077
765.914943	2462.603654
766.241044	2543.262115
766.567097	2578.550192
766.893104	2530.659231
767.219064	2470.165385
767.544978	2515.535769
767.870845	2485.288846
768.196665	2457.562500
768.522438	2510.494615
768.848165	2480.247692
769.173846	2518.056346
769.499479	2513.015192
769.825066	2447.480192
770.150607	2460.083077
770.476101	2515.535769
770.801548	2538.220962
771.126949	2520.576923
771.452303	2518.056346
771.777611	2465.124231
772.102872	2543.262115
772.428087	2492.850577
772.753256	2460.083077
773.078378	2422.274423
773.403453	2417.233269
773.728482	2520.576923
774.053465	2555.865000
774.378401	2525.618077
774.703291	2444.959615
775.028135	2553.344423
775.352932	2429.836154
775.677683	2513.015192
776.002388	2462.603654
776.327046	2376.904038
776.651658	2475.206538
776.976224	2480.247692
777.300743	2439.918462
777.625216	2550.823846
777.949643	2507.974038
778.274024	2528.138654
778.598359	2465.124231
778.922647	2455.041923
779.246889	2545.782692
779.571086	2462.603654
779.895236	2523.097500
780.219339	2457.562500
780.543397	2543.262115
780.867409	2477.727115
781.191374	2591.153077
781.515294	2444.959615
781.839167	2482.768269
782.162995	2530.659231
782.486776	2452.521346
782.810511	2540.741538
783.134201	2447.480192
783.457844	2570.988462
783.781441	2460.083077
784.104993	2535.700385
784.428498	2540.741538
784.751958	2533.179808
785.075372	2470.165385
785.398739	2490.330000
785.722061	2533.179808
786.045337	2455.041923
786.368568	2444.959615
786.691752	2500.412308
787.014891	2490.330000
787.337983	2434.877308
787.661030	2487.809423
787.984031	2523.097500
788.306987	2520.576923
788.629897	2540.741538
788.952760	2553.344423
789.275579	2437.397885
789.598351	2490.330000
789.921078	2525.618077
790.243759	2500.412308
790.566395	2444.959615
790.888984	2487.809423
791.211529	2475.206538
791.534027	2457.562500
791.856480	2455.041923
792.178888	2482.768269
792.501249	2558.385577
792.823566	2578.550192
793.145836	2502.932885
793.468062	2513.015192
793.790241	2535.700385
794.112375	2502.932885
794.434464	2467.644808
794.756507	2500.412308
795.078505	2444.959615
795.400457	2482.768269
795.722364	2490.330000
796.044226	2447.480192
796.366042	2419.753846
796.687812	2447.480192
797.009538	2530.659231
797.331218	2520.576923
797.652852	2432.356731
797.974442	2455.041923
798.295986	2472.685962
798.617484	2475.206538
798.938938	2565.947308
799.260346	2439.918462
799.581709	2538.220962
799.903026	2444.959615
800.224299	2487.809423
800.545526	2402.109808
800.866708	2485.288846
801.187845	2477.727115
801.508936	2412.192115
801.829983	2422.274423
802.150984	2439.918462
802.471940	2412.192115
802.792851	2558.385577
803.113717	2535.700385
803.434538	2586.111923
803.755314	2460.083077
804.076045	2490.330000
804.396731	2487.809423
804.717372	2533.179808
805.037967	2371.862885
805.358518	2465.124231
805.679024	2510.494615
805.999485	2518.056346
806.319901	2475.206538
806.640272	2434.877308
806.960598	2507.974038
807.280879	2510.494615
807.601115	2402.109808
807.921306	2467.644808
808.241453	2518.056346
808.561554	2497.891731
808.881611	2520.576923
809.201623	2500.412308
809.521590	2467.644808
809.841513	2513.015192
810.161390	2502.932885
810.481223	2460.083077
810.801011	2379.424615
811.120755	2513.015192
811.440453	2424.795000
811.760107	2515.535769
812.079716	2485.288846
812.399281	2455.041923
812.718801	2555.865000
813.038276	2492.850577
813.357707	2497.891731
813.677093	2502.932885
813.996434	2487.809423
814.315731	2523.097500
814.634983	2450.000769
814.954191	2397.068654
815.273354	2490.330000
815.592473	2422.274423
815.911547	2500.412308
816.230577	2439.918462
816.549562	2558.385577
816.868502	2475.206538
817.187399	2465.124231
817.506250	2540.741538
817.825058	2465.124231
818.143821	2497.891731
818.462539	2412.192115
818.781213	2472.685962
819.099843	2560.906154
819.418429	2497.891731
819.736970	2518.056346
820.055466	2480.247692
820.373919	2495.371154
820.692327	2450.000769
821.010691	2543.262115
821.329011	2412.192115
821.647286	2455.041923
821.965517	2477.727115
822.283704	2505.453462
822.601847	2515.535769
822.919945	2490.330000
823.237999	2548.303269
823.556010	2502.932885
823.873976	2482.768269
824.191897	2482.768269
824.509775	2470.165385
824.827609	2568.467885
825.145398	2434.877308
825.463144	2545.782692
825.780845	2490.330000
826.098502	2581.070769
826.416116	2462.603654
826.733685	2543.262115
827.051210	2538.220962
827.368692	2475.206538
827.686129	2450.000769
828.003522	2455.041923
828.320872	2520.576923
828.638177	2482.768269
828.955439	2523.097500
829.272656	2399.589231
829.589830	2457.562500
829.906960	2500.412308
830.224046	2455.041923
830.541088	2500.412308
830.858086	2495.371154
831.175041	2472.685962
831.491952	2555.865000
831.808819	2543.262115
832.125642	2520.576923
832.442421	2543.262115
832.759157	2480.247692
833.075849	2523.097500
833.392497	2460.083077
833.709101	2515.535769
834.025662	2470.165385
834.342179	2480.247692
834.658653	2475.206538
834.975083	2576.029615
835.291469	2502.932885
835.607811	2485.288846
835.924110	2490.330000
836.240366	2447.480192
836.556578	2513.015192
836.872746	2525.618077
837.188871	2472.685962
837.504952	2480.247692
837.820990	2523.097500
838.136984	2520.576923
838.452935	2492.850577
838.768842	2490.330000
839.084706	2495.371154
839.400526	2500.412308
839.716303	2485.288846
840.032037	2465.124231
840.347727	2535.700385
840.663373	2432.356731
840.978977	2455.041923
841.294537	2477.727115
841.610054	2507.974038
841.925527	2502.932885
842.240957	2485.288846
842.556344	2477.727115
842.871687	2482.768269
843.186987	2492.850577
843.502244	2460.083077
843.817458	2492.850577
844.132629	2533.179808
844.447756	2505.453462
844.762840	2520.576923
845.077881	2485.288846
845.392879	2434.877308
845.707833	2555.865000
846.022745	2523.097500
846.337613	2444.959615
846.652438	2553.344423
846.967221	2558.385577
847.281960	2543.262115
847.596656	2591.153077
847.911309	2397.068654
848.225919	2495.371154
848.540485	2513.015192
848.855009	2399.589231
849.169490	2485.288846
849.483928	2427.315577
849.798323	2507.974038
850.112675	2429.836154
850.426984	2510.494615
850.741251	2507.974038
851.055474	2538.220962
851.369654	2502.932885
851.683792	2485.288846
851.997887	2500.412308
852.311938	2477.727115
852.625947	2452.521346
852.939914	2429.836154
853.253837	2457.562500
853.567718	2460.083077
853.881555	2472.685962
854.195350	2510.494615
854.509103	2485.288846
854.822812	2467.644808
855.136479	2560.906154
855.450103	2465.124231
855.763685	2490.330000
856.077224	2467.644808
856.390720	2513.015192
856.704173	2560.906154
857.017584	2472.685962
857.330953	2460.083077
857.644278	2578.550192
857.957561	2530.659231
858.270802	2475.206538
858.584000	2515.535769
858.897155	2540.741538
859.210268	2533.179808
859.523339	2450.000769
859.836367	2487.809423
860.149352	2507.974038
860.462295	2475.206538
860.775195	2465.124231
861.088054	2490.330000
861.400869	2523.097500
861.713642	2412.192115
862.026373	2528.138654
862.339062	2447.480192
862.651708	2480.247692
862.964312	2460.083077
863.276873	2470.165385
863.589392	2548.303269
863.901869	2422.274423
864.214303	2535.700385
864.526696	2470.165385
864.839045	2545.782692
865.151353	2462.603654
865.463619	2485.288846
865.775842	2518.056346
866.088023	2490.330000
866.400162	2533.179808
866.712258	2480.247692
867.024313	2502.932885
867.336325	2412.192115
867.648296	2525.618077
867.960224	2570.988462
868.272110	2480.247692
868.583954	2510.494615
868.895755	2480.247692
869.207515	2543.262115
869.519233	2465.124231
869.830909	2520.576923
870.142542	2429.836154
870.454134	2520.576923
870.765684	2444.959615
871.077191	2563.426731
871.388657	2550.823846
871.700081	2460.083077
872.011463	2550.823846
872.322803	2462.603654
872.634101	2495.371154
872.945357	2455.041923
873.256571	2570.988462
873.567744	2429.836154
873.878874	2475.206538
874.189963	2457.562500
874.501010	2442.439038
874.812015	2455.041923
875.122979	2404.630385
875.433900	2462.603654
875.744780	2548.303269
876.055618	2505.453462
876.366415	2412.192115
876.677169	2538.220962
876.987882	2576.029615
877.298554	2492.850577
877.609183	2432.356731
877.919771	2475.206538
878.230317	2457.562500
878.540822	2432.356731
878.851285	2465.124231
879.161707	2444.959615
879.472087	2563.426731
879.782425	2482.768269
880.092722	2515.535769
880.402977	2462.603654
880.713191	2467.644808
881.023363	2409.671538
881.333494	2505.453462
881.643583	2497.891731
881.953631	2394.548077
882.263637	2497.891731
882.573602	2485.288846
882.883526	2528.138654
883.193408	2467.644808
883.503248	2518.056346
883.813048	2487.809423
884.122806	2467.644808
884.432522	2452.521346
884.742197	2538.220962
885.051831	2482.768269
885.361424	2467.644808
885.670975	2447.480192
885.980485	2515.535769
886.289954	2457.562500
886.599382	2510.494615
886.908768	2437.397885
887.218113	2477.727115
887.527417	2482.768269
887.836680	2492.850577
888.145901	2490.330000
888.455082	2487.809423
888.764221	2553.344423
889.073319	2414.712692
889.382376	2515.535769
889.691392	2475.206538
890.000366	2437.397885
890.309300	2505.453462
890.618193	2417.233269
890.927044	2437.397885
891.235855	2442.439038
891.544625	2457.562500
891.853353	2492.850577
892.162041	2432.356731
892.470687	2598.714808
892.779293	2450.000769
893.087858	2497.891731
893.396381	2520.576923
893.704864	2495.371154
894.013306	2407.150962
894.321707	2535.700385
894.630068	2442.439038
894.938387	2429.836154
895.246665	2472.685962
895.554903	2507.974038
895.863100	2381.945192
896.171256	2515.535769
896.479371	2369.342308
896.787446	2535.700385
897.095480	2397.068654
897.403473	2565.947308
897.711425	2568.467885
898.019336	2570.988462
898.327207	2538.220962
898.635038	2492.850577
898.942827	2528.138654
899.250576	2578.550192
899.558284	2475.206538
899.865952	2492.850577
900.173579	2460.083077
900.481165	2482.768269
900.788711	2588.632500
901.096216	2482.768269
901.403681	2480.247692
901.711105	2500.412308
902.018489	2520.576923
902.325832	2523.097500
902.633135	2485.288846
902.940397	2439.918462
903.247619	2530.659231
903.554800	2530.659231
903.861941	2465.124231
904.169041	2533.179808
904.476101	2515.535769
904.783121	2530.659231
905.090100	2525.618077
905.397039	2533.179808
905.703938	2450.000769
906.010796	2497.891731
906.317614	2510.494615
906.624391	2422.274423
906.931129	2500.412308
907.237826	2520.576923
907.544483	2472.685962
907.851099	2495.371154
908.157675	2424.795000
908.464211	2560.906154
908.770707	2444.959615
909.077163	2465.124231
909.383578	2452.521346
909.689954	2497.891731
909.996289	2384.465769
910.302584	2492.850577
910.608839	2533.179808
910.915054	2465.124231
911.221229	2513.015192
911.527363	2442.439038
911.833458	2510.494615
912.139513	2460.083077
912.445527	2548.303269
912.751502	2576.029615
913.057436	2495.371154
913.363331	2485.288846
913.669186	2460.083077
913.975000	2558.385577
914.280775	2538.220962
914.586510	2432.356731
914.892205	2492.850577
915.197859	2444.959615
915.503475	2477.727115
915.809050	2538.220962
916.114585	2465.124231
916.420081	2495.371154
916.725536	2497.891731
917.030952	2487.809423
917.336328	2492.850577
917.641665	2386.986346
917.946961	2457.562500
918.252218	2457.562500
918.557435	2523.097500
918.862612	2505.453462
919.167750	2472.685962
919.472848	2523.097500
919.777906	2492.850577
920.082925	2505.453462
920.387904	2442.439038
920.692843	2475.206538
920.997743	2576.029615
921.302603	2495.371154
921.607423	2513.015192
921.912204	2434.877308
922.216946	2502.932885
922.521647	2462.603654
922.826310	2477.727115
923.130932	2565.947308
923.435516	2447.480192
923.740059	2555.865000
924.044564	2450.000769
924.349028	2497.891731
924.653454	2538.220962
924.957840	2482.768269
925.262186	2472.685962
925.566493	2495.371154
925.870761	2553.344423
926.174989	2528.138654
926.479178	2510.494615
926.783328	2419.753846
927.087438	2467.644808
927.391509	2490.330000
927.695541	2487.809423
927.999533	2490.330000
928.303486	2510.494615
928.607400	2487.809423
928.911275	2470.165385
929.215110	2538.220962
929.518906	2475.206538
929.822663	2500.412308
930.126381	2492.850577
930.430060	2485.288846
930.733699	2462.603654
931.037299	2507.974038
931.340861	2444.959615
931.644383	2475.206538
931.947866	2492.850577
932.251309	2485.288846
932.554714	2417.233269
932.858080	2523.097500
933.161407	2482.768269
933.464694	2545.782692
933.767943	2397.068654
934.071153	2407.150962
934.374323	2500.412308
934.677455	2460.083077
934.980548	2447.480192
935.283602	2518.056346
935.586617	2497.891731
935.889593	2470.165385
936.192530	2434.877308
936.495428	2477.727115
936.798287	2563.426731
937.101108	2598.714808
937.403890	2525.618077
937.706632	2523.097500
938.009336	2417.233269
938.312002	2439.918462
938.614628	2432.356731
938.917216	2467.644808
939.219765	2545.782692
939.522275	2487.809423
939.824747	2439.918462
940.127179	2475.206538
940.429573	2513.015192
940.731929	2553.344423
941.034246	2513.015192
941.336524	2439.918462
941.638763	2538.220962
941.940964	2460.083077
942.243126	2490.330000
942.545250	2490.330000
942.847335	2535.700385
943.149381	2558.385577
943.451389	2444.959615
943.753359	2424.795000
944.055290	2444.959615
944.357182	2518.056346
944.659036	2528.138654
944.960851	2442.439038
945.262628	2497.891731
945.564367	2447.480192
945.866067	2442.439038
946.167729	2462.603654
946.469352	2520.576923
946.770937	2477.727115
947.072484	2543.262115
947.373992	2535.700385
947.675462	2520.576923
947.976893	2565.947308
948.278286	2472.685962
948.579641	2455.041923
948.880958	2538.220962
949.182236	2460.083077
949.483476	2462.603654
949.784678	2439.918462
950.085841	2422.274423
950.386967	2518.056346
950.688054	2505.453462
950.989103	2444.959615
951.290114	2465.124231
951.591087	2490.330000
951.892021	2518.056346
952.192917	2477.727115
952.493776	2417.233269
952.794596	2432.356731
953.095378	2500.412308
953.396122	2452.521346
953.696828	2497.891731
953.997496	2482.768269
954.298126	2460.083077
954.598718	2429.836154
954.899272	2540.741538
955.199788	2472.685962
955.500266	2515.535769
955.800706	2465.124231
956.101108	2540.741538
956.401472	2510.494615
956.701798	2475.206538
957.002087	2452.521346
957.302337	2482.768269
957.602550	2550.823846
957.902724	2404.630385
958.202861	2452.521346
958.502960	2434.877308
958.803022	2495.371154
959.103045	2470.165385
959.403031	2502.932885
959.702979	2560.906154
960.002889	2573.509038
960.302762	2553.344423
960.602596	2485.288846
960.902393	2495.371154
961.202153	2550.823846
961.501875	2515.535769
961.801559	2535.700385
962.101205	2502.932885
962.400814	2502.932885
962.700385	2465.124231
962.999918	2543.262115
963.299414	2467.644808
963.598873	2545.782692
963.898293	2475.206538
964.197677	2472.685962
964.497022	2500.412308
964.796331	2427.315577
965.095601	2422.274423
965.394835	2518.056346
965.694030	2525.618077
965.993189	2460.083077
966.292309	2462.603654
966.591393	2475.206538
966.890439	2507.974038
967.189447	2442.439038
967.488419	2510.494615
967.787353	2515.535769
968.086249	2457.562500
968.385108	2477.727115
968.683930	2485.288846
968.982714	2460.083077
969.281462	2487.809423
969.580172	2477.727115
969.878844	2553.344423
970.177480	2487.809423
970.476078	2510.494615
970.774639	2553.344423
971.073162	2432.356731
971.371649	2465.124231
971.670098	2487.809423
971.968510	2530.659231
972.266885	2485.288846
972.565223	2475.206538
972.863524	2442.439038
973.161788	2518.056346
973.460014	2500.412308
973.758204	2507.974038
974.056356	2513.015192
974.354471	2535.700385
974.652550	2502.932885
974.950591	2470.165385
975.248595	2568.467885
975.546563	2470.165385
975.844493	2538.220962
976.142386	2576.029615
976.440243	2465.124231
976.738062	2467.644808
977.035845	2389.506923
977.333590	2568.467885
977.631299	2442.439038
977.928971	2442.439038
978.226606	2502.932885
978.524204	2434.877308
978.821765	2548.303269
979.119290	2495.371154
979.416777	2535.700385
979.714228	2475.206538
980.011642	2472.685962
980.309020	2482.768269
980.606360	2482.768269
980.903664	2442.439038
981.200931	2502.932885
981.498162	2505.453462
981.795356	2424.795000
982.092513	2515.535769
982.389633	2470.165385
982.686717	2434.877308
982.983764	2523.097500
983.280775	2417.233269
983.577749	2563.426731
983.874686	2444.959615
984.171587	2533.179808
984.468451	2495.371154
984.765279	2513.015192
985.062070	2450.000769
985.358824	2492.850577
985.655543	2450.000769
985.952224	2487.809423
986.248869	2525.618077
986.545478	2500.412308
986.842050	2560.906154
987.138586	2520.576923
987.435086	2477.727115
987.731549	2548.303269
988.027975	2480.247692
988.324366	2450.000769
988.620719	2500.412308
988.917037	2502.932885
989.213318	2427.315577
989.509563	2500.412308
989.805772	2470.165385
990.101944	2520.576923
990.398080	2419.753846
990.694180	2502.932885
990.990244	2480.247692
991.286271	2460.083077
991.582262	2545.782692
991.878217	2480.247692
992.174136	2414.712692
992.470019	2470.165385
992.765865	2500.412308
993.061676	2518.056346
993.357450	2500.412308
993.653188	2492.850577
993.948890	2510.494615
994.244556	2480.247692
994.540186	2518.056346
994.835780	2490.330000
995.131337	2470.165385
995.426859	2505.453462
995.722345	2530.659231
996.017795	2447.480192
996.313208	2545.782692
996.608586	2550.823846
996.903928	2507.974038
997.199234	2485.288846
997.494504	2497.891731
997.789738	2507.974038
998.084936	2520.576923
998.380099	2518.056346
998.675225	2452.521346
998.970316	2543.262115
999.265371	2427.315577
999.560390	2555.865000
999.855373	2457.562500
1000.150320	2606.276538
1000.445232	2550.823846
1000.740108	2447.480192
1001.034948	2462.603654
1001.329752	2457.562500
1001.624521	2548.303269
1001.919254	2434.877308
1002.213951	2386.986346
1002.508613	2450.000769
1002.803239	2467.644808
1003.097829	2558.385577
1003.392384	2417.233269
1003.686903	2427.315577
1003.981386	2399.589231
1004.275834	2487.809423
1004.570246	2482.768269
1004.864623	2447.480192
1005.158964	2442.439038
1005.453270	2434.877308
1005.747540	2578.550192
1006.041775	2429.836154
1006.335974	2442.439038
1006.630138	2495.371154
1006.924266	2523.097500
1007.218359	2497.891731
1007.512416	2470.165385
1007.806438	2490.330000
1008.100425	2497.891731
1008.394376	2450.000769
1008.688292	2477.727115
1008.982172	2480.247692
1009.276017	2495.371154
1009.569827	2518.056346
1009.863602	2470.165385
1010.157341	2457.562500
1010.451045	2470.165385
1010.744714	2477.727115
1011.038347	2482.768269
1011.331945	2450.000769
1011.625508	2492.850577
1011.919036	2540.741538
1012.212528	2467.644808
1012.505986	2495.371154
1012.799408	2460.083077
1013.092795	2455.041923
1013.386147	2475.206538
1013.679464	2513.015192
1013.972745	2513.015192
1014.265992	2495.371154
1014.559204	2558.385577
1014.852380	2568.467885
1015.145521	2560.906154
1015.438628	2530.659231
1015.731699	2492.850577
1016.024736	2598.714808
1016.317737	2487.809423
1016.610703	2545.782692
1016.903635	2490.330000
1017.196531	2530.659231
1017.489393	2523.097500
1017.782219	2467.644808
1018.075011	2502.932885
1018.367768	2455.041923
1018.660490	2530.659231
1018.953177	2530.659231
1019.245829	2530.659231
