Dividing Wavelength (nm)	Counts (n)	Blue Motor Position (mm): 8.000000	Red Motor Position (mm): 0.000000	
326.493990	2094.599423
326.888308	2094.599423
327.282561	2094.599423
327.676750	2124.846346
328.070874	2001.338077
328.464933	2074.434808
328.858929	2051.749615
329.252859	2029.064423
329.646726	2129.887500
330.040528	2134.928654
330.434265	2114.764038
330.827938	2215.587115
331.221547	2066.873077
331.615091	2218.107692
332.008571	2129.887500
332.401986	2175.257885
332.795338	2265.998654
333.188625	2243.313462
333.581847	2268.519231
333.975006	2293.725000
334.368100	2225.669423
334.761129	2250.875192
335.154095	2306.327885
335.546996	2318.930769
335.939833	2361.780577
336.332606	2306.327885
336.725315	2379.424615
337.117960	2427.315577
337.510540	2374.383462
337.903056	2409.671538
338.295508	2392.027500
338.687896	2444.959615
339.080220	2432.356731
339.472480	2513.015192
339.864676	2419.753846
340.256807	2439.918462
340.648875	2492.850577
341.040879	2450.000769
341.432818	2480.247692
341.824694	2510.494615
342.216506	2399.589231
342.608253	2374.383462
342.999937	2495.371154
343.391557	2465.124231
343.783113	2334.054231
344.174605	2500.412308
344.566033	2497.891731
344.957397	2538.220962
345.348697	2457.562500
345.739934	2412.192115
346.131106	2495.371154
346.522215	2457.562500
346.913260	2533.179808
347.304241	2407.150962
347.695159	2414.712692
348.086012	2437.397885
348.476802	2392.027500
348.867528	2455.041923
349.258191	2407.150962
349.648789	2437.397885
350.039324	2437.397885
350.429796	2475.206538
350.820203	2457.562500
351.210548	2422.274423
351.600828	2523.097500
351.991045	2472.685962
352.381198	2477.727115
352.771288	2402.109808
353.161314	2354.218846
353.551276	2374.383462
353.941175	2439.918462
354.331010	2351.698269
354.720782	2374.383462
355.110490	2386.986346
355.500135	2518.056346
355.889717	2414.712692
356.279235	2384.465769
356.668689	2412.192115
357.058080	2462.603654
357.447408	2467.644808
357.836672	2437.397885
358.225873	2482.768269
358.615010	2394.548077
359.004084	2444.959615
359.393095	2457.562500
359.782043	2412.192115
360.170927	2389.506923
360.559748	2402.109808
360.948505	2412.192115
361.337199	2477.727115
361.725830	2500.412308
362.114398	2434.877308
362.502903	2404.630385
362.891344	2510.494615
363.279722	2437.397885
363.668037	2500.412308
364.056289	2442.439038
364.444478	2447.480192
364.832603	2404.630385
365.220665	2392.027500
365.608665	2429.836154
365.996601	2555.865000
366.384474	2452.521346
366.772284	2447.480192
367.160031	2444.959615
367.547715	2515.535769
367.935336	2553.344423
368.322893	2439.918462
368.710388	2533.179808
369.097820	2452.521346
369.485189	2558.385577
369.872495	2470.165385
370.259738	2515.535769
370.646918	2470.165385
371.034035	2455.041923
371.421090	2477.727115
371.808081	2515.535769
372.195010	2442.439038
372.581875	2434.877308
372.968678	2366.821731
373.355418	2412.192115
373.742096	2507.974038
374.128710	2480.247692
374.515262	2497.891731
374.901751	2507.974038
375.288177	2450.000769
375.674540	2467.644808
376.060841	2429.836154
376.447079	2513.015192
376.833254	2462.603654
377.219367	2409.671538
377.605417	2407.150962
377.991404	2439.918462
378.377329	2465.124231
378.763191	2480.247692
379.148991	2460.083077
379.534727	2482.768269
379.920402	2434.877308
380.306013	2361.780577
380.691563	2439.918462
381.077049	2515.535769
381.462474	2485.288846
381.847835	2437.397885
382.233134	2535.700385
382.618371	2429.836154
383.003545	2452.521346
383.388657	2417.233269
383.773706	2417.233269
384.158693	2457.562500
384.543618	2470.165385
384.928480	2495.371154
385.313280	2523.097500
385.698017	2497.891731
386.082692	2513.015192
386.467305	2444.959615
386.851856	2502.932885
387.236344	2399.589231
387.620770	2507.974038
388.005133	2450.000769
388.389435	2442.439038
388.773674	2424.795000
389.157851	2424.795000
389.541965	2467.644808
389.926018	2480.247692
390.310008	2510.494615
390.693936	2487.809423
391.077802	2513.015192
391.461606	2462.603654
391.845348	2475.206538
392.229027	2470.165385
392.612645	2553.344423
392.996200	2540.741538
393.379694	2465.124231
393.763125	2523.097500
394.146494	2429.836154
394.529801	2520.576923
394.913047	2450.000769
395.296230	2553.344423
395.679351	2434.877308
396.062410	2515.535769
396.445408	2505.453462
396.828343	2555.865000
397.211217	2434.877308
397.594028	2462.603654
397.976778	2513.015192
398.359466	2452.521346
398.742092	2482.768269
399.124656	2447.480192
399.507158	2465.124231
399.889598	2495.371154
400.271977	2535.700385
400.654294	2515.535769
401.036549	2528.138654
401.418742	2452.521346
401.800874	2462.603654
402.182944	2457.562500
402.564952	2588.632500
402.946898	2472.685962
403.328783	2515.535769
403.710606	2414.712692
404.092367	2412.192115
404.474067	2492.850577
404.855705	2439.918462
405.237282	2467.644808
405.618797	2578.550192
406.000250	2480.247692
406.381642	2450.000769
406.762972	2460.083077
407.144240	2548.303269
407.525447	2402.109808
407.906593	2480.247692
408.287677	2450.000769
408.668700	2495.371154
409.049661	2467.644808
409.430560	2515.535769
409.811399	2460.083077
410.192176	2460.083077
410.572891	2457.562500
410.953545	2482.768269
411.334138	2417.233269
411.714669	2485.288846
412.095139	2444.959615
412.475547	2487.809423
412.855894	2480.247692
413.236180	2361.780577
413.616405	2523.097500
413.996568	2502.932885
414.376670	2417.233269
414.756711	2439.918462
415.136691	2530.659231
415.516609	2450.000769
415.896466	2475.206538
416.276262	2487.809423
416.655997	2470.165385
417.035670	2490.330000
417.415283	2500.412308
417.794834	2442.439038
418.174324	2482.768269
418.553753	2480.247692
418.933121	2495.371154
419.312428	2485.288846
419.691674	2409.671538
420.070859	2525.618077
420.449983	2429.836154
420.829045	2467.644808
421.208047	2513.015192
421.586988	2520.576923
421.965867	2462.603654
422.344686	2455.041923
422.723444	2543.262115
423.102141	2515.535769
423.480777	2424.795000
423.859352	2540.741538
424.237866	2442.439038
424.616319	2460.083077
424.994712	2437.397885
425.373044	2432.356731
425.751314	2520.576923
426.129524	2434.877308
426.507673	2535.700385
426.885762	2437.397885
427.263789	2460.083077
427.641756	2530.659231
428.019662	2528.138654
428.397508	2447.480192
428.775292	2523.097500
429.153016	2470.165385
429.530679	2470.165385
429.908282	2497.891731
430.285824	2402.109808
430.663305	2490.330000
431.040726	2555.865000
431.418086	2520.576923
431.795385	2427.315577
432.172624	2475.206538
432.549802	2470.165385
432.926920	2492.850577
433.303977	2540.741538
433.680974	2437.397885
434.057910	2417.233269
434.434786	2525.618077
434.811601	2460.083077
435.188355	2470.165385
435.565050	2422.274423
435.941683	2381.945192
436.318257	2457.562500
436.694770	2480.247692
437.071222	2535.700385
437.447614	2409.671538
437.823946	2500.412308
438.200218	2492.850577
438.576429	2465.124231
438.952580	2447.480192
439.328670	2505.453462
439.704700	2485.288846
440.080670	2591.153077
440.456580	2548.303269
440.832429	2548.303269
441.208218	2523.097500
441.583947	2462.603654
441.959616	2460.083077
442.335224	2523.097500
442.710773	2442.439038
443.086261	2470.165385
443.461689	2500.412308
443.837057	2470.165385
444.212365	2495.371154
444.587612	2429.836154
444.962800	2525.618077
445.337927	2480.247692
445.712995	2510.494615
446.088002	2457.562500
446.462949	2460.083077
446.837837	2573.509038
447.212664	2439.918462
447.587431	2520.576923
447.962139	2457.562500
448.336786	2460.083077
448.711374	2515.535769
449.085901	2434.877308
449.460369	2444.959615
449.834776	2492.850577
450.209124	2490.330000
450.583412	2417.233269
450.957640	2437.397885
451.331808	2487.809423
451.705917	2495.371154
452.079965	2455.041923
452.453954	2523.097500
452.827883	2487.809423
453.201752	2452.521346
453.575562	2513.015192
453.949311	2487.809423
454.323001	2414.712692
454.696632	2437.397885
455.070202	2424.795000
455.443713	2530.659231
455.817164	2497.891731
456.190556	2502.932885
456.563888	2518.056346
456.937160	2462.603654
457.310373	2465.124231
457.683526	2371.862885
458.056619	2470.165385
458.429653	2452.521346
458.802628	2475.206538
459.175542	2492.850577
459.548398	2520.576923
459.921194	2485.288846
460.293930	2495.371154
460.666607	2472.685962
461.039224	2515.535769
461.411782	2510.494615
461.784280	2467.644808
462.156719	2507.974038
462.529099	2540.741538
462.901419	2533.179808
463.273680	2444.959615
463.645882	2513.015192
464.018024	2507.974038
464.390106	2540.741538
464.762130	2429.836154
465.134094	2553.344423
465.505999	2399.589231
465.877845	2432.356731
466.249631	2505.453462
466.621358	2490.330000
466.993026	2540.741538
467.364634	2434.877308
467.736184	2495.371154
468.107674	2487.809423
468.479105	2560.906154
468.850477	2465.124231
469.221790	2507.974038
469.593043	2432.356731
469.964238	2583.591346
470.335373	2485.288846
470.706449	2518.056346
471.077467	2502.932885
471.448425	2485.288846
471.819324	2384.465769
472.190164	2472.685962
472.560945	2573.509038
472.931667	2525.618077
473.302330	2381.945192
473.672934	2477.727115
474.043479	2485.288846
474.413965	2349.177692
474.784393	2467.644808
475.154761	2455.041923
475.525070	2578.550192
475.895321	2422.274423
476.265513	2480.247692
476.635645	2502.932885
477.005719	2518.056346
477.375734	2457.562500
477.745691	2505.453462
478.115588	2530.659231
478.485427	2525.618077
478.855207	2502.932885
479.224928	2457.562500
479.594591	2427.315577
479.964194	2444.959615
480.333739	2598.714808
480.703226	2470.165385
481.072653	2487.809423
481.442022	2487.809423
481.811333	2553.344423
482.180584	2427.315577
482.549777	2535.700385
482.918912	2467.644808
483.287988	2538.220962
483.657005	2500.412308
484.025964	2482.768269
484.394864	2553.344423
484.763706	2412.192115
485.132489	2482.768269
485.501213	2439.918462
485.869879	2550.823846
486.238487	2510.494615
486.607036	2525.618077
486.975527	2399.589231
487.343959	2550.823846
487.712333	2455.041923
488.080648	2540.741538
488.448905	2467.644808
488.817104	2560.906154
489.185244	2555.865000
489.553326	2538.220962
489.921350	2475.206538
490.289315	2538.220962
490.657222	2455.041923
491.025070	2573.509038
491.392861	2518.056346
491.760593	2452.521346
492.128267	2462.603654
492.495883	2442.439038
492.863440	2455.041923
493.230939	2548.303269
493.598380	2455.041923
493.965763	2444.959615
494.333088	2495.371154
494.700354	2482.768269
495.067563	2477.727115
495.434713	2447.480192
495.801805	2477.727115
496.168839	2477.727115
496.535815	2540.741538
496.902733	2492.850577
497.269593	2523.097500
497.636395	2467.644808
498.003139	2523.097500
498.369825	2495.371154
498.736453	2444.959615
499.103023	2540.741538
499.469535	2558.385577
499.835989	2490.330000
500.202385	2518.056346
500.568723	2412.192115
500.935003	2419.753846
501.301226	2533.179808
501.667390	2450.000769
502.033497	2447.480192
502.399546	2485.288846
502.765537	2510.494615
503.131470	2505.453462
503.497345	2404.630385
503.863163	2442.439038
504.228923	2487.809423
504.594625	2460.083077
504.960269	2523.097500
505.325856	2482.768269
505.691385	2450.000769
506.056856	2467.644808
506.422270	2560.906154
506.787625	2455.041923
507.152924	2414.712692
507.518164	2455.041923
507.883347	2523.097500
508.248472	2500.412308
508.613540	2472.685962
508.978550	2477.727115
509.343503	2533.179808
509.708398	2414.712692
510.073236	2500.412308
510.438016	2530.659231
510.802738	2487.809423
511.167403	2515.535769
511.532010	2518.056346
511.896561	2586.111923
512.261053	2515.535769
512.625488	2543.262115
512.989866	2427.315577
513.354186	2482.768269
513.718449	2588.632500
514.082655	2523.097500
514.446803	2434.877308
514.810894	2472.685962
515.174927	2495.371154
515.538904	2513.015192
515.902822	2550.823846
516.266684	2513.015192
516.630488	2540.741538
516.994235	2381.945192
517.357925	2555.865000
517.721558	2540.741538
518.085133	2409.671538
518.448651	2576.029615
518.812112	2525.618077
519.175516	2462.603654
519.538863	2520.576923
519.902152	2475.206538
520.265385	2467.644808
520.628560	2533.179808
520.991678	2525.618077
521.354739	2429.836154
521.717743	2442.439038
522.080690	2472.685962
522.443580	2439.918462
522.806413	2502.932885
523.169189	2450.000769
523.531908	2480.247692
523.894569	2485.288846
524.257174	2480.247692
524.619722	2434.877308
524.982213	2394.548077
525.344647	2470.165385
525.707025	2528.138654
526.069345	2485.288846
526.431608	2548.303269
526.793815	2442.439038
527.155964	2465.124231
527.518057	2563.426731
527.880093	2518.056346
528.242072	2492.850577
528.603995	2555.865000
528.965860	2437.397885
529.327669	2460.083077
529.689421	2507.974038
530.051117	2540.741538
530.412755	2497.891731
530.774337	2538.220962
531.135862	2515.535769
531.497331	2548.303269
531.858743	2490.330000
532.220098	2548.303269
532.581396	2563.426731
532.942638	2497.891731
533.303824	2558.385577
533.664953	2495.371154
534.026025	2528.138654
534.387040	2510.494615
534.747999	2482.768269
535.108902	2467.644808
535.469748	2603.755962
535.830537	2472.685962
536.191270	2510.494615
536.551947	2500.412308
536.912567	2467.644808
537.273131	2545.782692
537.633638	2505.453462
537.994089	2439.918462
538.354483	2530.659231
538.714821	2467.644808
539.075103	2462.603654
539.435328	2447.480192
539.795497	2470.165385
540.155609	2455.041923
540.515665	2513.015192
540.875665	2550.823846
541.235609	2427.315577
541.595496	2520.576923
541.955328	2538.220962
542.315102	2480.247692
542.674821	2510.494615
543.034483	2518.056346
543.394090	2424.795000
543.753640	2497.891731
544.113134	2470.165385
544.472571	2444.959615
544.831953	2502.932885
545.191278	2482.768269
545.550548	2432.356731
545.909761	2500.412308
546.268918	2472.685962
546.628019	2485.288846
546.987064	2465.124231
547.346053	2550.823846
547.704986	2429.836154
548.063863	2520.576923
548.422684	2482.768269
548.781449	2538.220962
549.140158	2424.795000
549.498811	2465.124231
549.857408	2601.235385
550.215949	2480.247692
550.574434	2386.986346
550.932864	2518.056346
551.291237	2502.932885
551.649555	2429.836154
552.007817	2470.165385
552.366022	2457.562500
552.724173	2543.262115
553.082267	2475.206538
553.440305	2500.412308
553.798288	2565.947308
554.156215	2447.480192
554.514086	2439.918462
554.871902	2482.768269
555.229661	2505.453462
555.587365	2462.603654
555.945014	2603.755962
556.302606	2444.959615
556.660143	2490.330000
557.017625	2523.097500
557.375050	2450.000769
557.732421	2540.741538
558.089735	2553.344423
558.446994	2465.124231
558.804197	2419.753846
559.161345	2525.618077
559.518437	2490.330000
559.875474	2439.918462
560.232455	2523.097500
560.589381	2505.453462
560.946251	2502.932885
561.303065	2570.988462
561.659825	2470.165385
562.016528	2465.124231
562.373177	2477.727115
562.729770	2510.494615
563.086307	2475.206538
563.442789	2455.041923
563.799216	2437.397885
564.155587	2578.550192
564.511904	2434.877308
564.868164	2528.138654
565.224370	2553.344423
565.580520	2477.727115
565.936615	2487.809423
566.292654	2502.932885
566.648638	2518.056346
567.004567	2480.247692
567.360441	2492.850577
567.716260	2507.974038
568.072023	2460.083077
568.427732	2543.262115
568.783385	2545.782692
569.138982	2505.453462
569.494525	2381.945192
569.850013	2510.494615
570.205445	2550.823846
570.560823	2467.644808
570.916145	2518.056346
571.271412	2586.111923
571.626625	2470.165385
571.981782	2465.124231
572.336884	2427.315577
572.691931	2477.727115
573.046923	2482.768269
573.401860	2475.206538
573.756743	2518.056346
574.111570	2477.727115
574.466342	2417.233269
574.821059	2480.247692
575.175722	2487.809423
575.530330	2417.233269
575.884882	2538.220962
576.239380	2447.480192
576.593823	2495.371154
576.948211	2502.932885
577.302544	2528.138654
577.656823	2482.768269
578.011047	2573.509038
578.365216	2543.262115
578.719330	2530.659231
579.073389	2422.274423
579.427394	2510.494615
579.781344	2475.206538
580.135239	2485.288846
580.489080	2500.412308
580.842866	2439.918462
581.196597	2455.041923
581.550273	2467.644808
581.903895	2492.850577
582.257463	2505.453462
582.610975	2450.000769
582.964434	2487.809423
583.317837	2588.632500
583.671186	2510.494615
584.024481	2518.056346
584.377721	2505.453462
584.730906	2482.768269
585.084037	2497.891731
585.437113	2500.412308
585.790135	2477.727115
586.143103	2462.603654
586.496016	2414.712692
586.848874	2447.480192
587.201679	2414.712692
587.554428	2502.932885
587.907124	2399.589231
588.259765	2538.220962
588.612352	2472.685962
588.964884	2538.220962
589.317362	2450.000769
589.669786	2434.877308
590.022155	2407.150962
590.374470	2581.070769
590.726731	2492.850577
591.078937	2505.453462
591.431090	2528.138654
591.783188	2437.397885
592.135232	2525.618077
592.487222	2545.782692
592.839157	2477.727115
593.191038	2553.344423
593.542866	2422.274423
593.894639	2513.015192
594.246358	2462.603654
594.598022	2518.056346
594.949633	2470.165385
595.301190	2520.576923
595.652692	2520.576923
596.004141	2394.548077
596.355535	2507.974038
596.706876	2530.659231
597.058162	2591.153077
597.409395	2550.823846
597.760573	2487.809423
598.111698	2578.550192
598.462768	2419.753846
598.813785	2485.288846
599.164748	2490.330000
599.515657	2472.685962
599.866511	2518.056346
600.217312	2455.041923
600.568060	2487.809423
600.918753	2490.330000
601.269392	2520.576923
601.619978	2462.603654
601.970510	2548.303269
602.320988	2573.509038
602.671412	2485.288846
603.021783	2455.041923
603.372100	2510.494615
603.722363	2533.179808
604.072572	2450.000769
604.422728	2457.562500
604.772830	2543.262115
605.122878	2480.247692
605.472872	2520.576923
605.822813	2550.823846
606.172701	2518.056346
606.522534	2555.865000
606.872314	2470.165385
607.222041	2444.959615
607.571714	2485.288846
607.921333	2462.603654
608.270899	2492.850577
608.620411	2450.000769
608.969870	2533.179808
609.319276	2462.603654
609.668627	2530.659231
610.017926	2555.865000
610.367171	2500.412308
610.716362	2505.453462
611.065500	2475.206538
611.414585	2439.918462
611.763616	2432.356731
612.112594	2460.083077
612.461518	2558.385577
612.810389	2487.809423
613.159207	2550.823846
613.507971	2505.453462
613.856682	2490.330000
614.205340	2502.932885
614.553945	2477.727115
614.902496	2555.865000
615.250994	2507.974038
615.599439	2535.700385
615.947830	2500.412308
616.296169	2513.015192
616.644454	2467.644808
616.992686	2538.220962
617.340864	2467.644808
617.688990	2460.083077
618.037063	2545.782692
618.385082	2452.521346
618.733048	2558.385577
619.080961	2477.727115
619.428821	2460.083077
619.776628	2502.932885
620.124382	2550.823846
620.472083	2462.603654
620.819731	2427.315577
621.167326	2444.959615
621.514868	2450.000769
621.862357	2495.371154
622.209793	2525.618077
622.557176	2442.439038
622.904506	2502.932885
623.251783	2455.041923
623.599007	2462.603654
623.946179	2563.426731
624.293297	2586.111923
624.640363	2450.000769
624.987376	2553.344423
625.334336	2601.235385
625.681243	2485.288846
626.028097	2422.274423
626.374899	2530.659231
626.721647	2414.712692
627.068343	2545.782692
627.414987	2553.344423
627.761577	2480.247692
628.108115	2465.124231
628.454600	2452.521346
628.801032	2533.179808
629.147412	2515.535769
629.493739	2434.877308
629.840014	2467.644808
630.186236	2545.782692
630.532405	2480.247692
630.878521	2467.644808
631.224585	2518.056346
631.570597	2477.727115
631.916556	2477.727115
632.262462	2455.041923
632.608316	2518.056346
632.954117	2452.521346
633.299866	2452.521346
633.645562	2528.138654
633.991206	2477.727115
634.336797	2457.562500
634.682336	2520.576923
635.027823	2485.288846
635.373257	2543.262115
635.718639	2548.303269
636.063968	2477.727115
636.409245	2505.453462
636.754470	2457.562500
637.099642	2520.576923
637.444762	2462.603654
637.789829	2558.385577
638.134845	2513.015192
638.479808	2528.138654
638.824719	2455.041923
639.169577	2520.576923
639.514383	2538.220962
639.859137	2384.465769
640.203839	2447.480192
640.548489	2472.685962
640.893086	2429.836154
641.237632	2437.397885
641.582125	2462.603654
641.926566	2482.768269
642.270955	2520.576923
642.615292	2565.947308
642.959576	2472.685962
643.303809	2470.165385
643.647990	2586.111923
643.992118	2510.494615
644.336195	2507.974038
644.680219	2480.247692
645.024192	2550.823846
645.368112	2558.385577
645.711981	2384.465769
646.055797	2492.850577
646.399562	2444.959615
646.743274	2525.618077
647.086935	2457.562500
647.430544	2507.974038
647.774101	2510.494615
648.117606	2533.179808
648.461059	2492.850577
648.804460	2467.644808
649.147810	2457.562500
649.491108	2535.700385
649.834354	2439.918462
650.177548	2439.918462
650.520690	2497.891731
650.863781	2487.809423
651.206820	2507.974038
651.549807	2485.288846
651.892742	2520.576923
652.235626	2513.015192
652.578458	2528.138654
652.921238	2497.891731
653.263967	2482.768269
653.606644	2545.782692
653.949269	2576.029615
654.291843	2477.727115
654.634365	2613.838269
654.976836	2505.453462
655.319255	2402.109808
655.661622	2573.509038
656.003938	2492.850577
656.346203	2550.823846
656.688416	2392.027500
657.030577	2540.741538
657.372687	2510.494615
657.714746	2470.165385
658.056753	2495.371154
658.398708	2500.412308
658.740612	2460.083077
659.082465	2505.453462
659.424266	2520.576923
659.766016	2492.850577
660.107715	2505.453462
660.449362	2399.589231
660.790958	2558.385577
661.132503	2444.959615
661.473996	2434.877308
661.815438	2502.932885
662.156829	2480.247692
662.498168	2437.397885
662.839456	2533.179808
663.180693	2568.467885
663.521879	2510.494615
663.863013	2485.288846
664.204097	2497.891731
664.545129	2455.041923
664.886110	2447.480192
665.227040	2505.453462
665.567918	2603.755962
665.908746	2467.644808
666.249522	2578.550192
666.590248	2507.974038
666.930922	2497.891731
667.271545	2495.371154
667.612118	2487.809423
667.952639	2457.562500
668.293109	2513.015192
668.633528	2548.303269
668.973896	2422.274423
669.314213	2502.932885
669.654480	2472.685962
669.994695	2444.959615
670.334859	2558.385577
670.674973	2429.836154
671.015035	2470.165385
671.355047	2470.165385
671.695008	2518.056346
672.034918	2502.932885
672.374777	2455.041923
672.714585	2485.288846
673.054342	2470.165385
673.394049	2497.891731
673.733705	2465.124231
674.073310	2482.768269
674.412864	2558.385577
674.752368	2455.041923
675.091820	2457.562500
675.431223	2528.138654
675.770574	2450.000769
676.109875	2538.220962
676.449125	2492.850577
676.788324	2497.891731
677.127473	2553.344423
677.466571	2409.671538
677.805619	2523.097500
678.144616	2495.371154
678.483562	2543.262115
678.822458	2470.165385
679.161303	2540.741538
679.500098	2475.206538
679.838842	2593.673654
680.177535	2495.371154
680.516179	2485.288846
680.854771	2576.029615
681.193314	2588.632500
681.531805	2535.700385
681.870247	2487.809423
682.208638	2548.303269
682.546978	2452.521346
682.885268	2528.138654
683.223508	2432.356731
683.561697	2518.056346
683.899836	2482.768269
684.237925	2550.823846
684.575963	2553.344423
684.913951	2505.453462
685.251889	2462.603654
685.589776	2510.494615
685.927614	2505.453462
686.265401	2444.959615
686.603137	2543.262115
686.940824	2520.576923
687.278460	2596.194231
687.616046	2472.685962
687.953582	2447.480192
688.291068	2450.000769
688.628504	2505.453462
688.965889	2477.727115
689.303224	2515.535769
689.640510	2528.138654
689.977745	2530.659231
690.314930	2497.891731
690.652065	2533.179808
690.989150	2492.850577
691.326185	2492.850577
691.663170	2475.206538
692.000105	2513.015192
692.336990	2460.083077
692.673825	2404.630385
693.010610	2444.959615
693.347345	2507.974038
693.684030	2581.070769
694.020665	2555.865000
694.357251	2502.932885
694.693786	2467.644808
695.030272	2487.809423
695.366707	2419.753846
695.703093	2482.768269
696.039429	2419.753846
696.375716	2497.891731
696.711952	2442.439038
697.048139	2545.782692
697.384276	2369.342308
697.720363	2565.947308
698.056400	2533.179808
698.392388	2475.206538
698.728326	2492.850577
699.064214	2500.412308
699.400053	2578.550192
699.735842	2404.630385
700.071581	2528.138654
700.407270	2460.083077
700.742910	2510.494615
701.078501	2432.356731
701.414042	2386.986346
701.749533	2502.932885
702.084974	2490.330000
702.420366	2505.453462
702.755709	2475.206538
703.091002	2502.932885
703.426246	2500.412308
703.761440	2500.412308
704.096584	2457.562500
704.431679	2472.685962
704.766725	2500.412308
705.101721	2450.000769
705.436668	2480.247692
705.771565	2603.755962
706.106413	2480.247692
706.441212	2525.618077
706.775961	2495.371154
707.110661	2520.576923
707.445311	2389.506923
707.779913	2510.494615
708.114465	2502.932885
708.448967	2412.192115
708.783421	2470.165385
709.117825	2545.782692
709.452180	2444.959615
709.786485	2565.947308
710.120742	2490.330000
710.454949	2505.453462
710.789107	2482.768269
711.123216	2482.768269
711.457275	2513.015192
711.791286	2535.700385
712.125247	2507.974038
712.459159	2480.247692
712.793023	2515.535769
713.126837	2525.618077
713.460602	2437.397885
713.794318	2502.932885
714.127985	2540.741538
714.461602	2608.797115
714.795171	2553.344423
715.128691	2533.179808
715.462162	2505.453462
715.795584	2525.618077
716.128957	2447.480192
716.462281	2530.659231
716.795556	2490.330000
717.128782	2492.850577
717.461960	2482.768269
717.795088	2487.809423
718.128167	2510.494615
718.461198	2475.206538
718.794180	2490.330000
719.127113	2460.083077
719.459997	2563.426731
719.792833	2586.111923
720.125619	2507.974038
720.458357	2444.959615
720.791046	2480.247692
721.123686	2490.330000
721.456278	2432.356731
721.788821	2588.632500
722.121315	2568.467885
722.453761	2465.124231
722.786158	2485.288846
723.118506	2460.083077
723.450805	2513.015192
723.783056	2422.274423
724.115259	2533.179808
724.447412	2533.179808
724.779518	2485.288846
725.111574	2409.671538
725.443582	2596.194231
725.775542	2510.494615
726.107453	2520.576923
726.439315	2477.727115
726.771129	2470.165385
727.102895	2472.685962
727.434612	2500.412308
727.766281	2490.330000
728.097901	2513.015192
728.429473	2460.083077
728.760996	2439.918462
729.092471	2470.165385
729.423897	2540.741538
729.755276	2490.330000
730.086606	2535.700385
730.417887	2429.836154
730.749120	2439.918462
731.080305	2490.330000
731.411442	2505.453462
731.742530	2407.150962
732.073570	2540.741538
732.404562	2515.535769
732.735506	2490.330000
733.066401	2432.356731
733.397249	2497.891731
733.728048	2485.288846
734.058798	2528.138654
734.389501	2555.865000
734.720156	2480.247692
735.050762	2528.138654
735.381320	2477.727115
735.711831	2507.974038
736.042293	2497.891731
736.372707	2455.041923
736.703073	2507.974038
737.033391	2518.056346
737.363661	2543.262115
737.693883	2487.809423
738.024056	2518.056346
738.354182	2422.274423
738.684260	2543.262115
739.014290	2490.330000
739.344272	2437.397885
739.674207	2487.809423
740.004093	2429.836154
740.333931	2495.371154
740.663722	2434.877308
740.993464	2533.179808
741.323159	2523.097500
741.652806	2535.700385
741.982405	2563.426731
742.311956	2538.220962
742.641460	2525.618077
742.970915	2530.659231
743.300323	2558.385577
743.629683	2455.041923
743.958996	2548.303269
744.288260	2447.480192
744.617477	2510.494615
744.946647	2447.480192
745.275768	2507.974038
745.604842	2507.974038
745.933869	2502.932885
746.262847	2520.576923
746.591778	2502.932885
746.920662	2523.097500
747.249498	2447.480192
747.578286	2545.782692
747.907027	2545.782692
748.235720	2485.288846
748.564365	2419.753846
748.892963	2437.397885
749.221514	2588.632500
749.550017	2492.850577
749.878473	2538.220962
750.206881	2444.959615
750.535242	2386.986346
750.863555	2437.397885
751.191821	2429.836154
751.520039	2457.562500
751.848210	2482.768269
752.176334	2477.727115
752.504411	2568.467885
752.832440	2530.659231
753.160421	2563.426731
753.488356	2460.083077
753.816243	2533.179808
754.144082	2528.138654
754.471875	2480.247692
754.799620	2520.576923
755.127318	2460.083077
755.454969	2515.535769
755.782572	2462.603654
756.110129	2505.453462
756.437638	2505.453462
756.765100	2444.959615
757.092515	2477.727115
757.419882	2475.206538
757.747203	2422.274423
758.074477	2467.644808
758.401703	2472.685962
758.728882	2467.644808
759.056014	2563.426731
759.383099	2540.741538
759.710138	2487.809423
760.037129	2525.618077
760.364073	2502.932885
760.690970	2480.247692
761.017820	2555.865000
761.344623	2432.356731
761.671379	2538.220962
761.998088	2384.465769
762.324751	2399.589231
762.651366	2533.179808
762.977935	2455.041923
763.304456	2523.097500
763.630931	2487.809423
763.957359	2429.836154
764.283740	2465.124231
764.610074	2558.385577
764.936362	2500.412308
765.262602	2487.809423
765.588796	2439.918462
765.914943	2502.932885
766.241044	2492.850577
766.567097	2495.371154
766.893104	2487.809423
767.219064	2550.823846
767.544978	2485.288846
767.870845	2389.506923
768.196665	2407.150962
768.522438	2528.138654
768.848165	2460.083077
769.173846	2477.727115
769.499479	2384.465769
769.825066	2543.262115
770.150607	2467.644808
770.476101	2576.029615
770.801548	2502.932885
771.126949	2472.685962
771.452303	2480.247692
771.777611	2528.138654
772.102872	2477.727115
772.428087	2525.618077
772.753256	2450.000769
773.078378	2475.206538
773.403453	2432.356731
773.728482	2523.097500
774.053465	2442.439038
774.378401	2414.712692
774.703291	2477.727115
775.028135	2439.918462
775.352932	2480.247692
775.677683	2535.700385
776.002388	2447.480192
776.327046	2518.056346
776.651658	2515.535769
776.976224	2505.453462
777.300743	2538.220962
777.625216	2538.220962
777.949643	2437.397885
778.274024	2482.768269
778.598359	2452.521346
778.922647	2513.015192
779.246889	2482.768269
779.571086	2452.521346
779.895236	2540.741538
780.219339	2364.301154
780.543397	2470.165385
780.867409	2434.877308
781.191374	2460.083077
781.515294	2480.247692
781.839167	2442.439038
782.162995	2495.371154
782.486776	2452.521346
782.810511	2505.453462
783.134201	2520.576923
783.457844	2510.494615
783.781441	2457.562500
784.104993	2545.782692
784.428498	2538.220962
784.751958	2444.959615
785.075372	2535.700385
785.398739	2442.439038
785.722061	2513.015192
786.045337	2543.262115
786.368568	2497.891731
786.691752	2578.550192
787.014891	2465.124231
787.337983	2480.247692
787.661030	2455.041923
787.984031	2482.768269
788.306987	2492.850577
788.629897	2518.056346
788.952760	2470.165385
789.275579	2482.768269
789.598351	2404.630385
789.921078	2510.494615
790.243759	2472.685962
790.566395	2465.124231
790.888984	2414.712692
791.211529	2502.932885
791.534027	2439.918462
791.856480	2475.206538
792.178888	2427.315577
792.501249	2482.768269
792.823566	2470.165385
793.145836	2500.412308
793.468062	2482.768269
793.790241	2422.274423
794.112375	2500.412308
794.434464	2470.165385
794.756507	2545.782692
795.078505	2439.918462
795.400457	2455.041923
795.722364	2525.618077
796.044226	2525.618077
796.366042	2407.150962
796.687812	2535.700385
797.009538	2497.891731
797.331218	2417.233269
797.652852	2487.809423
797.974442	2452.521346
798.295986	2538.220962
798.617484	2502.932885
798.938938	2487.809423
799.260346	2452.521346
799.581709	2505.453462
799.903026	2573.509038
800.224299	2460.083077
800.545526	2427.315577
800.866708	2434.877308
801.187845	2447.480192
801.508936	2424.795000
801.829983	2560.906154
802.150984	2397.068654
802.471940	2472.685962
802.792851	2518.056346
803.113717	2492.850577
803.434538	2495.371154
803.755314	2538.220962
804.076045	2444.959615
804.396731	2467.644808
804.717372	2606.276538
805.037967	2482.768269
805.358518	2487.809423
805.679024	2482.768269
805.999485	2573.509038
806.319901	2412.192115
806.640272	2550.823846
806.960598	2513.015192
807.280879	2515.535769
807.601115	2495.371154
807.921306	2591.153077
808.241453	2520.576923
808.561554	2505.453462
808.881611	2472.685962
809.201623	2548.303269
809.521590	2480.247692
809.841513	2530.659231
810.161390	2452.521346
810.481223	2490.330000
810.801011	2497.891731
811.120755	2510.494615
811.440453	2545.782692
811.760107	2525.618077
812.079716	2520.576923
812.399281	2548.303269
812.718801	2520.576923
813.038276	2558.385577
813.357707	2513.015192
813.677093	2555.865000
813.996434	2447.480192
814.315731	2530.659231
814.634983	2462.603654
814.954191	2485.288846
815.273354	2472.685962
815.592473	2548.303269
815.911547	2424.795000
816.230577	2490.330000
816.549562	2573.509038
816.868502	2444.959615
817.187399	2442.439038
817.506250	2538.220962
817.825058	2540.741538
818.143821	2495.371154
818.462539	2392.027500
818.781213	2444.959615
819.099843	2477.727115
819.418429	2475.206538
819.736970	2452.521346
820.055466	2439.918462
820.373919	2513.015192
820.692327	2553.344423
821.010691	2487.809423
821.329011	2455.041923
821.647286	2500.412308
821.965517	2555.865000
822.283704	2505.453462
822.601847	2472.685962
822.919945	2427.315577
823.237999	2434.877308
823.556010	2432.356731
823.873976	2518.056346
824.191897	2444.959615
824.509775	2502.932885
824.827609	2533.179808
825.145398	2439.918462
825.463144	2513.015192
825.780845	2462.603654
826.098502	2424.795000
826.416116	2581.070769
826.733685	2530.659231
827.051210	2540.741538
827.368692	2601.235385
827.686129	2487.809423
828.003522	2550.823846
828.320872	2520.576923
828.638177	2465.124231
828.955439	2565.947308
829.272656	2497.891731
829.589830	2515.535769
829.906960	2505.453462
830.224046	2437.397885
830.541088	2487.809423
830.858086	2548.303269
831.175041	2477.727115
831.491952	2507.974038
831.808819	2452.521346
832.125642	2563.426731
832.442421	2507.974038
832.759157	2528.138654
833.075849	2553.344423
833.392497	2525.618077
833.709101	2434.877308
834.025662	2513.015192
834.342179	2467.644808
834.658653	2460.083077
834.975083	2487.809423
835.291469	2507.974038
835.607811	2505.453462
835.924110	2492.850577
836.240366	2490.330000
836.556578	2528.138654
836.872746	2548.303269
837.188871	2487.809423
837.504952	2475.206538
837.820990	2495.371154
838.136984	2477.727115
838.452935	2477.727115
838.768842	2502.932885
839.084706	2533.179808
839.400526	2518.056346
839.716303	2553.344423
840.032037	2417.233269
840.347727	2485.288846
840.663373	2475.206538
840.978977	2487.809423
841.294537	2455.041923
841.610054	2422.274423
841.925527	2472.685962
842.240957	2487.809423
842.556344	2442.439038
842.871687	2472.685962
843.186987	2490.330000
843.502244	2495.371154
843.817458	2422.274423
844.132629	2530.659231
844.447756	2465.124231
844.762840	2475.206538
845.077881	2397.068654
845.392879	2434.877308
845.707833	2550.823846
846.022745	2452.521346
846.337613	2497.891731
846.652438	2467.644808
846.967221	2533.179808
847.281960	2384.465769
847.596656	2439.918462
847.911309	2447.480192
848.225919	2427.315577
848.540485	2510.494615
848.855009	2523.097500
849.169490	2424.795000
849.483928	2487.809423
849.798323	2427.315577
850.112675	2429.836154
850.426984	2490.330000
850.741251	2447.480192
851.055474	2497.891731
851.369654	2427.315577
851.683792	2520.576923
851.997887	2560.906154
852.311938	2518.056346
852.625947	2482.768269
852.939914	2513.015192
853.253837	2414.712692
853.567718	2470.165385
853.881555	2507.974038
854.195350	2505.453462
854.509103	2520.576923
854.822812	2492.850577
855.136479	2424.795000
855.450103	2487.809423
855.763685	2523.097500
856.077224	2404.630385
856.390720	2520.576923
856.704173	2462.603654
857.017584	2513.015192
857.330953	2439.918462
857.644278	2548.303269
857.957561	2389.506923
858.270802	2470.165385
858.584000	2450.000769
858.897155	2460.083077
859.210268	2467.644808
859.523339	2505.453462
859.836367	2485.288846
860.149352	2475.206538
860.462295	2475.206538
860.775195	2442.439038
861.088054	2487.809423
861.400869	2507.974038
861.713642	2432.356731
862.026373	2518.056346
862.339062	2510.494615
862.651708	2507.974038
862.964312	2507.974038
863.276873	2530.659231
863.589392	2407.150962
863.901869	2540.741538
864.214303	2457.562500
864.526696	2432.356731
864.839045	2434.877308
865.151353	2507.974038
865.463619	2510.494615
865.775842	2507.974038
866.088023	2480.247692
866.400162	2432.356731
866.712258	2432.356731
867.024313	2444.959615
867.336325	2467.644808
867.648296	2510.494615
867.960224	2555.865000
868.272110	2424.795000
868.583954	2487.809423
868.895755	2578.550192
869.207515	2480.247692
869.519233	2432.356731
869.830909	2528.138654
870.142542	2417.233269
870.454134	2578.550192
870.765684	2439.918462
871.077191	2490.330000
871.388657	2533.179808
871.700081	2533.179808
872.011463	2507.974038
872.322803	2515.535769
872.634101	2485.288846
872.945357	2429.836154
873.256571	2596.194231
873.567744	2492.850577
873.878874	2543.262115
874.189963	2432.356731
874.501010	2475.206538
874.812015	2457.562500
875.122979	2525.618077
875.433900	2490.330000
875.744780	2505.453462
876.055618	2482.768269
876.366415	2553.344423
876.677169	2447.480192
876.987882	2510.494615
877.298554	2432.356731
877.609183	2510.494615
877.919771	2500.412308
878.230317	2513.015192
878.540822	2505.453462
878.851285	2490.330000
879.161707	2520.576923
879.472087	2409.671538
879.782425	2470.165385
880.092722	2507.974038
880.402977	2550.823846
880.713191	2535.700385
881.023363	2510.494615
881.333494	2460.083077
881.643583	2533.179808
881.953631	2450.000769
882.263637	2513.015192
882.573602	2475.206538
882.883526	2490.330000
883.193408	2495.371154
883.503248	2545.782692
883.813048	2515.535769
884.122806	2497.891731
884.432522	2530.659231
884.742197	2417.233269
885.051831	2447.480192
885.361424	2452.521346
885.670975	2548.303269
885.980485	2444.959615
886.289954	2513.015192
886.599382	2487.809423
886.908768	2540.741538
887.218113	2467.644808
887.527417	2502.932885
887.836680	2429.836154
888.145901	2407.150962
888.455082	2591.153077
888.764221	2507.974038
889.073319	2545.782692
889.382376	2560.906154
889.691392	2538.220962
890.000366	2490.330000
890.309300	2427.315577
890.618193	2422.274423
890.927044	2576.029615
891.235855	2482.768269
891.544625	2505.453462
891.853353	2598.714808
892.162041	2535.700385
892.470687	2467.644808
892.779293	2424.795000
893.087858	2497.891731
893.396381	2417.233269
893.704864	2502.932885
894.013306	2502.932885
894.321707	2432.356731
894.630068	2538.220962
894.938387	2457.562500
895.246665	2545.782692
895.554903	2530.659231
895.863100	2475.206538
896.171256	2457.562500
896.479371	2518.056346
896.787446	2563.426731
897.095480	2500.412308
897.403473	2543.262115
897.711425	2502.932885
898.019336	2502.932885
898.327207	2450.000769
898.635038	2576.029615
898.942827	2510.494615
899.250576	2545.782692
899.558284	2525.618077
899.865952	2485.288846
900.173579	2457.562500
900.481165	2439.918462
900.788711	2533.179808
901.096216	2412.192115
901.403681	2502.932885
901.711105	2482.768269
902.018489	2530.659231
902.325832	2510.494615
902.633135	2485.288846
902.940397	2434.877308
903.247619	2480.247692
903.554800	2500.412308
903.861941	2490.330000
904.169041	2452.521346
904.476101	2427.315577
904.783121	2515.535769
905.090100	2555.865000
905.397039	2419.753846
905.703938	2515.535769
906.010796	2482.768269
906.317614	2447.480192
906.624391	2452.521346
906.931129	2525.618077
907.237826	2492.850577
907.544483	2500.412308
907.851099	2513.015192
908.157675	2525.618077
908.464211	2497.891731
908.770707	2515.535769
909.077163	2444.959615
909.383578	2429.836154
909.689954	2492.850577
909.996289	2497.891731
910.302584	2543.262115
910.608839	2553.344423
910.915054	2525.618077
911.221229	2530.659231
911.527363	2573.509038
911.833458	2530.659231
912.139513	2510.494615
912.445527	2497.891731
912.751502	2460.083077
913.057436	2550.823846
913.363331	2550.823846
913.669186	2460.083077
913.975000	2533.179808
914.280775	2535.700385
914.586510	2480.247692
914.892205	2530.659231
915.197859	2439.918462
915.503475	2490.330000
915.809050	2518.056346
916.114585	2480.247692
916.420081	2470.165385
916.725536	2455.041923
917.030952	2475.206538
917.336328	2507.974038
917.641665	2515.535769
917.946961	2434.877308
918.252218	2507.974038
918.557435	2492.850577
918.862612	2467.644808
919.167750	2462.603654
919.472848	2518.056346
919.777906	2427.315577
920.082925	2470.165385
920.387904	2447.480192
920.692843	2505.453462
920.997743	2452.521346
921.302603	2457.562500
921.607423	2525.618077
921.912204	2533.179808
922.216946	2467.644808
922.521647	2500.412308
922.826310	2417.233269
923.130932	2467.644808
923.435516	2475.206538
923.740059	2523.097500
924.044564	2500.412308
924.349028	2568.467885
924.653454	2437.397885
924.957840	2558.385577
925.262186	2450.000769
925.566493	2525.618077
925.870761	2502.932885
926.174989	2482.768269
926.479178	2598.714808
926.783328	2495.371154
927.087438	2548.303269
927.391509	2576.029615
927.695541	2485.288846
927.999533	2507.974038
928.303486	2487.809423
928.607400	2467.644808
928.911275	2507.974038
929.215110	2442.439038
929.518906	2462.603654
929.822663	2447.480192
930.126381	2502.932885
930.430060	2432.356731
930.733699	2419.753846
931.037299	2535.700385
931.340861	2422.274423
931.644383	2540.741538
931.947866	2439.918462
932.251309	2495.371154
932.554714	2472.685962
932.858080	2434.877308
933.161407	2455.041923
933.464694	2581.070769
933.767943	2442.439038
934.071153	2545.782692
934.374323	2487.809423
934.677455	2477.727115
934.980548	2485.288846
935.283602	2434.877308
935.586617	2447.480192
935.889593	2452.521346
936.192530	2482.768269
936.495428	2528.138654
936.798287	2457.562500
937.101108	2507.974038
937.403890	2530.659231
937.706632	2470.165385
938.009336	2507.974038
938.312002	2437.397885
938.614628	2482.768269
938.917216	2520.576923
939.219765	2565.947308
939.522275	2492.850577
939.824747	2397.068654
940.127179	2434.877308
940.429573	2520.576923
940.731929	2507.974038
941.034246	2570.988462
941.336524	2492.850577
941.638763	2437.397885
941.940964	2505.453462
942.243126	2518.056346
942.545250	2490.330000
942.847335	2450.000769
943.149381	2447.480192
943.451389	2523.097500
943.753359	2452.521346
944.055290	2510.494615
944.357182	2480.247692
944.659036	2497.891731
944.960851	2530.659231
945.262628	2555.865000
945.564367	2520.576923
945.866067	2495.371154
946.167729	2558.385577
946.469352	2510.494615
946.770937	2487.809423
947.072484	2455.041923
947.373992	2568.467885
947.675462	2603.755962
947.976893	2495.371154
948.278286	2477.727115
948.579641	2482.768269
948.880958	2472.685962
949.182236	2460.083077
949.483476	2543.262115
949.784678	2447.480192
950.085841	2555.865000
950.386967	2475.206538
950.688054	2570.988462
950.989103	2465.124231
951.290114	2502.932885
951.591087	2477.727115
951.892021	2482.768269
952.192917	2490.330000
952.493776	2472.685962
952.794596	2465.124231
953.095378	2538.220962
953.396122	2555.865000
953.696828	2525.618077
953.997496	2490.330000
954.298126	2392.027500
954.598718	2477.727115
954.899272	2477.727115
955.199788	2427.315577
955.500266	2540.741538
955.800706	2379.424615
956.101108	2457.562500
956.401472	2452.521346
956.701798	2502.932885
957.002087	2429.836154
957.302337	2460.083077
957.602550	2477.727115
957.902724	2500.412308
958.202861	2510.494615
958.502960	2450.000769
958.803022	2465.124231
959.103045	2553.344423
959.403031	2470.165385
959.702979	2510.494615
960.002889	2460.083077
960.302762	2507.974038
960.602596	2429.836154
960.902393	2419.753846
961.202153	2495.371154
961.501875	2470.165385
961.801559	2492.850577
962.101205	2480.247692
962.400814	2490.330000
962.700385	2538.220962
962.999918	2424.795000
963.299414	2495.371154
963.598873	2510.494615
963.898293	2535.700385
964.197677	2422.274423
964.497022	2487.809423
964.796331	2477.727115
965.095601	2470.165385
965.394835	2452.521346
965.694030	2515.535769
965.993189	2518.056346
966.292309	2472.685962
966.591393	2545.782692
966.890439	2470.165385
967.189447	2497.891731
967.488419	2487.809423
967.787353	2535.700385
968.086249	2437.397885
968.385108	2414.712692
968.683930	2412.192115
968.982714	2487.809423
969.281462	2472.685962
969.580172	2502.932885
969.878844	2462.603654
970.177480	2530.659231
970.476078	2457.562500
970.774639	2429.836154
971.073162	2490.330000
971.371649	2434.877308
971.670098	2555.865000
971.968510	2492.850577
972.266885	2404.630385
972.565223	2490.330000
972.863524	2528.138654
973.161788	2477.727115
973.460014	2439.918462
973.758204	2472.685962
974.056356	2495.371154
974.354471	2462.603654
974.652550	2518.056346
974.950591	2475.206538
975.248595	2429.836154
975.546563	2457.562500
975.844493	2409.671538
976.142386	2477.727115
976.440243	2462.603654
976.738062	2374.383462
977.035845	2513.015192
977.333590	2465.124231
977.631299	2568.467885
977.928971	2404.630385
978.226606	2523.097500
978.524204	2465.124231
978.821765	2507.974038
979.119290	2462.603654
979.416777	2442.439038
979.714228	2515.535769
980.011642	2507.974038
980.309020	2543.262115
980.606360	2465.124231
980.903664	2586.111923
981.200931	2432.356731
981.498162	2558.385577
981.795356	2505.453462
982.092513	2487.809423
982.389633	2482.768269
982.686717	2510.494615
982.983764	2472.685962
983.280775	2482.768269
983.577749	2533.179808
983.874686	2520.576923
984.171587	2495.371154
984.468451	2500.412308
984.765279	2480.247692
985.062070	2495.371154
985.358824	2414.712692
985.655543	2447.480192
985.952224	2450.000769
986.248869	2424.795000
986.545478	2432.356731
986.842050	2497.891731
987.138586	2578.550192
987.435086	2444.959615
987.731549	2397.068654
988.027975	2465.124231
988.324366	2497.891731
988.620719	2472.685962
988.917037	2472.685962
989.213318	2462.603654
989.509563	2462.603654
989.805772	2407.150962
990.101944	2485.288846
990.398080	2555.865000
990.694180	2349.177692
990.990244	2525.618077
991.286271	2467.644808
991.582262	2568.467885
991.878217	2492.850577
992.174136	2450.000769
992.470019	2513.015192
992.765865	2417.233269
993.061676	2603.755962
993.357450	2500.412308
993.653188	2444.959615
993.948890	2460.083077
994.244556	2427.315577
994.540186	2495.371154
994.835780	2374.383462
995.131337	2432.356731
995.426859	2490.330000
995.722345	2462.603654
996.017795	2437.397885
996.313208	2502.932885
996.608586	2450.000769
996.903928	2530.659231
997.199234	2409.671538
997.494504	2487.809423
997.789738	2434.877308
998.084936	2439.918462
998.380099	2500.412308
998.675225	2500.412308
998.970316	2513.015192
999.265371	2452.521346
999.560390	2505.453462
999.855373	2485.288846
1000.150320	2475.206538
1000.445232	2455.041923
1000.740108	2389.506923
1001.034948	2477.727115
1001.329752	2432.356731
1001.624521	2523.097500
1001.919254	2402.109808
1002.213951	2490.330000
1002.508613	2502.932885
1002.803239	2485.288846
1003.097829	2475.206538
1003.392384	2530.659231
1003.686903	2444.959615
1003.981386	2520.576923
1004.275834	2472.685962
1004.570246	2447.480192
1004.864623	2480.247692
1005.158964	2513.015192
1005.453270	2565.947308
1005.747540	2364.301154
1006.041775	2472.685962
1006.335974	2419.753846
1006.630138	2510.494615
1006.924266	2518.056346
1007.218359	2432.356731
1007.512416	2465.124231
1007.806438	2520.576923
1008.100425	2465.124231
1008.394376	2573.509038
1008.688292	2455.041923
1008.982172	2477.727115
1009.276017	2480.247692
1009.569827	2523.097500
1009.863602	2465.124231
1010.157341	2507.974038
1010.451045	2502.932885
1010.744714	2455.041923
1011.038347	2555.865000
1011.331945	2528.138654
1011.625508	2477.727115
1011.919036	2505.453462
1012.212528	2482.768269
1012.505986	2477.727115
1012.799408	2412.192115
1013.092795	2563.426731
1013.386147	2462.603654
1013.679464	2525.618077
1013.972745	2533.179808
1014.265992	2470.165385
1014.559204	2560.906154
1014.852380	2470.165385
1015.145521	2482.768269
1015.438628	2475.206538
1015.731699	2576.029615
1016.024736	2429.836154
1016.317737	2505.453462
1016.610703	2419.753846
1016.903635	2487.809423
1017.196531	2467.644808
1017.489393	2505.453462
1017.782219	2462.603654
1018.075011	2394.548077
1018.367768	2447.480192
1018.660490	2472.685962
1018.953177	2472.685962
1019.245829	2472.685962
