Dividing Wavelength (nm)	Counts (n)	Blue Motor Position (mm): 2.200000	Red Motor Position (mm): 0.000000	
326.493990	2107.202308
326.888308	2107.202308
327.282561	2107.202308
327.676750	2107.202308
328.070874	2051.749615
328.464933	2001.338077
328.858929	2011.420385
329.252859	2081.996538
329.646726	2122.325769
330.040528	2099.640577
330.434265	2114.764038
330.827938	2084.517115
331.221547	2104.681731
331.615091	2099.640577
332.008571	2233.231154
332.401986	2296.245577
332.795338	2255.916346
333.188625	2210.545962
333.581847	2283.642692
333.975006	2276.080962
334.368100	2215.587115
334.761129	2381.945192
335.154095	2303.807308
335.546996	2366.821731
335.939833	2366.821731
336.332606	2336.574808
336.725315	2399.589231
337.117960	2392.027500
337.510540	2452.521346
337.903056	2497.891731
338.295508	2397.068654
338.687896	2429.836154
339.080220	2455.041923
339.472480	2444.959615
339.864676	2412.192115
340.256807	2543.262115
340.648875	2485.288846
341.040879	2518.056346
341.432818	2442.439038
341.824694	2460.083077
342.216506	2515.535769
342.608253	2427.315577
342.999937	2422.274423
343.391557	2470.165385
343.783113	2475.206538
344.174605	2538.220962
344.566033	2452.521346
344.957397	2525.618077
345.348697	2419.753846
345.739934	2533.179808
346.131106	2462.603654
346.522215	2409.671538
346.913260	2492.850577
347.304241	2334.054231
347.695159	2485.288846
348.086012	2424.795000
348.476802	2444.959615
348.867528	2419.753846
349.258191	2417.233269
349.648789	2523.097500
350.039324	2507.974038
350.429796	2432.356731
350.820203	2434.877308
351.210548	2462.603654
351.600828	2525.618077
351.991045	2462.603654
352.381198	2485.288846
352.771288	2462.603654
353.161314	2424.795000
353.551276	2528.138654
353.941175	2439.918462
354.331010	2487.809423
354.720782	2399.589231
355.110490	2427.315577
355.500135	2417.233269
355.889717	2460.083077
356.279235	2381.945192
356.668689	2419.753846
357.058080	2437.397885
357.447408	2442.439038
357.836672	2555.865000
358.225873	2399.589231
358.615010	2490.330000
359.004084	2462.603654
359.393095	2450.000769
359.782043	2563.426731
360.170927	2460.083077
360.559748	2419.753846
360.948505	2480.247692
361.337199	2450.000769
361.725830	2439.918462
362.114398	2505.453462
362.502903	2455.041923
362.891344	2434.877308
363.279722	2510.494615
363.668037	2429.836154
364.056289	2447.480192
364.444478	2447.480192
364.832603	2392.027500
365.220665	2460.083077
365.608665	2500.412308
365.996601	2528.138654
366.384474	2412.192115
366.772284	2409.671538
367.160031	2565.947308
367.547715	2450.000769
367.935336	2457.562500
368.322893	2455.041923
368.710388	2495.371154
369.097820	2376.904038
369.485189	2384.465769
369.872495	2407.150962
370.259738	2467.644808
370.646918	2381.945192
371.034035	2442.439038
371.421090	2392.027500
371.808081	2482.768269
372.195010	2462.603654
372.581875	2455.041923
372.968678	2470.165385
373.355418	2444.959615
373.742096	2530.659231
374.128710	2450.000769
374.515262	2402.109808
374.901751	2545.782692
375.288177	2427.315577
375.674540	2414.712692
376.060841	2444.959615
376.447079	2480.247692
376.833254	2407.150962
377.219367	2462.603654
377.605417	2447.480192
377.991404	2457.562500
378.377329	2455.041923
378.763191	2427.315577
379.148991	2470.165385
379.534727	2392.027500
379.920402	2402.109808
380.306013	2437.397885
380.691563	2507.974038
381.077049	2520.576923
381.462474	2505.453462
381.847835	2470.165385
382.233134	2533.179808
382.618371	2507.974038
383.003545	2460.083077
383.388657	2492.850577
383.773706	2500.412308
384.158693	2359.260000
384.543618	2467.644808
384.928480	2480.247692
385.313280	2505.453462
385.698017	2439.918462
386.082692	2540.741538
386.467305	2538.220962
386.851856	2470.165385
387.236344	2518.056346
387.620770	2419.753846
388.005133	2530.659231
388.389435	2452.521346
388.773674	2419.753846
389.157851	2462.603654
389.541965	2485.288846
389.926018	2485.288846
390.310008	2490.330000
390.693936	2434.877308
391.077802	2465.124231
391.461606	2437.397885
391.845348	2467.644808
392.229027	2520.576923
392.612645	2457.562500
392.996200	2513.015192
393.379694	2427.315577
393.763125	2452.521346
394.146494	2510.494615
394.529801	2427.315577
394.913047	2485.288846
395.296230	2447.480192
395.679351	2419.753846
396.062410	2510.494615
396.445408	2467.644808
396.828343	2513.015192
397.211217	2497.891731
397.594028	2374.383462
397.976778	2500.412308
398.359466	2432.356731
398.742092	2414.712692
399.124656	2397.068654
399.507158	2487.809423
399.889598	2560.906154
400.271977	2364.301154
400.654294	2513.015192
401.036549	2538.220962
401.418742	2442.439038
401.800874	2450.000769
402.182944	2513.015192
402.564952	2434.877308
402.946898	2457.562500
403.328783	2450.000769
403.710606	2530.659231
404.092367	2490.330000
404.474067	2432.356731
404.855705	2518.056346
405.237282	2525.618077
405.618797	2480.247692
406.000250	2545.782692
406.381642	2475.206538
406.762972	2442.439038
407.144240	2487.809423
407.525447	2419.753846
407.906593	2583.591346
408.287677	2543.262115
408.668700	2404.630385
409.049661	2422.274423
409.430560	2399.589231
409.811399	2470.165385
410.192176	2545.782692
410.572891	2452.521346
410.953545	2510.494615
411.334138	2510.494615
411.714669	2444.959615
412.095139	2462.603654
412.475547	2419.753846
412.855894	2515.535769
413.236180	2460.083077
413.616405	2462.603654
413.996568	2515.535769
414.376670	2434.877308
414.756711	2477.727115
415.136691	2424.795000
415.516609	2475.206538
415.896466	2523.097500
416.276262	2457.562500
416.655997	2492.850577
417.035670	2472.685962
417.415283	2417.233269
417.794834	2525.618077
418.174324	2482.768269
418.553753	2470.165385
418.933121	2465.124231
419.312428	2477.727115
419.691674	2412.192115
420.070859	2530.659231
420.449983	2444.959615
420.829045	2477.727115
421.208047	2487.809423
421.586988	2384.465769
421.965867	2495.371154
422.344686	2467.644808
422.723444	2593.673654
423.102141	2392.027500
423.480777	2538.220962
423.859352	2407.150962
424.237866	2492.850577
424.616319	2475.206538
424.994712	2530.659231
425.373044	2507.974038
425.751314	2457.562500
426.129524	2581.070769
426.507673	2507.974038
426.885762	2450.000769
427.263789	2407.150962
427.641756	2452.521346
428.019662	2485.288846
428.397508	2432.356731
428.775292	2505.453462
429.153016	2513.015192
429.530679	2510.494615
429.908282	2507.974038
430.285824	2505.453462
430.663305	2447.480192
431.040726	2470.165385
431.418086	2530.659231
431.795385	2417.233269
432.172624	2513.015192
432.549802	2437.397885
432.926920	2505.453462
433.303977	2480.247692
433.680974	2513.015192
434.057910	2434.877308
434.434786	2457.562500
434.811601	2447.480192
435.188355	2429.836154
435.565050	2399.589231
435.941683	2402.109808
436.318257	2492.850577
436.694770	2472.685962
437.071222	2379.424615
437.447614	2520.576923
437.823946	2394.548077
438.200218	2535.700385
438.576429	2480.247692
438.952580	2450.000769
439.328670	2419.753846
439.704700	2523.097500
440.080670	2588.632500
440.456580	2455.041923
440.832429	2500.412308
441.208218	2455.041923
441.583947	2485.288846
441.959616	2452.521346
442.335224	2477.727115
442.710773	2460.083077
443.086261	2472.685962
443.461689	2462.603654
443.837057	2490.330000
444.212365	2452.521346
444.587612	2475.206538
444.962800	2485.288846
445.337927	2434.877308
445.712995	2374.383462
446.088002	2500.412308
446.462949	2402.109808
446.837837	2507.974038
447.212664	2472.685962
447.587431	2523.097500
447.962139	2455.041923
448.336786	2450.000769
448.711374	2563.426731
449.085901	2515.535769
449.460369	2404.630385
449.834776	2548.303269
450.209124	2505.453462
450.583412	2424.795000
450.957640	2523.097500
451.331808	2528.138654
451.705917	2523.097500
452.079965	2487.809423
452.453954	2447.480192
452.827883	2490.330000
453.201752	2492.850577
453.575562	2581.070769
453.949311	2507.974038
454.323001	2513.015192
454.696632	2450.000769
455.070202	2455.041923
455.443713	2465.124231
455.817164	2497.891731
456.190556	2495.371154
456.563888	2434.877308
456.937160	2407.150962
457.310373	2507.974038
457.683526	2513.015192
458.056619	2513.015192
458.429653	2487.809423
458.802628	2548.303269
459.175542	2533.179808
459.548398	2495.371154
459.921194	2591.153077
460.293930	2523.097500
460.666607	2477.727115
461.039224	2414.712692
461.411782	2432.356731
461.784280	2470.165385
462.156719	2480.247692
462.529099	2477.727115
462.901419	2457.562500
463.273680	2444.959615
463.645882	2500.412308
464.018024	2460.083077
464.390106	2477.727115
464.762130	2427.315577
465.134094	2507.974038
465.505999	2455.041923
465.877845	2439.918462
466.249631	2513.015192
466.621358	2457.562500
466.993026	2472.685962
467.364634	2487.809423
467.736184	2465.124231
468.107674	2450.000769
468.479105	2528.138654
468.850477	2525.618077
469.221790	2442.439038
469.593043	2467.644808
469.964238	2470.165385
470.335373	2513.015192
470.706449	2553.344423
471.077467	2490.330000
471.448425	2533.179808
471.819324	2560.906154
472.190164	2530.659231
472.560945	2404.630385
472.931667	2560.906154
473.302330	2480.247692
473.672934	2505.453462
474.043479	2480.247692
474.413965	2523.097500
474.784393	2414.712692
475.154761	2525.618077
475.525070	2482.768269
475.895321	2565.947308
476.265513	2586.111923
476.635645	2518.056346
477.005719	2437.397885
477.375734	2434.877308
477.745691	2558.385577
478.115588	2523.097500
478.485427	2487.809423
478.855207	2442.439038
479.224928	2518.056346
479.594591	2447.480192
479.964194	2475.206538
480.333739	2558.385577
480.703226	2560.906154
481.072653	2487.809423
481.442022	2467.644808
481.811333	2447.480192
482.180584	2497.891731
482.549777	2434.877308
482.918912	2457.562500
483.287988	2502.932885
483.657005	2427.315577
484.025964	2447.480192
484.394864	2528.138654
484.763706	2492.850577
485.132489	2525.618077
485.501213	2457.562500
485.869879	2417.233269
486.238487	2502.932885
486.607036	2475.206538
486.975527	2422.274423
487.343959	2472.685962
487.712333	2467.644808
488.080648	2500.412308
488.448905	2477.727115
488.817104	2510.494615
489.185244	2565.947308
489.553326	2568.467885
489.921350	2510.494615
490.289315	2447.480192
490.657222	2505.453462
491.025070	2457.562500
491.392861	2513.015192
491.760593	2495.371154
492.128267	2528.138654
492.495883	2613.838269
492.863440	2553.344423
493.230939	2555.865000
493.598380	2457.562500
493.965763	2492.850577
494.333088	2460.083077
494.700354	2535.700385
495.067563	2422.274423
495.434713	2598.714808
495.801805	2545.782692
496.168839	2485.288846
496.535815	2502.932885
496.902733	2419.753846
497.269593	2513.015192
497.636395	2467.644808
498.003139	2518.056346
498.369825	2535.700385
498.736453	2444.959615
499.103023	2490.330000
499.469535	2472.685962
499.835989	2518.056346
500.202385	2437.397885
500.568723	2487.809423
500.935003	2439.918462
501.301226	2444.959615
501.667390	2563.426731
502.033497	2548.303269
502.399546	2573.509038
502.765537	2485.288846
503.131470	2528.138654
503.497345	2601.235385
503.863163	2507.974038
504.228923	2480.247692
504.594625	2513.015192
504.960269	2492.850577
505.325856	2470.165385
505.691385	2482.768269
506.056856	2480.247692
506.422270	2500.412308
506.787625	2465.124231
507.152924	2429.836154
507.518164	2550.823846
507.883347	2404.630385
508.248472	2550.823846
508.613540	2502.932885
508.978550	2530.659231
509.343503	2465.124231
509.708398	2452.521346
510.073236	2450.000769
510.438016	2560.906154
510.802738	2429.836154
511.167403	2487.809423
511.532010	2444.959615
511.896561	2434.877308
512.261053	2530.659231
512.625488	2495.371154
512.989866	2482.768269
513.354186	2437.397885
513.718449	2528.138654
514.082655	2495.371154
514.446803	2528.138654
514.810894	2560.906154
515.174927	2467.644808
515.538904	2457.562500
515.902822	2457.562500
516.266684	2417.233269
516.630488	2525.618077
516.994235	2502.932885
517.357925	2482.768269
517.721558	2588.632500
518.085133	2427.315577
518.448651	2513.015192
518.812112	2455.041923
519.175516	2510.494615
519.538863	2502.932885
519.902152	2432.356731
520.265385	2560.906154
520.628560	2578.550192
520.991678	2470.165385
521.354739	2520.576923
521.717743	2495.371154
522.080690	2500.412308
522.443580	2487.809423
522.806413	2510.494615
523.169189	2515.535769
523.531908	2447.480192
523.894569	2480.247692
524.257174	2427.315577
524.619722	2505.453462
524.982213	2462.603654
525.344647	2513.015192
525.707025	2465.124231
526.069345	2513.015192
526.431608	2407.150962
526.793815	2465.124231
527.155964	2510.494615
527.518057	2447.480192
527.880093	2540.741538
528.242072	2407.150962
528.603995	2492.850577
528.965860	2404.630385
529.327669	2507.974038
529.689421	2475.206538
530.051117	2457.562500
530.412755	2500.412308
530.774337	2462.603654
531.135862	2482.768269
531.497331	2558.385577
531.858743	2417.233269
532.220098	2525.618077
532.581396	2565.947308
532.942638	2424.795000
533.303824	2523.097500
533.664953	2477.727115
534.026025	2487.809423
534.387040	2502.932885
534.747999	2528.138654
535.108902	2596.194231
535.469748	2538.220962
535.830537	2462.603654
536.191270	2429.836154
536.551947	2543.262115
536.912567	2563.426731
537.273131	2507.974038
537.633638	2450.000769
537.994089	2475.206538
538.354483	2591.153077
538.714821	2470.165385
539.075103	2472.685962
539.435328	2480.247692
539.795497	2492.850577
540.155609	2550.823846
540.515665	2505.453462
540.875665	2495.371154
541.235609	2450.000769
541.595496	2525.618077
541.955328	2424.795000
542.315102	2528.138654
542.674821	2568.467885
543.034483	2424.795000
543.394090	2472.685962
543.753640	2523.097500
544.113134	2482.768269
544.472571	2533.179808
544.831953	2427.315577
545.191278	2510.494615
545.550548	2495.371154
545.909761	2439.918462
546.268918	2520.576923
546.628019	2447.480192
546.987064	2550.823846
547.346053	2467.644808
547.704986	2495.371154
548.063863	2596.194231
548.422684	2462.603654
548.781449	2530.659231
549.140158	2447.480192
549.498811	2467.644808
549.857408	2487.809423
550.215949	2510.494615
550.574434	2475.206538
550.932864	2447.480192
551.291237	2442.439038
551.649555	2513.015192
552.007817	2540.741538
552.366022	2528.138654
552.724173	2543.262115
553.082267	2434.877308
553.440305	2550.823846
553.798288	2560.906154
554.156215	2447.480192
554.514086	2475.206538
554.871902	2518.056346
555.229661	2560.906154
555.587365	2515.535769
555.945014	2432.356731
556.302606	2432.356731
556.660143	2502.932885
557.017625	2465.124231
557.375050	2543.262115
557.732421	2530.659231
558.089735	2581.070769
558.446994	2465.124231
558.804197	2467.644808
559.161345	2495.371154
559.518437	2450.000769
559.875474	2490.330000
560.232455	2513.015192
560.589381	2548.303269
560.946251	2533.179808
561.303065	2470.165385
561.659825	2495.371154
562.016528	2434.877308
562.373177	2513.015192
562.729770	2500.412308
563.086307	2520.576923
563.442789	2507.974038
563.799216	2502.932885
564.155587	2465.124231
564.511904	2450.000769
564.868164	2560.906154
565.224370	2477.727115
565.580520	2576.029615
565.936615	2472.685962
566.292654	2520.576923
566.648638	2540.741538
567.004567	2452.521346
567.360441	2513.015192
567.716260	2591.153077
568.072023	2490.330000
568.427732	2480.247692
568.783385	2495.371154
569.138982	2485.288846
569.494525	2495.371154
569.850013	2540.741538
570.205445	2505.453462
570.560823	2502.932885
570.916145	2543.262115
571.271412	2472.685962
571.626625	2495.371154
571.981782	2523.097500
572.336884	2470.165385
572.691931	2525.618077
573.046923	2475.206538
573.401860	2482.768269
573.756743	2455.041923
574.111570	2450.000769
574.466342	2402.109808
574.821059	2518.056346
575.175722	2565.947308
575.530330	2457.562500
575.884882	2475.206538
576.239380	2475.206538
576.593823	2543.262115
576.948211	2513.015192
577.302544	2462.603654
577.656823	2482.768269
578.011047	2528.138654
578.365216	2530.659231
578.719330	2485.288846
579.073389	2490.330000
579.427394	2490.330000
579.781344	2568.467885
580.135239	2525.618077
580.489080	2548.303269
580.842866	2470.165385
581.196597	2455.041923
581.550273	2528.138654
581.903895	2533.179808
582.257463	2528.138654
582.610975	2555.865000
582.964434	2442.439038
583.317837	2563.426731
583.671186	2424.795000
584.024481	2528.138654
584.377721	2412.192115
584.730906	2500.412308
585.084037	2530.659231
585.437113	2518.056346
585.790135	2533.179808
586.143103	2505.453462
586.496016	2530.659231
586.848874	2490.330000
587.201679	2497.891731
587.554428	2465.124231
587.907124	2472.685962
588.259765	2520.576923
588.612352	2480.247692
588.964884	2447.480192
589.317362	2538.220962
589.669786	2545.782692
590.022155	2485.288846
590.374470	2495.371154
590.726731	2487.809423
591.078937	2492.850577
591.431090	2457.562500
591.783188	2452.521346
592.135232	2487.809423
592.487222	2492.850577
592.839157	2581.070769
593.191038	2442.439038
593.542866	2565.947308
593.894639	2492.850577
594.246358	2520.576923
594.598022	2505.453462
594.949633	2485.288846
595.301190	2502.932885
595.652692	2495.371154
596.004141	2510.494615
596.355535	2553.344423
596.706876	2492.850577
597.058162	2460.083077
597.409395	2533.179808
597.760573	2505.453462
598.111698	2485.288846
598.462768	2505.453462
598.813785	2510.494615
599.164748	2444.959615
599.515657	2513.015192
599.866511	2392.027500
600.217312	2482.768269
600.568060	2485.288846
600.918753	2513.015192
601.269392	2409.671538
601.619978	2535.700385
601.970510	2545.782692
602.320988	2558.385577
602.671412	2581.070769
603.021783	2485.288846
603.372100	2487.809423
603.722363	2462.603654
604.072572	2588.632500
604.422728	2591.153077
604.772830	2518.056346
605.122878	2507.974038
605.472872	2550.823846
605.822813	2482.768269
606.172701	2530.659231
606.522534	2482.768269
606.872314	2477.727115
607.222041	2379.424615
607.571714	2515.535769
607.921333	2480.247692
608.270899	2460.083077
608.620411	2477.727115
608.969870	2465.124231
609.319276	2447.480192
609.668627	2399.589231
610.017926	2520.576923
610.367171	2482.768269
610.716362	2507.974038
611.065500	2518.056346
611.414585	2444.959615
611.763616	2555.865000
612.112594	2480.247692
612.461518	2371.862885
612.810389	2427.315577
613.159207	2518.056346
613.507971	2432.356731
613.856682	2470.165385
614.205340	2414.712692
614.553945	2533.179808
614.902496	2628.961731
615.250994	2470.165385
615.599439	2510.494615
615.947830	2457.562500
616.296169	2576.029615
616.644454	2502.932885
616.992686	2480.247692
617.340864	2450.000769
617.688990	2502.932885
618.037063	2533.179808
618.385082	2490.330000
618.733048	2419.753846
619.080961	2540.741538
619.428821	2565.947308
619.776628	2490.330000
620.124382	2550.823846
620.472083	2555.865000
620.819731	2550.823846
621.167326	2447.480192
621.514868	2520.576923
621.862357	2465.124231
622.209793	2497.891731
622.557176	2439.918462
622.904506	2553.344423
623.251783	2465.124231
623.599007	2457.562500
623.946179	2472.685962
624.293297	2565.947308
624.640363	2419.753846
624.987376	2583.591346
625.334336	2507.974038
625.681243	2475.206538
626.028097	2447.480192
626.374899	2485.288846
626.721647	2495.371154
627.068343	2573.509038
627.414987	2386.986346
627.761577	2507.974038
628.108115	2538.220962
628.454600	2437.397885
628.801032	2550.823846
629.147412	2361.780577
629.493739	2523.097500
629.840014	2518.056346
630.186236	2427.315577
630.532405	2439.918462
630.878521	2535.700385
631.224585	2470.165385
631.570597	2467.644808
631.916556	2397.068654
632.262462	2470.165385
632.608316	2437.397885
632.954117	2535.700385
633.299866	2513.015192
633.645562	2502.932885
633.991206	2515.535769
634.336797	2447.480192
634.682336	2523.097500
635.027823	2505.453462
635.373257	2535.700385
635.718639	2513.015192
636.063968	2417.233269
636.409245	2439.918462
636.754470	2533.179808
637.099642	2472.685962
637.444762	2429.836154
637.789829	2513.015192
638.134845	2515.535769
638.479808	2545.782692
638.824719	2621.400000
639.169577	2540.741538
639.514383	2515.535769
639.859137	2497.891731
640.203839	2447.480192
640.548489	2555.865000
640.893086	2475.206538
641.237632	2553.344423
641.582125	2588.632500
641.926566	2402.109808
642.270955	2578.550192
642.615292	2467.644808
642.959576	2465.124231
643.303809	2457.562500
643.647990	2535.700385
643.992118	2502.932885
644.336195	2457.562500
644.680219	2482.768269
645.024192	2507.974038
645.368112	2528.138654
645.711981	2560.906154
646.055797	2462.603654
646.399562	2515.535769
646.743274	2422.274423
647.086935	2518.056346
647.430544	2550.823846
647.774101	2550.823846
648.117606	2427.315577
648.461059	2444.959615
648.804460	2452.521346
649.147810	2465.124231
649.491108	2570.988462
649.834354	2553.344423
650.177548	2507.974038
650.520690	2470.165385
650.863781	2487.809423
651.206820	2505.453462
651.549807	2490.330000
651.892742	2457.562500
652.235626	2429.836154
652.578458	2543.262115
652.921238	2578.550192
653.263967	2515.535769
653.606644	2482.768269
653.949269	2485.288846
654.291843	2525.618077
654.634365	2492.850577
654.976836	2482.768269
655.319255	2505.453462
655.661622	2487.809423
656.003938	2502.932885
656.346203	2515.535769
656.688416	2455.041923
657.030577	2462.603654
657.372687	2497.891731
657.714746	2505.453462
658.056753	2528.138654
658.398708	2513.015192
658.740612	2475.206538
659.082465	2497.891731
659.424266	2386.986346
659.766016	2502.932885
660.107715	2424.795000
660.449362	2467.644808
660.790958	2432.356731
661.132503	2477.727115
661.473996	2475.206538
661.815438	2467.644808
662.156829	2528.138654
662.498168	2470.165385
662.839456	2477.727115
663.180693	2513.015192
663.521879	2548.303269
663.863013	2518.056346
664.204097	2444.959615
664.545129	2487.809423
664.886110	2455.041923
665.227040	2497.891731
665.567918	2482.768269
665.908746	2492.850577
666.249522	2457.562500
666.590248	2528.138654
666.930922	2543.262115
667.271545	2530.659231
667.612118	2565.947308
667.952639	2507.974038
668.293109	2467.644808
668.633528	2525.618077
668.973896	2545.782692
669.314213	2533.179808
669.654480	2528.138654
669.994695	2442.439038
670.334859	2558.385577
670.674973	2422.274423
671.015035	2530.659231
671.355047	2467.644808
671.695008	2480.247692
672.034918	2518.056346
672.374777	2505.453462
672.714585	2535.700385
673.054342	2452.521346
673.394049	2480.247692
673.733705	2457.562500
674.073310	2472.685962
674.412864	2497.891731
674.752368	2530.659231
675.091820	2434.877308
675.431223	2452.521346
675.770574	2510.494615
676.109875	2497.891731
676.449125	2444.959615
676.788324	2371.862885
677.127473	2505.453462
677.466571	2550.823846
677.805619	2553.344423
678.144616	2422.274423
678.483562	2495.371154
678.822458	2528.138654
679.161303	2515.535769
679.500098	2520.576923
679.838842	2485.288846
680.177535	2442.439038
680.516179	2513.015192
680.854771	2492.850577
681.193314	2465.124231
681.531805	2417.233269
681.870247	2450.000769
682.208638	2450.000769
682.546978	2520.576923
682.885268	2492.850577
683.223508	2497.891731
683.561697	2485.288846
683.899836	2540.741538
684.237925	2535.700385
684.575963	2485.288846
684.913951	2432.356731
685.251889	2467.644808
685.589776	2460.083077
685.927614	2452.521346
686.265401	2543.262115
686.603137	2550.823846
686.940824	2533.179808
687.278460	2424.795000
687.616046	2470.165385
687.953582	2525.618077
688.291068	2591.153077
688.628504	2500.412308
688.965889	2543.262115
689.303224	2455.041923
689.640510	2492.850577
689.977745	2520.576923
690.314930	2505.453462
690.652065	2490.330000
690.989150	2563.426731
691.326185	2515.535769
691.663170	2485.288846
692.000105	2608.797115
692.336990	2576.029615
692.673825	2555.865000
693.010610	2613.838269
693.347345	2467.644808
693.684030	2513.015192
694.020665	2497.891731
694.357251	2437.397885
694.693786	2480.247692
695.030272	2568.467885
695.366707	2470.165385
695.703093	2543.262115
696.039429	2507.974038
696.375716	2560.906154
696.711952	2523.097500
697.048139	2535.700385
697.384276	2455.041923
697.720363	2427.315577
698.056400	2555.865000
698.392388	2505.453462
698.728326	2548.303269
699.064214	2492.850577
699.400053	2553.344423
699.735842	2497.891731
700.071581	2447.480192
700.407270	2482.768269
700.742910	2515.535769
701.078501	2490.330000
701.414042	2482.768269
701.749533	2487.809423
702.084974	2515.535769
702.420366	2427.315577
702.755709	2460.083077
703.091002	2465.124231
703.426246	2457.562500
703.761440	2538.220962
704.096584	2558.385577
704.431679	2444.959615
704.766725	2553.344423
705.101721	2563.426731
705.436668	2437.397885
705.771565	2487.809423
706.106413	2457.562500
706.441212	2530.659231
706.775961	2500.412308
707.110661	2518.056346
707.445311	2543.262115
707.779913	2497.891731
708.114465	2414.712692
708.448967	2490.330000
708.783421	2457.562500
709.117825	2535.700385
709.452180	2502.932885
709.786485	2634.002885
710.120742	2510.494615
710.454949	2497.891731
710.789107	2477.727115
711.123216	2490.330000
711.457275	2515.535769
711.791286	2515.535769
712.125247	2412.192115
712.459159	2523.097500
712.793023	2404.630385
713.126837	2533.179808
713.460602	2553.344423
713.794318	2611.317692
714.127985	2540.741538
714.461602	2538.220962
714.795171	2475.206538
715.128691	2530.659231
715.462162	2465.124231
715.795584	2444.959615
716.128957	2497.891731
716.462281	2407.150962
716.795556	2505.453462
717.128782	2492.850577
717.461960	2442.439038
717.795088	2452.521346
718.128167	2472.685962
718.461198	2507.974038
718.794180	2515.535769
719.127113	2515.535769
719.459997	2465.124231
719.792833	2510.494615
720.125619	2457.562500
720.458357	2528.138654
720.791046	2487.809423
721.123686	2513.015192
721.456278	2444.959615
721.788821	2472.685962
722.121315	2492.850577
722.453761	2518.056346
722.786158	2485.288846
723.118506	2548.303269
723.450805	2480.247692
723.783056	2444.959615
724.115259	2507.974038
724.447412	2472.685962
724.779518	2553.344423
725.111574	2510.494615
725.443582	2507.974038
725.775542	2513.015192
726.107453	2480.247692
726.439315	2470.165385
726.771129	2495.371154
727.102895	2482.768269
727.434612	2485.288846
727.766281	2465.124231
728.097901	2570.988462
728.429473	2502.932885
728.760996	2485.288846
729.092471	2492.850577
729.423897	2507.974038
729.755276	2404.630385
730.086606	2530.659231
730.417887	2482.768269
730.749120	2510.494615
731.080305	2497.891731
731.411442	2497.891731
731.742530	2515.535769
732.073570	2570.988462
732.404562	2450.000769
732.735506	2502.932885
733.066401	2507.974038
733.397249	2538.220962
733.728048	2510.494615
734.058798	2500.412308
734.389501	2515.535769
734.720156	2523.097500
735.050762	2497.891731
735.381320	2485.288846
735.711831	2439.918462
736.042293	2487.809423
736.372707	2545.782692
736.703073	2472.685962
737.033391	2507.974038
737.363661	2475.206538
737.693883	2422.274423
738.024056	2492.850577
738.354182	2470.165385
738.684260	2533.179808
739.014290	2502.932885
739.344272	2520.576923
739.674207	2570.988462
740.004093	2490.330000
740.333931	2500.412308
740.663722	2500.412308
740.993464	2515.535769
741.323159	2510.494615
741.652806	2525.618077
741.982405	2475.206538
742.311956	2429.836154
742.641460	2507.974038
742.970915	2455.041923
743.300323	2518.056346
743.629683	2477.727115
743.958996	2525.618077
744.288260	2467.644808
744.617477	2548.303269
744.946647	2507.974038
745.275768	2482.768269
745.604842	2432.356731
745.933869	2538.220962
746.262847	2477.727115
746.591778	2477.727115
746.920662	2444.959615
747.249498	2505.453462
747.578286	2518.056346
747.907027	2437.397885
748.235720	2553.344423
748.564365	2457.562500
748.892963	2472.685962
749.221514	2528.138654
749.550017	2447.480192
749.878473	2565.947308
750.206881	2497.891731
750.535242	2490.330000
750.863555	2518.056346
751.191821	2538.220962
751.520039	2457.562500
751.848210	2497.891731
752.176334	2586.111923
752.504411	2533.179808
752.832440	2452.521346
753.160421	2538.220962
753.488356	2472.685962
753.816243	2513.015192
754.144082	2485.288846
754.471875	2535.700385
754.799620	2578.550192
755.127318	2495.371154
755.454969	2470.165385
755.782572	2548.303269
756.110129	2462.603654
756.437638	2553.344423
756.765100	2477.727115
757.092515	2540.741538
757.419882	2588.632500
757.747203	2439.918462
758.074477	2475.206538
758.401703	2467.644808
758.728882	2480.247692
759.056014	2386.986346
759.383099	2626.441154
759.710138	2482.768269
760.037129	2502.932885
760.364073	2525.618077
760.690970	2518.056346
761.017820	2558.385577
761.344623	2455.041923
761.671379	2439.918462
761.998088	2452.521346
762.324751	2548.303269
762.651366	2502.932885
762.977935	2427.315577
763.304456	2439.918462
763.630931	2495.371154
763.957359	2407.150962
764.283740	2515.535769
764.610074	2613.838269
764.936362	2480.247692
765.262602	2422.274423
765.588796	2528.138654
765.914943	2497.891731
766.241044	2555.865000
766.567097	2495.371154
766.893104	2424.795000
767.219064	2563.426731
767.544978	2507.974038
767.870845	2543.262115
768.196665	2472.685962
768.522438	2507.974038
768.848165	2460.083077
769.173846	2422.274423
769.499479	2586.111923
769.825066	2434.877308
770.150607	2543.262115
770.476101	2490.330000
770.801548	2530.659231
771.126949	2507.974038
771.452303	2573.509038
771.777611	2460.083077
772.102872	2510.494615
772.428087	2470.165385
772.753256	2523.097500
773.078378	2490.330000
773.403453	2540.741538
773.728482	2455.041923
774.053465	2485.288846
774.378401	2500.412308
774.703291	2535.700385
775.028135	2550.823846
775.352932	2507.974038
775.677683	2457.562500
776.002388	2525.618077
776.327046	2487.809423
776.651658	2465.124231
776.976224	2553.344423
777.300743	2548.303269
777.625216	2462.603654
777.949643	2513.015192
778.274024	2573.509038
778.598359	2495.371154
778.922647	2467.644808
779.246889	2510.494615
779.571086	2545.782692
779.895236	2465.124231
780.219339	2397.068654
780.543397	2538.220962
780.867409	2470.165385
781.191374	2462.603654
781.515294	2497.891731
781.839167	2437.397885
782.162995	2513.015192
782.486776	2470.165385
782.810511	2525.618077
783.134201	2583.591346
783.457844	2507.974038
783.781441	2485.288846
784.104993	2560.906154
784.428498	2477.727115
784.751958	2500.412308
785.075372	2487.809423
785.398739	2502.932885
785.722061	2480.247692
786.045337	2513.015192
786.368568	2586.111923
786.691752	2568.467885
787.014891	2465.124231
787.337983	2480.247692
787.661030	2475.206538
787.984031	2452.521346
788.306987	2573.509038
788.629897	2548.303269
788.952760	2470.165385
789.275579	2417.233269
789.598351	2480.247692
789.921078	2485.288846
790.243759	2568.467885
790.566395	2470.165385
790.888984	2558.385577
791.211529	2444.959615
791.534027	2447.480192
791.856480	2402.109808
792.178888	2560.906154
792.501249	2563.426731
792.823566	2487.809423
793.145836	2482.768269
793.468062	2490.330000
793.790241	2530.659231
794.112375	2470.165385
794.434464	2502.932885
794.756507	2475.206538
795.078505	2530.659231
795.400457	2475.206538
795.722364	2586.111923
796.044226	2394.548077
796.366042	2553.344423
796.687812	2520.576923
797.009538	2563.426731
797.331218	2487.809423
797.652852	2417.233269
797.974442	2535.700385
798.295986	2565.947308
798.617484	2560.906154
798.938938	2513.015192
799.260346	2523.097500
799.581709	2442.439038
799.903026	2583.591346
800.224299	2495.371154
800.545526	2565.947308
800.866708	2480.247692
801.187845	2565.947308
801.508936	2444.959615
801.829983	2513.015192
802.150984	2397.068654
802.471940	2439.918462
802.792851	2518.056346
803.113717	2452.521346
803.434538	2540.741538
803.755314	2492.850577
804.076045	2520.576923
804.396731	2422.274423
804.717372	2389.506923
805.037967	2510.494615
805.358518	2455.041923
805.679024	2470.165385
805.999485	2470.165385
806.319901	2490.330000
806.640272	2384.465769
806.960598	2507.974038
807.280879	2520.576923
807.601115	2591.153077
807.921306	2485.288846
808.241453	2518.056346
808.561554	2457.562500
808.881611	2505.453462
809.201623	2455.041923
809.521590	2392.027500
809.841513	2492.850577
810.161390	2432.356731
810.481223	2457.562500
810.801011	2563.426731
811.120755	2485.288846
811.440453	2535.700385
811.760107	2555.865000
812.079716	2548.303269
812.399281	2560.906154
812.718801	2467.644808
813.038276	2497.891731
813.357707	2513.015192
813.677093	2472.685962
813.996434	2560.906154
814.315731	2497.891731
814.634983	2563.426731
814.954191	2475.206538
815.273354	2450.000769
815.592473	2409.671538
815.911547	2528.138654
816.230577	2434.877308
816.549562	2502.932885
816.868502	2450.000769
817.187399	2480.247692
817.506250	2513.015192
817.825058	2487.809423
818.143821	2450.000769
818.462539	2596.194231
818.781213	2470.165385
819.099843	2394.548077
819.418429	2502.932885
819.736970	2525.618077
820.055466	2578.550192
820.373919	2505.453462
820.692327	2573.509038
821.010691	2480.247692
821.329011	2492.850577
821.647286	2558.385577
821.965517	2472.685962
822.283704	2520.576923
822.601847	2505.453462
822.919945	2505.453462
823.237999	2492.850577
823.556010	2525.618077
823.873976	2439.918462
824.191897	2412.192115
824.509775	2507.974038
824.827609	2530.659231
825.145398	2538.220962
825.463144	2520.576923
825.780845	2439.918462
826.098502	2533.179808
826.416116	2520.576923
826.733685	2482.768269
827.051210	2475.206538
827.368692	2450.000769
827.686129	2490.330000
828.003522	2570.988462
828.320872	2591.153077
828.638177	2482.768269
828.955439	2555.865000
829.272656	2495.371154
829.589830	2444.959615
829.906960	2560.906154
830.224046	2545.782692
830.541088	2558.385577
830.858086	2513.015192
831.175041	2437.397885
831.491952	2495.371154
831.808819	2507.974038
832.125642	2583.591346
832.442421	2500.412308
832.759157	2538.220962
833.075849	2422.274423
833.392497	2427.315577
833.709101	2465.124231
834.025662	2540.741538
834.342179	2538.220962
834.658653	2565.947308
834.975083	2543.262115
835.291469	2568.467885
835.607811	2535.700385
835.924110	2513.015192
836.240366	2513.015192
836.556578	2490.330000
836.872746	2472.685962
837.188871	2518.056346
837.504952	2596.194231
837.820990	2495.371154
838.136984	2545.782692
838.452935	2434.877308
838.768842	2472.685962
839.084706	2452.521346
839.400526	2482.768269
839.716303	2507.974038
840.032037	2497.891731
840.347727	2439.918462
840.663373	2465.124231
840.978977	2555.865000
841.294537	2528.138654
841.610054	2376.904038
841.925527	2495.371154
842.240957	2467.644808
842.556344	2477.727115
842.871687	2477.727115
843.186987	2492.850577
843.502244	2462.603654
843.817458	2538.220962
844.132629	2462.603654
844.447756	2563.426731
844.762840	2490.330000
845.077881	2394.548077
845.392879	2507.974038
845.707833	2540.741538
846.022745	2419.753846
846.337613	2450.000769
846.652438	2553.344423
846.967221	2553.344423
847.281960	2495.371154
847.596656	2475.206538
847.911309	2455.041923
848.225919	2470.165385
848.540485	2495.371154
848.855009	2518.056346
849.169490	2397.068654
849.483928	2447.480192
849.798323	2434.877308
850.112675	2412.192115
850.426984	2462.603654
850.741251	2467.644808
851.055474	2447.480192
851.369654	2467.644808
851.683792	2570.988462
851.997887	2540.741538
852.311938	2502.932885
852.625947	2548.303269
852.939914	2492.850577
853.253837	2560.906154
853.567718	2525.618077
853.881555	2555.865000
854.195350	2472.685962
854.509103	2530.659231
854.822812	2560.906154
855.136479	2543.262115
855.450103	2437.397885
855.763685	2505.453462
856.077224	2399.589231
856.390720	2515.535769
856.704173	2485.288846
857.017584	2513.015192
857.330953	2513.015192
857.644278	2505.453462
857.957561	2533.179808
858.270802	2502.932885
858.584000	2409.671538
858.897155	2550.823846
859.210268	2472.685962
859.523339	2500.412308
859.836367	2465.124231
860.149352	2505.453462
860.462295	2555.865000
860.775195	2500.412308
861.088054	2545.782692
861.400869	2472.685962
861.713642	2563.426731
862.026373	2447.480192
862.339062	2510.494615
862.651708	2442.439038
862.964312	2505.453462
863.276873	2515.535769
863.589392	2447.480192
863.901869	2515.535769
864.214303	2439.918462
864.526696	2507.974038
864.839045	2497.891731
865.151353	2507.974038
865.463619	2422.274423
865.775842	2555.865000
866.088023	2447.480192
866.400162	2457.562500
866.712258	2492.850577
867.024313	2490.330000
867.336325	2442.439038
867.648296	2513.015192
867.960224	2487.809423
868.272110	2601.235385
868.583954	2545.782692
868.895755	2485.288846
869.207515	2495.371154
869.519233	2497.891731
869.830909	2384.465769
870.142542	2513.015192
870.454134	2573.509038
870.765684	2477.727115
871.077191	2442.439038
871.388657	2487.809423
871.700081	2505.453462
872.011463	2490.330000
872.322803	2492.850577
872.634101	2475.206538
872.945357	2528.138654
873.256571	2452.521346
873.567744	2490.330000
873.878874	2470.165385
874.189963	2563.426731
874.501010	2437.397885
874.812015	2520.576923
875.122979	2555.865000
875.433900	2560.906154
875.744780	2505.453462
876.055618	2523.097500
876.366415	2394.548077
876.677169	2518.056346
876.987882	2389.506923
877.298554	2553.344423
877.609183	2434.877308
877.919771	2457.562500
878.230317	2442.439038
878.540822	2444.959615
878.851285	2424.795000
879.161707	2533.179808
879.472087	2528.138654
879.782425	2460.083077
880.092722	2447.480192
880.402977	2523.097500
880.713191	2429.836154
881.023363	2467.644808
881.333494	2450.000769
881.643583	2437.397885
881.953631	2460.083077
882.263637	2500.412308
882.573602	2482.768269
882.883526	2490.330000
883.193408	2543.262115
883.503248	2495.371154
883.813048	2475.206538
884.122806	2490.330000
884.432522	2424.795000
884.742197	2490.330000
885.051831	2588.632500
885.361424	2487.809423
885.670975	2555.865000
885.980485	2477.727115
886.289954	2444.959615
886.599382	2533.179808
886.908768	2462.603654
887.218113	2492.850577
887.527417	2558.385577
887.836680	2457.562500
888.145901	2495.371154
888.455082	2429.836154
888.764221	2500.412308
889.073319	2447.480192
889.382376	2462.603654
889.691392	2407.150962
890.000366	2455.041923
890.309300	2460.083077
890.618193	2593.673654
890.927044	2565.947308
891.235855	2518.056346
891.544625	2482.768269
891.853353	2480.247692
892.162041	2565.947308
892.470687	2412.192115
892.779293	2518.056346
893.087858	2475.206538
893.396381	2480.247692
893.704864	2472.685962
894.013306	2490.330000
894.321707	2462.603654
894.630068	2502.932885
894.938387	2520.576923
895.246665	2409.671538
895.554903	2560.906154
895.863100	2444.959615
896.171256	2465.124231
896.479371	2490.330000
896.787446	2465.124231
897.095480	2505.453462
897.403473	2533.179808
897.711425	2487.809423
898.019336	2439.918462
898.327207	2477.727115
898.635038	2523.097500
898.942827	2505.453462
899.250576	2386.986346
899.558284	2379.424615
899.865952	2457.562500
900.173579	2505.453462
900.481165	2563.426731
900.788711	2523.097500
901.096216	2505.453462
901.403681	2568.467885
901.711105	2518.056346
902.018489	2505.453462
902.325832	2555.865000
902.633135	2402.109808
902.940397	2462.603654
903.247619	2528.138654
903.554800	2447.480192
903.861941	2427.315577
904.169041	2424.795000
904.476101	2475.206538
904.783121	2472.685962
905.090100	2513.015192
905.397039	2553.344423
905.703938	2452.521346
906.010796	2507.974038
906.317614	2485.288846
906.624391	2475.206538
906.931129	2495.371154
907.237826	2485.288846
907.544483	2452.521346
907.851099	2518.056346
908.157675	2543.262115
908.464211	2523.097500
908.770707	2518.056346
909.077163	2475.206538
909.383578	2462.603654
909.689954	2379.424615
909.996289	2475.206538
910.302584	2432.356731
910.608839	2513.015192
910.915054	2465.124231
911.221229	2505.453462
911.527363	2472.685962
911.833458	2470.165385
912.139513	2550.823846
912.445527	2507.974038
912.751502	2553.344423
913.057436	2510.494615
913.363331	2419.753846
913.669186	2434.877308
913.975000	2407.150962
914.280775	2460.083077
914.586510	2434.877308
914.892205	2540.741538
915.197859	2437.397885
915.503475	2457.562500
915.809050	2460.083077
916.114585	2457.562500
916.420081	2450.000769
916.725536	2538.220962
917.030952	2417.233269
917.336328	2465.124231
917.641665	2477.727115
917.946961	2530.659231
918.252218	2397.068654
918.557435	2573.509038
918.862612	2452.521346
919.167750	2492.850577
919.472848	2475.206538
919.777906	2497.891731
920.082925	2490.330000
920.387904	2490.330000
920.692843	2520.576923
920.997743	2538.220962
921.302603	2417.233269
921.607423	2500.412308
921.912204	2520.576923
922.216946	2455.041923
922.521647	2518.056346
922.826310	2427.315577
923.130932	2591.153077
923.435516	2439.918462
923.740059	2518.056346
924.044564	2502.932885
924.349028	2427.315577
924.653454	2480.247692
924.957840	2545.782692
925.262186	2392.027500
925.566493	2565.947308
925.870761	2442.439038
926.174989	2450.000769
926.479178	2502.932885
926.783328	2475.206538
927.087438	2523.097500
927.391509	2540.741538
927.695541	2439.918462
927.999533	2510.494615
928.303486	2477.727115
928.607400	2510.494615
928.911275	2475.206538
929.215110	2560.906154
929.518906	2560.906154
929.822663	2502.932885
930.126381	2450.000769
930.430060	2447.480192
930.733699	2394.548077
931.037299	2460.083077
931.340861	2530.659231
931.644383	2530.659231
931.947866	2442.439038
932.251309	2502.932885
932.554714	2439.918462
932.858080	2495.371154
933.161407	2429.836154
933.464694	2470.165385
933.767943	2485.288846
934.071153	2495.371154
934.374323	2452.521346
934.677455	2394.548077
934.980548	2500.412308
935.283602	2518.056346
935.586617	2442.439038
935.889593	2409.671538
936.192530	2447.480192
936.495428	2480.247692
936.798287	2538.220962
937.101108	2490.330000
937.403890	2611.317692
937.706632	2518.056346
938.009336	2470.165385
938.312002	2573.509038
938.614628	2455.041923
938.917216	2505.453462
939.219765	2487.809423
939.522275	2520.576923
939.824747	2545.782692
940.127179	2467.644808
940.429573	2518.056346
940.731929	2472.685962
941.034246	2404.630385
941.336524	2538.220962
941.638763	2492.850577
941.940964	2462.603654
942.243126	2520.576923
942.545250	2467.644808
942.847335	2548.303269
943.149381	2455.041923
943.451389	2490.330000
943.753359	2581.070769
944.055290	2507.974038
944.357182	2457.562500
944.659036	2497.891731
944.960851	2525.618077
945.262628	2535.700385
945.564367	2462.603654
945.866067	2563.426731
946.167729	2432.356731
946.469352	2558.385577
946.770937	2497.891731
947.072484	2560.906154
947.373992	2470.165385
947.675462	2485.288846
947.976893	2477.727115
948.278286	2558.385577
948.579641	2450.000769
948.880958	2560.906154
949.182236	2523.097500
949.483476	2603.755962
949.784678	2502.932885
950.085841	2510.494615
950.386967	2480.247692
950.688054	2495.371154
950.989103	2460.083077
951.290114	2500.412308
951.591087	2465.124231
951.892021	2495.371154
952.192917	2462.603654
952.493776	2520.576923
952.794596	2429.836154
953.095378	2422.274423
953.396122	2462.603654
953.696828	2515.535769
953.997496	2450.000769
954.298126	2515.535769
954.598718	2460.083077
954.899272	2520.576923
955.199788	2482.768269
955.500266	2500.412308
955.800706	2442.439038
956.101108	2515.535769
956.401472	2354.218846
956.701798	2495.371154
957.002087	2565.947308
957.302337	2409.671538
957.602550	2507.974038
957.902724	2538.220962
958.202861	2598.714808
958.502960	2523.097500
958.803022	2475.206538
959.103045	2533.179808
959.403031	2452.521346
959.702979	2497.891731
960.002889	2555.865000
960.302762	2402.109808
960.602596	2475.206538
960.902393	2450.000769
961.202153	2442.439038
961.501875	2477.727115
961.801559	2581.070769
962.101205	2397.068654
962.400814	2515.535769
962.700385	2490.330000
962.999918	2482.768269
963.299414	2490.330000
963.598873	2548.303269
963.898293	2472.685962
964.197677	2495.371154
964.497022	2475.206538
964.796331	2510.494615
965.095601	2533.179808
965.394835	2485.288846
965.694030	2583.591346
965.993189	2417.233269
966.292309	2495.371154
966.591393	2409.671538
966.890439	2518.056346
967.189447	2535.700385
967.488419	2422.274423
967.787353	2568.467885
968.086249	2565.947308
968.385108	2447.480192
968.683930	2492.850577
968.982714	2475.206538
969.281462	2447.480192
969.580172	2442.439038
969.878844	2523.097500
970.177480	2399.589231
970.476078	2548.303269
970.774639	2472.685962
971.073162	2485.288846
971.371649	2444.959615
971.670098	2550.823846
971.968510	2457.562500
972.266885	2505.453462
972.565223	2422.274423
972.863524	2528.138654
973.161788	2444.959615
973.460014	2528.138654
973.758204	2437.397885
974.056356	2475.206538
974.354471	2588.632500
974.652550	2497.891731
974.950591	2452.521346
975.248595	2563.426731
975.546563	2507.974038
975.844493	2548.303269
976.142386	2518.056346
976.440243	2490.330000
976.738062	2550.823846
977.035845	2523.097500
977.333590	2467.644808
977.631299	2533.179808
977.928971	2444.959615
978.226606	2465.124231
978.524204	2444.959615
978.821765	2538.220962
979.119290	2465.124231
979.416777	2497.891731
979.714228	2507.974038
980.011642	2482.768269
980.309020	2497.891731
980.606360	2578.550192
980.903664	2497.891731
981.200931	2497.891731
981.498162	2480.247692
981.795356	2492.850577
982.092513	2427.315577
982.389633	2583.591346
982.686717	2492.850577
982.983764	2550.823846
983.280775	2439.918462
983.577749	2492.850577
983.874686	2490.330000
984.171587	2384.465769
984.468451	2591.153077
984.765279	2455.041923
985.062070	2470.165385
985.358824	2505.453462
985.655543	2558.385577
985.952224	2465.124231
986.248869	2457.562500
986.545478	2500.412308
986.842050	2528.138654
987.138586	2538.220962
987.435086	2432.356731
987.731549	2477.727115
988.027975	2540.741538
988.324366	2513.015192
988.620719	2457.562500
988.917037	2576.029615
989.213318	2437.397885
989.509563	2419.753846
989.805772	2475.206538
990.101944	2528.138654
990.398080	2437.397885
990.694180	2482.768269
990.990244	2475.206538
991.286271	2513.015192
991.582262	2492.850577
991.878217	2623.920577
992.174136	2485.288846
992.470019	2543.262115
992.765865	2465.124231
993.061676	2530.659231
993.357450	2535.700385
993.653188	2477.727115
993.948890	2495.371154
994.244556	2457.562500
994.540186	2429.836154
994.835780	2477.727115
995.131337	2538.220962
995.426859	2553.344423
995.722345	2442.439038
996.017795	2339.095385
996.313208	2397.068654
996.608586	2497.891731
996.903928	2470.165385
997.199234	2439.918462
997.494504	2555.865000
997.789738	2502.932885
998.084936	2528.138654
998.380099	2470.165385
998.675225	2409.671538
998.970316	2528.138654
999.265371	2500.412308
999.560390	2452.521346
999.855373	2500.412308
1000.150320	2455.041923
1000.445232	2472.685962
1000.740108	2475.206538
1001.034948	2450.000769
1001.329752	2495.371154
1001.624521	2487.809423
1001.919254	2465.124231
1002.213951	2523.097500
1002.508613	2460.083077
1002.803239	2543.262115
1003.097829	2543.262115
1003.392384	2528.138654
1003.686903	2550.823846
1003.981386	2485.288846
1004.275834	2485.288846
1004.570246	2490.330000
1004.864623	2492.850577
1005.158964	2485.288846
1005.453270	2528.138654
1005.747540	2538.220962
1006.041775	2495.371154
1006.335974	2500.412308
1006.630138	2492.850577
1006.924266	2568.467885
1007.218359	2472.685962
1007.512416	2533.179808
1007.806438	2409.671538
1008.100425	2505.453462
1008.394376	2502.932885
1008.688292	2510.494615
1008.982172	2500.412308
1009.276017	2470.165385
1009.569827	2497.891731
1009.863602	2439.918462
1010.157341	2465.124231
1010.451045	2530.659231
1010.744714	2414.712692
1011.038347	2467.644808
1011.331945	2450.000769
1011.625508	2538.220962
1011.919036	2439.918462
1012.212528	2543.262115
1012.505986	2386.986346
1012.799408	2470.165385
1013.092795	2452.521346
1013.386147	2404.630385
1013.679464	2434.877308
1013.972745	2497.891731
1014.265992	2450.000769
1014.559204	2490.330000
1014.852380	2558.385577
1015.145521	2639.044038
1015.438628	2513.015192
1015.731699	2505.453462
1016.024736	2399.589231
1016.317737	2477.727115
1016.610703	2472.685962
1016.903635	2470.165385
1017.196531	2472.685962
1017.489393	2434.877308
1017.782219	2447.480192
1018.075011	2565.947308
1018.367768	2520.576923
1018.660490	2455.041923
1018.953177	2455.041923
1019.245829	2455.041923
