Dividing Wavelength (nm)	Counts (n)	Blue Motor Position (mm): 0.300000	Red Motor Position (mm): 0.000000	
326.493990	2117.284615
326.888308	2117.284615
327.282561	2117.284615
327.676750	1998.817500
328.070874	2056.790769
328.464933	2061.831923
328.858929	2036.626154
329.252859	2081.996538
329.646726	2071.914231
330.040528	2152.572692
330.434265	2175.257885
330.827938	2137.449231
331.221547	2165.175577
331.615091	2119.805192
332.008571	2195.422500
332.401986	2255.916346
332.795338	2283.642692
333.188625	2195.422500
333.581847	2202.984231
333.975006	2260.957500
334.368100	2220.628269
334.761129	2376.904038
335.154095	2346.657115
335.546996	2341.615962
335.939833	2374.383462
336.332606	2364.301154
336.725315	2306.327885
337.117960	2371.862885
337.510540	2434.877308
337.903056	2412.192115
338.295508	2497.891731
338.687896	2412.192115
339.080220	2475.206538
339.472480	2563.426731
339.864676	2444.959615
340.256807	2442.439038
340.648875	2429.836154
341.040879	2447.480192
341.432818	2470.165385
341.824694	2467.644808
342.216506	2495.371154
342.608253	2520.576923
342.999937	2452.521346
343.391557	2404.630385
343.783113	2513.015192
344.174605	2497.891731
344.566033	2444.959615
344.957397	2465.124231
345.348697	2422.274423
345.739934	2409.671538
346.131106	2477.727115
346.522215	2502.932885
346.913260	2381.945192
347.304241	2470.165385
347.695159	2550.823846
348.086012	2452.521346
348.476802	2409.671538
348.867528	2480.247692
349.258191	2475.206538
349.648789	2465.124231
350.039324	2434.877308
350.429796	2500.412308
350.820203	2455.041923
351.210548	2467.644808
351.600828	2462.603654
351.991045	2336.574808
352.381198	2495.371154
352.771288	2472.685962
353.161314	2487.809423
353.551276	2429.836154
353.941175	2492.850577
354.331010	2392.027500
354.720782	2384.465769
355.110490	2376.904038
355.500135	2404.630385
355.889717	2429.836154
356.279235	2475.206538
356.668689	2397.068654
357.058080	2457.562500
357.447408	2457.562500
357.836672	2460.083077
358.225873	2361.780577
358.615010	2472.685962
359.004084	2513.015192
359.393095	2407.150962
359.782043	2455.041923
360.170927	2414.712692
360.559748	2434.877308
360.948505	2455.041923
361.337199	2447.480192
361.725830	2386.986346
362.114398	2492.850577
362.502903	2427.315577
362.891344	2452.521346
363.279722	2502.932885
363.668037	2432.356731
364.056289	2470.165385
364.444478	2452.521346
364.832603	2495.371154
365.220665	2505.453462
365.608665	2470.165385
365.996601	2404.630385
366.384474	2429.836154
366.772284	2432.356731
367.160031	2462.603654
367.547715	2404.630385
367.935336	2462.603654
368.322893	2460.083077
368.710388	2369.342308
369.097820	2444.959615
369.485189	2467.644808
369.872495	2394.548077
370.259738	2515.535769
370.646918	2480.247692
371.034035	2467.644808
371.421090	2442.439038
371.808081	2437.397885
372.195010	2422.274423
372.581875	2545.782692
372.968678	2447.480192
373.355418	2500.412308
373.742096	2462.603654
374.128710	2465.124231
374.515262	2467.644808
374.901751	2482.768269
375.288177	2455.041923
375.674540	2480.247692
376.060841	2402.109808
376.447079	2467.644808
376.833254	2535.700385
377.219367	2563.426731
377.605417	2480.247692
377.991404	2490.330000
378.377329	2482.768269
378.763191	2487.809423
379.148991	2490.330000
379.534727	2495.371154
379.920402	2419.753846
380.306013	2490.330000
380.691563	2412.192115
381.077049	2480.247692
381.462474	2507.974038
381.847835	2424.795000
382.233134	2530.659231
382.618371	2465.124231
383.003545	2419.753846
383.388657	2477.727115
383.773706	2427.315577
384.158693	2429.836154
384.543618	2467.644808
384.928480	2444.959615
385.313280	2392.027500
385.698017	2487.809423
386.082692	2450.000769
386.467305	2472.685962
386.851856	2427.315577
387.236344	2490.330000
387.620770	2407.150962
388.005133	2419.753846
388.389435	2550.823846
388.773674	2397.068654
389.157851	2540.741538
389.541965	2447.480192
389.926018	2470.165385
390.310008	2510.494615
390.693936	2447.480192
391.077802	2394.548077
391.461606	2381.945192
391.845348	2530.659231
392.229027	2465.124231
392.612645	2437.397885
392.996200	2538.220962
393.379694	2414.712692
393.763125	2535.700385
394.146494	2528.138654
394.529801	2442.439038
394.913047	2477.727115
395.296230	2518.056346
395.679351	2548.303269
396.062410	2452.521346
396.445408	2379.424615
396.828343	2497.891731
397.211217	2366.821731
397.594028	2427.315577
397.976778	2389.506923
398.359466	2439.918462
398.742092	2437.397885
399.124656	2386.986346
399.507158	2392.027500
399.889598	2525.618077
400.271977	2480.247692
400.654294	2447.480192
401.036549	2533.179808
401.418742	2500.412308
401.800874	2507.974038
402.182944	2404.630385
402.564952	2497.891731
402.946898	2540.741538
403.328783	2414.712692
403.710606	2528.138654
404.092367	2452.521346
404.474067	2381.945192
404.855705	2560.906154
405.237282	2457.562500
405.618797	2482.768269
406.000250	2470.165385
406.381642	2470.165385
406.762972	2450.000769
407.144240	2518.056346
407.525447	2520.576923
407.906593	2434.877308
408.287677	2525.618077
408.668700	2460.083077
409.049661	2472.685962
409.430560	2500.412308
409.811399	2497.891731
410.192176	2477.727115
410.572891	2439.918462
410.953545	2500.412308
411.334138	2520.576923
411.714669	2507.974038
412.095139	2427.315577
412.475547	2434.877308
412.855894	2460.083077
413.236180	2389.506923
413.616405	2402.109808
413.996568	2447.480192
414.376670	2518.056346
414.756711	2540.741538
415.136691	2485.288846
415.516609	2439.918462
415.896466	2407.150962
416.276262	2553.344423
416.655997	2485.288846
417.035670	2507.974038
417.415283	2470.165385
417.794834	2392.027500
418.174324	2510.494615
418.553753	2513.015192
418.933121	2497.891731
419.312428	2480.247692
419.691674	2470.165385
420.070859	2480.247692
420.449983	2450.000769
420.829045	2533.179808
421.208047	2429.836154
421.586988	2409.671538
421.965867	2439.918462
422.344686	2470.165385
422.723444	2540.741538
423.102141	2515.535769
423.480777	2505.453462
423.859352	2480.247692
424.237866	2480.247692
424.616319	2419.753846
424.994712	2472.685962
425.373044	2518.056346
425.751314	2525.618077
426.129524	2530.659231
426.507673	2460.083077
426.885762	2414.712692
427.263789	2482.768269
427.641756	2497.891731
428.019662	2455.041923
428.397508	2550.823846
428.775292	2578.550192
429.153016	2465.124231
429.530679	2497.891731
429.908282	2457.562500
430.285824	2545.782692
430.663305	2447.480192
431.040726	2518.056346
431.418086	2482.768269
431.795385	2502.932885
432.172624	2457.562500
432.549802	2452.521346
432.926920	2452.521346
433.303977	2495.371154
433.680974	2510.494615
434.057910	2422.274423
434.434786	2444.959615
434.811601	2419.753846
435.188355	2507.974038
435.565050	2495.371154
435.941683	2470.165385
436.318257	2467.644808
436.694770	2465.124231
437.071222	2477.727115
437.447614	2477.727115
437.823946	2419.753846
438.200218	2548.303269
438.576429	2447.480192
438.952580	2608.797115
439.328670	2457.562500
439.704700	2460.083077
440.080670	2623.920577
440.456580	2457.562500
440.832429	2477.727115
441.208218	2467.644808
441.583947	2525.618077
441.959616	2394.548077
442.335224	2457.562500
442.710773	2447.480192
443.086261	2507.974038
443.461689	2452.521346
443.837057	2538.220962
444.212365	2447.480192
444.587612	2497.891731
444.962800	2507.974038
445.337927	2480.247692
445.712995	2487.809423
446.088002	2502.932885
446.462949	2487.809423
446.837837	2518.056346
447.212664	2419.753846
447.587431	2397.068654
447.962139	2570.988462
448.336786	2462.603654
448.711374	2477.727115
449.085901	2480.247692
449.460369	2402.109808
449.834776	2495.371154
450.209124	2364.301154
450.583412	2467.644808
450.957640	2545.782692
451.331808	2535.700385
451.705917	2422.274423
452.079965	2487.809423
452.453954	2467.644808
452.827883	2533.179808
453.201752	2477.727115
453.575562	2409.671538
453.949311	2427.315577
454.323001	2402.109808
454.696632	2530.659231
455.070202	2497.891731
455.443713	2434.877308
455.817164	2528.138654
456.190556	2470.165385
456.563888	2394.548077
456.937160	2467.644808
457.310373	2407.150962
457.683526	2588.632500
458.056619	2434.877308
458.429653	2432.356731
458.802628	2472.685962
459.175542	2497.891731
459.548398	2457.562500
459.921194	2402.109808
460.293930	2465.124231
460.666607	2475.206538
461.039224	2548.303269
461.411782	2548.303269
461.784280	2419.753846
462.156719	2492.850577
462.529099	2472.685962
462.901419	2386.986346
463.273680	2477.727115
463.645882	2490.330000
464.018024	2450.000769
464.390106	2480.247692
464.762130	2447.480192
465.134094	2457.562500
465.505999	2510.494615
465.877845	2535.700385
466.249631	2515.535769
466.621358	2472.685962
466.993026	2513.015192
467.364634	2515.535769
467.736184	2462.603654
468.107674	2507.974038
468.479105	2505.453462
468.850477	2565.947308
469.221790	2472.685962
469.593043	2535.700385
469.964238	2492.850577
470.335373	2442.439038
470.706449	2432.356731
471.077467	2500.412308
471.448425	2482.768269
471.819324	2525.618077
472.190164	2500.412308
472.560945	2530.659231
472.931667	2490.330000
473.302330	2480.247692
473.672934	2467.644808
474.043479	2525.618077
474.413965	2495.371154
474.784393	2444.959615
475.154761	2419.753846
475.525070	2568.467885
475.895321	2447.480192
476.265513	2533.179808
476.635645	2437.397885
477.005719	2419.753846
477.375734	2412.192115
477.745691	2467.644808
478.115588	2450.000769
478.485427	2457.562500
478.855207	2550.823846
479.224928	2455.041923
479.594591	2386.986346
479.964194	2450.000769
480.333739	2588.632500
480.703226	2475.206538
481.072653	2513.015192
481.442022	2568.467885
481.811333	2470.165385
482.180584	2533.179808
482.549777	2412.192115
482.918912	2505.453462
483.287988	2472.685962
483.657005	2555.865000
484.025964	2485.288846
484.394864	2475.206538
484.763706	2518.056346
485.132489	2480.247692
485.501213	2487.809423
485.869879	2477.727115
486.238487	2538.220962
486.607036	2492.850577
486.975527	2439.918462
487.343959	2432.356731
487.712333	2467.644808
488.080648	2507.974038
488.448905	2465.124231
488.817104	2495.371154
489.185244	2545.782692
489.553326	2457.562500
489.921350	2492.850577
490.289315	2457.562500
490.657222	2543.262115
491.025070	2452.521346
491.392861	2487.809423
491.760593	2460.083077
492.128267	2497.891731
492.495883	2500.412308
492.863440	2455.041923
493.230939	2462.603654
493.598380	2485.288846
493.965763	2497.891731
494.333088	2510.494615
494.700354	2543.262115
495.067563	2520.576923
495.434713	2492.850577
495.801805	2482.768269
496.168839	2470.165385
496.535815	2419.753846
496.902733	2565.947308
497.269593	2555.865000
497.636395	2495.371154
498.003139	2439.918462
498.369825	2475.206538
498.736453	2462.603654
499.103023	2366.821731
499.469535	2558.385577
499.835989	2555.865000
500.202385	2563.426731
500.568723	2500.412308
500.935003	2462.603654
501.301226	2482.768269
501.667390	2583.591346
502.033497	2444.959615
502.399546	2475.206538
502.765537	2550.823846
503.131470	2490.330000
503.497345	2404.630385
503.863163	2497.891731
504.228923	2487.809423
504.594625	2495.371154
504.960269	2520.576923
505.325856	2462.603654
505.691385	2442.439038
506.056856	2502.932885
506.422270	2518.056346
506.787625	2490.330000
507.152924	2470.165385
507.518164	2485.288846
507.883347	2429.836154
508.248472	2422.274423
508.613540	2460.083077
508.978550	2550.823846
509.343503	2497.891731
509.708398	2525.618077
510.073236	2530.659231
510.438016	2510.494615
510.802738	2485.288846
511.167403	2553.344423
511.532010	2507.974038
511.896561	2389.506923
512.261053	2490.330000
512.625488	2548.303269
512.989866	2470.165385
513.354186	2392.027500
513.718449	2490.330000
514.082655	2565.947308
514.446803	2502.932885
514.810894	2475.206538
515.174927	2515.535769
515.538904	2495.371154
515.902822	2447.480192
516.266684	2505.453462
516.630488	2492.850577
516.994235	2467.644808
517.357925	2523.097500
517.721558	2513.015192
518.085133	2518.056346
518.448651	2540.741538
518.812112	2507.974038
519.175516	2565.947308
519.538863	2470.165385
519.902152	2563.426731
520.265385	2545.782692
520.628560	2447.480192
520.991678	2518.056346
521.354739	2565.947308
521.717743	2490.330000
522.080690	2513.015192
522.443580	2467.644808
522.806413	2502.932885
523.169189	2467.644808
523.531908	2520.576923
523.894569	2444.959615
524.257174	2578.550192
524.619722	2419.753846
524.982213	2487.809423
525.344647	2520.576923
525.707025	2518.056346
526.069345	2487.809423
526.431608	2414.712692
526.793815	2502.932885
527.155964	2505.453462
527.518057	2558.385577
527.880093	2472.685962
528.242072	2538.220962
528.603995	2510.494615
528.965860	2482.768269
529.327669	2578.550192
529.689421	2439.918462
530.051117	2482.768269
530.412755	2495.371154
530.774337	2475.206538
531.135862	2482.768269
531.497331	2409.671538
531.858743	2480.247692
532.220098	2538.220962
532.581396	2487.809423
532.942638	2505.453462
533.303824	2480.247692
533.664953	2470.165385
534.026025	2407.150962
534.387040	2462.603654
534.747999	2442.439038
535.108902	2505.453462
535.469748	2424.795000
535.830537	2538.220962
536.191270	2485.288846
536.551947	2540.741538
536.912567	2528.138654
537.273131	2477.727115
537.633638	2487.809423
537.994089	2578.550192
538.354483	2495.371154
538.714821	2422.274423
539.075103	2507.974038
539.435328	2482.768269
539.795497	2492.850577
540.155609	2583.591346
540.515665	2480.247692
540.875665	2533.179808
541.235609	2570.988462
541.595496	2490.330000
541.955328	2586.111923
542.315102	2485.288846
542.674821	2455.041923
543.034483	2576.029615
543.394090	2540.741538
543.753640	2502.932885
544.113134	2417.233269
544.472571	2432.356731
544.831953	2487.809423
545.191278	2434.877308
545.550548	2520.576923
545.909761	2507.974038
546.268918	2455.041923
546.628019	2442.439038
546.987064	2528.138654
547.346053	2490.330000
547.704986	2538.220962
548.063863	2513.015192
548.422684	2485.288846
548.781449	2538.220962
549.140158	2434.877308
549.498811	2507.974038
549.857408	2460.083077
550.215949	2482.768269
550.574434	2381.945192
550.932864	2497.891731
551.291237	2502.932885
551.649555	2540.741538
552.007817	2596.194231
552.366022	2505.453462
552.724173	2523.097500
553.082267	2475.206538
553.440305	2485.288846
553.798288	2477.727115
554.156215	2457.562500
554.514086	2495.371154
554.871902	2467.644808
555.229661	2432.356731
555.587365	2583.591346
555.945014	2513.015192
556.302606	2482.768269
556.660143	2467.644808
557.017625	2470.165385
557.375050	2495.371154
557.732421	2480.247692
558.089735	2470.165385
558.446994	2502.932885
558.804197	2450.000769
559.161345	2518.056346
559.518437	2545.782692
559.875474	2535.700385
560.232455	2560.906154
560.589381	2555.865000
560.946251	2548.303269
561.303065	2407.150962
561.659825	2533.179808
562.016528	2475.206538
562.373177	2457.562500
562.729770	2538.220962
563.086307	2553.344423
563.442789	2480.247692
563.799216	2492.850577
564.155587	2457.562500
564.511904	2422.274423
564.868164	2525.618077
565.224370	2490.330000
565.580520	2530.659231
565.936615	2578.550192
566.292654	2480.247692
566.648638	2366.821731
567.004567	2550.823846
567.360441	2480.247692
567.716260	2553.344423
568.072023	2490.330000
568.427732	2457.562500
568.783385	2515.535769
569.138982	2480.247692
569.494525	2480.247692
569.850013	2505.453462
570.205445	2507.974038
570.560823	2482.768269
570.916145	2490.330000
571.271412	2520.576923
571.626625	2553.344423
571.981782	2472.685962
572.336884	2565.947308
572.691931	2470.165385
573.046923	2510.494615
573.401860	2525.618077
573.756743	2485.288846
574.111570	2507.974038
574.466342	2470.165385
574.821059	2530.659231
575.175722	2558.385577
575.530330	2462.603654
575.884882	2487.809423
576.239380	2510.494615
576.593823	2520.576923
576.948211	2507.974038
577.302544	2490.330000
577.656823	2568.467885
578.011047	2530.659231
578.365216	2535.700385
578.719330	2513.015192
579.073389	2510.494615
579.427394	2457.562500
579.781344	2515.535769
580.135239	2502.932885
580.489080	2505.453462
580.842866	2465.124231
581.196597	2558.385577
581.550273	2482.768269
581.903895	2540.741538
582.257463	2502.932885
582.610975	2452.521346
582.964434	2497.891731
583.317837	2576.029615
583.671186	2540.741538
584.024481	2480.247692
584.377721	2535.700385
584.730906	2427.315577
585.084037	2558.385577
585.437113	2550.823846
585.790135	2500.412308
586.143103	2492.850577
586.496016	2623.920577
586.848874	2518.056346
587.201679	2545.782692
587.554428	2429.836154
587.907124	2475.206538
588.259765	2475.206538
588.612352	2568.467885
588.964884	2553.344423
589.317362	2480.247692
589.669786	2533.179808
590.022155	2472.685962
590.374470	2467.644808
590.726731	2460.083077
591.078937	2480.247692
591.431090	2465.124231
591.783188	2500.412308
592.135232	2487.809423
592.487222	2409.671538
592.839157	2510.494615
593.191038	2573.509038
593.542866	2510.494615
593.894639	2472.685962
594.246358	2485.288846
594.598022	2490.330000
594.949633	2480.247692
595.301190	2465.124231
595.652692	2535.700385
596.004141	2487.809423
596.355535	2490.330000
596.706876	2480.247692
597.058162	2442.439038
597.409395	2533.179808
597.760573	2487.809423
598.111698	2470.165385
598.462768	2586.111923
598.813785	2515.535769
599.164748	2505.453462
599.515657	2507.974038
599.866511	2480.247692
600.217312	2402.109808
600.568060	2457.562500
600.918753	2492.850577
601.269392	2487.809423
601.619978	2404.630385
601.970510	2470.165385
602.320988	2427.315577
602.671412	2465.124231
603.021783	2487.809423
603.372100	2513.015192
603.722363	2510.494615
604.072572	2502.932885
604.422728	2553.344423
604.772830	2462.603654
605.122878	2596.194231
605.472872	2510.494615
605.822813	2525.618077
606.172701	2530.659231
606.522534	2455.041923
606.872314	2583.591346
607.222041	2465.124231
607.571714	2482.768269
607.921333	2520.576923
608.270899	2467.644808
608.620411	2495.371154
608.969870	2543.262115
609.319276	2576.029615
609.668627	2545.782692
610.017926	2467.644808
610.367171	2518.056346
610.716362	2530.659231
611.065500	2563.426731
611.414585	2573.509038
611.763616	2482.768269
612.112594	2417.233269
612.461518	2505.453462
612.810389	2540.741538
613.159207	2515.535769
613.507971	2490.330000
613.856682	2442.439038
614.205340	2533.179808
614.553945	2480.247692
614.902496	2482.768269
615.250994	2621.400000
615.599439	2434.877308
615.947830	2535.700385
616.296169	2540.741538
616.644454	2535.700385
616.992686	2465.124231
617.340864	2487.809423
617.688990	2523.097500
618.037063	2576.029615
618.385082	2492.850577
618.733048	2422.274423
619.080961	2442.439038
619.428821	2545.782692
619.776628	2472.685962
620.124382	2500.412308
620.472083	2505.453462
620.819731	2535.700385
621.167326	2482.768269
621.514868	2525.618077
621.862357	2540.741538
622.209793	2507.974038
622.557176	2467.644808
622.904506	2455.041923
623.251783	2523.097500
623.599007	2520.576923
623.946179	2518.056346
624.293297	2487.809423
624.640363	2487.809423
624.987376	2480.247692
625.334336	2550.823846
625.681243	2588.632500
626.028097	2482.768269
626.374899	2507.974038
626.721647	2540.741538
627.068343	2540.741538
627.414987	2518.056346
627.761577	2545.782692
628.108115	2477.727115
628.454600	2510.494615
628.801032	2525.618077
629.147412	2487.809423
629.493739	2452.521346
629.840014	2442.439038
630.186236	2434.877308
630.532405	2472.685962
630.878521	2513.015192
631.224585	2429.836154
631.570597	2515.535769
631.916556	2573.509038
632.262462	2500.412308
632.608316	2520.576923
632.954117	2460.083077
633.299866	2507.974038
633.645562	2475.206538
633.991206	2510.494615
634.336797	2500.412308
634.682336	2455.041923
635.027823	2548.303269
635.373257	2513.015192
635.718639	2540.741538
636.063968	2550.823846
636.409245	2528.138654
636.754470	2427.315577
637.099642	2525.618077
637.444762	2500.412308
637.789829	2515.535769
638.134845	2528.138654
638.479808	2518.056346
638.824719	2523.097500
639.169577	2510.494615
639.514383	2477.727115
639.859137	2528.138654
640.203839	2492.850577
640.548489	2505.453462
640.893086	2500.412308
641.237632	2492.850577
641.582125	2649.126346
641.926566	2470.165385
642.270955	2588.632500
642.615292	2520.576923
642.959576	2535.700385
643.303809	2502.932885
643.647990	2480.247692
643.992118	2543.262115
644.336195	2560.906154
644.680219	2513.015192
645.024192	2480.247692
645.368112	2485.288846
645.711981	2485.288846
646.055797	2550.823846
646.399562	2450.000769
646.743274	2530.659231
647.086935	2538.220962
647.430544	2432.356731
647.774101	2505.453462
648.117606	2455.041923
648.461059	2540.741538
648.804460	2447.480192
649.147810	2525.618077
649.491108	2578.550192
649.834354	2533.179808
650.177548	2450.000769
650.520690	2492.850577
650.863781	2482.768269
651.206820	2487.809423
651.549807	2490.330000
651.892742	2515.535769
652.235626	2404.630385
652.578458	2606.276538
652.921238	2482.768269
653.263967	2530.659231
653.606644	2467.644808
653.949269	2462.603654
654.291843	2462.603654
654.634365	2490.330000
654.976836	2455.041923
655.319255	2492.850577
655.661622	2525.618077
656.003938	2444.959615
656.346203	2444.959615
656.688416	2528.138654
657.030577	2419.753846
657.372687	2472.685962
657.714746	2553.344423
658.056753	2422.274423
658.398708	2497.891731
658.740612	2460.083077
659.082465	2455.041923
659.424266	2439.918462
659.766016	2505.453462
660.107715	2492.850577
660.449362	2540.741538
660.790958	2492.850577
661.132503	2545.782692
661.473996	2558.385577
661.815438	2515.535769
662.156829	2540.741538
662.498168	2460.083077
662.839456	2437.397885
663.180693	2543.262115
663.521879	2518.056346
663.863013	2450.000769
664.204097	2475.206538
664.545129	2543.262115
664.886110	2470.165385
665.227040	2482.768269
665.567918	2555.865000
665.908746	2553.344423
666.249522	2485.288846
666.590248	2520.576923
666.930922	2500.412308
667.271545	2502.932885
667.612118	2490.330000
667.952639	2497.891731
668.293109	2510.494615
668.633528	2520.576923
668.973896	2540.741538
669.314213	2470.165385
669.654480	2573.509038
669.994695	2500.412308
670.334859	2555.865000
670.674973	2545.782692
671.015035	2520.576923
671.355047	2560.906154
671.695008	2500.412308
672.034918	2422.274423
672.374777	2507.974038
672.714585	2500.412308
673.054342	2490.330000
673.394049	2414.712692
673.733705	2470.165385
674.073310	2533.179808
674.412864	2475.206538
674.752368	2550.823846
675.091820	2518.056346
675.431223	2520.576923
675.770574	2455.041923
676.109875	2497.891731
676.449125	2470.165385
676.788324	2437.397885
677.127473	2404.630385
677.466571	2487.809423
677.805619	2492.850577
678.144616	2450.000769
678.483562	2528.138654
678.822458	2502.932885
679.161303	2492.850577
679.500098	2525.618077
679.838842	2530.659231
680.177535	2467.644808
680.516179	2374.383462
680.854771	2444.959615
681.193314	2497.891731
681.531805	2465.124231
681.870247	2487.809423
682.208638	2477.727115
682.546978	2502.932885
682.885268	2513.015192
683.223508	2472.685962
683.561697	2528.138654
683.899836	2558.385577
684.237925	2515.535769
684.575963	2505.453462
684.913951	2520.576923
685.251889	2432.356731
685.589776	2462.603654
685.927614	2447.480192
686.265401	2578.550192
686.603137	2485.288846
686.940824	2525.618077
687.278460	2444.959615
687.616046	2442.439038
687.953582	2518.056346
688.291068	2482.768269
688.628504	2528.138654
688.965889	2487.809423
689.303224	2565.947308
689.640510	2538.220962
689.977745	2510.494615
690.314930	2452.521346
690.652065	2432.356731
690.989150	2492.850577
691.326185	2412.192115
691.663170	2540.741538
692.000105	2525.618077
692.336990	2480.247692
692.673825	2611.317692
693.010610	2490.330000
693.347345	2500.412308
693.684030	2523.097500
694.020665	2550.823846
694.357251	2515.535769
694.693786	2545.782692
695.030272	2480.247692
695.366707	2444.959615
695.703093	2520.576923
696.039429	2533.179808
696.375716	2578.550192
696.711952	2480.247692
697.048139	2487.809423
697.384276	2480.247692
697.720363	2530.659231
698.056400	2543.262115
698.392388	2555.865000
698.728326	2538.220962
699.064214	2485.288846
699.400053	2490.330000
699.735842	2525.618077
700.071581	2507.974038
700.407270	2613.838269
700.742910	2598.714808
701.078501	2565.947308
701.414042	2437.397885
701.749533	2452.521346
702.084974	2530.659231
702.420366	2518.056346
702.755709	2518.056346
703.091002	2543.262115
703.426246	2555.865000
703.761440	2455.041923
704.096584	2528.138654
704.431679	2563.426731
704.766725	2429.836154
705.101721	2507.974038
705.436668	2513.015192
705.771565	2543.262115
706.106413	2470.165385
706.441212	2520.576923
706.775961	2472.685962
707.110661	2535.700385
707.445311	2475.206538
707.779913	2485.288846
708.114465	2424.795000
708.448967	2505.453462
708.783421	2543.262115
709.117825	2492.850577
709.452180	2482.768269
709.786485	2447.480192
710.120742	2492.850577
710.454949	2515.535769
710.789107	2485.288846
711.123216	2434.877308
711.457275	2563.426731
711.791286	2560.906154
712.125247	2492.850577
712.459159	2477.727115
712.793023	2437.397885
713.126837	2515.535769
713.460602	2530.659231
713.794318	2444.959615
714.127985	2558.385577
714.461602	2533.179808
714.795171	2523.097500
715.128691	2520.576923
715.462162	2417.233269
715.795584	2477.727115
716.128957	2399.589231
716.462281	2490.330000
716.795556	2490.330000
717.128782	2442.439038
717.461960	2447.480192
717.795088	2500.412308
718.128167	2515.535769
718.461198	2591.153077
718.794180	2450.000769
719.127113	2523.097500
719.459997	2480.247692
719.792833	2513.015192
720.125619	2470.165385
720.458357	2560.906154
720.791046	2429.836154
721.123686	2495.371154
721.456278	2515.535769
721.788821	2485.288846
722.121315	2460.083077
722.453761	2530.659231
722.786158	2442.439038
723.118506	2513.015192
723.450805	2497.891731
723.783056	2560.906154
724.115259	2520.576923
724.447412	2505.453462
724.779518	2550.823846
725.111574	2437.397885
725.443582	2540.741538
725.775542	2490.330000
726.107453	2548.303269
726.439315	2510.494615
726.771129	2477.727115
727.102895	2455.041923
727.434612	2384.465769
727.766281	2487.809423
728.097901	2535.700385
728.429473	2502.932885
728.760996	2442.439038
729.092471	2523.097500
729.423897	2553.344423
729.755276	2472.685962
730.086606	2480.247692
730.417887	2434.877308
730.749120	2470.165385
731.080305	2535.700385
731.411442	2465.124231
731.742530	2475.206538
732.073570	2447.480192
732.404562	2520.576923
732.735506	2472.685962
733.066401	2528.138654
733.397249	2538.220962
733.728048	2487.809423
734.058798	2520.576923
734.389501	2485.288846
734.720156	2472.685962
735.050762	2447.480192
735.381320	2538.220962
735.711831	2480.247692
736.042293	2482.768269
736.372707	2480.247692
736.703073	2467.644808
737.033391	2457.562500
737.363661	2505.453462
737.693883	2470.165385
738.024056	2586.111923
738.354182	2452.521346
738.684260	2538.220962
739.014290	2452.521346
739.344272	2545.782692
739.674207	2502.932885
740.004093	2500.412308
740.333931	2457.562500
740.663722	2510.494615
740.993464	2472.685962
741.323159	2490.330000
741.652806	2545.782692
741.982405	2553.344423
742.311956	2500.412308
742.641460	2525.618077
742.970915	2444.959615
743.300323	2412.192115
743.629683	2540.741538
743.958996	2460.083077
744.288260	2492.850577
744.617477	2563.426731
744.946647	2470.165385
745.275768	2444.959615
745.604842	2450.000769
745.933869	2480.247692
746.262847	2591.153077
746.591778	2439.918462
746.920662	2513.015192
747.249498	2455.041923
747.578286	2505.453462
747.907027	2586.111923
748.235720	2465.124231
748.564365	2530.659231
748.892963	2472.685962
749.221514	2467.644808
749.550017	2497.891731
749.878473	2518.056346
750.206881	2550.823846
750.535242	2515.535769
750.863555	2523.097500
751.191821	2482.768269
751.520039	2457.562500
751.848210	2555.865000
752.176334	2558.385577
752.504411	2480.247692
752.832440	2495.371154
753.160421	2467.644808
753.488356	2462.603654
753.816243	2467.644808
754.144082	2545.782692
754.471875	2442.439038
754.799620	2472.685962
755.127318	2530.659231
755.454969	2507.974038
755.782572	2543.262115
756.110129	2550.823846
756.437638	2515.535769
756.765100	2450.000769
757.092515	2523.097500
757.419882	2500.412308
757.747203	2535.700385
758.074477	2583.591346
758.401703	2515.535769
758.728882	2444.959615
759.056014	2581.070769
759.383099	2502.932885
759.710138	2530.659231
760.037129	2528.138654
760.364073	2507.974038
760.690970	2424.795000
761.017820	2505.453462
761.344623	2455.041923
761.671379	2568.467885
761.998088	2472.685962
762.324751	2442.439038
762.651366	2482.768269
762.977935	2548.303269
763.304456	2477.727115
763.630931	2444.959615
763.957359	2555.865000
764.283740	2414.712692
764.610074	2553.344423
764.936362	2492.850577
765.262602	2507.974038
765.588796	2563.426731
765.914943	2427.315577
766.241044	2545.782692
766.567097	2470.165385
766.893104	2452.521346
767.219064	2460.083077
767.544978	2502.932885
767.870845	2452.521346
768.196665	2404.630385
768.522438	2465.124231
768.848165	2485.288846
769.173846	2510.494615
769.499479	2450.000769
769.825066	2553.344423
770.150607	2442.439038
770.476101	2492.850577
770.801548	2490.330000
771.126949	2545.782692
771.452303	2555.865000
771.777611	2399.589231
772.102872	2439.918462
772.428087	2465.124231
772.753256	2497.891731
773.078378	2412.192115
773.403453	2505.453462
773.728482	2475.206538
774.053465	2442.439038
774.378401	2593.673654
774.703291	2555.865000
775.028135	2427.315577
775.352932	2482.768269
775.677683	2490.330000
776.002388	2500.412308
776.327046	2462.603654
776.651658	2502.932885
776.976224	2490.330000
777.300743	2495.371154
777.625216	2434.877308
777.949643	2616.358846
778.274024	2490.330000
778.598359	2470.165385
778.922647	2467.644808
779.246889	2563.426731
779.571086	2477.727115
779.895236	2570.988462
780.219339	2475.206538
780.543397	2457.562500
780.867409	2455.041923
781.191374	2477.727115
781.515294	2460.083077
781.839167	2487.809423
782.162995	2502.932885
782.486776	2437.397885
782.810511	2523.097500
783.134201	2470.165385
783.457844	2497.891731
783.781441	2455.041923
784.104993	2457.562500
784.428498	2429.836154
784.751958	2540.741538
785.075372	2523.097500
785.398739	2553.344423
785.722061	2402.109808
786.045337	2485.288846
786.368568	2495.371154
786.691752	2490.330000
787.014891	2490.330000
787.337983	2460.083077
787.661030	2487.809423
787.984031	2502.932885
788.306987	2505.453462
788.629897	2500.412308
788.952760	2444.959615
789.275579	2432.356731
789.598351	2510.494615
789.921078	2432.356731
790.243759	2495.371154
790.566395	2407.150962
790.888984	2510.494615
791.211529	2450.000769
791.534027	2480.247692
791.856480	2412.192115
792.178888	2422.274423
792.501249	2505.453462
792.823566	2485.288846
793.145836	2490.330000
793.468062	2520.576923
793.790241	2475.206538
794.112375	2533.179808
794.434464	2392.027500
794.756507	2470.165385
795.078505	2475.206538
795.400457	2482.768269
795.722364	2439.918462
796.044226	2450.000769
796.366042	2450.000769
796.687812	2447.480192
797.009538	2500.412308
797.331218	2530.659231
797.652852	2500.412308
797.974442	2455.041923
798.295986	2492.850577
798.617484	2450.000769
798.938938	2505.453462
799.260346	2495.371154
799.581709	2533.179808
799.903026	2500.412308
800.224299	2404.630385
800.545526	2523.097500
800.866708	2487.809423
801.187845	2555.865000
801.508936	2515.535769
801.829983	2492.850577
802.150984	2450.000769
802.471940	2548.303269
802.792851	2447.480192
803.113717	2523.097500
803.434538	2455.041923
803.755314	2520.576923
804.076045	2427.315577
804.396731	2497.891731
804.717372	2530.659231
805.037967	2492.850577
805.358518	2434.877308
805.679024	2487.809423
805.999485	2417.233269
806.319901	2520.576923
806.640272	2525.618077
806.960598	2472.685962
807.280879	2518.056346
807.601115	2548.303269
807.921306	2560.906154
808.241453	2507.974038
808.561554	2460.083077
808.881611	2462.603654
809.201623	2472.685962
809.521590	2535.700385
809.841513	2462.603654
810.161390	2414.712692
810.481223	2424.795000
810.801011	2510.494615
811.120755	2492.850577
811.440453	2465.124231
811.760107	2467.644808
812.079716	2492.850577
812.399281	2495.371154
812.718801	2490.330000
813.038276	2472.685962
813.357707	2482.768269
813.677093	2465.124231
813.996434	2502.932885
814.315731	2359.260000
814.634983	2525.618077
814.954191	2485.288846
815.273354	2548.303269
815.592473	2550.823846
815.911547	2414.712692
816.230577	2452.521346
816.549562	2371.862885
816.868502	2518.056346
817.187399	2500.412308
817.506250	2558.385577
817.825058	2444.959615
818.143821	2480.247692
818.462539	2548.303269
818.781213	2510.494615
819.099843	2477.727115
819.418429	2518.056346
819.736970	2470.165385
820.055466	2457.562500
820.373919	2429.836154
820.692327	2492.850577
821.010691	2538.220962
821.329011	2495.371154
821.647286	2437.397885
821.965517	2450.000769
822.283704	2520.576923
822.601847	2513.015192
822.919945	2507.974038
823.237999	2482.768269
823.556010	2495.371154
823.873976	2475.206538
824.191897	2505.453462
824.509775	2533.179808
824.827609	2485.288846
825.145398	2447.480192
825.463144	2528.138654
825.780845	2482.768269
826.098502	2480.247692
826.416116	2528.138654
826.733685	2397.068654
827.051210	2487.809423
827.368692	2510.494615
827.686129	2424.795000
828.003522	2477.727115
828.320872	2492.850577
828.638177	2553.344423
828.955439	2470.165385
829.272656	2482.768269
829.589830	2513.015192
829.906960	2490.330000
830.224046	2515.535769
830.541088	2510.494615
830.858086	2465.124231
831.175041	2470.165385
831.491952	2470.165385
831.808819	2548.303269
832.125642	2444.959615
832.442421	2482.768269
832.759157	2560.906154
833.075849	2490.330000
833.392497	2427.315577
833.709101	2472.685962
834.025662	2460.083077
834.342179	2530.659231
834.658653	2465.124231
834.975083	2518.056346
835.291469	2545.782692
835.607811	2500.412308
835.924110	2581.070769
836.240366	2427.315577
836.556578	2447.480192
836.872746	2477.727115
837.188871	2429.836154
837.504952	2485.288846
837.820990	2533.179808
838.136984	2502.932885
838.452935	2507.974038
838.768842	2485.288846
839.084706	2523.097500
839.400526	2515.535769
839.716303	2470.165385
840.032037	2482.768269
840.347727	2422.274423
840.663373	2515.535769
840.978977	2487.809423
841.294537	2520.576923
841.610054	2510.494615
841.925527	2510.494615
842.240957	2563.426731
842.556344	2543.262115
842.871687	2490.330000
843.186987	2495.371154
843.502244	2510.494615
843.817458	2510.494615
844.132629	2480.247692
844.447756	2525.618077
844.762840	2432.356731
845.077881	2465.124231
845.392879	2555.865000
845.707833	2490.330000
846.022745	2437.397885
846.337613	2495.371154
846.652438	2533.179808
846.967221	2447.480192
847.281960	2510.494615
847.596656	2452.521346
847.911309	2502.932885
848.225919	2475.206538
848.540485	2492.850577
848.855009	2480.247692
849.169490	2404.630385
849.483928	2475.206538
849.798323	2507.974038
850.112675	2520.576923
850.426984	2515.535769
850.741251	2487.809423
851.055474	2462.603654
851.369654	2462.603654
851.683792	2424.795000
851.997887	2482.768269
852.311938	2497.891731
852.625947	2495.371154
852.939914	2525.618077
853.253837	2437.397885
853.567718	2515.535769
853.881555	2548.303269
854.195350	2452.521346
854.509103	2397.068654
854.822812	2502.932885
855.136479	2563.426731
855.450103	2518.056346
855.763685	2505.453462
856.077224	2568.467885
856.390720	2439.918462
856.704173	2500.412308
857.017584	2482.768269
857.330953	2457.562500
857.644278	2477.727115
857.957561	2404.630385
858.270802	2490.330000
858.584000	2444.959615
858.897155	2477.727115
859.210268	2533.179808
859.523339	2558.385577
859.836367	2450.000769
860.149352	2528.138654
860.462295	2568.467885
860.775195	2535.700385
861.088054	2472.685962
861.400869	2424.795000
861.713642	2573.509038
862.026373	2397.068654
862.339062	2457.562500
862.651708	2510.494615
862.964312	2462.603654
863.276873	2419.753846
863.589392	2513.015192
863.901869	2492.850577
864.214303	2510.494615
864.526696	2530.659231
864.839045	2439.918462
865.151353	2540.741538
865.463619	2475.206538
865.775842	2485.288846
866.088023	2505.453462
866.400162	2465.124231
866.712258	2540.741538
867.024313	2523.097500
867.336325	2497.891731
867.648296	2442.439038
867.960224	2452.521346
868.272110	2485.288846
868.583954	2550.823846
868.895755	2432.356731
869.207515	2505.453462
869.519233	2525.618077
869.830909	2422.274423
870.142542	2581.070769
870.454134	2455.041923
870.765684	2538.220962
871.077191	2467.644808
871.388657	2505.453462
871.700081	2505.453462
872.011463	2427.315577
872.322803	2452.521346
872.634101	2513.015192
872.945357	2492.850577
873.256571	2437.397885
873.567744	2533.179808
873.878874	2439.918462
874.189963	2586.111923
874.501010	2475.206538
874.812015	2437.397885
875.122979	2495.371154
875.433900	2525.618077
875.744780	2477.727115
876.055618	2528.138654
876.366415	2442.439038
876.677169	2568.467885
876.987882	2573.509038
877.298554	2538.220962
877.609183	2502.932885
877.919771	2490.330000
878.230317	2558.385577
878.540822	2545.782692
878.851285	2407.150962
879.161707	2429.836154
879.472087	2500.412308
879.782425	2442.439038
880.092722	2432.356731
880.402977	2558.385577
880.713191	2505.453462
881.023363	2475.206538
881.333494	2490.330000
881.643583	2470.165385
881.953631	2457.562500
882.263637	2518.056346
882.573602	2528.138654
882.883526	2565.947308
883.193408	2450.000769
883.503248	2497.891731
883.813048	2392.027500
884.122806	2553.344423
884.432522	2462.603654
884.742197	2505.453462
885.051831	2507.974038
885.361424	2450.000769
885.670975	2490.330000
885.980485	2480.247692
886.289954	2422.274423
886.599382	2513.015192
886.908768	2485.288846
887.218113	2530.659231
887.527417	2439.918462
887.836680	2500.412308
888.145901	2429.836154
888.455082	2422.274423
888.764221	2465.124231
889.073319	2450.000769
889.382376	2570.988462
889.691392	2444.959615
890.000366	2500.412308
890.309300	2538.220962
890.618193	2480.247692
890.927044	2455.041923
891.235855	2442.439038
891.544625	2480.247692
891.853353	2442.439038
892.162041	2374.383462
892.470687	2472.685962
892.779293	2409.671538
893.087858	2485.288846
893.396381	2485.288846
893.704864	2513.015192
894.013306	2535.700385
894.321707	2465.124231
894.630068	2462.603654
894.938387	2497.891731
895.246665	2455.041923
895.554903	2502.932885
895.863100	2507.974038
896.171256	2525.618077
896.479371	2518.056346
896.787446	2457.562500
897.095480	2520.576923
897.403473	2472.685962
897.711425	2472.685962
898.019336	2422.274423
898.327207	2427.315577
898.635038	2560.906154
898.942827	2439.918462
899.250576	2495.371154
899.558284	2485.288846
899.865952	2427.315577
900.173579	2540.741538
900.481165	2414.712692
900.788711	2457.562500
901.096216	2528.138654
901.403681	2528.138654
901.711105	2495.371154
902.018489	2497.891731
902.325832	2447.480192
902.633135	2548.303269
902.940397	2457.562500
903.247619	2462.603654
903.554800	2548.303269
903.861941	2442.439038
904.169041	2462.603654
904.476101	2502.932885
904.783121	2424.795000
905.090100	2513.015192
905.397039	2404.630385
905.703938	2394.548077
906.010796	2505.453462
906.317614	2523.097500
906.624391	2490.330000
906.931129	2513.015192
907.237826	2427.315577
907.544483	2477.727115
907.851099	2429.836154
908.157675	2475.206538
908.464211	2455.041923
908.770707	2457.562500
909.077163	2578.550192
909.383578	2475.206538
909.689954	2407.150962
909.996289	2502.932885
910.302584	2447.480192
910.608839	2502.932885
910.915054	2497.891731
911.221229	2462.603654
911.527363	2480.247692
911.833458	2548.303269
912.139513	2581.070769
912.445527	2497.891731
912.751502	2500.412308
913.057436	2510.494615
913.363331	2502.932885
913.669186	2470.165385
913.975000	2502.932885
914.280775	2470.165385
914.586510	2495.371154
914.892205	2495.371154
915.197859	2485.288846
915.503475	2500.412308
915.809050	2475.206538
916.114585	2477.727115
916.420081	2548.303269
916.725536	2513.015192
917.030952	2475.206538
917.336328	2462.603654
917.641665	2553.344423
917.946961	2523.097500
918.252218	2525.618077
918.557435	2518.056346
918.862612	2465.124231
919.167750	2460.083077
919.472848	2460.083077
919.777906	2467.644808
920.082925	2482.768269
920.387904	2477.727115
920.692843	2545.782692
920.997743	2465.124231
921.302603	2563.426731
921.607423	2460.083077
921.912204	2482.768269
922.216946	2533.179808
922.521647	2437.397885
922.826310	2545.782692
923.130932	2490.330000
923.435516	2581.070769
923.740059	2394.548077
924.044564	2472.685962
924.349028	2477.727115
924.653454	2429.836154
924.957840	2560.906154
925.262186	2472.685962
925.566493	2460.083077
925.870761	2472.685962
926.174989	2460.083077
926.479178	2465.124231
926.783328	2455.041923
927.087438	2500.412308
927.391509	2444.959615
927.695541	2520.576923
927.999533	2472.685962
928.303486	2533.179808
928.607400	2439.918462
928.911275	2427.315577
929.215110	2389.506923
929.518906	2520.576923
929.822663	2475.206538
930.126381	2419.753846
930.430060	2457.562500
930.733699	2444.959615
931.037299	2510.494615
931.340861	2573.509038
931.644383	2455.041923
931.947866	2452.521346
932.251309	2437.397885
932.554714	2495.371154
932.858080	2485.288846
933.161407	2533.179808
933.464694	2530.659231
933.767943	2558.385577
934.071153	2558.385577
934.374323	2553.344423
934.677455	2444.959615
934.980548	2530.659231
935.283602	2437.397885
935.586617	2442.439038
935.889593	2404.630385
936.192530	2417.233269
936.495428	2485.288846
936.798287	2518.056346
937.101108	2470.165385
937.403890	2437.397885
937.706632	2568.467885
938.009336	2543.262115
938.312002	2578.550192
938.614628	2485.288846
938.917216	2412.192115
939.219765	2507.974038
939.522275	2540.741538
939.824747	2492.850577
940.127179	2442.439038
940.429573	2465.124231
940.731929	2492.850577
941.034246	2515.535769
941.336524	2515.535769
941.638763	2460.083077
941.940964	2513.015192
942.243126	2429.836154
942.545250	2422.274423
942.847335	2507.974038
943.149381	2450.000769
943.451389	2505.453462
943.753359	2510.494615
944.055290	2384.465769
944.357182	2366.821731
944.659036	2485.288846
944.960851	2417.233269
945.262628	2505.453462
945.564367	2457.562500
945.866067	2477.727115
946.167729	2472.685962
946.469352	2497.891731
946.770937	2402.109808
947.072484	2432.356731
947.373992	2548.303269
947.675462	2460.083077
947.976893	2487.809423
948.278286	2424.795000
948.579641	2530.659231
948.880958	2573.509038
949.182236	2545.782692
949.483476	2462.603654
949.784678	2507.974038
950.085841	2359.260000
950.386967	2429.836154
950.688054	2462.603654
950.989103	2495.371154
951.290114	2462.603654
951.591087	2505.453462
951.892021	2434.877308
952.192917	2535.700385
952.493776	2457.562500
952.794596	2460.083077
953.095378	2467.644808
953.396122	2482.768269
953.696828	2397.068654
953.997496	2518.056346
954.298126	2444.959615
954.598718	2381.945192
954.899272	2505.453462
955.199788	2477.727115
955.500266	2533.179808
955.800706	2477.727115
956.101108	2505.453462
956.401472	2472.685962
956.701798	2462.603654
957.002087	2495.371154
957.302337	2553.344423
957.602550	2482.768269
957.902724	2565.947308
958.202861	2419.753846
958.502960	2427.315577
958.803022	2490.330000
959.103045	2535.700385
959.403031	2533.179808
959.702979	2485.288846
960.002889	2523.097500
960.302762	2480.247692
960.602596	2427.315577
960.902393	2510.494615
961.202153	2563.426731
961.501875	2455.041923
961.801559	2455.041923
962.101205	2457.562500
962.400814	2465.124231
962.700385	2515.535769
962.999918	2548.303269
963.299414	2492.850577
963.598873	2447.480192
963.898293	2558.385577
964.197677	2467.644808
964.497022	2487.809423
964.796331	2555.865000
965.095601	2462.603654
965.394835	2452.521346
965.694030	2462.603654
965.993189	2573.509038
966.292309	2452.521346
966.591393	2520.576923
966.890439	2555.865000
967.189447	2505.453462
967.488419	2444.959615
967.787353	2495.371154
968.086249	2444.959615
968.385108	2502.932885
968.683930	2533.179808
968.982714	2457.562500
969.281462	2417.233269
969.580172	2548.303269
969.878844	2480.247692
970.177480	2455.041923
970.476078	2538.220962
970.774639	2482.768269
971.073162	2467.644808
971.371649	2525.618077
971.670098	2392.027500
971.968510	2452.521346
972.266885	2429.836154
972.565223	2437.397885
972.863524	2427.315577
973.161788	2565.947308
973.460014	2419.753846
973.758204	2490.330000
974.056356	2482.768269
974.354471	2558.385577
974.652550	2477.727115
974.950591	2439.918462
975.248595	2429.836154
975.546563	2505.453462
975.844493	2442.439038
976.142386	2502.932885
976.440243	2520.576923
976.738062	2515.535769
977.035845	2507.974038
977.333590	2596.194231
977.631299	2535.700385
977.928971	2475.206538
978.226606	2608.797115
978.524204	2492.850577
978.821765	2502.932885
979.119290	2523.097500
979.416777	2492.850577
979.714228	2482.768269
980.011642	2510.494615
980.309020	2490.330000
980.606360	2450.000769
980.903664	2480.247692
981.200931	2419.753846
981.498162	2414.712692
981.795356	2439.918462
982.092513	2414.712692
982.389633	2475.206538
982.686717	2444.959615
982.983764	2492.850577
983.280775	2419.753846
983.577749	2452.521346
983.874686	2462.603654
984.171587	2477.727115
984.468451	2475.206538
984.765279	2455.041923
985.062070	2480.247692
985.358824	2510.494615
985.655543	2472.685962
985.952224	2528.138654
986.248869	2487.809423
986.545478	2495.371154
986.842050	2455.041923
987.138586	2505.453462
987.435086	2477.727115
987.731549	2397.068654
988.027975	2603.755962
988.324366	2507.974038
988.620719	2452.521346
988.917037	2518.056346
989.213318	2502.932885
989.509563	2470.165385
989.805772	2553.344423
990.101944	2419.753846
990.398080	2497.891731
990.694180	2450.000769
990.990244	2419.753846
991.286271	2480.247692
991.582262	2601.235385
991.878217	2422.274423
992.174136	2470.165385
992.470019	2379.424615
992.765865	2540.741538
993.061676	2560.906154
993.357450	2434.877308
993.653188	2505.453462
993.948890	2525.618077
994.244556	2404.630385
994.540186	2349.177692
994.835780	2477.727115
995.131337	2563.426731
995.426859	2462.603654
995.722345	2513.015192
996.017795	2495.371154
996.313208	2523.097500
996.608586	2515.535769
996.903928	2500.412308
997.199234	2485.288846
997.494504	2528.138654
997.789738	2470.165385
998.084936	2507.974038
998.380099	2444.959615
998.675225	2497.891731
998.970316	2407.150962
999.265371	2586.111923
999.560390	2507.974038
999.855373	2492.850577
1000.150320	2502.932885
1000.445232	2543.262115
1000.740108	2487.809423
1001.034948	2523.097500
1001.329752	2495.371154
1001.624521	2500.412308
1001.919254	2495.371154
1002.213951	2492.850577
1002.508613	2409.671538
1002.803239	2467.644808
1003.097829	2439.918462
1003.392384	2472.685962
1003.686903	2429.836154
1003.981386	2404.630385
1004.275834	2518.056346
1004.570246	2485.288846
1004.864623	2515.535769
1005.158964	2409.671538
1005.453270	2457.562500
1005.747540	2457.562500
1006.041775	2467.644808
1006.335974	2472.685962
1006.630138	2409.671538
1006.924266	2513.015192
1007.218359	2502.932885
1007.512416	2477.727115
1007.806438	2419.753846
1008.100425	2470.165385
1008.394376	2520.576923
1008.688292	2500.412308
1008.982172	2497.891731
1009.276017	2485.288846
1009.569827	2444.959615
1009.863602	2444.959615
1010.157341	2470.165385
1010.451045	2502.932885
1010.744714	2442.439038
1011.038347	2502.932885
1011.331945	2487.809423
1011.625508	2520.576923
1011.919036	2404.630385
1012.212528	2455.041923
1012.505986	2510.494615
1012.799408	2492.850577
1013.092795	2460.083077
1013.386147	2492.850577
1013.679464	2457.562500
1013.972745	2439.918462
1014.265992	2525.618077
1014.559204	2495.371154
1014.852380	2450.000769
1015.145521	2538.220962
1015.438628	2439.918462
1015.731699	2563.426731
1016.024736	2452.521346
1016.317737	2475.206538
1016.610703	2462.603654
1016.903635	2450.000769
1017.196531	2550.823846
1017.489393	2576.029615
1017.782219	2513.015192
1018.075011	2444.959615
1018.367768	2419.753846
1018.660490	2576.029615
1018.953177	2576.029615
1019.245829	2576.029615
