Dividing Wavelength (nm)	Counts (n)	Blue Motor Position (mm): 0.700000	Red Motor Position (mm): 0.000000	
326.493990	2197.943077
326.888308	2197.943077
327.282561	2197.943077
327.676750	2021.502692
328.070874	2084.517115
328.464933	2122.325769
328.858929	2054.270192
329.252859	1998.817500
329.646726	2034.105577
330.040528	2145.010962
330.434265	2119.805192
330.827938	2119.805192
331.221547	2142.490385
331.615091	2170.216731
332.008571	2139.969808
332.401986	2202.984231
332.795338	2182.819615
333.188625	2281.122115
333.581847	2248.354615
333.975006	2293.725000
334.368100	2306.327885
334.761129	2271.039808
335.154095	2354.218846
335.546996	2318.930769
335.939833	2376.904038
336.332606	2291.204423
336.725315	2404.630385
337.117960	2336.574808
337.510540	2404.630385
337.903056	2412.192115
338.295508	2404.630385
338.687896	2467.644808
339.080220	2427.315577
339.472480	2472.685962
339.864676	2475.206538
340.256807	2477.727115
340.648875	2427.315577
341.040879	2507.974038
341.432818	2520.576923
341.824694	2417.233269
342.216506	2492.850577
342.608253	2528.138654
342.999937	2482.768269
343.391557	2434.877308
343.783113	2548.303269
344.174605	2460.083077
344.566033	2482.768269
344.957397	2439.918462
345.348697	2502.932885
345.739934	2467.644808
346.131106	2439.918462
346.522215	2470.165385
346.913260	2434.877308
347.304241	2545.782692
347.695159	2402.109808
348.086012	2419.753846
348.476802	2444.959615
348.867528	2457.562500
349.258191	2452.521346
349.648789	2455.041923
350.039324	2409.671538
350.429796	2397.068654
350.820203	2392.027500
351.210548	2429.836154
351.600828	2442.439038
351.991045	2419.753846
352.381198	2467.644808
352.771288	2414.712692
353.161314	2510.494615
353.551276	2480.247692
353.941175	2404.630385
354.331010	2442.439038
354.720782	2427.315577
355.110490	2495.371154
355.500135	2596.194231
355.889717	2472.685962
356.279235	2465.124231
356.668689	2402.109808
357.058080	2356.739423
357.447408	2442.439038
357.836672	2384.465769
358.225873	2487.809423
358.615010	2460.083077
359.004084	2402.109808
359.393095	2419.753846
359.782043	2477.727115
360.170927	2422.274423
360.559748	2444.959615
360.948505	2419.753846
361.337199	2500.412308
361.725830	2427.315577
362.114398	2500.412308
362.502903	2376.904038
362.891344	2465.124231
363.279722	2480.247692
363.668037	2457.562500
364.056289	2419.753846
364.444478	2452.521346
364.832603	2457.562500
365.220665	2510.494615
365.608665	2502.932885
365.996601	2419.753846
366.384474	2460.083077
366.772284	2417.233269
367.160031	2374.383462
367.547715	2500.412308
367.935336	2409.671538
368.322893	2530.659231
368.710388	2457.562500
369.097820	2402.109808
369.485189	2429.836154
369.872495	2404.630385
370.259738	2404.630385
370.646918	2457.562500
371.034035	2530.659231
371.421090	2424.795000
371.808081	2487.809423
372.195010	2477.727115
372.581875	2422.274423
372.968678	2414.712692
373.355418	2427.315577
373.742096	2457.562500
374.128710	2548.303269
374.515262	2409.671538
374.901751	2427.315577
375.288177	2402.109808
375.674540	2462.603654
376.060841	2487.809423
376.447079	2530.659231
376.833254	2442.439038
377.219367	2510.494615
377.605417	2565.947308
377.991404	2497.891731
378.377329	2374.383462
378.763191	2409.671538
379.148991	2460.083077
379.534727	2442.439038
379.920402	2528.138654
380.306013	2447.480192
380.691563	2389.506923
381.077049	2520.576923
381.462474	2485.288846
381.847835	2437.397885
382.233134	2442.439038
382.618371	2424.795000
383.003545	2460.083077
383.388657	2457.562500
383.773706	2422.274423
384.158693	2485.288846
384.543618	2507.974038
384.928480	2505.453462
385.313280	2467.644808
385.698017	2480.247692
386.082692	2482.768269
386.467305	2472.685962
386.851856	2492.850577
387.236344	2472.685962
387.620770	2520.576923
388.005133	2429.836154
388.389435	2520.576923
388.773674	2409.671538
389.157851	2434.877308
389.541965	2439.918462
389.926018	2525.618077
390.310008	2480.247692
390.693936	2404.630385
391.077802	2457.562500
391.461606	2419.753846
391.845348	2392.027500
392.229027	2480.247692
392.612645	2482.768269
392.996200	2457.562500
393.379694	2470.165385
393.763125	2455.041923
394.146494	2570.988462
394.529801	2460.083077
394.913047	2513.015192
395.296230	2414.712692
395.679351	2477.727115
396.062410	2485.288846
396.445408	2495.371154
396.828343	2434.877308
397.211217	2437.397885
397.594028	2442.439038
397.976778	2497.891731
398.359466	2492.850577
398.742092	2412.192115
399.124656	2432.356731
399.507158	2475.206538
399.889598	2507.974038
400.271977	2460.083077
400.654294	2490.330000
401.036549	2424.795000
401.418742	2422.274423
401.800874	2447.480192
402.182944	2510.494615
402.564952	2450.000769
402.946898	2507.974038
403.328783	2419.753846
403.710606	2462.603654
404.092367	2490.330000
404.474067	2470.165385
404.855705	2417.233269
405.237282	2495.371154
405.618797	2515.535769
406.000250	2510.494615
406.381642	2414.712692
406.762972	2482.768269
407.144240	2507.974038
407.525447	2492.850577
407.906593	2560.906154
408.287677	2452.521346
408.668700	2434.877308
409.049661	2513.015192
409.430560	2455.041923
409.811399	2515.535769
410.192176	2460.083077
410.572891	2442.439038
410.953545	2505.453462
411.334138	2548.303269
411.714669	2457.562500
412.095139	2555.865000
412.475547	2500.412308
412.855894	2477.727115
413.236180	2462.603654
413.616405	2462.603654
413.996568	2472.685962
414.376670	2540.741538
414.756711	2386.986346
415.136691	2439.918462
415.516609	2470.165385
415.896466	2429.836154
416.276262	2545.782692
416.655997	2472.685962
417.035670	2369.342308
417.415283	2475.206538
417.794834	2480.247692
418.174324	2397.068654
418.553753	2444.959615
418.933121	2490.330000
419.312428	2457.562500
419.691674	2520.576923
420.070859	2422.274423
420.449983	2558.385577
420.829045	2530.659231
421.208047	2457.562500
421.586988	2480.247692
421.965867	2444.959615
422.344686	2402.109808
422.723444	2525.618077
423.102141	2462.603654
423.480777	2424.795000
423.859352	2518.056346
424.237866	2450.000769
424.616319	2553.344423
424.994712	2434.877308
425.373044	2487.809423
425.751314	2497.891731
426.129524	2515.535769
426.507673	2470.165385
426.885762	2427.315577
427.263789	2457.562500
427.641756	2568.467885
428.019662	2482.768269
428.397508	2334.054231
428.775292	2447.480192
429.153016	2447.480192
429.530679	2513.015192
429.908282	2490.330000
430.285824	2492.850577
430.663305	2432.356731
431.040726	2513.015192
431.418086	2480.247692
431.795385	2530.659231
432.172624	2434.877308
432.549802	2515.535769
432.926920	2550.823846
433.303977	2384.465769
433.680974	2500.412308
434.057910	2482.768269
434.434786	2467.644808
434.811601	2450.000769
435.188355	2507.974038
435.565050	2485.288846
435.941683	2510.494615
436.318257	2482.768269
436.694770	2444.959615
437.071222	2497.891731
437.447614	2462.603654
437.823946	2409.671538
438.200218	2520.576923
438.576429	2492.850577
438.952580	2467.644808
439.328670	2444.959615
439.704700	2515.535769
440.080670	2505.453462
440.456580	2500.412308
440.832429	2533.179808
441.208218	2518.056346
441.583947	2437.397885
441.959616	2472.685962
442.335224	2424.795000
442.710773	2495.371154
443.086261	2437.397885
443.461689	2422.274423
443.837057	2525.618077
444.212365	2427.315577
444.587612	2513.015192
444.962800	2457.562500
445.337927	2439.918462
445.712995	2548.303269
446.088002	2523.097500
446.462949	2419.753846
446.837837	2518.056346
447.212664	2450.000769
447.587431	2523.097500
447.962139	2399.589231
448.336786	2535.700385
448.711374	2543.262115
449.085901	2570.988462
449.460369	2465.124231
449.834776	2409.671538
450.209124	2497.891731
450.583412	2394.548077
450.957640	2455.041923
451.331808	2472.685962
451.705917	2460.083077
452.079965	2548.303269
452.453954	2467.644808
452.827883	2507.974038
453.201752	2475.206538
453.575562	2490.330000
453.949311	2543.262115
454.323001	2513.015192
454.696632	2538.220962
455.070202	2497.891731
455.443713	2394.548077
455.817164	2475.206538
456.190556	2510.494615
456.563888	2482.768269
456.937160	2447.480192
457.310373	2427.315577
457.683526	2507.974038
458.056619	2475.206538
458.429653	2450.000769
458.802628	2507.974038
459.175542	2553.344423
459.548398	2462.603654
459.921194	2533.179808
460.293930	2565.947308
460.666607	2502.932885
461.039224	2460.083077
461.411782	2525.618077
461.784280	2460.083077
462.156719	2442.439038
462.529099	2510.494615
462.901419	2510.494615
463.273680	2422.274423
463.645882	2500.412308
464.018024	2515.535769
464.390106	2510.494615
464.762130	2500.412308
465.134094	2495.371154
465.505999	2439.918462
465.877845	2523.097500
466.249631	2505.453462
466.621358	2359.260000
466.993026	2467.644808
467.364634	2540.741538
467.736184	2525.618077
468.107674	2422.274423
468.479105	2470.165385
468.850477	2457.562500
469.221790	2485.288846
469.593043	2447.480192
469.964238	2455.041923
470.335373	2505.453462
470.706449	2533.179808
471.077467	2578.550192
471.448425	2467.644808
471.819324	2538.220962
472.190164	2563.426731
472.560945	2515.535769
472.931667	2497.891731
473.302330	2487.809423
473.672934	2467.644808
474.043479	2495.371154
474.413965	2487.809423
474.784393	2507.974038
475.154761	2452.521346
475.525070	2462.603654
475.895321	2492.850577
476.265513	2472.685962
476.635645	2457.562500
477.005719	2515.535769
477.375734	2510.494615
477.745691	2480.247692
478.115588	2505.453462
478.485427	2467.644808
478.855207	2502.932885
479.224928	2444.959615
479.594591	2455.041923
479.964194	2553.344423
480.333739	2482.768269
480.703226	2545.782692
481.072653	2437.397885
481.442022	2452.521346
481.811333	2414.712692
482.180584	2455.041923
482.549777	2507.974038
482.918912	2548.303269
483.287988	2530.659231
483.657005	2513.015192
484.025964	2462.603654
484.394864	2568.467885
484.763706	2452.521346
485.132489	2500.412308
485.501213	2495.371154
485.869879	2500.412308
486.238487	2518.056346
486.607036	2550.823846
486.975527	2586.111923
487.343959	2447.480192
487.712333	2505.453462
488.080648	2417.233269
488.448905	2510.494615
488.817104	2538.220962
489.185244	2533.179808
489.553326	2467.644808
489.921350	2548.303269
490.289315	2545.782692
490.657222	2523.097500
491.025070	2465.124231
491.392861	2462.603654
491.760593	2533.179808
492.128267	2502.932885
492.495883	2460.083077
492.863440	2457.562500
493.230939	2505.453462
493.598380	2475.206538
493.965763	2515.535769
494.333088	2450.000769
494.700354	2422.274423
495.067563	2452.521346
495.434713	2457.562500
495.801805	2543.262115
496.168839	2525.618077
496.535815	2560.906154
496.902733	2505.453462
497.269593	2523.097500
497.636395	2500.412308
498.003139	2467.644808
498.369825	2490.330000
498.736453	2553.344423
499.103023	2505.453462
499.469535	2490.330000
499.835989	2507.974038
500.202385	2429.836154
500.568723	2495.371154
500.935003	2462.603654
501.301226	2429.836154
501.667390	2513.015192
502.033497	2465.124231
502.399546	2513.015192
502.765537	2480.247692
503.131470	2540.741538
503.497345	2450.000769
503.863163	2497.891731
504.228923	2439.918462
504.594625	2520.576923
504.960269	2470.165385
505.325856	2530.659231
505.691385	2447.480192
506.056856	2424.795000
506.422270	2475.206538
506.787625	2545.782692
507.152924	2434.877308
507.518164	2528.138654
507.883347	2462.603654
508.248472	2492.850577
508.613540	2472.685962
508.978550	2492.850577
509.343503	2518.056346
509.708398	2530.659231
510.073236	2500.412308
510.438016	2495.371154
510.802738	2495.371154
511.167403	2452.521346
511.532010	2434.877308
511.896561	2540.741538
512.261053	2457.562500
512.625488	2558.385577
512.989866	2409.671538
513.354186	2477.727115
513.718449	2460.083077
514.082655	2482.768269
514.446803	2472.685962
514.810894	2576.029615
515.174927	2427.315577
515.538904	2384.465769
515.902822	2510.494615
516.266684	2480.247692
516.630488	2472.685962
516.994235	2568.467885
517.357925	2523.097500
517.721558	2475.206538
518.085133	2485.288846
518.448651	2475.206538
518.812112	2513.015192
519.175516	2515.535769
519.538863	2437.397885
519.902152	2472.685962
520.265385	2523.097500
520.628560	2444.959615
520.991678	2457.562500
521.354739	2497.891731
521.717743	2520.576923
522.080690	2465.124231
522.443580	2412.192115
522.806413	2452.521346
523.169189	2412.192115
523.531908	2490.330000
523.894569	2492.850577
524.257174	2510.494615
524.619722	2429.836154
524.982213	2490.330000
525.344647	2525.618077
525.707025	2540.741538
526.069345	2515.535769
526.431608	2520.576923
526.793815	2500.412308
527.155964	2447.480192
527.518057	2434.877308
527.880093	2477.727115
528.242072	2570.988462
528.603995	2455.041923
528.965860	2543.262115
529.327669	2462.603654
529.689421	2422.274423
530.051117	2475.206538
530.412755	2513.015192
530.774337	2495.371154
531.135862	2550.823846
531.497331	2545.782692
531.858743	2467.644808
532.220098	2525.618077
532.581396	2568.467885
532.942638	2495.371154
533.303824	2492.850577
533.664953	2507.974038
534.026025	2432.356731
534.387040	2563.426731
534.747999	2477.727115
535.108902	2404.630385
535.469748	2492.850577
535.830537	2540.741538
536.191270	2429.836154
536.551947	2447.480192
536.912567	2482.768269
537.273131	2444.959615
537.633638	2581.070769
537.994089	2470.165385
538.354483	2548.303269
538.714821	2470.165385
539.075103	2482.768269
539.435328	2540.741538
539.795497	2525.618077
540.155609	2513.015192
540.515665	2485.288846
540.875665	2424.795000
541.235609	2490.330000
541.595496	2397.068654
541.955328	2490.330000
542.315102	2447.480192
542.674821	2457.562500
543.034483	2470.165385
543.394090	2528.138654
543.753640	2560.906154
544.113134	2502.932885
544.472571	2533.179808
544.831953	2455.041923
545.191278	2553.344423
545.550548	2530.659231
545.909761	2505.453462
546.268918	2475.206538
546.628019	2538.220962
546.987064	2555.865000
547.346053	2419.753846
547.704986	2553.344423
548.063863	2528.138654
548.422684	2513.015192
548.781449	2548.303269
549.140158	2565.947308
549.498811	2576.029615
549.857408	2502.932885
550.215949	2540.741538
550.574434	2528.138654
550.932864	2437.397885
551.291237	2568.467885
551.649555	2510.494615
552.007817	2434.877308
552.366022	2472.685962
552.724173	2442.439038
553.082267	2507.974038
553.440305	2475.206538
553.798288	2487.809423
554.156215	2450.000769
554.514086	2530.659231
554.871902	2477.727115
555.229661	2482.768269
555.587365	2452.521346
555.945014	2586.111923
556.302606	2465.124231
556.660143	2523.097500
557.017625	2515.535769
557.375050	2520.576923
557.732421	2462.603654
558.089735	2422.274423
558.446994	2555.865000
558.804197	2432.356731
559.161345	2439.918462
559.518437	2510.494615
559.875474	2475.206538
560.232455	2442.439038
560.589381	2434.877308
560.946251	2495.371154
561.303065	2470.165385
561.659825	2513.015192
562.016528	2450.000769
562.373177	2513.015192
562.729770	2477.727115
563.086307	2495.371154
563.442789	2495.371154
563.799216	2515.535769
564.155587	2520.576923
564.511904	2487.809423
564.868164	2497.891731
565.224370	2513.015192
565.580520	2538.220962
565.936615	2530.659231
566.292654	2502.932885
566.648638	2518.056346
567.004567	2505.453462
567.360441	2563.426731
567.716260	2450.000769
568.072023	2515.535769
568.427732	2513.015192
568.783385	2467.644808
569.138982	2444.959615
569.494525	2439.918462
569.850013	2533.179808
570.205445	2434.877308
570.560823	2533.179808
570.916145	2502.932885
571.271412	2450.000769
571.626625	2465.124231
571.981782	2553.344423
572.336884	2545.782692
572.691931	2535.700385
573.046923	2535.700385
573.401860	2598.714808
573.756743	2581.070769
574.111570	2447.480192
574.466342	2598.714808
574.821059	2492.850577
575.175722	2487.809423
575.530330	2500.412308
575.884882	2507.974038
576.239380	2518.056346
576.593823	2550.823846
576.948211	2407.150962
577.302544	2555.865000
577.656823	2543.262115
578.011047	2477.727115
578.365216	2505.453462
578.719330	2477.727115
579.073389	2523.097500
579.427394	2490.330000
579.781344	2518.056346
580.135239	2402.109808
580.489080	2538.220962
580.842866	2399.589231
581.196597	2485.288846
581.550273	2543.262115
581.903895	2465.124231
582.257463	2497.891731
582.610975	2485.288846
582.964434	2487.809423
583.317837	2530.659231
583.671186	2513.015192
584.024481	2487.809423
584.377721	2477.727115
584.730906	2487.809423
585.084037	2555.865000
585.437113	2384.465769
585.790135	2497.891731
586.143103	2447.480192
586.496016	2563.426731
586.848874	2442.439038
587.201679	2452.521346
587.554428	2417.233269
587.907124	2518.056346
588.259765	2419.753846
588.612352	2581.070769
588.964884	2480.247692
589.317362	2492.850577
589.669786	2513.015192
590.022155	2535.700385
590.374470	2460.083077
590.726731	2475.206538
591.078937	2550.823846
591.431090	2450.000769
591.783188	2477.727115
592.135232	2480.247692
592.487222	2442.439038
592.839157	2565.947308
593.191038	2485.288846
593.542866	2507.974038
593.894639	2495.371154
594.246358	2520.576923
594.598022	2543.262115
594.949633	2432.356731
595.301190	2553.344423
595.652692	2472.685962
596.004141	2525.618077
596.355535	2530.659231
596.706876	2550.823846
597.058162	2525.618077
597.409395	2475.206538
597.760573	2402.109808
598.111698	2596.194231
598.462768	2520.576923
598.813785	2452.521346
599.164748	2467.644808
599.515657	2515.535769
599.866511	2568.467885
600.217312	2495.371154
600.568060	2455.041923
600.918753	2553.344423
601.269392	2462.603654
601.619978	2477.727115
601.970510	2523.097500
602.320988	2492.850577
602.671412	2560.906154
603.021783	2495.371154
603.372100	2538.220962
603.722363	2419.753846
604.072572	2545.782692
604.422728	2485.288846
604.772830	2447.480192
605.122878	2472.685962
605.472872	2475.206538
605.822813	2487.809423
606.172701	2513.015192
606.522534	2407.150962
606.872314	2434.877308
607.222041	2442.439038
607.571714	2523.097500
607.921333	2515.535769
608.270899	2437.397885
608.620411	2553.344423
608.969870	2570.988462
609.319276	2455.041923
609.668627	2457.562500
610.017926	2437.397885
610.367171	2530.659231
610.716362	2490.330000
611.065500	2553.344423
611.414585	2568.467885
611.763616	2447.480192
612.112594	2434.877308
612.461518	2500.412308
612.810389	2439.918462
613.159207	2467.644808
613.507971	2477.727115
613.856682	2497.891731
614.205340	2394.548077
614.553945	2495.371154
614.902496	2447.480192
615.250994	2472.685962
615.599439	2497.891731
615.947830	2492.850577
616.296169	2518.056346
616.644454	2502.932885
616.992686	2455.041923
617.340864	2573.509038
617.688990	2439.918462
618.037063	2462.603654
618.385082	2520.576923
618.733048	2492.850577
619.080961	2470.165385
619.428821	2510.494615
619.776628	2510.494615
620.124382	2490.330000
620.472083	2530.659231
620.819731	2485.288846
621.167326	2470.165385
621.514868	2520.576923
621.862357	2465.124231
622.209793	2495.371154
622.557176	2437.397885
622.904506	2540.741538
623.251783	2565.947308
623.599007	2502.932885
623.946179	2492.850577
624.293297	2543.262115
624.640363	2530.659231
624.987376	2543.262115
625.334336	2414.712692
625.681243	2510.494615
626.028097	2555.865000
626.374899	2455.041923
626.721647	2495.371154
627.068343	2558.385577
627.414987	2505.453462
627.761577	2497.891731
628.108115	2437.397885
628.454600	2553.344423
628.801032	2507.974038
629.147412	2497.891731
629.493739	2457.562500
629.840014	2563.426731
630.186236	2490.330000
630.532405	2462.603654
630.878521	2477.727115
631.224585	2533.179808
631.570597	2505.453462
631.916556	2530.659231
632.262462	2465.124231
632.608316	2578.550192
632.954117	2510.494615
633.299866	2487.809423
633.645562	2490.330000
633.991206	2538.220962
634.336797	2502.932885
634.682336	2505.453462
635.027823	2417.233269
635.373257	2465.124231
635.718639	2568.467885
636.063968	2480.247692
636.409245	2518.056346
636.754470	2578.550192
637.099642	2492.850577
637.444762	2482.768269
637.789829	2480.247692
638.134845	2462.603654
638.479808	2392.027500
638.824719	2455.041923
639.169577	2470.165385
639.514383	2470.165385
639.859137	2520.576923
640.203839	2475.206538
640.548489	2467.644808
640.893086	2555.865000
641.237632	2450.000769
641.582125	2470.165385
641.926566	2543.262115
642.270955	2482.768269
642.615292	2467.644808
642.959576	2470.165385
643.303809	2555.865000
643.647990	2510.494615
643.992118	2465.124231
644.336195	2548.303269
644.680219	2424.795000
645.024192	2482.768269
645.368112	2460.083077
645.711981	2528.138654
646.055797	2507.974038
646.399562	2502.932885
646.743274	2515.535769
647.086935	2586.111923
647.430544	2452.521346
647.774101	2482.768269
648.117606	2439.918462
648.461059	2543.262115
648.804460	2513.015192
649.147810	2490.330000
649.491108	2540.741538
649.834354	2525.618077
650.177548	2530.659231
650.520690	2535.700385
650.863781	2429.836154
651.206820	2540.741538
651.549807	2462.603654
651.892742	2565.947308
652.235626	2472.685962
652.578458	2520.576923
652.921238	2450.000769
653.263967	2545.782692
653.606644	2533.179808
653.949269	2616.358846
654.291843	2525.618077
654.634365	2475.206538
654.976836	2568.467885
655.319255	2570.988462
655.661622	2513.015192
656.003938	2578.550192
656.346203	2558.385577
656.688416	2447.480192
657.030577	2535.700385
657.372687	2510.494615
657.714746	2507.974038
658.056753	2502.932885
658.398708	2482.768269
658.740612	2477.727115
659.082465	2500.412308
659.424266	2462.603654
659.766016	2555.865000
660.107715	2465.124231
660.449362	2513.015192
660.790958	2490.330000
661.132503	2515.535769
661.473996	2502.932885
661.815438	2518.056346
662.156829	2530.659231
662.498168	2444.959615
662.839456	2583.591346
663.180693	2500.412308
663.521879	2477.727115
663.863013	2520.576923
664.204097	2533.179808
664.545129	2495.371154
664.886110	2470.165385
665.227040	2467.644808
665.567918	2409.671538
665.908746	2525.618077
666.249522	2518.056346
666.590248	2424.795000
666.930922	2507.974038
667.271545	2586.111923
667.612118	2502.932885
667.952639	2507.974038
668.293109	2432.356731
668.633528	2487.809423
668.973896	2457.562500
669.314213	2480.247692
669.654480	2472.685962
669.994695	2450.000769
670.334859	2543.262115
670.674973	2507.974038
671.015035	2444.959615
671.355047	2545.782692
671.695008	2485.288846
672.034918	2515.535769
672.374777	2467.644808
672.714585	2502.932885
673.054342	2573.509038
673.394049	2533.179808
673.733705	2568.467885
674.073310	2472.685962
674.412864	2455.041923
674.752368	2495.371154
675.091820	2419.753846
675.431223	2598.714808
675.770574	2500.412308
676.109875	2533.179808
676.449125	2417.233269
676.788324	2586.111923
677.127473	2472.685962
677.466571	2530.659231
677.805619	2475.206538
678.144616	2412.192115
678.483562	2462.603654
678.822458	2510.494615
679.161303	2414.712692
679.500098	2497.891731
679.838842	2475.206538
680.177535	2591.153077
680.516179	2530.659231
680.854771	2593.673654
681.193314	2543.262115
681.531805	2447.480192
681.870247	2510.494615
682.208638	2495.371154
682.546978	2515.535769
682.885268	2495.371154
683.223508	2452.521346
683.561697	2515.535769
683.899836	2518.056346
684.237925	2523.097500
684.575963	2487.809423
684.913951	2450.000769
685.251889	2518.056346
685.589776	2518.056346
685.927614	2475.206538
686.265401	2523.097500
686.603137	2480.247692
686.940824	2553.344423
687.278460	2553.344423
687.616046	2513.015192
687.953582	2490.330000
688.291068	2480.247692
688.628504	2545.782692
688.965889	2560.906154
689.303224	2535.700385
689.640510	2540.741538
689.977745	2424.795000
690.314930	2492.850577
690.652065	2500.412308
690.989150	2467.644808
691.326185	2525.618077
691.663170	2548.303269
692.000105	2565.947308
692.336990	2530.659231
692.673825	2543.262115
693.010610	2457.562500
693.347345	2472.685962
693.684030	2492.850577
694.020665	2450.000769
694.357251	2550.823846
694.693786	2507.974038
695.030272	2545.782692
695.366707	2475.206538
695.703093	2505.453462
696.039429	2460.083077
696.375716	2518.056346
696.711952	2482.768269
697.048139	2533.179808
697.384276	2482.768269
697.720363	2520.576923
698.056400	2558.385577
698.392388	2555.865000
698.728326	2450.000769
699.064214	2550.823846
699.400053	2565.947308
699.735842	2462.603654
700.071581	2603.755962
700.407270	2475.206538
700.742910	2525.618077
701.078501	2477.727115
701.414042	2530.659231
701.749533	2475.206538
702.084974	2523.097500
702.420366	2472.685962
702.755709	2482.768269
703.091002	2455.041923
703.426246	2553.344423
703.761440	2515.535769
704.096584	2450.000769
704.431679	2525.618077
704.766725	2492.850577
705.101721	2444.959615
705.436668	2502.932885
705.771565	2550.823846
706.106413	2497.891731
706.441212	2490.330000
706.775961	2528.138654
707.110661	2555.865000
707.445311	2505.453462
707.779913	2558.385577
708.114465	2470.165385
708.448967	2533.179808
708.783421	2553.344423
709.117825	2528.138654
709.452180	2543.262115
709.786485	2404.630385
710.120742	2490.330000
710.454949	2480.247692
710.789107	2487.809423
711.123216	2490.330000
711.457275	2472.685962
711.791286	2520.576923
712.125247	2520.576923
712.459159	2603.755962
712.793023	2520.576923
713.126837	2535.700385
713.460602	2475.206538
713.794318	2555.865000
714.127985	2500.412308
714.461602	2394.548077
714.795171	2513.015192
715.128691	2457.562500
715.462162	2523.097500
715.795584	2490.330000
716.128957	2553.344423
716.462281	2540.741538
716.795556	2477.727115
717.128782	2510.494615
717.461960	2520.576923
717.795088	2485.288846
718.128167	2515.535769
718.461198	2497.891731
718.794180	2485.288846
719.127113	2560.906154
719.459997	2487.809423
719.792833	2558.385577
720.125619	2417.233269
720.458357	2482.768269
720.791046	2409.671538
721.123686	2492.850577
721.456278	2492.850577
721.788821	2397.068654
722.121315	2510.494615
722.453761	2470.165385
722.786158	2470.165385
723.118506	2485.288846
723.450805	2593.673654
723.783056	2485.288846
724.115259	2550.823846
724.447412	2545.782692
724.779518	2487.809423
725.111574	2485.288846
725.443582	2573.509038
725.775542	2480.247692
726.107453	2518.056346
726.439315	2472.685962
726.771129	2487.809423
727.102895	2444.959615
727.434612	2530.659231
727.766281	2472.685962
728.097901	2510.494615
728.429473	2412.192115
728.760996	2487.809423
729.092471	2409.671538
729.423897	2434.877308
729.755276	2434.877308
730.086606	2560.906154
730.417887	2472.685962
730.749120	2525.618077
731.080305	2462.603654
731.411442	2492.850577
731.742530	2470.165385
732.073570	2475.206538
732.404562	2452.521346
732.735506	2520.576923
733.066401	2510.494615
733.397249	2525.618077
733.728048	2477.727115
734.058798	2500.412308
734.389501	2465.124231
734.720156	2475.206538
735.050762	2422.274423
735.381320	2381.945192
735.711831	2545.782692
736.042293	2533.179808
736.372707	2427.315577
736.703073	2520.576923
737.033391	2455.041923
737.363661	2487.809423
737.693883	2439.918462
738.024056	2518.056346
738.354182	2465.124231
738.684260	2497.891731
739.014290	2432.356731
739.344272	2540.741538
739.674207	2507.974038
740.004093	2548.303269
740.333931	2442.439038
740.663722	2520.576923
740.993464	2399.589231
741.323159	2507.974038
741.652806	2437.397885
741.982405	2535.700385
742.311956	2475.206538
742.641460	2480.247692
742.970915	2457.562500
743.300323	2467.644808
743.629683	2452.521346
743.958996	2593.673654
744.288260	2530.659231
744.617477	2447.480192
744.946647	2437.397885
745.275768	2515.535769
745.604842	2525.618077
745.933869	2500.412308
746.262847	2462.603654
746.591778	2502.932885
746.920662	2467.644808
747.249498	2563.426731
747.578286	2525.618077
747.907027	2550.823846
748.235720	2470.165385
748.564365	2392.027500
748.892963	2419.753846
749.221514	2523.097500
749.550017	2545.782692
749.878473	2520.576923
750.206881	2505.453462
750.535242	2455.041923
750.863555	2535.700385
751.191821	2492.850577
751.520039	2550.823846
751.848210	2573.509038
752.176334	2502.932885
752.504411	2502.932885
752.832440	2424.795000
753.160421	2560.906154
753.488356	2530.659231
753.816243	2490.330000
754.144082	2530.659231
754.471875	2427.315577
754.799620	2570.988462
755.127318	2460.083077
755.454969	2515.535769
755.782572	2540.741538
756.110129	2598.714808
756.437638	2444.959615
756.765100	2500.412308
757.092515	2477.727115
757.419882	2490.330000
757.747203	2457.562500
758.074477	2513.015192
758.401703	2480.247692
758.728882	2462.603654
759.056014	2510.494615
759.383099	2447.480192
759.710138	2545.782692
760.037129	2490.330000
760.364073	2505.453462
760.690970	2475.206538
761.017820	2573.509038
761.344623	2538.220962
761.671379	2460.083077
761.998088	2447.480192
762.324751	2477.727115
762.651366	2495.371154
762.977935	2457.562500
763.304456	2530.659231
763.630931	2467.644808
763.957359	2477.727115
764.283740	2477.727115
764.610074	2533.179808
764.936362	2480.247692
765.262602	2523.097500
765.588796	2477.727115
765.914943	2573.509038
766.241044	2485.288846
766.567097	2530.659231
766.893104	2520.576923
767.219064	2528.138654
767.544978	2515.535769
767.870845	2467.644808
768.196665	2475.206538
768.522438	2414.712692
768.848165	2402.109808
769.173846	2523.097500
769.499479	2558.385577
769.825066	2452.521346
770.150607	2538.220962
770.476101	2550.823846
770.801548	2495.371154
771.126949	2386.986346
771.452303	2450.000769
771.777611	2371.862885
772.102872	2460.083077
772.428087	2502.932885
772.753256	2472.685962
773.078378	2475.206538
773.403453	2480.247692
773.728482	2530.659231
774.053465	2505.453462
774.378401	2505.453462
774.703291	2392.027500
775.028135	2450.000769
775.352932	2495.371154
775.677683	2487.809423
776.002388	2543.262115
776.327046	2470.165385
776.651658	2525.618077
776.976224	2538.220962
777.300743	2502.932885
777.625216	2570.988462
777.949643	2490.330000
778.274024	2507.974038
778.598359	2447.480192
778.922647	2439.918462
779.246889	2439.918462
779.571086	2505.453462
779.895236	2457.562500
780.219339	2392.027500
780.543397	2475.206538
780.867409	2495.371154
781.191374	2528.138654
781.515294	2513.015192
781.839167	2455.041923
782.162995	2513.015192
782.486776	2497.891731
782.810511	2533.179808
783.134201	2414.712692
783.457844	2502.932885
783.781441	2485.288846
784.104993	2492.850577
784.428498	2495.371154
784.751958	2533.179808
785.075372	2389.506923
785.398739	2533.179808
785.722061	2550.823846
786.045337	2507.974038
786.368568	2460.083077
786.691752	2505.453462
787.014891	2530.659231
787.337983	2455.041923
787.661030	2538.220962
787.984031	2455.041923
788.306987	2472.685962
788.629897	2560.906154
788.952760	2447.480192
789.275579	2452.521346
789.598351	2492.850577
789.921078	2470.165385
790.243759	2520.576923
790.566395	2523.097500
790.888984	2379.424615
791.211529	2450.000769
791.534027	2470.165385
791.856480	2500.412308
792.178888	2525.618077
792.501249	2500.412308
792.823566	2424.795000
793.145836	2530.659231
793.468062	2485.288846
793.790241	2462.603654
794.112375	2439.918462
794.434464	2513.015192
794.756507	2515.535769
795.078505	2513.015192
795.400457	2550.823846
795.722364	2490.330000
796.044226	2505.453462
796.366042	2507.974038
796.687812	2485.288846
797.009538	2520.576923
797.331218	2505.453462
797.652852	2447.480192
797.974442	2467.644808
798.295986	2528.138654
798.617484	2565.947308
798.938938	2467.644808
799.260346	2472.685962
799.581709	2457.562500
799.903026	2513.015192
800.224299	2543.262115
800.545526	2462.603654
800.866708	2490.330000
801.187845	2518.056346
801.508936	2550.823846
801.829983	2480.247692
802.150984	2485.288846
802.471940	2515.535769
802.792851	2482.768269
803.113717	2470.165385
803.434538	2500.412308
803.755314	2482.768269
804.076045	2442.439038
804.396731	2505.453462
804.717372	2515.535769
805.037967	2560.906154
805.358518	2455.041923
805.679024	2475.206538
805.999485	2487.809423
806.319901	2513.015192
806.640272	2444.959615
806.960598	2452.521346
807.280879	2457.562500
807.601115	2472.685962
807.921306	2434.877308
808.241453	2502.932885
808.561554	2515.535769
808.881611	2467.644808
809.201623	2505.453462
809.521590	2442.439038
809.841513	2596.194231
810.161390	2543.262115
810.481223	2472.685962
810.801011	2477.727115
811.120755	2525.618077
811.440453	2452.521346
811.760107	2460.083077
812.079716	2576.029615
812.399281	2477.727115
812.718801	2518.056346
813.038276	2611.317692
813.357707	2520.576923
813.677093	2518.056346
813.996434	2502.932885
814.315731	2523.097500
814.634983	2460.083077
814.954191	2560.906154
815.273354	2573.509038
815.592473	2409.671538
815.911547	2465.124231
816.230577	2490.330000
816.549562	2500.412308
816.868502	2525.618077
817.187399	2470.165385
817.506250	2467.644808
817.825058	2565.947308
818.143821	2480.247692
818.462539	2608.797115
818.781213	2460.083077
819.099843	2507.974038
819.418429	2523.097500
819.736970	2520.576923
820.055466	2492.850577
820.373919	2490.330000
820.692327	2558.385577
821.010691	2495.371154
821.329011	2485.288846
821.647286	2570.988462
821.965517	2495.371154
822.283704	2467.644808
822.601847	2507.974038
822.919945	2452.521346
823.237999	2586.111923
823.556010	2417.233269
823.873976	2507.974038
824.191897	2548.303269
824.509775	2500.412308
824.827609	2548.303269
825.145398	2538.220962
825.463144	2447.480192
825.780845	2452.521346
826.098502	2540.741538
826.416116	2502.932885
826.733685	2427.315577
827.051210	2513.015192
827.368692	2465.124231
827.686129	2460.083077
828.003522	2570.988462
828.320872	2553.344423
828.638177	2510.494615
828.955439	2386.986346
829.272656	2465.124231
829.589830	2389.506923
829.906960	2450.000769
830.224046	2475.206538
830.541088	2487.809423
830.858086	2482.768269
831.175041	2434.877308
831.491952	2490.330000
831.808819	2507.974038
832.125642	2558.385577
832.442421	2550.823846
832.759157	2482.768269
833.075849	2520.576923
833.392497	2422.274423
833.709101	2502.932885
834.025662	2465.124231
834.342179	2470.165385
834.658653	2470.165385
834.975083	2495.371154
835.291469	2450.000769
835.607811	2386.986346
835.924110	2470.165385
836.240366	2389.506923
836.556578	2437.397885
836.872746	2530.659231
837.188871	2467.644808
837.504952	2570.988462
837.820990	2444.959615
838.136984	2518.056346
838.452935	2520.576923
838.768842	2492.850577
839.084706	2404.630385
839.400526	2548.303269
839.716303	2462.603654
840.032037	2510.494615
840.347727	2505.453462
840.663373	2477.727115
840.978977	2472.685962
841.294537	2586.111923
841.610054	2505.453462
841.925527	2487.809423
842.240957	2528.138654
842.556344	2550.823846
842.871687	2502.932885
843.186987	2518.056346
843.502244	2477.727115
843.817458	2457.562500
844.132629	2480.247692
844.447756	2510.494615
844.762840	2523.097500
845.077881	2467.644808
845.392879	2568.467885
845.707833	2510.494615
846.022745	2394.548077
846.337613	2490.330000
846.652438	2467.644808
846.967221	2482.768269
847.281960	2576.029615
847.596656	2412.192115
847.911309	2505.453462
848.225919	2467.644808
848.540485	2434.877308
848.855009	2523.097500
849.169490	2545.782692
849.483928	2482.768269
849.798323	2482.768269
850.112675	2518.056346
850.426984	2500.412308
850.741251	2543.262115
851.055474	2480.247692
851.369654	2500.412308
851.683792	2482.768269
851.997887	2429.836154
852.311938	2560.906154
852.625947	2475.206538
852.939914	2485.288846
853.253837	2450.000769
853.567718	2369.342308
853.881555	2520.576923
854.195350	2523.097500
854.509103	2523.097500
854.822812	2450.000769
855.136479	2505.453462
855.450103	2429.836154
855.763685	2500.412308
856.077224	2505.453462
856.390720	2480.247692
856.704173	2427.315577
857.017584	2475.206538
857.330953	2495.371154
857.644278	2487.809423
857.957561	2480.247692
858.270802	2447.480192
858.584000	2497.891731
858.897155	2417.233269
859.210268	2518.056346
859.523339	2419.753846
859.836367	2452.521346
860.149352	2457.562500
860.462295	2432.356731
860.775195	2472.685962
861.088054	2555.865000
861.400869	2475.206538
861.713642	2548.303269
862.026373	2490.330000
862.339062	2495.371154
862.651708	2477.727115
862.964312	2548.303269
863.276873	2568.467885
863.589392	2389.506923
863.901869	2447.480192
864.214303	2432.356731
864.526696	2548.303269
864.839045	2523.097500
865.151353	2505.453462
865.463619	2437.397885
865.775842	2550.823846
866.088023	2538.220962
866.400162	2480.247692
866.712258	2523.097500
867.024313	2467.644808
867.336325	2535.700385
867.648296	2598.714808
867.960224	2434.877308
868.272110	2450.000769
868.583954	2462.603654
868.895755	2482.768269
869.207515	2457.562500
869.519233	2507.974038
869.830909	2500.412308
870.142542	2465.124231
870.454134	2500.412308
870.765684	2427.315577
871.077191	2452.521346
871.388657	2450.000769
871.700081	2543.262115
872.011463	2460.083077
872.322803	2417.233269
872.634101	2535.700385
872.945357	2535.700385
873.256571	2490.330000
873.567744	2515.535769
873.878874	2467.644808
874.189963	2442.439038
874.501010	2553.344423
874.812015	2535.700385
875.122979	2452.521346
875.433900	2513.015192
875.744780	2450.000769
876.055618	2540.741538
876.366415	2412.192115
876.677169	2465.124231
876.987882	2495.371154
877.298554	2490.330000
877.609183	2419.753846
877.919771	2500.412308
878.230317	2497.891731
878.540822	2482.768269
878.851285	2555.865000
879.161707	2490.330000
879.472087	2429.836154
879.782425	2543.262115
880.092722	2439.918462
880.402977	2477.727115
880.713191	2475.206538
881.023363	2455.041923
881.333494	2460.083077
881.643583	2565.947308
881.953631	2548.303269
882.263637	2457.562500
882.573602	2442.439038
882.883526	2515.535769
883.193408	2538.220962
883.503248	2432.356731
883.813048	2502.932885
884.122806	2414.712692
884.432522	2452.521346
884.742197	2533.179808
885.051831	2500.412308
885.361424	2505.453462
885.670975	2482.768269
885.980485	2480.247692
886.289954	2535.700385
886.599382	2490.330000
886.908768	2518.056346
887.218113	2520.576923
887.527417	2510.494615
887.836680	2462.603654
888.145901	2500.412308
888.455082	2417.233269
888.764221	2525.618077
889.073319	2470.165385
889.382376	2490.330000
889.691392	2455.041923
890.000366	2497.891731
890.309300	2538.220962
890.618193	2490.330000
890.927044	2576.029615
891.235855	2437.397885
891.544625	2528.138654
891.853353	2462.603654
892.162041	2480.247692
892.470687	2467.644808
892.779293	2487.809423
893.087858	2437.397885
893.396381	2535.700385
893.704864	2520.576923
894.013306	2492.850577
894.321707	2487.809423
894.630068	2472.685962
894.938387	2548.303269
895.246665	2490.330000
895.554903	2399.589231
895.863100	2487.809423
896.171256	2399.589231
896.479371	2538.220962
896.787446	2510.494615
897.095480	2591.153077
897.403473	2472.685962
897.711425	2434.877308
898.019336	2477.727115
898.327207	2389.506923
898.635038	2470.165385
898.942827	2480.247692
899.250576	2507.974038
899.558284	2462.603654
899.865952	2460.083077
900.173579	2424.795000
900.481165	2510.494615
900.788711	2422.274423
901.096216	2525.618077
901.403681	2485.288846
901.711105	2452.521346
902.018489	2450.000769
902.325832	2515.535769
902.633135	2457.562500
902.940397	2427.315577
903.247619	2520.576923
903.554800	2540.741538
903.861941	2457.562500
904.169041	2492.850577
904.476101	2442.439038
904.783121	2500.412308
905.090100	2545.782692
905.397039	2533.179808
905.703938	2460.083077
906.010796	2439.918462
906.317614	2465.124231
906.624391	2487.809423
906.931129	2434.877308
907.237826	2404.630385
907.544483	2455.041923
907.851099	2477.727115
908.157675	2523.097500
908.464211	2467.644808
908.770707	2482.768269
909.077163	2457.562500
909.383578	2472.685962
909.689954	2510.494615
909.996289	2472.685962
910.302584	2500.412308
910.608839	2507.974038
910.915054	2434.877308
911.221229	2535.700385
911.527363	2470.165385
911.833458	2520.576923
912.139513	2457.562500
912.445527	2457.562500
912.751502	2462.603654
913.057436	2429.836154
913.363331	2480.247692
913.669186	2492.850577
913.975000	2467.644808
914.280775	2424.795000
914.586510	2455.041923
914.892205	2480.247692
915.197859	2515.535769
915.503475	2513.015192
915.809050	2422.274423
916.114585	2513.015192
916.420081	2485.288846
916.725536	2482.768269
917.030952	2515.535769
917.336328	2500.412308
917.641665	2450.000769
917.946961	2482.768269
918.252218	2450.000769
918.557435	2462.603654
918.862612	2525.618077
919.167750	2520.576923
919.472848	2455.041923
919.777906	2500.412308
920.082925	2460.083077
920.387904	2578.550192
920.692843	2500.412308
920.997743	2452.521346
921.302603	2570.988462
921.607423	2591.153077
921.912204	2467.644808
922.216946	2470.165385
922.521647	2535.700385
922.826310	2460.083077
923.130932	2460.083077
923.435516	2417.233269
923.740059	2460.083077
924.044564	2502.932885
924.349028	2455.041923
924.653454	2409.671538
924.957840	2417.233269
925.262186	2475.206538
925.566493	2540.741538
925.870761	2518.056346
926.174989	2520.576923
926.479178	2502.932885
926.783328	2437.397885
927.087438	2515.535769
927.391509	2507.974038
927.695541	2455.041923
927.999533	2550.823846
928.303486	2487.809423
928.607400	2543.262115
928.911275	2376.904038
929.215110	2563.426731
929.518906	2439.918462
929.822663	2497.891731
930.126381	2565.947308
930.430060	2497.891731
930.733699	2465.124231
931.037299	2535.700385
931.340861	2437.397885
931.644383	2513.015192
931.947866	2487.809423
932.251309	2518.056346
932.554714	2447.480192
932.858080	2462.603654
933.161407	2434.877308
933.464694	2507.974038
933.767943	2492.850577
934.071153	2502.932885
934.374323	2475.206538
934.677455	2492.850577
934.980548	2447.480192
935.283602	2429.836154
935.586617	2470.165385
935.889593	2442.439038
936.192530	2535.700385
936.495428	2427.315577
936.798287	2510.494615
937.101108	2480.247692
937.403890	2475.206538
937.706632	2427.315577
938.009336	2528.138654
938.312002	2470.165385
938.614628	2505.453462
938.917216	2558.385577
939.219765	2482.768269
939.522275	2543.262115
939.824747	2505.453462
940.127179	2487.809423
940.429573	2477.727115
940.731929	2490.330000
941.034246	2455.041923
941.336524	2487.809423
941.638763	2412.192115
941.940964	2462.603654
942.243126	2505.453462
942.545250	2482.768269
942.847335	2442.439038
943.149381	2419.753846
943.451389	2505.453462
943.753359	2543.262115
944.055290	2485.288846
944.357182	2510.494615
944.659036	2480.247692
944.960851	2533.179808
945.262628	2515.535769
945.564367	2518.056346
945.866067	2455.041923
946.167729	2510.494615
946.469352	2455.041923
946.770937	2452.521346
947.072484	2482.768269
947.373992	2472.685962
947.675462	2434.877308
947.976893	2507.974038
948.278286	2515.535769
948.579641	2439.918462
948.880958	2485.288846
949.182236	2518.056346
949.483476	2538.220962
949.784678	2482.768269
950.085841	2490.330000
950.386967	2477.727115
950.688054	2513.015192
950.989103	2452.521346
951.290114	2535.700385
951.591087	2480.247692
951.892021	2553.344423
952.192917	2470.165385
952.493776	2510.494615
952.794596	2513.015192
953.095378	2455.041923
953.396122	2540.741538
953.696828	2485.288846
953.997496	2470.165385
954.298126	2480.247692
954.598718	2533.179808
954.899272	2450.000769
955.199788	2533.179808
955.500266	2515.535769
955.800706	2495.371154
956.101108	2570.988462
956.401472	2419.753846
956.701798	2611.317692
957.002087	2417.233269
957.302337	2457.562500
957.602550	2505.453462
957.902724	2555.865000
958.202861	2485.288846
958.502960	2427.315577
958.803022	2422.274423
959.103045	2487.809423
959.403031	2457.562500
959.702979	2492.850577
960.002889	2417.233269
960.302762	2470.165385
960.602596	2452.521346
960.902393	2477.727115
961.202153	2530.659231
961.501875	2467.644808
961.801559	2555.865000
962.101205	2520.576923
962.400814	2513.015192
962.700385	2455.041923
962.999918	2553.344423
963.299414	2462.603654
963.598873	2470.165385
963.898293	2480.247692
964.197677	2462.603654
964.497022	2495.371154
964.796331	2525.618077
965.095601	2545.782692
965.394835	2450.000769
965.694030	2455.041923
965.993189	2467.644808
966.292309	2518.056346
966.591393	2467.644808
966.890439	2429.836154
967.189447	2427.315577
967.488419	2487.809423
967.787353	2457.562500
968.086249	2452.521346
968.385108	2505.453462
968.683930	2528.138654
968.982714	2472.685962
969.281462	2578.550192
969.580172	2444.959615
969.878844	2447.480192
970.177480	2422.274423
970.476078	2434.877308
970.774639	2518.056346
971.073162	2462.603654
971.371649	2432.356731
971.670098	2550.823846
971.968510	2341.615962
972.266885	2477.727115
972.565223	2565.947308
972.863524	2470.165385
973.161788	2444.959615
973.460014	2550.823846
973.758204	2407.150962
974.056356	2467.644808
974.354471	2419.753846
974.652550	2482.768269
974.950591	2565.947308
975.248595	2467.644808
975.546563	2497.891731
975.844493	2545.782692
976.142386	2525.618077
976.440243	2513.015192
976.738062	2422.274423
977.035845	2507.974038
977.333590	2528.138654
977.631299	2507.974038
977.928971	2490.330000
978.226606	2419.753846
978.524204	2628.961731
978.821765	2442.439038
979.119290	2513.015192
979.416777	2465.124231
979.714228	2444.959615
980.011642	2523.097500
980.309020	2450.000769
980.606360	2505.453462
980.903664	2467.644808
981.200931	2593.673654
981.498162	2455.041923
981.795356	2520.576923
982.092513	2543.262115
982.389633	2497.891731
982.686717	2495.371154
982.983764	2422.274423
983.280775	2520.576923
983.577749	2475.206538
983.874686	2462.603654
984.171587	2553.344423
984.468451	2500.412308
984.765279	2450.000769
985.062070	2477.727115
985.358824	2485.288846
985.655543	2505.453462
985.952224	2576.029615
986.248869	2510.494615
986.545478	2487.809423
986.842050	2442.439038
987.138586	2497.891731
987.435086	2452.521346
987.731549	2525.618077
988.027975	2477.727115
988.324366	2500.412308
988.620719	2447.480192
988.917037	2434.877308
989.213318	2432.356731
989.509563	2487.809423
989.805772	2500.412308
990.101944	2407.150962
990.398080	2477.727115
990.694180	2505.453462
990.990244	2492.850577
991.286271	2434.877308
991.582262	2482.768269
991.878217	2482.768269
992.174136	2523.097500
992.470019	2515.535769
992.765865	2533.179808
993.061676	2444.959615
993.357450	2490.330000
993.653188	2520.576923
993.948890	2452.521346
994.244556	2480.247692
994.540186	2477.727115
994.835780	2505.453462
995.131337	2545.782692
995.426859	2475.206538
995.722345	2475.206538
996.017795	2507.974038
996.313208	2523.097500
996.608586	2563.426731
996.903928	2477.727115
997.199234	2513.015192
997.494504	2442.439038
997.789738	2505.453462
998.084936	2601.235385
998.380099	2518.056346
998.675225	2530.659231
998.970316	2540.741538
999.265371	2417.233269
999.560390	2450.000769
999.855373	2553.344423
1000.150320	2525.618077
1000.445232	2530.659231
1000.740108	2457.562500
1001.034948	2520.576923
1001.329752	2439.918462
1001.624521	2472.685962
1001.919254	2495.371154
1002.213951	2457.562500
1002.508613	2455.041923
1002.803239	2520.576923
1003.097829	2490.330000
1003.392384	2467.644808
1003.686903	2427.315577
1003.981386	2507.974038
1004.275834	2475.206538
1004.570246	2505.453462
1004.864623	2472.685962
1005.158964	2462.603654
1005.453270	2538.220962
1005.747540	2467.644808
1006.041775	2487.809423
1006.335974	2555.865000
1006.630138	2465.124231
1006.924266	2477.727115
1007.218359	2573.509038
1007.512416	2533.179808
1007.806438	2477.727115
1008.100425	2442.439038
1008.394376	2462.603654
1008.688292	2409.671538
1008.982172	2560.906154
1009.276017	2502.932885
1009.569827	2520.576923
1009.863602	2475.206538
1010.157341	2429.836154
1010.451045	2550.823846
1010.744714	2495.371154
1011.038347	2414.712692
1011.331945	2402.109808
1011.625508	2429.836154
1011.919036	2414.712692
1012.212528	2371.862885
1012.505986	2432.356731
1012.799408	2475.206538
1013.092795	2475.206538
1013.386147	2467.644808
1013.679464	2460.083077
1013.972745	2510.494615
1014.265992	2568.467885
1014.559204	2507.974038
1014.852380	2507.974038
1015.145521	2490.330000
1015.438628	2495.371154
1015.731699	2477.727115
1016.024736	2467.644808
1016.317737	2432.356731
1016.610703	2495.371154
1016.903635	2538.220962
1017.196531	2518.056346
1017.489393	2462.603654
1017.782219	2465.124231
1018.075011	2462.603654
1018.367768	2507.974038
1018.660490	2518.056346
1018.953177	2518.056346
1019.245829	2518.056346
