Dividing Wavelength (nm)	Counts (n)	Blue Motor Position (mm): 4.400000	Red Motor Position (mm): 0.000000	
326.493990	2192.901923
326.888308	2192.901923
327.282561	2192.901923
327.676750	2011.420385
328.070874	2036.626154
328.464933	2170.216731
328.858929	2026.543846
329.252859	2031.585000
329.646726	2054.270192
330.040528	2132.408077
330.434265	2162.655000
330.827938	2162.655000
331.221547	2139.969808
331.615091	2215.587115
332.008571	2165.175577
332.401986	2119.805192
332.795338	2250.875192
333.188625	2344.136538
333.581847	2220.628269
333.975006	2210.545962
334.368100	2273.560385
334.761129	2344.136538
335.154095	2341.615962
335.546996	2344.136538
335.939833	2344.136538
336.332606	2346.657115
336.725315	2397.068654
337.117960	2384.465769
337.510540	2361.780577
337.903056	2392.027500
338.295508	2482.768269
338.687896	2482.768269
339.080220	2477.727115
339.472480	2424.795000
339.864676	2460.083077
340.256807	2455.041923
340.648875	2364.301154
341.040879	2467.644808
341.432818	2492.850577
341.824694	2505.453462
342.216506	2407.150962
342.608253	2548.303269
342.999937	2467.644808
343.391557	2520.576923
343.783113	2477.727115
344.174605	2548.303269
344.566033	2507.974038
344.957397	2502.932885
345.348697	2424.795000
345.739934	2477.727115
346.131106	2381.945192
346.522215	2392.027500
346.913260	2470.165385
347.304241	2417.233269
347.695159	2422.274423
348.086012	2480.247692
348.476802	2394.548077
348.867528	2465.124231
349.258191	2427.315577
349.648789	2591.153077
350.039324	2530.659231
350.429796	2467.644808
350.820203	2497.891731
351.210548	2381.945192
351.600828	2444.959615
351.991045	2530.659231
352.381198	2497.891731
352.771288	2366.821731
353.161314	2389.506923
353.551276	2432.356731
353.941175	2394.548077
354.331010	2417.233269
354.720782	2457.562500
355.110490	2500.412308
355.500135	2359.260000
355.889717	2472.685962
356.279235	2427.315577
356.668689	2487.809423
357.058080	2434.877308
357.447408	2409.671538
357.836672	2409.671538
358.225873	2492.850577
358.615010	2432.356731
359.004084	2457.562500
359.393095	2409.671538
359.782043	2475.206538
360.170927	2374.383462
360.559748	2349.177692
360.948505	2452.521346
361.337199	2444.959615
361.725830	2427.315577
362.114398	2402.109808
362.502903	2424.795000
362.891344	2389.506923
363.279722	2523.097500
363.668037	2543.262115
364.056289	2490.330000
364.444478	2513.015192
364.832603	2399.589231
365.220665	2450.000769
365.608665	2419.753846
365.996601	2450.000769
366.384474	2490.330000
366.772284	2439.918462
367.160031	2525.618077
367.547715	2439.918462
367.935336	2444.959615
368.322893	2429.836154
368.710388	2364.301154
369.097820	2447.480192
369.485189	2500.412308
369.872495	2497.891731
370.259738	2419.753846
370.646918	2477.727115
371.034035	2417.233269
371.421090	2419.753846
371.808081	2427.315577
372.195010	2429.836154
372.581875	2447.480192
372.968678	2477.727115
373.355418	2434.877308
373.742096	2417.233269
374.128710	2515.535769
374.515262	2528.138654
374.901751	2457.562500
375.288177	2457.562500
375.674540	2452.521346
376.060841	2518.056346
376.447079	2523.097500
376.833254	2452.521346
377.219367	2482.768269
377.605417	2495.371154
377.991404	2437.397885
378.377329	2465.124231
378.763191	2470.165385
379.148991	2419.753846
379.534727	2437.397885
379.920402	2487.809423
380.306013	2467.644808
380.691563	2500.412308
381.077049	2470.165385
381.462474	2497.891731
381.847835	2462.603654
382.233134	2427.315577
382.618371	2505.453462
383.003545	2444.959615
383.388657	2507.974038
383.773706	2414.712692
384.158693	2513.015192
384.543618	2417.233269
384.928480	2381.945192
385.313280	2477.727115
385.698017	2492.850577
386.082692	2399.589231
386.467305	2402.109808
386.851856	2439.918462
387.236344	2412.192115
387.620770	2490.330000
388.005133	2455.041923
388.389435	2530.659231
388.773674	2429.836154
389.157851	2470.165385
389.541965	2510.494615
389.926018	2497.891731
390.310008	2455.041923
390.693936	2480.247692
391.077802	2434.877308
391.461606	2429.836154
391.845348	2477.727115
392.229027	2457.562500
392.612645	2429.836154
392.996200	2457.562500
393.379694	2490.330000
393.763125	2472.685962
394.146494	2472.685962
394.529801	2394.548077
394.913047	2422.274423
395.296230	2505.453462
395.679351	2455.041923
396.062410	2455.041923
396.445408	2462.603654
396.828343	2495.371154
397.211217	2548.303269
397.594028	2492.850577
397.976778	2447.480192
398.359466	2429.836154
398.742092	2462.603654
399.124656	2386.986346
399.507158	2424.795000
399.889598	2452.521346
400.271977	2510.494615
400.654294	2465.124231
401.036549	2487.809423
401.418742	2437.397885
401.800874	2520.576923
402.182944	2465.124231
402.564952	2523.097500
402.946898	2523.097500
403.328783	2497.891731
403.710606	2470.165385
404.092367	2397.068654
404.474067	2450.000769
404.855705	2409.671538
405.237282	2507.974038
405.618797	2455.041923
406.000250	2507.974038
406.381642	2475.206538
406.762972	2429.836154
407.144240	2356.739423
407.525447	2467.644808
407.906593	2432.356731
408.287677	2497.891731
408.668700	2490.330000
409.049661	2497.891731
409.430560	2462.603654
409.811399	2480.247692
410.192176	2452.521346
410.572891	2434.877308
410.953545	2442.439038
411.334138	2545.782692
411.714669	2475.206538
412.095139	2495.371154
412.475547	2402.109808
412.855894	2490.330000
413.236180	2467.644808
413.616405	2497.891731
413.996568	2472.685962
414.376670	2399.589231
414.756711	2465.124231
415.136691	2442.439038
415.516609	2376.904038
415.896466	2424.795000
416.276262	2505.453462
416.655997	2487.809423
417.035670	2570.988462
417.415283	2432.356731
417.794834	2452.521346
418.174324	2588.632500
418.553753	2442.439038
418.933121	2540.741538
419.312428	2465.124231
419.691674	2520.576923
420.070859	2507.974038
420.449983	2460.083077
420.829045	2409.671538
421.208047	2583.591346
421.586988	2495.371154
421.965867	2513.015192
422.344686	2555.865000
422.723444	2500.412308
423.102141	2565.947308
423.480777	2407.150962
423.859352	2510.494615
424.237866	2477.727115
424.616319	2550.823846
424.994712	2558.385577
425.373044	2462.603654
425.751314	2439.918462
426.129524	2472.685962
426.507673	2500.412308
426.885762	2417.233269
427.263789	2465.124231
427.641756	2424.795000
428.019662	2565.947308
428.397508	2450.000769
428.775292	2402.109808
429.153016	2487.809423
429.530679	2381.945192
429.908282	2513.015192
430.285824	2364.301154
430.663305	2500.412308
431.040726	2452.521346
431.418086	2490.330000
431.795385	2515.535769
432.172624	2477.727115
432.549802	2495.371154
432.926920	2480.247692
433.303977	2419.753846
433.680974	2513.015192
434.057910	2487.809423
434.434786	2412.192115
434.811601	2475.206538
435.188355	2500.412308
435.565050	2399.589231
435.941683	2502.932885
436.318257	2444.959615
436.694770	2402.109808
437.071222	2500.412308
437.447614	2465.124231
437.823946	2465.124231
438.200218	2417.233269
438.576429	2525.618077
438.952580	2414.712692
439.328670	2558.385577
439.704700	2472.685962
440.080670	2513.015192
440.456580	2523.097500
440.832429	2492.850577
441.208218	2392.027500
441.583947	2490.330000
441.959616	2429.836154
442.335224	2500.412308
442.710773	2455.041923
443.086261	2591.153077
443.461689	2389.506923
443.837057	2545.782692
444.212365	2500.412308
444.587612	2502.932885
444.962800	2515.535769
445.337927	2565.947308
445.712995	2437.397885
446.088002	2460.083077
446.462949	2470.165385
446.837837	2427.315577
447.212664	2447.480192
447.587431	2407.150962
447.962139	2540.741538
448.336786	2460.083077
448.711374	2472.685962
449.085901	2588.632500
449.460369	2518.056346
449.834776	2485.288846
450.209124	2495.371154
450.583412	2545.782692
450.957640	2462.603654
451.331808	2457.562500
451.705917	2487.809423
452.079965	2437.397885
452.453954	2558.385577
452.827883	2505.453462
453.201752	2437.397885
453.575562	2482.768269
453.949311	2432.356731
454.323001	2482.768269
454.696632	2502.932885
455.070202	2538.220962
455.443713	2450.000769
455.817164	2560.906154
456.190556	2470.165385
456.563888	2520.576923
456.937160	2492.850577
457.310373	2480.247692
457.683526	2510.494615
458.056619	2460.083077
458.429653	2515.535769
458.802628	2565.947308
459.175542	2490.330000
459.548398	2525.618077
459.921194	2545.782692
460.293930	2442.439038
460.666607	2507.974038
461.039224	2444.959615
461.411782	2467.644808
461.784280	2502.932885
462.156719	2450.000769
462.529099	2533.179808
462.901419	2447.480192
463.273680	2513.015192
463.645882	2414.712692
464.018024	2485.288846
464.390106	2480.247692
464.762130	2558.385577
465.134094	2555.865000
465.505999	2538.220962
465.877845	2467.644808
466.249631	2444.959615
466.621358	2432.356731
466.993026	2472.685962
467.364634	2477.727115
467.736184	2497.891731
468.107674	2497.891731
468.479105	2485.288846
468.850477	2465.124231
469.221790	2518.056346
469.593043	2432.356731
469.964238	2533.179808
470.335373	2502.932885
470.706449	2472.685962
471.077467	2533.179808
471.448425	2495.371154
471.819324	2540.741538
472.190164	2485.288846
472.560945	2505.453462
472.931667	2475.206538
473.302330	2497.891731
473.672934	2550.823846
474.043479	2457.562500
474.413965	2518.056346
474.784393	2553.344423
475.154761	2482.768269
475.525070	2485.288846
475.895321	2442.439038
476.265513	2462.603654
476.635645	2576.029615
477.005719	2465.124231
477.375734	2548.303269
477.745691	2470.165385
478.115588	2510.494615
478.485427	2553.344423
478.855207	2477.727115
479.224928	2568.467885
479.594591	2500.412308
479.964194	2515.535769
480.333739	2570.988462
480.703226	2447.480192
481.072653	2502.932885
481.442022	2404.630385
481.811333	2462.603654
482.180584	2495.371154
482.549777	2487.809423
482.918912	2495.371154
483.287988	2492.850577
483.657005	2535.700385
484.025964	2588.632500
484.394864	2558.385577
484.763706	2457.562500
485.132489	2460.083077
485.501213	2442.439038
485.869879	2492.850577
486.238487	2472.685962
486.607036	2502.932885
486.975527	2500.412308
487.343959	2500.412308
487.712333	2434.877308
488.080648	2495.371154
488.448905	2480.247692
488.817104	2439.918462
489.185244	2510.494615
489.553326	2452.521346
489.921350	2482.768269
490.289315	2389.506923
490.657222	2475.206538
491.025070	2591.153077
491.392861	2520.576923
491.760593	2515.535769
492.128267	2525.618077
492.495883	2482.768269
492.863440	2525.618077
493.230939	2550.823846
493.598380	2482.768269
493.965763	2523.097500
494.333088	2535.700385
494.700354	2528.138654
495.067563	2434.877308
495.434713	2485.288846
495.801805	2540.741538
496.168839	2613.838269
496.535815	2477.727115
496.902733	2422.274423
497.269593	2502.932885
497.636395	2505.453462
498.003139	2535.700385
498.369825	2477.727115
498.736453	2530.659231
499.103023	2475.206538
499.469535	2518.056346
499.835989	2386.986346
500.202385	2472.685962
500.568723	2535.700385
500.935003	2518.056346
501.301226	2452.521346
501.667390	2457.562500
502.033497	2530.659231
502.399546	2462.603654
502.765537	2563.426731
503.131470	2500.412308
503.497345	2497.891731
503.863163	2500.412308
504.228923	2510.494615
504.594625	2555.865000
504.960269	2475.206538
505.325856	2427.315577
505.691385	2344.136538
506.056856	2470.165385
506.422270	2513.015192
506.787625	2442.439038
507.152924	2477.727115
507.518164	2528.138654
507.883347	2520.576923
508.248472	2530.659231
508.613540	2404.630385
508.978550	2467.644808
509.343503	2477.727115
509.708398	2495.371154
510.073236	2520.576923
510.438016	2548.303269
510.802738	2422.274423
511.167403	2467.644808
511.532010	2402.109808
511.896561	2535.700385
512.261053	2376.904038
512.625488	2515.535769
512.989866	2513.015192
513.354186	2510.494615
513.718449	2467.644808
514.082655	2523.097500
514.446803	2452.521346
514.810894	2429.836154
515.174927	2470.165385
515.538904	2482.768269
515.902822	2495.371154
516.266684	2520.576923
516.630488	2455.041923
516.994235	2460.083077
517.357925	2510.494615
517.721558	2437.397885
518.085133	2500.412308
518.448651	2447.480192
518.812112	2570.988462
519.175516	2510.494615
519.538863	2482.768269
519.902152	2470.165385
520.265385	2487.809423
520.628560	2510.494615
520.991678	2419.753846
521.354739	2460.083077
521.717743	2565.947308
522.080690	2447.480192
522.443580	2535.700385
522.806413	2581.070769
523.169189	2475.206538
523.531908	2497.891731
523.894569	2442.439038
524.257174	2507.974038
524.619722	2480.247692
524.982213	2462.603654
525.344647	2457.562500
525.707025	2384.465769
526.069345	2447.480192
526.431608	2520.576923
526.793815	2581.070769
527.155964	2447.480192
527.518057	2533.179808
527.880093	2548.303269
528.242072	2510.494615
528.603995	2455.041923
528.965860	2518.056346
529.327669	2510.494615
529.689421	2533.179808
530.051117	2460.083077
530.412755	2492.850577
530.774337	2543.262115
531.135862	2495.371154
531.497331	2475.206538
531.858743	2434.877308
532.220098	2515.535769
532.581396	2450.000769
532.942638	2397.068654
533.303824	2487.809423
533.664953	2482.768269
534.026025	2492.850577
534.387040	2560.906154
534.747999	2462.603654
535.108902	2558.385577
535.469748	2535.700385
535.830537	2500.412308
536.191270	2419.753846
536.551947	2530.659231
536.912567	2538.220962
537.273131	2528.138654
537.633638	2520.576923
537.994089	2490.330000
538.354483	2444.959615
538.714821	2548.303269
539.075103	2523.097500
539.435328	2460.083077
539.795497	2490.330000
540.155609	2548.303269
540.515665	2462.603654
540.875665	2515.535769
541.235609	2545.782692
541.595496	2515.535769
541.955328	2513.015192
542.315102	2470.165385
542.674821	2457.562500
543.034483	2482.768269
543.394090	2513.015192
543.753640	2465.124231
544.113134	2581.070769
544.472571	2452.521346
544.831953	2500.412308
545.191278	2470.165385
545.550548	2467.644808
545.909761	2490.330000
546.268918	2485.288846
546.628019	2490.330000
546.987064	2465.124231
547.346053	2412.192115
547.704986	2500.412308
548.063863	2462.603654
548.422684	2545.782692
548.781449	2482.768269
549.140158	2485.288846
549.498811	2500.412308
549.857408	2450.000769
550.215949	2543.262115
550.574434	2424.795000
550.932864	2507.974038
551.291237	2535.700385
551.649555	2434.877308
552.007817	2485.288846
552.366022	2518.056346
552.724173	2462.603654
553.082267	2477.727115
553.440305	2533.179808
553.798288	2558.385577
554.156215	2482.768269
554.514086	2520.576923
554.871902	2502.932885
555.229661	2460.083077
555.587365	2427.315577
555.945014	2490.330000
556.302606	2419.753846
556.660143	2495.371154
557.017625	2419.753846
557.375050	2523.097500
557.732421	2505.453462
558.089735	2550.823846
558.446994	2533.179808
558.804197	2470.165385
559.161345	2500.412308
559.518437	2548.303269
559.875474	2515.535769
560.232455	2505.453462
560.589381	2540.741538
560.946251	2394.548077
561.303065	2533.179808
561.659825	2472.685962
562.016528	2533.179808
562.373177	2465.124231
562.729770	2381.945192
563.086307	2545.782692
563.442789	2520.576923
563.799216	2535.700385
564.155587	2477.727115
564.511904	2475.206538
564.868164	2538.220962
565.224370	2505.453462
565.580520	2487.809423
565.936615	2477.727115
566.292654	2548.303269
566.648638	2452.521346
567.004567	2477.727115
567.360441	2523.097500
567.716260	2573.509038
568.072023	2513.015192
568.427732	2520.576923
568.783385	2427.315577
569.138982	2530.659231
569.494525	2444.959615
569.850013	2429.836154
570.205445	2460.083077
570.560823	2457.562500
570.916145	2490.330000
571.271412	2482.768269
571.626625	2550.823846
571.981782	2576.029615
572.336884	2462.603654
572.691931	2576.029615
573.046923	2535.700385
573.401860	2434.877308
573.756743	2507.974038
574.111570	2485.288846
574.466342	2492.850577
574.821059	2528.138654
575.175722	2513.015192
575.530330	2477.727115
575.884882	2472.685962
576.239380	2455.041923
576.593823	2513.015192
576.948211	2535.700385
577.302544	2492.850577
577.656823	2510.494615
578.011047	2467.644808
578.365216	2616.358846
578.719330	2507.974038
579.073389	2525.618077
579.427394	2560.906154
579.781344	2533.179808
580.135239	2467.644808
580.489080	2523.097500
580.842866	2487.809423
581.196597	2500.412308
581.550273	2495.371154
581.903895	2507.974038
582.257463	2560.906154
582.610975	2528.138654
582.964434	2570.988462
583.317837	2492.850577
583.671186	2513.015192
584.024481	2530.659231
584.377721	2573.509038
584.730906	2450.000769
585.084037	2480.247692
585.437113	2434.877308
585.790135	2505.453462
586.143103	2500.412308
586.496016	2480.247692
586.848874	2495.371154
587.201679	2472.685962
587.554428	2553.344423
587.907124	2535.700385
588.259765	2475.206538
588.612352	2583.591346
588.964884	2439.918462
589.317362	2490.330000
589.669786	2548.303269
590.022155	2507.974038
590.374470	2465.124231
590.726731	2550.823846
591.078937	2545.782692
591.431090	2482.768269
591.783188	2497.891731
592.135232	2467.644808
592.487222	2495.371154
592.839157	2538.220962
593.191038	2470.165385
593.542866	2513.015192
593.894639	2548.303269
594.246358	2492.850577
594.598022	2528.138654
594.949633	2404.630385
595.301190	2515.535769
595.652692	2518.056346
596.004141	2550.823846
596.355535	2467.644808
596.706876	2472.685962
597.058162	2472.685962
597.409395	2452.521346
597.760573	2570.988462
598.111698	2563.426731
598.462768	2439.918462
598.813785	2535.700385
599.164748	2550.823846
599.515657	2439.918462
599.866511	2495.371154
600.217312	2480.247692
600.568060	2507.974038
600.918753	2480.247692
601.269392	2560.906154
601.619978	2538.220962
601.970510	2505.453462
602.320988	2472.685962
602.671412	2555.865000
603.021783	2470.165385
603.372100	2528.138654
603.722363	2563.426731
604.072572	2465.124231
604.422728	2523.097500
604.772830	2505.453462
605.122878	2442.439038
605.472872	2465.124231
605.822813	2457.562500
606.172701	2505.453462
606.522534	2492.850577
606.872314	2535.700385
607.222041	2497.891731
607.571714	2507.974038
607.921333	2507.974038
608.270899	2540.741538
608.620411	2482.768269
608.969870	2447.480192
609.319276	2538.220962
609.668627	2482.768269
610.017926	2525.618077
610.367171	2515.535769
610.716362	2533.179808
611.065500	2573.509038
611.414585	2470.165385
611.763616	2593.673654
612.112594	2502.932885
612.461518	2560.906154
612.810389	2480.247692
613.159207	2460.083077
613.507971	2555.865000
613.856682	2570.988462
614.205340	2540.741538
614.553945	2485.288846
614.902496	2535.700385
615.250994	2533.179808
615.599439	2455.041923
615.947830	2500.412308
616.296169	2573.509038
616.644454	2487.809423
616.992686	2520.576923
617.340864	2538.220962
617.688990	2555.865000
618.037063	2444.959615
618.385082	2487.809423
618.733048	2530.659231
619.080961	2502.932885
619.428821	2548.303269
619.776628	2457.562500
620.124382	2497.891731
620.472083	2455.041923
620.819731	2535.700385
621.167326	2472.685962
621.514868	2467.644808
621.862357	2457.562500
622.209793	2598.714808
622.557176	2502.932885
622.904506	2404.630385
623.251783	2538.220962
623.599007	2392.027500
623.946179	2518.056346
624.293297	2404.630385
624.640363	2518.056346
624.987376	2543.262115
625.334336	2535.700385
625.681243	2462.603654
626.028097	2447.480192
626.374899	2533.179808
626.721647	2490.330000
627.068343	2528.138654
627.414987	2470.165385
627.761577	2452.521346
628.108115	2505.453462
628.454600	2565.947308
628.801032	2533.179808
629.147412	2505.453462
629.493739	2525.618077
629.840014	2472.685962
630.186236	2533.179808
630.532405	2465.124231
630.878521	2507.974038
631.224585	2467.644808
631.570597	2475.206538
631.916556	2505.453462
632.262462	2543.262115
632.608316	2513.015192
632.954117	2528.138654
633.299866	2492.850577
633.645562	2583.591346
633.991206	2419.753846
634.336797	2414.712692
634.682336	2528.138654
635.027823	2434.877308
635.373257	2485.288846
635.718639	2455.041923
636.063968	2553.344423
636.409245	2558.385577
636.754470	2487.809423
637.099642	2528.138654
637.444762	2497.891731
637.789829	2500.412308
638.134845	2437.397885
638.479808	2533.179808
638.824719	2472.685962
639.169577	2548.303269
639.514383	2616.358846
639.859137	2472.685962
640.203839	2500.412308
640.548489	2505.453462
640.893086	2528.138654
641.237632	2507.974038
641.582125	2490.330000
641.926566	2510.494615
642.270955	2452.521346
642.615292	2462.603654
642.959576	2538.220962
643.303809	2434.877308
643.647990	2621.400000
643.992118	2495.371154
644.336195	2505.453462
644.680219	2533.179808
645.024192	2437.397885
645.368112	2500.412308
645.711981	2558.385577
646.055797	2482.768269
646.399562	2515.535769
646.743274	2487.809423
647.086935	2480.247692
647.430544	2467.644808
647.774101	2500.412308
648.117606	2558.385577
648.461059	2533.179808
648.804460	2439.918462
649.147810	2563.426731
649.491108	2550.823846
649.834354	2523.097500
650.177548	2606.276538
650.520690	2540.741538
650.863781	2470.165385
651.206820	2424.795000
651.549807	2424.795000
651.892742	2467.644808
652.235626	2555.865000
652.578458	2455.041923
652.921238	2462.603654
653.263967	2513.015192
653.606644	2543.262115
653.949269	2442.439038
654.291843	2467.644808
654.634365	2485.288846
654.976836	2485.288846
655.319255	2510.494615
655.661622	2500.412308
656.003938	2513.015192
656.346203	2518.056346
656.688416	2553.344423
657.030577	2444.959615
657.372687	2515.535769
657.714746	2530.659231
658.056753	2487.809423
658.398708	2384.465769
658.740612	2467.644808
659.082465	2452.521346
659.424266	2500.412308
659.766016	2558.385577
660.107715	2477.727115
660.449362	2492.850577
660.790958	2460.083077
661.132503	2550.823846
661.473996	2467.644808
661.815438	2593.673654
662.156829	2560.906154
662.498168	2500.412308
662.839456	2460.083077
663.180693	2442.439038
663.521879	2409.671538
663.863013	2460.083077
664.204097	2485.288846
664.545129	2520.576923
664.886110	2515.535769
665.227040	2495.371154
665.567918	2495.371154
665.908746	2497.891731
666.249522	2439.918462
666.590248	2492.850577
666.930922	2523.097500
667.271545	2528.138654
667.612118	2482.768269
667.952639	2545.782692
668.293109	2510.494615
668.633528	2510.494615
668.973896	2533.179808
669.314213	2545.782692
669.654480	2497.891731
669.994695	2530.659231
670.334859	2515.535769
670.674973	2565.947308
671.015035	2538.220962
671.355047	2558.385577
671.695008	2409.671538
672.034918	2477.727115
672.374777	2563.426731
672.714585	2467.644808
673.054342	2543.262115
673.394049	2475.206538
673.733705	2553.344423
674.073310	2540.741538
674.412864	2583.591346
674.752368	2570.988462
675.091820	2518.056346
675.431223	2450.000769
675.770574	2510.494615
676.109875	2465.124231
676.449125	2490.330000
676.788324	2482.768269
677.127473	2520.576923
677.466571	2515.535769
677.805619	2528.138654
678.144616	2485.288846
678.483562	2450.000769
678.822458	2495.371154
679.161303	2553.344423
679.500098	2417.233269
679.838842	2543.262115
680.177535	2450.000769
680.516179	2472.685962
680.854771	2500.412308
681.193314	2513.015192
681.531805	2485.288846
681.870247	2480.247692
682.208638	2404.630385
682.546978	2409.671538
682.885268	2455.041923
683.223508	2568.467885
683.561697	2444.959615
683.899836	2528.138654
684.237925	2495.371154
684.575963	2502.932885
684.913951	2513.015192
685.251889	2442.439038
685.589776	2472.685962
685.927614	2492.850577
686.265401	2414.712692
686.603137	2480.247692
686.940824	2550.823846
687.278460	2460.083077
687.616046	2475.206538
687.953582	2492.850577
688.291068	2414.712692
688.628504	2535.700385
688.965889	2490.330000
689.303224	2427.315577
689.640510	2540.741538
689.977745	2452.521346
690.314930	2523.097500
690.652065	2455.041923
690.989150	2553.344423
691.326185	2444.959615
691.663170	2565.947308
692.000105	2570.988462
692.336990	2523.097500
692.673825	2550.823846
693.010610	2568.467885
693.347345	2548.303269
693.684030	2530.659231
694.020665	2495.371154
694.357251	2434.877308
694.693786	2502.932885
695.030272	2533.179808
695.366707	2424.795000
695.703093	2462.603654
696.039429	2447.480192
696.375716	2525.618077
696.711952	2545.782692
697.048139	2513.015192
697.384276	2596.194231
697.720363	2432.356731
698.056400	2472.685962
698.392388	2457.562500
698.728326	2480.247692
699.064214	2467.644808
699.400053	2515.535769
699.735842	2520.576923
700.071581	2523.097500
700.407270	2500.412308
700.742910	2452.521346
701.078501	2507.974038
701.414042	2515.535769
701.749533	2495.371154
702.084974	2525.618077
702.420366	2500.412308
702.755709	2417.233269
703.091002	2528.138654
703.426246	2462.603654
703.761440	2497.891731
704.096584	2500.412308
704.431679	2452.521346
704.766725	2457.562500
705.101721	2439.918462
705.436668	2518.056346
705.771565	2495.371154
706.106413	2555.865000
706.441212	2513.015192
706.775961	2626.441154
707.110661	2487.809423
707.445311	2492.850577
707.779913	2513.015192
708.114465	2455.041923
708.448967	2482.768269
708.783421	2472.685962
709.117825	2470.165385
709.452180	2414.712692
709.786485	2482.768269
710.120742	2444.959615
710.454949	2596.194231
710.789107	2576.029615
711.123216	2528.138654
711.457275	2510.494615
711.791286	2477.727115
712.125247	2507.974038
712.459159	2447.480192
712.793023	2513.015192
713.126837	2495.371154
713.460602	2472.685962
713.794318	2573.509038
714.127985	2457.562500
714.461602	2535.700385
714.795171	2477.727115
715.128691	2550.823846
715.462162	2525.618077
715.795584	2477.727115
716.128957	2407.150962
716.462281	2492.850577
716.795556	2500.412308
717.128782	2507.974038
717.461960	2452.521346
717.795088	2477.727115
718.128167	2581.070769
718.461198	2475.206538
718.794180	2513.015192
719.127113	2505.453462
719.459997	2477.727115
719.792833	2450.000769
720.125619	2502.932885
720.458357	2434.877308
720.791046	2543.262115
721.123686	2497.891731
721.456278	2545.782692
721.788821	2530.659231
722.121315	2482.768269
722.453761	2439.918462
722.786158	2487.809423
723.118506	2457.562500
723.450805	2460.083077
723.783056	2409.671538
724.115259	2500.412308
724.447412	2507.974038
724.779518	2467.644808
725.111574	2470.165385
725.443582	2399.589231
725.775542	2530.659231
726.107453	2543.262115
726.439315	2452.521346
726.771129	2505.453462
727.102895	2535.700385
727.434612	2460.083077
727.766281	2545.782692
728.097901	2404.630385
728.429473	2573.509038
728.760996	2447.480192
729.092471	2515.535769
729.423897	2452.521346
729.755276	2513.015192
730.086606	2510.494615
730.417887	2432.356731
730.749120	2518.056346
731.080305	2480.247692
731.411442	2490.330000
731.742530	2470.165385
732.073570	2429.836154
732.404562	2538.220962
732.735506	2560.906154
733.066401	2480.247692
733.397249	2515.535769
733.728048	2505.453462
734.058798	2543.262115
734.389501	2470.165385
734.720156	2515.535769
735.050762	2437.397885
735.381320	2528.138654
735.711831	2535.700385
736.042293	2465.124231
736.372707	2548.303269
736.703073	2507.974038
737.033391	2472.685962
737.363661	2422.274423
737.693883	2578.550192
738.024056	2492.850577
738.354182	2528.138654
738.684260	2434.877308
739.014290	2379.424615
739.344272	2507.974038
739.674207	2450.000769
740.004093	2487.809423
740.333931	2447.480192
740.663722	2596.194231
740.993464	2442.439038
741.323159	2555.865000
741.652806	2492.850577
741.982405	2538.220962
742.311956	2452.521346
742.641460	2500.412308
742.970915	2437.397885
743.300323	2586.111923
743.629683	2568.467885
743.958996	2455.041923
744.288260	2510.494615
744.617477	2452.521346
744.946647	2538.220962
745.275768	2538.220962
745.604842	2422.274423
745.933869	2444.959615
746.262847	2485.288846
746.591778	2548.303269
746.920662	2432.356731
747.249498	2540.741538
747.578286	2548.303269
747.907027	2603.755962
748.235720	2513.015192
748.564365	2485.288846
748.892963	2389.506923
749.221514	2623.920577
749.550017	2490.330000
749.878473	2555.865000
750.206881	2437.397885
750.535242	2530.659231
750.863555	2510.494615
751.191821	2525.618077
751.520039	2513.015192
751.848210	2482.768269
752.176334	2465.124231
752.504411	2540.741538
752.832440	2497.891731
753.160421	2586.111923
753.488356	2555.865000
753.816243	2472.685962
754.144082	2530.659231
754.471875	2392.027500
754.799620	2518.056346
755.127318	2457.562500
755.454969	2555.865000
755.782572	2545.782692
756.110129	2515.535769
756.437638	2487.809423
756.765100	2482.768269
757.092515	2452.521346
757.419882	2543.262115
757.747203	2528.138654
758.074477	2492.850577
758.401703	2444.959615
758.728882	2535.700385
759.056014	2424.795000
759.383099	2558.385577
759.710138	2485.288846
760.037129	2533.179808
760.364073	2467.644808
760.690970	2583.591346
761.017820	2502.932885
761.344623	2543.262115
761.671379	2500.412308
761.998088	2502.932885
762.324751	2500.412308
762.651366	2510.494615
762.977935	2535.700385
763.304456	2535.700385
763.630931	2434.877308
763.957359	2490.330000
764.283740	2450.000769
764.610074	2482.768269
764.936362	2502.932885
765.262602	2558.385577
765.588796	2490.330000
765.914943	2505.453462
766.241044	2490.330000
766.567097	2525.618077
766.893104	2518.056346
767.219064	2470.165385
767.544978	2457.562500
767.870845	2500.412308
768.196665	2417.233269
768.522438	2452.521346
768.848165	2404.630385
769.173846	2477.727115
769.499479	2424.795000
769.825066	2477.727115
770.150607	2591.153077
770.476101	2563.426731
770.801548	2412.192115
771.126949	2543.262115
771.452303	2482.768269
771.777611	2510.494615
772.102872	2495.371154
772.428087	2550.823846
772.753256	2424.795000
773.078378	2510.494615
773.403453	2500.412308
773.728482	2523.097500
774.053465	2495.371154
774.378401	2578.550192
774.703291	2495.371154
775.028135	2389.506923
775.352932	2470.165385
775.677683	2462.603654
776.002388	2502.932885
776.327046	2477.727115
776.651658	2409.671538
776.976224	2505.453462
777.300743	2520.576923
777.625216	2450.000769
777.949643	2513.015192
778.274024	2495.371154
778.598359	2477.727115
778.922647	2414.712692
779.246889	2530.659231
779.571086	2444.959615
779.895236	2462.603654
780.219339	2513.015192
780.543397	2507.974038
780.867409	2520.576923
781.191374	2482.768269
781.515294	2429.836154
781.839167	2470.165385
782.162995	2563.426731
782.486776	2540.741538
782.810511	2570.988462
783.134201	2434.877308
783.457844	2510.494615
783.781441	2515.535769
784.104993	2490.330000
784.428498	2450.000769
784.751958	2548.303269
785.075372	2439.918462
785.398739	2513.015192
785.722061	2480.247692
786.045337	2470.165385
786.368568	2492.850577
786.691752	2586.111923
787.014891	2570.988462
787.337983	2444.959615
787.661030	2525.618077
787.984031	2465.124231
788.306987	2427.315577
788.629897	2540.741538
788.952760	2507.974038
789.275579	2447.480192
789.598351	2528.138654
789.921078	2477.727115
790.243759	2409.671538
790.566395	2507.974038
790.888984	2492.850577
791.211529	2442.439038
791.534027	2477.727115
791.856480	2545.782692
792.178888	2497.891731
792.501249	2495.371154
792.823566	2439.918462
793.145836	2507.974038
793.468062	2487.809423
793.790241	2472.685962
794.112375	2598.714808
794.434464	2490.330000
794.756507	2477.727115
795.078505	2381.945192
795.400457	2525.618077
795.722364	2533.179808
796.044226	2576.029615
796.366042	2477.727115
796.687812	2510.494615
797.009538	2518.056346
797.331218	2490.330000
797.652852	2548.303269
797.974442	2502.932885
798.295986	2485.288846
798.617484	2538.220962
798.938938	2460.083077
799.260346	2502.932885
799.581709	2465.124231
799.903026	2533.179808
800.224299	2427.315577
800.545526	2545.782692
800.866708	2455.041923
801.187845	2548.303269
801.508936	2550.823846
801.829983	2553.344423
802.150984	2513.015192
802.471940	2492.850577
802.792851	2533.179808
803.113717	2560.906154
803.434538	2374.383462
803.755314	2505.453462
804.076045	2475.206538
804.396731	2470.165385
804.717372	2409.671538
805.037967	2553.344423
805.358518	2412.192115
805.679024	2447.480192
805.999485	2424.795000
806.319901	2439.918462
806.640272	2525.618077
806.960598	2535.700385
807.280879	2533.179808
807.601115	2437.397885
807.921306	2470.165385
808.241453	2417.233269
808.561554	2472.685962
808.881611	2450.000769
809.201623	2513.015192
809.521590	2434.877308
809.841513	2507.974038
810.161390	2495.371154
810.481223	2439.918462
810.801011	2550.823846
811.120755	2482.768269
811.440453	2523.097500
811.760107	2492.850577
812.079716	2500.412308
812.399281	2414.712692
812.718801	2460.083077
813.038276	2500.412308
813.357707	2495.371154
813.677093	2475.206538
813.996434	2507.974038
814.315731	2485.288846
814.634983	2485.288846
814.954191	2412.192115
815.273354	2523.097500
815.592473	2482.768269
815.911547	2487.809423
816.230577	2452.521346
816.549562	2520.576923
816.868502	2520.576923
817.187399	2470.165385
817.506250	2563.426731
817.825058	2429.836154
818.143821	2510.494615
818.462539	2505.453462
818.781213	2444.959615
819.099843	2535.700385
819.418429	2409.671538
819.736970	2475.206538
820.055466	2528.138654
820.373919	2467.644808
820.692327	2452.521346
821.010691	2540.741538
821.329011	2477.727115
821.647286	2548.303269
821.965517	2472.685962
822.283704	2490.330000
822.601847	2550.823846
822.919945	2533.179808
823.237999	2477.727115
823.556010	2444.959615
823.873976	2460.083077
824.191897	2485.288846
824.509775	2475.206538
824.827609	2538.220962
825.145398	2477.727115
825.463144	2550.823846
825.780845	2472.685962
826.098502	2553.344423
826.416116	2533.179808
826.733685	2548.303269
827.051210	2475.206538
827.368692	2510.494615
827.686129	2470.165385
828.003522	2510.494615
828.320872	2477.727115
828.638177	2513.015192
828.955439	2404.630385
829.272656	2490.330000
829.589830	2530.659231
829.906960	2457.562500
830.224046	2439.918462
830.541088	2482.768269
830.858086	2485.288846
831.175041	2515.535769
831.491952	2507.974038
831.808819	2490.330000
832.125642	2505.453462
832.442421	2452.521346
832.759157	2492.850577
833.075849	2452.521346
833.392497	2485.288846
833.709101	2492.850577
834.025662	2560.906154
834.342179	2455.041923
834.658653	2540.741538
834.975083	2502.932885
835.291469	2490.330000
835.607811	2545.782692
835.924110	2563.426731
836.240366	2490.330000
836.556578	2525.618077
836.872746	2444.959615
837.188871	2558.385577
837.504952	2444.959615
837.820990	2545.782692
838.136984	2492.850577
838.452935	2543.262115
838.768842	2492.850577
839.084706	2518.056346
839.400526	2492.850577
839.716303	2495.371154
840.032037	2480.247692
840.347727	2419.753846
840.663373	2568.467885
840.978977	2525.618077
841.294537	2457.562500
841.610054	2535.700385
841.925527	2495.371154
842.240957	2462.603654
842.556344	2502.932885
842.871687	2558.385577
843.186987	2386.986346
843.502244	2427.315577
843.817458	2379.424615
844.132629	2560.906154
844.447756	2437.397885
844.762840	2568.467885
845.077881	2452.521346
845.392879	2470.165385
845.707833	2419.753846
846.022745	2462.603654
846.337613	2477.727115
846.652438	2510.494615
846.967221	2601.235385
847.281960	2535.700385
847.596656	2505.453462
847.911309	2502.932885
848.225919	2460.083077
848.540485	2545.782692
848.855009	2528.138654
849.169490	2442.439038
849.483928	2480.247692
849.798323	2434.877308
850.112675	2442.439038
850.426984	2543.262115
850.741251	2570.988462
851.055474	2470.165385
851.369654	2437.397885
851.683792	2500.412308
851.997887	2495.371154
852.311938	2480.247692
852.625947	2490.330000
852.939914	2417.233269
853.253837	2570.988462
853.567718	2528.138654
853.881555	2424.795000
854.195350	2485.288846
854.509103	2462.603654
854.822812	2515.535769
855.136479	2523.097500
855.450103	2528.138654
855.763685	2492.850577
856.077224	2525.618077
856.390720	2502.932885
856.704173	2576.029615
857.017584	2558.385577
857.330953	2545.782692
857.644278	2452.521346
857.957561	2515.535769
858.270802	2523.097500
858.584000	2447.480192
858.897155	2523.097500
859.210268	2490.330000
859.523339	2518.056346
859.836367	2525.618077
860.149352	2558.385577
860.462295	2500.412308
860.775195	2444.959615
861.088054	2452.521346
861.400869	2482.768269
861.713642	2477.727115
862.026373	2500.412308
862.339062	2533.179808
862.651708	2611.317692
862.964312	2510.494615
863.276873	2543.262115
863.589392	2460.083077
863.901869	2525.618077
864.214303	2530.659231
864.526696	2439.918462
864.839045	2475.206538
865.151353	2460.083077
865.463619	2583.591346
865.775842	2520.576923
866.088023	2424.795000
866.400162	2497.891731
866.712258	2450.000769
867.024313	2480.247692
867.336325	2510.494615
867.648296	2437.397885
867.960224	2422.274423
868.272110	2455.041923
868.583954	2475.206538
868.895755	2505.453462
869.207515	2487.809423
869.519233	2520.576923
869.830909	2518.056346
870.142542	2457.562500
870.454134	2477.727115
870.765684	2442.439038
871.077191	2475.206538
871.388657	2497.891731
871.700081	2497.891731
872.011463	2457.562500
872.322803	2515.535769
872.634101	2452.521346
872.945357	2523.097500
873.256571	2462.603654
873.567744	2447.480192
873.878874	2492.850577
874.189963	2520.576923
874.501010	2480.247692
874.812015	2505.453462
875.122979	2482.768269
875.433900	2565.947308
875.744780	2450.000769
876.055618	2465.124231
876.366415	2482.768269
876.677169	2565.947308
876.987882	2437.397885
877.298554	2530.659231
877.609183	2432.356731
877.919771	2495.371154
878.230317	2507.974038
878.540822	2492.850577
878.851285	2495.371154
879.161707	2586.111923
879.472087	2462.603654
879.782425	2543.262115
880.092722	2470.165385
880.402977	2492.850577
880.713191	2447.480192
881.023363	2485.288846
881.333494	2480.247692
881.643583	2450.000769
881.953631	2455.041923
882.263637	2523.097500
882.573602	2553.344423
882.883526	2399.589231
883.193408	2500.412308
883.503248	2482.768269
883.813048	2535.700385
884.122806	2414.712692
884.432522	2560.906154
884.742197	2465.124231
885.051831	2530.659231
885.361424	2477.727115
885.670975	2528.138654
885.980485	2525.618077
886.289954	2487.809423
886.599382	2480.247692
886.908768	2442.439038
887.218113	2437.397885
887.527417	2432.356731
887.836680	2533.179808
888.145901	2455.041923
888.455082	2490.330000
888.764221	2477.727115
889.073319	2525.618077
889.382376	2444.959615
889.691392	2553.344423
890.000366	2525.618077
890.309300	2497.891731
890.618193	2533.179808
890.927044	2472.685962
891.235855	2525.618077
891.544625	2477.727115
891.853353	2402.109808
892.162041	2500.412308
892.470687	2434.877308
892.779293	2533.179808
893.087858	2427.315577
893.396381	2460.083077
893.704864	2510.494615
894.013306	2467.644808
894.321707	2495.371154
894.630068	2548.303269
894.938387	2424.795000
895.246665	2525.618077
895.554903	2492.850577
895.863100	2538.220962
896.171256	2513.015192
896.479371	2502.932885
896.787446	2437.397885
897.095480	2485.288846
897.403473	2497.891731
897.711425	2540.741538
898.019336	2434.877308
898.327207	2442.439038
898.635038	2578.550192
898.942827	2502.932885
899.250576	2515.535769
899.558284	2447.480192
899.865952	2500.412308
900.173579	2432.356731
900.481165	2515.535769
900.788711	2497.891731
901.096216	2502.932885
901.403681	2510.494615
901.711105	2515.535769
902.018489	2457.562500
902.325832	2442.439038
902.633135	2515.535769
902.940397	2480.247692
903.247619	2447.480192
903.554800	2528.138654
903.861941	2510.494615
904.169041	2502.932885
904.476101	2500.412308
904.783121	2447.480192
905.090100	2523.097500
905.397039	2450.000769
905.703938	2480.247692
906.010796	2480.247692
906.317614	2518.056346
906.624391	2414.712692
906.931129	2500.412308
907.237826	2404.630385
907.544483	2530.659231
907.851099	2497.891731
908.157675	2573.509038
908.464211	2495.371154
908.770707	2513.015192
909.077163	2475.206538
909.383578	2568.467885
909.689954	2520.576923
909.996289	2422.274423
910.302584	2495.371154
910.608839	2457.562500
910.915054	2482.768269
911.221229	2560.906154
911.527363	2470.165385
911.833458	2497.891731
912.139513	2538.220962
912.445527	2490.330000
912.751502	2515.535769
913.057436	2500.412308
913.363331	2422.274423
913.669186	2376.904038
913.975000	2434.877308
914.280775	2452.521346
914.586510	2540.741538
914.892205	2439.918462
915.197859	2492.850577
915.503475	2502.932885
915.809050	2470.165385
916.114585	2475.206538
916.420081	2576.029615
916.725536	2520.576923
917.030952	2465.124231
917.336328	2460.083077
917.641665	2538.220962
917.946961	2472.685962
918.252218	2460.083077
918.557435	2472.685962
918.862612	2540.741538
919.167750	2588.632500
919.472848	2495.371154
919.777906	2480.247692
920.082925	2576.029615
920.387904	2525.618077
920.692843	2492.850577
920.997743	2427.315577
921.302603	2490.330000
921.607423	2442.439038
921.912204	2467.644808
922.216946	2424.795000
922.521647	2507.974038
922.826310	2500.412308
923.130932	2540.741538
923.435516	2497.891731
923.740059	2477.727115
924.044564	2472.685962
924.349028	2500.412308
924.653454	2419.753846
924.957840	2548.303269
925.262186	2523.097500
925.566493	2495.371154
925.870761	2470.165385
926.174989	2550.823846
926.479178	2568.467885
926.783328	2505.453462
927.087438	2477.727115
927.391509	2444.959615
927.695541	2414.712692
927.999533	2482.768269
928.303486	2507.974038
928.607400	2507.974038
928.911275	2482.768269
929.215110	2432.356731
929.518906	2470.165385
929.822663	2543.262115
930.126381	2457.562500
930.430060	2480.247692
930.733699	2495.371154
931.037299	2510.494615
931.340861	2520.576923
931.644383	2513.015192
931.947866	2495.371154
932.251309	2533.179808
932.554714	2470.165385
932.858080	2495.371154
933.161407	2525.618077
933.464694	2492.850577
933.767943	2439.918462
934.071153	2434.877308
934.374323	2427.315577
934.677455	2442.439038
934.980548	2485.288846
935.283602	2545.782692
935.586617	2497.891731
935.889593	2472.685962
936.192530	2460.083077
936.495428	2437.397885
936.798287	2502.932885
937.101108	2467.644808
937.403890	2450.000769
937.706632	2399.589231
938.009336	2568.467885
938.312002	2520.576923
938.614628	2523.097500
938.917216	2475.206538
939.219765	2475.206538
939.522275	2507.974038
939.824747	2500.412308
940.127179	2424.795000
940.429573	2533.179808
940.731929	2518.056346
941.034246	2442.439038
941.336524	2555.865000
941.638763	2457.562500
941.940964	2485.288846
942.243126	2442.439038
942.545250	2530.659231
942.847335	2513.015192
943.149381	2457.562500
943.451389	2457.562500
943.753359	2470.165385
944.055290	2450.000769
944.357182	2485.288846
944.659036	2467.644808
944.960851	2437.397885
945.262628	2455.041923
945.564367	2555.865000
945.866067	2432.356731
946.167729	2392.027500
946.469352	2472.685962
946.770937	2487.809423
947.072484	2553.344423
947.373992	2500.412308
947.675462	2450.000769
947.976893	2439.918462
948.278286	2477.727115
948.579641	2591.153077
948.880958	2540.741538
949.182236	2530.659231
949.483476	2450.000769
949.784678	2513.015192
950.085841	2520.576923
950.386967	2485.288846
950.688054	2550.823846
950.989103	2495.371154
951.290114	2520.576923
951.591087	2480.247692
951.892021	2548.303269
952.192917	2455.041923
952.493776	2442.439038
952.794596	2490.330000
953.095378	2480.247692
953.396122	2462.603654
953.696828	2548.303269
953.997496	2465.124231
954.298126	2419.753846
954.598718	2475.206538
954.899272	2470.165385
955.199788	2427.315577
955.500266	2427.315577
955.800706	2399.589231
956.101108	2487.809423
956.401472	2495.371154
956.701798	2507.974038
957.002087	2442.439038
957.302337	2535.700385
957.602550	2462.603654
957.902724	2533.179808
958.202861	2447.480192
958.502960	2495.371154
958.803022	2513.015192
959.103045	2485.288846
959.403031	2510.494615
959.702979	2482.768269
960.002889	2518.056346
960.302762	2530.659231
960.602596	2452.521346
960.902393	2495.371154
961.202153	2444.959615
961.501875	2482.768269
961.801559	2460.083077
962.101205	2434.877308
962.400814	2467.644808
962.700385	2507.974038
962.999918	2495.371154
963.299414	2520.576923
963.598873	2543.262115
963.898293	2417.233269
964.197677	2513.015192
964.497022	2457.562500
964.796331	2475.206538
965.095601	2470.165385
965.394835	2538.220962
965.694030	2485.288846
965.993189	2513.015192
966.292309	2447.480192
966.591393	2434.877308
966.890439	2568.467885
967.189447	2487.809423
967.488419	2525.618077
967.787353	2523.097500
968.086249	2538.220962
968.385108	2482.768269
968.683930	2447.480192
968.982714	2563.426731
969.281462	2409.671538
969.580172	2497.891731
969.878844	2550.823846
970.177480	2563.426731
970.476078	2495.371154
970.774639	2545.782692
971.073162	2462.603654
971.371649	2515.535769
971.670098	2465.124231
971.968510	2497.891731
972.266885	2447.480192
972.565223	2424.795000
972.863524	2518.056346
973.161788	2487.809423
973.460014	2523.097500
973.758204	2487.809423
974.056356	2427.315577
974.354471	2543.262115
974.652550	2538.220962
974.950591	2490.330000
975.248595	2472.685962
975.546563	2533.179808
975.844493	2424.795000
976.142386	2487.809423
976.440243	2626.441154
976.738062	2414.712692
977.035845	2465.124231
977.333590	2462.603654
977.631299	2427.315577
977.928971	2467.644808
978.226606	2467.644808
978.524204	2523.097500
978.821765	2586.111923
979.119290	2447.480192
979.416777	2487.809423
979.714228	2457.562500
980.011642	2470.165385
980.309020	2477.727115
980.606360	2507.974038
980.903664	2457.562500
981.200931	2386.986346
981.498162	2470.165385
981.795356	2518.056346
982.092513	2513.015192
982.389633	2533.179808
982.686717	2492.850577
982.983764	2500.412308
983.280775	2447.480192
983.577749	2485.288846
983.874686	2480.247692
984.171587	2505.453462
984.468451	2465.124231
984.765279	2513.015192
985.062070	2482.768269
985.358824	2515.535769
985.655543	2437.397885
985.952224	2513.015192
986.248869	2475.206538
986.545478	2460.083077
986.842050	2437.397885
987.138586	2538.220962
987.435086	2510.494615
987.731549	2437.397885
988.027975	2470.165385
988.324366	2518.056346
988.620719	2513.015192
988.917037	2545.782692
989.213318	2533.179808
989.509563	2505.453462
989.805772	2432.356731
990.101944	2500.412308
990.398080	2487.809423
990.694180	2495.371154
990.990244	2497.891731
991.286271	2424.795000
991.582262	2530.659231
991.878217	2487.809423
992.174136	2502.932885
992.470019	2467.644808
992.765865	2538.220962
993.061676	2460.083077
993.357450	2462.603654
993.653188	2455.041923
993.948890	2467.644808
994.244556	2437.397885
994.540186	2530.659231
994.835780	2490.330000
995.131337	2412.192115
995.426859	2412.192115
995.722345	2492.850577
996.017795	2409.671538
996.313208	2490.330000
996.608586	2525.618077
996.903928	2455.041923
997.199234	2520.576923
997.494504	2530.659231
997.789738	2505.453462
998.084936	2472.685962
998.380099	2477.727115
998.675225	2560.906154
998.970316	2480.247692
999.265371	2518.056346
999.560390	2434.877308
999.855373	2563.426731
1000.150320	2495.371154
1000.445232	2429.836154
1000.740108	2482.768269
1001.034948	2533.179808
1001.329752	2510.494615
1001.624521	2432.356731
1001.919254	2424.795000
1002.213951	2505.453462
1002.508613	2475.206538
1002.803239	2505.453462
1003.097829	2429.836154
1003.392384	2513.015192
1003.686903	2507.974038
1003.981386	2492.850577
1004.275834	2457.562500
1004.570246	2596.194231
1004.864623	2450.000769
1005.158964	2543.262115
1005.453270	2414.712692
1005.747540	2518.056346
1006.041775	2533.179808
1006.335974	2475.206538
1006.630138	2424.795000
1006.924266	2442.439038
1007.218359	2447.480192
1007.512416	2439.918462
1007.806438	2467.644808
1008.100425	2477.727115
1008.394376	2500.412308
1008.688292	2492.850577
1008.982172	2480.247692
1009.276017	2407.150962
1009.569827	2533.179808
1009.863602	2419.753846
1010.157341	2414.712692
1010.451045	2535.700385
1010.744714	2492.850577
1011.038347	2465.124231
1011.331945	2455.041923
1011.625508	2462.603654
1011.919036	2497.891731
1012.212528	2490.330000
1012.505986	2427.315577
1012.799408	2467.644808
1013.092795	2424.795000
1013.386147	2497.891731
1013.679464	2495.371154
1013.972745	2513.015192
1014.265992	2502.932885
1014.559204	2487.809423
1014.852380	2437.397885
1015.145521	2462.603654
1015.438628	2369.342308
1015.731699	2520.576923
1016.024736	2397.068654
1016.317737	2407.150962
1016.610703	2434.877308
1016.903635	2530.659231
1017.196531	2404.630385
1017.489393	2467.644808
1017.782219	2507.974038
1018.075011	2477.727115
1018.367768	2505.453462
1018.660490	2371.862885
1018.953177	2371.862885
1019.245829	2371.862885
