Dividing Wavelength (nm)	Counts (n)	Blue Motor Position (mm): 0.100000	Red Motor Position (mm): 0.000000	
326.493990	2114.764038
326.888308	2114.764038
327.282561	2114.764038
327.676750	2026.543846
328.070874	2039.146731
328.464933	2024.023269
328.858929	2092.078846
329.252859	2074.434808
329.646726	2016.461538
330.040528	2097.120000
330.434265	2139.969808
330.827938	2124.846346
331.221547	2220.628269
331.615091	2162.655000
332.008571	2162.655000
332.401986	2263.478077
332.795338	2205.504808
333.188625	2147.531538
333.581847	2250.875192
333.975006	2296.245577
334.368100	2200.463654
334.761129	2321.451346
335.154095	2354.218846
335.546996	2364.301154
335.939833	2386.986346
336.332606	2329.013077
336.725315	2455.041923
337.117960	2497.891731
337.510540	2402.109808
337.903056	2381.945192
338.295508	2379.424615
338.687896	2432.356731
339.080220	2482.768269
339.472480	2490.330000
339.864676	2455.041923
340.256807	2530.659231
340.648875	2424.795000
341.040879	2570.988462
341.432818	2485.288846
341.824694	2462.603654
342.216506	2490.330000
342.608253	2427.315577
342.999937	2515.535769
343.391557	2417.233269
343.783113	2555.865000
344.174605	2530.659231
344.566033	2472.685962
344.957397	2472.685962
345.348697	2477.727115
345.739934	2437.397885
346.131106	2465.124231
346.522215	2419.753846
346.913260	2480.247692
347.304241	2397.068654
347.695159	2427.315577
348.086012	2457.562500
348.476802	2450.000769
348.867528	2455.041923
349.258191	2442.439038
349.648789	2442.439038
350.039324	2412.192115
350.429796	2510.494615
350.820203	2427.315577
351.210548	2465.124231
351.600828	2419.753846
351.991045	2399.589231
352.381198	2495.371154
352.771288	2341.615962
353.161314	2482.768269
353.551276	2419.753846
353.941175	2450.000769
354.331010	2502.932885
354.720782	2439.918462
355.110490	2439.918462
355.500135	2450.000769
355.889717	2475.206538
356.279235	2480.247692
356.668689	2439.918462
357.058080	2379.424615
357.447408	2465.124231
357.836672	2442.439038
358.225873	2394.548077
358.615010	2510.494615
359.004084	2374.383462
359.393095	2331.533654
359.782043	2490.330000
360.170927	2346.657115
360.559748	2500.412308
360.948505	2407.150962
361.337199	2455.041923
361.725830	2455.041923
362.114398	2513.015192
362.502903	2404.630385
362.891344	2487.809423
363.279722	2457.562500
363.668037	2447.480192
364.056289	2354.218846
364.444478	2412.192115
364.832603	2417.233269
365.220665	2407.150962
365.608665	2502.932885
365.996601	2482.768269
366.384474	2505.453462
366.772284	2422.274423
367.160031	2381.945192
367.547715	2429.836154
367.935336	2490.330000
368.322893	2427.315577
368.710388	2434.877308
369.097820	2424.795000
369.485189	2409.671538
369.872495	2475.206538
370.259738	2432.356731
370.646918	2482.768269
371.034035	2346.657115
371.421090	2465.124231
371.808081	2533.179808
372.195010	2434.877308
372.581875	2455.041923
372.968678	2482.768269
373.355418	2417.233269
373.742096	2485.288846
374.128710	2467.644808
374.515262	2492.850577
374.901751	2424.795000
375.288177	2528.138654
375.674540	2417.233269
376.060841	2492.850577
376.447079	2525.618077
376.833254	2422.274423
377.219367	2523.097500
377.605417	2432.356731
377.991404	2399.589231
378.377329	2447.480192
378.763191	2510.494615
379.148991	2434.877308
379.534727	2465.124231
379.920402	2389.506923
380.306013	2457.562500
380.691563	2444.959615
381.077049	2467.644808
381.462474	2518.056346
381.847835	2434.877308
382.233134	2487.809423
382.618371	2462.603654
383.003545	2502.932885
383.388657	2457.562500
383.773706	2417.233269
384.158693	2472.685962
384.543618	2480.247692
384.928480	2535.700385
385.313280	2462.603654
385.698017	2427.315577
386.082692	2429.836154
386.467305	2424.795000
386.851856	2523.097500
387.236344	2455.041923
387.620770	2523.097500
388.005133	2344.136538
388.389435	2497.891731
388.773674	2485.288846
389.157851	2518.056346
389.541965	2460.083077
389.926018	2457.562500
390.310008	2447.480192
390.693936	2457.562500
391.077802	2543.262115
391.461606	2490.330000
391.845348	2467.644808
392.229027	2482.768269
392.612645	2386.986346
392.996200	2500.412308
393.379694	2485.288846
393.763125	2407.150962
394.146494	2450.000769
394.529801	2492.850577
394.913047	2450.000769
395.296230	2533.179808
395.679351	2492.850577
396.062410	2550.823846
396.445408	2480.247692
396.828343	2434.877308
397.211217	2460.083077
397.594028	2535.700385
397.976778	2379.424615
398.359466	2555.865000
398.742092	2477.727115
399.124656	2470.165385
399.507158	2482.768269
399.889598	2470.165385
400.271977	2346.657115
400.654294	2507.974038
401.036549	2480.247692
401.418742	2429.836154
401.800874	2470.165385
402.182944	2568.467885
402.564952	2417.233269
402.946898	2500.412308
403.328783	2419.753846
403.710606	2424.795000
404.092367	2477.727115
404.474067	2457.562500
404.855705	2495.371154
405.237282	2409.671538
405.618797	2417.233269
406.000250	2462.603654
406.381642	2603.755962
406.762972	2452.521346
407.144240	2455.041923
407.525447	2346.657115
407.906593	2530.659231
408.287677	2460.083077
408.668700	2560.906154
409.049661	2422.274423
409.430560	2427.315577
409.811399	2429.836154
410.192176	2490.330000
410.572891	2480.247692
410.953545	2470.165385
411.334138	2447.480192
411.714669	2510.494615
412.095139	2414.712692
412.475547	2500.412308
412.855894	2490.330000
413.236180	2407.150962
413.616405	2500.412308
413.996568	2507.974038
414.376670	2530.659231
414.756711	2434.877308
415.136691	2442.439038
415.516609	2550.823846
415.896466	2422.274423
416.276262	2505.453462
416.655997	2432.356731
417.035670	2490.330000
417.415283	2475.206538
417.794834	2520.576923
418.174324	2417.233269
418.553753	2515.535769
418.933121	2399.589231
419.312428	2528.138654
419.691674	2490.330000
420.070859	2397.068654
420.449983	2422.274423
420.829045	2581.070769
421.208047	2417.233269
421.586988	2495.371154
421.965867	2528.138654
422.344686	2450.000769
422.723444	2470.165385
423.102141	2402.109808
423.480777	2502.932885
423.859352	2477.727115
424.237866	2540.741538
424.616319	2490.330000
424.994712	2525.618077
425.373044	2485.288846
425.751314	2467.644808
426.129524	2515.535769
426.507673	2500.412308
426.885762	2467.644808
427.263789	2507.974038
427.641756	2356.739423
428.019662	2513.015192
428.397508	2560.906154
428.775292	2452.521346
429.153016	2437.397885
429.530679	2528.138654
429.908282	2500.412308
430.285824	2470.165385
430.663305	2490.330000
431.040726	2442.439038
431.418086	2563.426731
431.795385	2455.041923
432.172624	2530.659231
432.549802	2535.700385
432.926920	2495.371154
433.303977	2495.371154
433.680974	2452.521346
434.057910	2510.494615
434.434786	2477.727115
434.811601	2452.521346
435.188355	2528.138654
435.565050	2465.124231
435.941683	2460.083077
436.318257	2472.685962
436.694770	2450.000769
437.071222	2492.850577
437.447614	2452.521346
437.823946	2450.000769
438.200218	2414.712692
438.576429	2550.823846
438.952580	2429.836154
439.328670	2485.288846
439.704700	2515.535769
440.080670	2523.097500
440.456580	2525.618077
440.832429	2439.918462
441.208218	2497.891731
441.583947	2422.274423
441.959616	2500.412308
442.335224	2502.932885
442.710773	2475.206538
443.086261	2487.809423
443.461689	2450.000769
443.837057	2475.206538
444.212365	2505.453462
444.587612	2432.356731
444.962800	2513.015192
445.337927	2434.877308
445.712995	2528.138654
446.088002	2386.986346
446.462949	2510.494615
446.837837	2475.206538
447.212664	2528.138654
447.587431	2507.974038
447.962139	2533.179808
448.336786	2485.288846
448.711374	2558.385577
449.085901	2563.426731
449.460369	2513.015192
449.834776	2480.247692
450.209124	2457.562500
450.583412	2492.850577
450.957640	2450.000769
451.331808	2450.000769
451.705917	2616.358846
452.079965	2518.056346
452.453954	2455.041923
452.827883	2414.712692
453.201752	2399.589231
453.575562	2407.150962
453.949311	2492.850577
454.323001	2452.521346
454.696632	2502.932885
455.070202	2475.206538
455.443713	2548.303269
455.817164	2480.247692
456.190556	2480.247692
456.563888	2455.041923
456.937160	2467.644808
457.310373	2457.562500
457.683526	2490.330000
458.056619	2450.000769
458.429653	2422.274423
458.802628	2417.233269
459.175542	2568.467885
459.548398	2540.741538
459.921194	2429.836154
460.293930	2520.576923
460.666607	2392.027500
461.039224	2497.891731
461.411782	2450.000769
461.784280	2475.206538
462.156719	2439.918462
462.529099	2555.865000
462.901419	2543.262115
463.273680	2510.494615
463.645882	2492.850577
464.018024	2455.041923
464.390106	2482.768269
464.762130	2545.782692
465.134094	2530.659231
465.505999	2480.247692
465.877845	2432.356731
466.249631	2530.659231
466.621358	2502.932885
466.993026	2480.247692
467.364634	2480.247692
467.736184	2434.877308
468.107674	2540.741538
468.479105	2399.589231
468.850477	2525.618077
469.221790	2520.576923
469.593043	2457.562500
469.964238	2369.342308
470.335373	2500.412308
470.706449	2482.768269
471.077467	2470.165385
471.448425	2467.644808
471.819324	2490.330000
472.190164	2510.494615
472.560945	2444.959615
472.931667	2540.741538
473.302330	2543.262115
473.672934	2465.124231
474.043479	2601.235385
474.413965	2437.397885
474.784393	2495.371154
475.154761	2475.206538
475.525070	2487.809423
475.895321	2409.671538
476.265513	2518.056346
476.635645	2447.480192
477.005719	2538.220962
477.375734	2507.974038
477.745691	2490.330000
478.115588	2553.344423
478.485427	2457.562500
478.855207	2523.097500
479.224928	2548.303269
479.594591	2520.576923
479.964194	2505.453462
480.333739	2467.644808
480.703226	2475.206538
481.072653	2528.138654
481.442022	2606.276538
481.811333	2487.809423
482.180584	2538.220962
482.549777	2533.179808
482.918912	2457.562500
483.287988	2543.262115
483.657005	2538.220962
484.025964	2533.179808
484.394864	2525.618077
484.763706	2558.385577
485.132489	2530.659231
485.501213	2528.138654
485.869879	2470.165385
486.238487	2492.850577
486.607036	2558.385577
486.975527	2505.453462
487.343959	2513.015192
487.712333	2490.330000
488.080648	2500.412308
488.448905	2477.727115
488.817104	2502.932885
489.185244	2485.288846
489.553326	2545.782692
489.921350	2505.453462
490.289315	2518.056346
490.657222	2470.165385
491.025070	2457.562500
491.392861	2452.521346
491.760593	2513.015192
492.128267	2452.521346
492.495883	2409.671538
492.863440	2548.303269
493.230939	2495.371154
493.598380	2485.288846
493.965763	2540.741538
494.333088	2444.959615
494.700354	2477.727115
495.067563	2432.356731
495.434713	2457.562500
495.801805	2500.412308
496.168839	2523.097500
496.535815	2452.521346
496.902733	2495.371154
497.269593	2563.426731
497.636395	2444.959615
498.003139	2429.836154
498.369825	2434.877308
498.736453	2523.097500
499.103023	2424.795000
499.469535	2482.768269
499.835989	2545.782692
500.202385	2513.015192
500.568723	2475.206538
500.935003	2492.850577
501.301226	2470.165385
501.667390	2492.850577
502.033497	2460.083077
502.399546	2507.974038
502.765537	2475.206538
503.131470	2545.782692
503.497345	2485.288846
503.863163	2470.165385
504.228923	2538.220962
504.594625	2492.850577
504.960269	2502.932885
505.325856	2477.727115
505.691385	2470.165385
506.056856	2482.768269
506.422270	2450.000769
506.787625	2550.823846
507.152924	2513.015192
507.518164	2540.741538
507.883347	2460.083077
508.248472	2490.330000
508.613540	2460.083077
508.978550	2500.412308
509.343503	2576.029615
509.708398	2570.988462
510.073236	2475.206538
510.438016	2490.330000
510.802738	2510.494615
511.167403	2533.179808
511.532010	2495.371154
511.896561	2452.521346
512.261053	2495.371154
512.625488	2460.083077
512.989866	2525.618077
513.354186	2507.974038
513.718449	2434.877308
514.082655	2507.974038
514.446803	2540.741538
514.810894	2477.727115
515.174927	2497.891731
515.538904	2507.974038
515.902822	2497.891731
516.266684	2424.795000
516.630488	2518.056346
516.994235	2487.809423
517.357925	2472.685962
517.721558	2487.809423
518.085133	2543.262115
518.448651	2482.768269
518.812112	2497.891731
519.175516	2450.000769
519.538863	2513.015192
519.902152	2515.535769
520.265385	2450.000769
520.628560	2422.274423
520.991678	2450.000769
521.354739	2495.371154
521.717743	2462.603654
522.080690	2515.535769
522.443580	2500.412308
522.806413	2455.041923
523.169189	2457.562500
523.531908	2530.659231
523.894569	2417.233269
524.257174	2404.630385
524.619722	2477.727115
524.982213	2568.467885
525.344647	2470.165385
525.707025	2507.974038
526.069345	2523.097500
526.431608	2568.467885
526.793815	2427.315577
527.155964	2455.041923
527.518057	2568.467885
527.880093	2475.206538
528.242072	2568.467885
528.603995	2467.644808
528.965860	2523.097500
529.327669	2583.591346
529.689421	2528.138654
530.051117	2462.603654
530.412755	2472.685962
530.774337	2510.494615
531.135862	2505.453462
531.497331	2548.303269
531.858743	2515.535769
532.220098	2495.371154
532.581396	2490.330000
532.942638	2548.303269
533.303824	2442.439038
533.664953	2507.974038
534.026025	2553.344423
534.387040	2500.412308
534.747999	2487.809423
535.108902	2550.823846
535.469748	2487.809423
535.830537	2444.959615
536.191270	2485.288846
536.551947	2598.714808
536.912567	2510.494615
537.273131	2523.097500
537.633638	2467.644808
537.994089	2497.891731
538.354483	2457.562500
538.714821	2439.918462
539.075103	2500.412308
539.435328	2563.426731
539.795497	2513.015192
540.155609	2558.385577
540.515665	2510.494615
540.875665	2465.124231
541.235609	2470.165385
541.595496	2500.412308
541.955328	2513.015192
542.315102	2515.535769
542.674821	2507.974038
543.034483	2465.124231
543.394090	2500.412308
543.753640	2535.700385
544.113134	2543.262115
544.472571	2548.303269
544.831953	2472.685962
545.191278	2530.659231
545.550548	2467.644808
545.909761	2540.741538
546.268918	2523.097500
546.628019	2500.412308
546.987064	2500.412308
547.346053	2462.603654
547.704986	2525.618077
548.063863	2450.000769
548.422684	2515.535769
548.781449	2439.918462
549.140158	2520.576923
549.498811	2487.809423
549.857408	2470.165385
550.215949	2482.768269
550.574434	2490.330000
550.932864	2530.659231
551.291237	2432.356731
551.649555	2535.700385
552.007817	2450.000769
552.366022	2530.659231
552.724173	2570.988462
553.082267	2444.959615
553.440305	2528.138654
553.798288	2525.618077
554.156215	2485.288846
554.514086	2510.494615
554.871902	2538.220962
555.229661	2457.562500
555.587365	2513.015192
555.945014	2518.056346
556.302606	2510.494615
556.660143	2502.932885
557.017625	2588.632500
557.375050	2555.865000
557.732421	2477.727115
558.089735	2455.041923
558.446994	2540.741538
558.804197	2467.644808
559.161345	2467.644808
559.518437	2502.932885
559.875474	2447.480192
560.232455	2434.877308
560.589381	2543.262115
560.946251	2492.850577
561.303065	2570.988462
561.659825	2492.850577
562.016528	2548.303269
562.373177	2460.083077
562.729770	2455.041923
563.086307	2515.535769
563.442789	2535.700385
563.799216	2437.397885
564.155587	2530.659231
564.511904	2407.150962
564.868164	2538.220962
565.224370	2513.015192
565.580520	2462.603654
565.936615	2505.453462
566.292654	2513.015192
566.648638	2457.562500
567.004567	2555.865000
567.360441	2475.206538
567.716260	2568.467885
568.072023	2535.700385
568.427732	2407.150962
568.783385	2553.344423
569.138982	2412.192115
569.494525	2538.220962
569.850013	2513.015192
570.205445	2467.644808
570.560823	2490.330000
570.916145	2535.700385
571.271412	2462.603654
571.626625	2535.700385
571.981782	2412.192115
572.336884	2424.795000
572.691931	2507.974038
573.046923	2606.276538
573.401860	2442.439038
573.756743	2576.029615
574.111570	2397.068654
574.466342	2513.015192
574.821059	2447.480192
575.175722	2510.494615
575.530330	2538.220962
575.884882	2548.303269
576.239380	2505.453462
576.593823	2583.591346
576.948211	2429.836154
577.302544	2477.727115
577.656823	2548.303269
578.011047	2533.179808
578.365216	2480.247692
578.719330	2419.753846
579.073389	2523.097500
579.427394	2573.509038
579.781344	2520.576923
580.135239	2490.330000
580.489080	2485.288846
580.842866	2520.576923
581.196597	2470.165385
581.550273	2586.111923
581.903895	2455.041923
582.257463	2528.138654
582.610975	2525.618077
582.964434	2520.576923
583.317837	2502.932885
583.671186	2437.397885
584.024481	2513.015192
584.377721	2583.591346
584.730906	2510.494615
585.084037	2535.700385
585.437113	2492.850577
585.790135	2475.206538
586.143103	2490.330000
586.496016	2490.330000
586.848874	2507.974038
587.201679	2515.535769
587.554428	2528.138654
587.907124	2444.959615
588.259765	2450.000769
588.612352	2518.056346
588.964884	2528.138654
589.317362	2548.303269
589.669786	2422.274423
590.022155	2470.165385
590.374470	2487.809423
590.726731	2573.509038
591.078937	2442.439038
591.431090	2475.206538
591.783188	2535.700385
592.135232	2518.056346
592.487222	2450.000769
592.839157	2470.165385
593.191038	2437.397885
593.542866	2513.015192
593.894639	2502.932885
594.246358	2565.947308
594.598022	2576.029615
594.949633	2482.768269
595.301190	2480.247692
595.652692	2455.041923
596.004141	2533.179808
596.355535	2477.727115
596.706876	2616.358846
597.058162	2470.165385
597.409395	2533.179808
597.760573	2530.659231
598.111698	2558.385577
598.462768	2437.397885
598.813785	2535.700385
599.164748	2565.947308
599.515657	2460.083077
599.866511	2513.015192
600.217312	2513.015192
600.568060	2533.179808
600.918753	2497.891731
601.269392	2555.865000
601.619978	2515.535769
601.970510	2475.206538
602.320988	2460.083077
602.671412	2457.562500
603.021783	2513.015192
603.372100	2477.727115
603.722363	2487.809423
604.072572	2480.247692
604.422728	2487.809423
604.772830	2576.029615
605.122878	2513.015192
605.472872	2482.768269
605.822813	2480.247692
606.172701	2492.850577
606.522534	2462.603654
606.872314	2485.288846
607.222041	2450.000769
607.571714	2480.247692
607.921333	2460.083077
608.270899	2576.029615
608.620411	2442.439038
608.969870	2631.482308
609.319276	2439.918462
609.668627	2444.959615
610.017926	2513.015192
610.367171	2515.535769
610.716362	2540.741538
611.065500	2550.823846
611.414585	2538.220962
611.763616	2475.206538
612.112594	2548.303269
612.461518	2555.865000
612.810389	2565.947308
613.159207	2523.097500
613.507971	2442.439038
613.856682	2588.632500
614.205340	2507.974038
614.553945	2452.521346
614.902496	2545.782692
615.250994	2515.535769
615.599439	2523.097500
615.947830	2563.426731
616.296169	2475.206538
616.644454	2528.138654
616.992686	2563.426731
617.340864	2510.494615
617.688990	2535.700385
618.037063	2472.685962
618.385082	2533.179808
618.733048	2576.029615
619.080961	2485.288846
619.428821	2472.685962
619.776628	2601.235385
620.124382	2505.453462
620.472083	2427.315577
620.819731	2462.603654
621.167326	2439.918462
621.514868	2485.288846
621.862357	2583.591346
622.209793	2578.550192
622.557176	2434.877308
622.904506	2465.124231
623.251783	2518.056346
623.599007	2409.671538
623.946179	2548.303269
624.293297	2492.850577
624.640363	2497.891731
624.987376	2603.755962
625.334336	2485.288846
625.681243	2548.303269
626.028097	2565.947308
626.374899	2477.727115
626.721647	2530.659231
627.068343	2548.303269
627.414987	2553.344423
627.761577	2487.809423
628.108115	2533.179808
628.454600	2535.700385
628.801032	2553.344423
629.147412	2444.959615
629.493739	2417.233269
629.840014	2470.165385
630.186236	2518.056346
630.532405	2480.247692
630.878521	2518.056346
631.224585	2593.673654
631.570597	2545.782692
631.916556	2513.015192
632.262462	2429.836154
632.608316	2563.426731
632.954117	2510.494615
633.299866	2447.480192
633.645562	2530.659231
633.991206	2495.371154
634.336797	2560.906154
634.682336	2515.535769
635.027823	2523.097500
635.373257	2450.000769
635.718639	2472.685962
636.063968	2530.659231
636.409245	2492.850577
636.754470	2550.823846
637.099642	2505.453462
637.444762	2434.877308
637.789829	2535.700385
638.134845	2470.165385
638.479808	2510.494615
638.824719	2513.015192
639.169577	2482.768269
639.514383	2543.262115
639.859137	2424.795000
640.203839	2470.165385
640.548489	2535.700385
640.893086	2520.576923
641.237632	2525.618077
641.582125	2492.850577
641.926566	2490.330000
642.270955	2422.274423
642.615292	2530.659231
642.959576	2528.138654
643.303809	2490.330000
643.647990	2515.535769
643.992118	2444.959615
644.336195	2475.206538
644.680219	2482.768269
645.024192	2510.494615
645.368112	2492.850577
645.711981	2452.521346
646.055797	2482.768269
646.399562	2581.070769
646.743274	2535.700385
647.086935	2455.041923
647.430544	2500.412308
647.774101	2465.124231
648.117606	2439.918462
648.461059	2462.603654
648.804460	2513.015192
649.147810	2470.165385
649.491108	2518.056346
649.834354	2450.000769
650.177548	2535.700385
650.520690	2530.659231
650.863781	2465.124231
651.206820	2523.097500
651.549807	2485.288846
651.892742	2553.344423
652.235626	2520.576923
652.578458	2472.685962
652.921238	2460.083077
653.263967	2518.056346
653.606644	2475.206538
653.949269	2495.371154
654.291843	2500.412308
654.634365	2560.906154
654.976836	2477.727115
655.319255	2477.727115
655.661622	2402.109808
656.003938	2515.535769
656.346203	2530.659231
656.688416	2397.068654
657.030577	2523.097500
657.372687	2455.041923
657.714746	2523.097500
658.056753	2581.070769
658.398708	2492.850577
658.740612	2550.823846
659.082465	2533.179808
659.424266	2530.659231
659.766016	2535.700385
660.107715	2460.083077
660.449362	2545.782692
660.790958	2550.823846
661.132503	2450.000769
661.473996	2502.932885
661.815438	2490.330000
662.156829	2543.262115
662.498168	2545.782692
662.839456	2480.247692
663.180693	2455.041923
663.521879	2475.206538
663.863013	2480.247692
664.204097	2563.426731
664.545129	2450.000769
664.886110	2523.097500
665.227040	2452.521346
665.567918	2535.700385
665.908746	2510.494615
666.249522	2525.618077
666.590248	2576.029615
666.930922	2485.288846
667.271545	2462.603654
667.612118	2555.865000
667.952639	2533.179808
668.293109	2442.439038
668.633528	2477.727115
668.973896	2480.247692
669.314213	2558.385577
669.654480	2555.865000
669.994695	2480.247692
670.334859	2538.220962
670.674973	2490.330000
671.015035	2558.385577
671.355047	2507.974038
671.695008	2470.165385
672.034918	2482.768269
672.374777	2525.618077
672.714585	2447.480192
673.054342	2523.097500
673.394049	2424.795000
673.733705	2510.494615
674.073310	2548.303269
674.412864	2492.850577
674.752368	2419.753846
675.091820	2507.974038
675.431223	2540.741538
675.770574	2507.974038
676.109875	2505.453462
676.449125	2444.959615
676.788324	2502.932885
677.127473	2414.712692
677.466571	2427.315577
677.805619	2427.315577
678.144616	2553.344423
678.483562	2540.741538
678.822458	2497.891731
679.161303	2558.385577
679.500098	2523.097500
679.838842	2535.700385
680.177535	2470.165385
680.516179	2467.644808
680.854771	2487.809423
681.193314	2500.412308
681.531805	2502.932885
681.870247	2520.576923
682.208638	2477.727115
682.546978	2447.480192
682.885268	2515.535769
683.223508	2439.918462
683.561697	2455.041923
683.899836	2502.932885
684.237925	2492.850577
684.575963	2487.809423
684.913951	2455.041923
685.251889	2482.768269
685.589776	2581.070769
685.927614	2429.836154
686.265401	2528.138654
686.603137	2472.685962
686.940824	2475.206538
687.278460	2485.288846
687.616046	2439.918462
687.953582	2442.439038
688.291068	2505.453462
688.628504	2548.303269
688.965889	2412.192115
689.303224	2480.247692
689.640510	2530.659231
689.977745	2513.015192
690.314930	2422.274423
690.652065	2570.988462
690.989150	2515.535769
691.326185	2460.083077
691.663170	2515.535769
692.000105	2535.700385
692.336990	2581.070769
692.673825	2608.797115
693.010610	2591.153077
693.347345	2472.685962
693.684030	2432.356731
694.020665	2515.535769
694.357251	2472.685962
694.693786	2525.618077
695.030272	2455.041923
695.366707	2500.412308
695.703093	2477.727115
696.039429	2540.741538
696.375716	2487.809423
696.711952	2533.179808
697.048139	2480.247692
697.384276	2427.315577
697.720363	2465.124231
698.056400	2518.056346
698.392388	2530.659231
698.728326	2485.288846
699.064214	2513.015192
699.400053	2548.303269
699.735842	2528.138654
700.071581	2434.877308
700.407270	2543.262115
700.742910	2576.029615
701.078501	2573.509038
701.414042	2563.426731
701.749533	2497.891731
702.084974	2500.412308
702.420366	2497.891731
702.755709	2555.865000
703.091002	2545.782692
703.426246	2563.426731
703.761440	2520.576923
704.096584	2452.521346
704.431679	2477.727115
704.766725	2477.727115
705.101721	2530.659231
705.436668	2460.083077
705.771565	2500.412308
706.106413	2518.056346
706.441212	2573.509038
706.775961	2510.494615
707.110661	2535.700385
707.445311	2510.494615
707.779913	2462.603654
708.114465	2465.124231
708.448967	2510.494615
708.783421	2417.233269
709.117825	2525.618077
709.452180	2485.288846
709.786485	2452.521346
710.120742	2535.700385
710.454949	2442.439038
710.789107	2492.850577
711.123216	2533.179808
711.457275	2450.000769
711.791286	2533.179808
712.125247	2520.576923
712.459159	2485.288846
712.793023	2429.836154
713.126837	2450.000769
713.460602	2439.918462
713.794318	2535.700385
714.127985	2497.891731
714.461602	2475.206538
714.795171	2485.288846
715.128691	2505.453462
715.462162	2427.315577
715.795584	2548.303269
716.128957	2462.603654
716.462281	2507.974038
716.795556	2482.768269
717.128782	2462.603654
717.461960	2437.397885
717.795088	2570.988462
718.128167	2477.727115
718.461198	2480.247692
718.794180	2465.124231
719.127113	2528.138654
719.459997	2525.618077
719.792833	2412.192115
720.125619	2545.782692
720.458357	2477.727115
720.791046	2392.027500
721.123686	2392.027500
721.456278	2510.494615
721.788821	2523.097500
722.121315	2497.891731
722.453761	2485.288846
722.786158	2434.877308
723.118506	2555.865000
723.450805	2500.412308
723.783056	2588.632500
724.115259	2492.850577
724.447412	2507.974038
724.779518	2457.562500
725.111574	2576.029615
725.443582	2513.015192
725.775542	2520.576923
726.107453	2402.109808
726.439315	2477.727115
726.771129	2523.097500
727.102895	2510.494615
727.434612	2505.453462
727.766281	2444.959615
728.097901	2568.467885
728.429473	2450.000769
728.760996	2591.153077
729.092471	2477.727115
729.423897	2573.509038
729.755276	2523.097500
730.086606	2490.330000
730.417887	2424.795000
730.749120	2563.426731
731.080305	2424.795000
731.411442	2379.424615
731.742530	2560.906154
732.073570	2518.056346
732.404562	2530.659231
732.735506	2553.344423
733.066401	2510.494615
733.397249	2429.836154
733.728048	2462.603654
734.058798	2455.041923
734.389501	2465.124231
734.720156	2515.535769
735.050762	2460.083077
735.381320	2500.412308
735.711831	2502.932885
736.042293	2482.768269
736.372707	2477.727115
736.703073	2485.288846
737.033391	2485.288846
737.363661	2470.165385
737.693883	2530.659231
738.024056	2528.138654
738.354182	2523.097500
738.684260	2482.768269
739.014290	2545.782692
739.344272	2545.782692
739.674207	2538.220962
740.004093	2535.700385
740.333931	2450.000769
740.663722	2487.809423
740.993464	2528.138654
741.323159	2502.932885
741.652806	2472.685962
741.982405	2460.083077
742.311956	2482.768269
742.641460	2553.344423
742.970915	2490.330000
743.300323	2434.877308
743.629683	2520.576923
743.958996	2500.412308
744.288260	2500.412308
744.617477	2480.247692
744.946647	2513.015192
745.275768	2434.877308
745.604842	2465.124231
745.933869	2505.453462
746.262847	2505.453462
746.591778	2460.083077
746.920662	2513.015192
747.249498	2548.303269
747.578286	2553.344423
747.907027	2437.397885
748.235720	2515.535769
748.564365	2525.618077
748.892963	2533.179808
749.221514	2409.671538
749.550017	2568.467885
749.878473	2477.727115
750.206881	2467.644808
750.535242	2480.247692
750.863555	2465.124231
751.191821	2437.397885
751.520039	2392.027500
751.848210	2528.138654
752.176334	2535.700385
752.504411	2502.932885
752.832440	2432.356731
753.160421	2429.836154
753.488356	2507.974038
753.816243	2492.850577
754.144082	2359.260000
754.471875	2515.535769
754.799620	2495.371154
755.127318	2502.932885
755.454969	2434.877308
755.782572	2530.659231
756.110129	2462.603654
756.437638	2513.015192
756.765100	2495.371154
757.092515	2543.262115
757.419882	2530.659231
757.747203	2500.412308
758.074477	2424.795000
758.401703	2487.809423
758.728882	2455.041923
759.056014	2475.206538
759.383099	2455.041923
759.710138	2568.467885
760.037129	2472.685962
760.364073	2432.356731
760.690970	2422.274423
761.017820	2437.397885
761.344623	2497.891731
761.671379	2485.288846
761.998088	2470.165385
762.324751	2515.535769
762.651366	2467.644808
762.977935	2523.097500
763.304456	2578.550192
763.630931	2530.659231
763.957359	2462.603654
764.283740	2558.385577
764.610074	2616.358846
764.936362	2472.685962
765.262602	2540.741538
765.588796	2429.836154
765.914943	2543.262115
766.241044	2568.467885
766.567097	2444.959615
766.893104	2505.453462
767.219064	2500.412308
767.544978	2530.659231
767.870845	2573.509038
768.196665	2502.932885
768.522438	2523.097500
768.848165	2460.083077
769.173846	2540.741538
769.499479	2444.959615
769.825066	2565.947308
770.150607	2424.795000
770.476101	2455.041923
770.801548	2570.988462
771.126949	2497.891731
771.452303	2487.809423
771.777611	2543.262115
772.102872	2487.809423
772.428087	2500.412308
772.753256	2452.521346
773.078378	2497.891731
773.403453	2439.918462
773.728482	2533.179808
774.053465	2520.576923
774.378401	2450.000769
774.703291	2553.344423
775.028135	2490.330000
775.352932	2495.371154
775.677683	2455.041923
776.002388	2525.618077
776.327046	2434.877308
776.651658	2500.412308
776.976224	2492.850577
777.300743	2553.344423
777.625216	2558.385577
777.949643	2533.179808
778.274024	2455.041923
778.598359	2444.959615
778.922647	2515.535769
779.246889	2518.056346
779.571086	2540.741538
779.895236	2548.303269
780.219339	2548.303269
780.543397	2467.644808
780.867409	2386.986346
781.191374	2429.836154
781.515294	2518.056346
781.839167	2497.891731
782.162995	2467.644808
782.486776	2553.344423
782.810511	2480.247692
783.134201	2573.509038
783.457844	2437.397885
783.781441	2442.439038
784.104993	2581.070769
784.428498	2480.247692
784.751958	2480.247692
785.075372	2497.891731
785.398739	2510.494615
785.722061	2555.865000
786.045337	2460.083077
786.368568	2576.029615
786.691752	2553.344423
787.014891	2555.865000
787.337983	2578.550192
787.661030	2460.083077
787.984031	2518.056346
788.306987	2520.576923
788.629897	2447.480192
788.952760	2507.974038
789.275579	2460.083077
789.598351	2502.932885
789.921078	2470.165385
790.243759	2392.027500
790.566395	2513.015192
790.888984	2374.383462
791.211529	2495.371154
791.534027	2550.823846
791.856480	2374.383462
792.178888	2460.083077
792.501249	2477.727115
792.823566	2543.262115
793.145836	2450.000769
793.468062	2402.109808
793.790241	2540.741538
794.112375	2432.356731
794.434464	2455.041923
794.756507	2455.041923
795.078505	2535.700385
795.400457	2460.083077
795.722364	2389.506923
796.044226	2518.056346
796.366042	2578.550192
796.687812	2523.097500
797.009538	2500.412308
797.331218	2515.535769
797.652852	2467.644808
797.974442	2492.850577
798.295986	2480.247692
798.617484	2596.194231
798.938938	2487.809423
799.260346	2533.179808
799.581709	2439.918462
799.903026	2500.412308
800.224299	2507.974038
800.545526	2543.262115
800.866708	2485.288846
801.187845	2485.288846
801.508936	2581.070769
801.829983	2513.015192
802.150984	2520.576923
802.471940	2462.603654
802.792851	2513.015192
803.113717	2505.453462
803.434538	2520.576923
803.755314	2424.795000
804.076045	2500.412308
804.396731	2465.124231
804.717372	2523.097500
805.037967	2434.877308
805.358518	2543.262115
805.679024	2455.041923
805.999485	2523.097500
806.319901	2465.124231
806.640272	2432.356731
806.960598	2520.576923
807.280879	2442.439038
807.601115	2535.700385
807.921306	2492.850577
808.241453	2475.206538
808.561554	2535.700385
808.881611	2651.646923
809.201623	2623.920577
809.521590	2565.947308
809.841513	2548.303269
810.161390	2492.850577
810.481223	2475.206538
810.801011	2520.576923
811.120755	2452.521346
811.440453	2523.097500
811.760107	2460.083077
812.079716	2442.439038
812.399281	2409.671538
812.718801	2480.247692
813.038276	2510.494615
813.357707	2439.918462
813.677093	2490.330000
813.996434	2444.959615
814.315731	2500.412308
814.634983	2540.741538
814.954191	2475.206538
815.273354	2560.906154
815.592473	2457.562500
815.911547	2515.535769
816.230577	2460.083077
816.549562	2518.056346
816.868502	2500.412308
817.187399	2538.220962
817.506250	2437.397885
817.825058	2550.823846
818.143821	2467.644808
818.462539	2520.576923
818.781213	2447.480192
819.099843	2477.727115
819.418429	2455.041923
819.736970	2437.397885
820.055466	2505.453462
820.373919	2457.562500
820.692327	2507.974038
821.010691	2462.603654
821.329011	2528.138654
821.647286	2477.727115
821.965517	2467.644808
822.283704	2437.397885
822.601847	2480.247692
822.919945	2568.467885
823.237999	2558.385577
823.556010	2467.644808
823.873976	2513.015192
824.191897	2429.836154
824.509775	2507.974038
824.827609	2507.974038
825.145398	2386.986346
825.463144	2520.576923
825.780845	2450.000769
826.098502	2518.056346
826.416116	2513.015192
826.733685	2518.056346
827.051210	2424.795000
827.368692	2495.371154
827.686129	2437.397885
828.003522	2570.988462
828.320872	2518.056346
828.638177	2437.397885
828.955439	2533.179808
829.272656	2507.974038
829.589830	2540.741538
829.906960	2518.056346
830.224046	2487.809423
830.541088	2480.247692
830.858086	2412.192115
831.175041	2480.247692
831.491952	2477.727115
831.808819	2563.426731
832.125642	2500.412308
832.442421	2510.494615
832.759157	2450.000769
833.075849	2427.315577
833.392497	2434.877308
833.709101	2439.918462
834.025662	2485.288846
834.342179	2500.412308
834.658653	2467.644808
834.975083	2402.109808
835.291469	2565.947308
835.607811	2467.644808
835.924110	2424.795000
836.240366	2457.562500
836.556578	2439.918462
836.872746	2533.179808
837.188871	2427.315577
837.504952	2417.233269
837.820990	2523.097500
838.136984	2429.836154
838.452935	2470.165385
838.768842	2518.056346
839.084706	2386.986346
839.400526	2560.906154
839.716303	2465.124231
840.032037	2439.918462
840.347727	2523.097500
840.663373	2477.727115
840.978977	2414.712692
841.294537	2523.097500
841.610054	2480.247692
841.925527	2450.000769
842.240957	2482.768269
842.556344	2548.303269
842.871687	2460.083077
843.186987	2495.371154
843.502244	2520.576923
843.817458	2500.412308
844.132629	2528.138654
844.447756	2510.494615
844.762840	2497.891731
845.077881	2570.988462
845.392879	2490.330000
845.707833	2392.027500
846.022745	2570.988462
846.337613	2578.550192
846.652438	2455.041923
846.967221	2601.235385
847.281960	2455.041923
847.596656	2394.548077
847.911309	2432.356731
848.225919	2497.891731
848.540485	2530.659231
848.855009	2553.344423
849.169490	2467.644808
849.483928	2480.247692
849.798323	2518.056346
850.112675	2460.083077
850.426984	2419.753846
850.741251	2477.727115
851.055474	2525.618077
851.369654	2558.385577
851.683792	2520.576923
851.997887	2450.000769
852.311938	2447.480192
852.625947	2492.850577
852.939914	2528.138654
853.253837	2480.247692
853.567718	2510.494615
853.881555	2558.385577
854.195350	2455.041923
854.509103	2477.727115
854.822812	2424.795000
855.136479	2444.959615
855.450103	2482.768269
855.763685	2507.974038
856.077224	2487.809423
856.390720	2578.550192
856.704173	2563.426731
857.017584	2439.918462
857.330953	2528.138654
857.644278	2548.303269
857.957561	2482.768269
858.270802	2550.823846
858.584000	2460.083077
858.897155	2472.685962
859.210268	2457.562500
859.523339	2515.535769
859.836367	2480.247692
860.149352	2450.000769
860.462295	2495.371154
860.775195	2528.138654
861.088054	2442.439038
861.400869	2631.482308
861.713642	2485.288846
862.026373	2427.315577
862.339062	2482.768269
862.651708	2485.288846
862.964312	2485.288846
863.276873	2482.768269
863.589392	2452.521346
863.901869	2470.165385
864.214303	2487.809423
864.526696	2533.179808
864.839045	2465.124231
865.151353	2581.070769
865.463619	2480.247692
865.775842	2518.056346
866.088023	2510.494615
866.400162	2513.015192
866.712258	2434.877308
867.024313	2409.671538
867.336325	2447.480192
867.648296	2480.247692
867.960224	2465.124231
868.272110	2513.015192
868.583954	2475.206538
868.895755	2482.768269
869.207515	2424.795000
869.519233	2497.891731
869.830909	2465.124231
870.142542	2568.467885
870.454134	2450.000769
870.765684	2452.521346
871.077191	2513.015192
871.388657	2507.974038
871.700081	2502.932885
872.011463	2409.671538
872.322803	2535.700385
872.634101	2525.618077
872.945357	2407.150962
873.256571	2485.288846
873.567744	2475.206538
873.878874	2608.797115
874.189963	2502.932885
874.501010	2462.603654
874.812015	2523.097500
875.122979	2563.426731
875.433900	2502.932885
875.744780	2399.589231
876.055618	2520.576923
876.366415	2465.124231
876.677169	2490.330000
876.987882	2424.795000
877.298554	2510.494615
877.609183	2500.412308
877.919771	2442.439038
878.230317	2530.659231
878.540822	2477.727115
878.851285	2505.453462
879.161707	2434.877308
879.472087	2500.412308
879.782425	2550.823846
880.092722	2487.809423
880.402977	2507.974038
880.713191	2528.138654
881.023363	2570.988462
881.333494	2409.671538
881.643583	2502.932885
881.953631	2467.644808
882.263637	2447.480192
882.573602	2525.618077
882.883526	2535.700385
883.193408	2429.836154
883.503248	2467.644808
883.813048	2513.015192
884.122806	2513.015192
884.432522	2457.562500
884.742197	2510.494615
885.051831	2497.891731
885.361424	2510.494615
885.670975	2510.494615
885.980485	2563.426731
886.289954	2470.165385
886.599382	2482.768269
886.908768	2455.041923
887.218113	2520.576923
887.527417	2490.330000
887.836680	2510.494615
888.145901	2450.000769
888.455082	2492.850577
888.764221	2409.671538
889.073319	2460.083077
889.382376	2540.741538
889.691392	2495.371154
890.000366	2540.741538
890.309300	2555.865000
890.618193	2480.247692
890.927044	2535.700385
891.235855	2487.809423
891.544625	2434.877308
891.853353	2482.768269
892.162041	2490.330000
892.470687	2487.809423
892.779293	2452.521346
893.087858	2397.068654
893.396381	2555.865000
893.704864	2510.494615
894.013306	2397.068654
894.321707	2475.206538
894.630068	2392.027500
894.938387	2457.562500
895.246665	2414.712692
895.554903	2487.809423
895.863100	2447.480192
896.171256	2495.371154
896.479371	2412.192115
896.787446	2518.056346
897.095480	2492.850577
897.403473	2513.015192
897.711425	2472.685962
898.019336	2495.371154
898.327207	2563.426731
898.635038	2480.247692
898.942827	2439.918462
899.250576	2485.288846
899.558284	2487.809423
899.865952	2530.659231
900.173579	2475.206538
900.481165	2414.712692
900.788711	2518.056346
901.096216	2477.727115
901.403681	2495.371154
901.711105	2497.891731
902.018489	2538.220962
902.325832	2432.356731
902.633135	2497.891731
902.940397	2457.562500
903.247619	2452.521346
903.554800	2578.550192
903.861941	2570.988462
904.169041	2497.891731
904.476101	2513.015192
904.783121	2439.918462
905.090100	2518.056346
905.397039	2485.288846
905.703938	2462.603654
906.010796	2470.165385
906.317614	2450.000769
906.624391	2487.809423
906.931129	2497.891731
907.237826	2475.206538
907.544483	2480.247692
907.851099	2485.288846
908.157675	2518.056346
908.464211	2477.727115
908.770707	2518.056346
909.077163	2490.330000
909.383578	2467.644808
909.689954	2568.467885
909.996289	2507.974038
910.302584	2477.727115
910.608839	2439.918462
910.915054	2412.192115
911.221229	2543.262115
911.527363	2487.809423
911.833458	2487.809423
912.139513	2419.753846
912.445527	2444.959615
912.751502	2530.659231
913.057436	2533.179808
913.363331	2533.179808
913.669186	2500.412308
913.975000	2432.356731
914.280775	2470.165385
914.586510	2444.959615
914.892205	2495.371154
915.197859	2500.412308
915.503475	2505.453462
915.809050	2450.000769
916.114585	2507.974038
916.420081	2447.480192
916.725536	2480.247692
917.030952	2548.303269
917.336328	2470.165385
917.641665	2452.521346
917.946961	2513.015192
918.252218	2570.988462
918.557435	2452.521346
918.862612	2485.288846
919.167750	2495.371154
919.472848	2439.918462
919.777906	2515.535769
920.082925	2470.165385
920.387904	2487.809423
920.692843	2558.385577
920.997743	2485.288846
921.302603	2482.768269
921.607423	2490.330000
921.912204	2477.727115
922.216946	2477.727115
922.521647	2523.097500
922.826310	2480.247692
923.130932	2515.535769
923.435516	2437.397885
923.740059	2568.467885
924.044564	2439.918462
924.349028	2525.618077
924.653454	2472.685962
924.957840	2538.220962
925.262186	2518.056346
925.566493	2591.153077
925.870761	2502.932885
926.174989	2495.371154
926.479178	2548.303269
926.783328	2412.192115
927.087438	2409.671538
927.391509	2495.371154
927.695541	2472.685962
927.999533	2462.603654
928.303486	2540.741538
928.607400	2404.630385
928.911275	2513.015192
929.215110	2515.535769
929.518906	2500.412308
929.822663	2414.712692
930.126381	2472.685962
930.430060	2480.247692
930.733699	2502.932885
931.037299	2485.288846
931.340861	2533.179808
931.644383	2490.330000
931.947866	2475.206538
932.251309	2424.795000
932.554714	2462.603654
932.858080	2424.795000
933.161407	2409.671538
933.464694	2417.233269
933.767943	2482.768269
934.071153	2414.712692
934.374323	2487.809423
934.677455	2505.453462
934.980548	2502.932885
935.283602	2480.247692
935.586617	2386.986346
935.889593	2462.603654
936.192530	2553.344423
936.495428	2470.165385
936.798287	2550.823846
937.101108	2518.056346
937.403890	2500.412308
937.706632	2429.836154
938.009336	2444.959615
938.312002	2495.371154
938.614628	2507.974038
938.917216	2470.165385
939.219765	2485.288846
939.522275	2487.809423
939.824747	2472.685962
940.127179	2482.768269
940.429573	2480.247692
940.731929	2482.768269
941.034246	2427.315577
941.336524	2540.741538
941.638763	2480.247692
941.940964	2520.576923
942.243126	2475.206538
942.545250	2477.727115
942.847335	2434.877308
943.149381	2500.412308
943.451389	2455.041923
943.753359	2432.356731
944.055290	2507.974038
944.357182	2507.974038
944.659036	2455.041923
944.960851	2523.097500
945.262628	2429.836154
945.564367	2452.521346
945.866067	2417.233269
946.167729	2477.727115
946.469352	2475.206538
946.770937	2490.330000
947.072484	2480.247692
947.373992	2507.974038
947.675462	2492.850577
947.976893	2457.562500
948.278286	2475.206538
948.579641	2540.741538
948.880958	2492.850577
949.182236	2540.741538
949.483476	2452.521346
949.784678	2533.179808
950.085841	2485.288846
950.386967	2520.576923
950.688054	2480.247692
950.989103	2444.959615
951.290114	2450.000769
951.591087	2502.932885
951.892021	2429.836154
952.192917	2460.083077
952.493776	2422.274423
952.794596	2480.247692
953.095378	2490.330000
953.396122	2510.494615
953.696828	2439.918462
953.997496	2505.453462
954.298126	2505.453462
954.598718	2581.070769
954.899272	2535.700385
955.199788	2525.618077
955.500266	2523.097500
955.800706	2452.521346
956.101108	2455.041923
956.401472	2437.397885
956.701798	2583.591346
957.002087	2384.465769
957.302337	2455.041923
957.602550	2518.056346
957.902724	2507.974038
958.202861	2515.535769
958.502960	2563.426731
958.803022	2477.727115
959.103045	2538.220962
959.403031	2447.480192
959.702979	2497.891731
960.002889	2505.453462
960.302762	2477.727115
960.602596	2543.262115
960.902393	2523.097500
961.202153	2487.809423
961.501875	2507.974038
961.801559	2507.974038
962.101205	2515.535769
962.400814	2510.494615
962.700385	2548.303269
962.999918	2513.015192
963.299414	2477.727115
963.598873	2497.891731
963.898293	2515.535769
964.197677	2381.945192
964.497022	2485.288846
964.796331	2397.068654
965.095601	2472.685962
965.394835	2507.974038
965.694030	2475.206538
965.993189	2452.521346
966.292309	2437.397885
966.591393	2414.712692
966.890439	2518.056346
967.189447	2563.426731
967.488419	2460.083077
967.787353	2528.138654
968.086249	2452.521346
968.385108	2543.262115
968.683930	2444.959615
968.982714	2500.412308
969.281462	2427.315577
969.580172	2419.753846
969.878844	2490.330000
970.177480	2558.385577
970.476078	2460.083077
970.774639	2472.685962
971.073162	2444.959615
971.371649	2495.371154
971.670098	2457.562500
971.968510	2535.700385
972.266885	2495.371154
972.565223	2497.891731
972.863524	2538.220962
973.161788	2427.315577
973.460014	2492.850577
973.758204	2462.603654
974.056356	2533.179808
974.354471	2538.220962
974.652550	2497.891731
974.950591	2434.877308
975.248595	2565.947308
975.546563	2475.206538
975.844493	2533.179808
976.142386	2422.274423
976.440243	2497.891731
976.738062	2608.797115
977.035845	2437.397885
977.333590	2545.782692
977.631299	2555.865000
977.928971	2543.262115
978.226606	2472.685962
978.524204	2417.233269
978.821765	2507.974038
979.119290	2427.315577
979.416777	2545.782692
979.714228	2414.712692
980.011642	2492.850577
980.309020	2442.439038
980.606360	2452.521346
980.903664	2412.192115
981.200931	2502.932885
981.498162	2490.330000
981.795356	2505.453462
982.092513	2364.301154
982.389633	2500.412308
982.686717	2510.494615
982.983764	2485.288846
983.280775	2442.439038
983.577749	2523.097500
983.874686	2535.700385
984.171587	2535.700385
984.468451	2452.521346
984.765279	2540.741538
985.062070	2404.630385
985.358824	2492.850577
985.655543	2412.192115
985.952224	2475.206538
986.248869	2555.865000
986.545478	2472.685962
986.842050	2490.330000
987.138586	2520.576923
987.435086	2528.138654
987.731549	2386.986346
988.027975	2505.453462
988.324366	2530.659231
988.620719	2530.659231
988.917037	2477.727115
989.213318	2422.274423
989.509563	2487.809423
989.805772	2434.877308
990.101944	2515.535769
990.398080	2477.727115
990.694180	2540.741538
990.990244	2467.644808
991.286271	2452.521346
991.582262	2467.644808
991.878217	2497.891731
992.174136	2485.288846
992.470019	2497.891731
992.765865	2480.247692
993.061676	2518.056346
993.357450	2442.439038
993.653188	2381.945192
993.948890	2482.768269
994.244556	2530.659231
994.540186	2533.179808
994.835780	2460.083077
995.131337	2480.247692
995.426859	2465.124231
995.722345	2515.535769
996.017795	2419.753846
996.313208	2606.276538
996.608586	2480.247692
996.903928	2437.397885
997.199234	2513.015192
997.494504	2545.782692
997.789738	2502.932885
998.084936	2450.000769
998.380099	2568.467885
998.675225	2439.918462
998.970316	2528.138654
999.265371	2419.753846
999.560390	2515.535769
999.855373	2492.850577
1000.150320	2515.535769
1000.445232	2502.932885
1000.740108	2475.206538
1001.034948	2467.644808
1001.329752	2475.206538
1001.624521	2457.562500
1001.919254	2520.576923
1002.213951	2422.274423
1002.508613	2487.809423
1002.803239	2497.891731
1003.097829	2482.768269
1003.392384	2470.165385
1003.686903	2520.576923
1003.981386	2563.426731
1004.275834	2442.439038
1004.570246	2545.782692
1004.864623	2515.535769
1005.158964	2495.371154
1005.453270	2490.330000
1005.747540	2460.083077
1006.041775	2452.521346
1006.335974	2462.603654
1006.630138	2402.109808
1006.924266	2369.342308
1007.218359	2510.494615
1007.512416	2475.206538
1007.806438	2560.906154
1008.100425	2424.795000
1008.394376	2460.083077
1008.688292	2500.412308
1008.982172	2487.809423
1009.276017	2369.342308
1009.569827	2407.150962
1009.863602	2520.576923
1010.157341	2470.165385
1010.451045	2507.974038
1010.744714	2414.712692
1011.038347	2502.932885
1011.331945	2460.083077
1011.625508	2470.165385
1011.919036	2523.097500
1012.212528	2513.015192
1012.505986	2490.330000
1012.799408	2555.865000
1013.092795	2525.618077
1013.386147	2525.618077
1013.679464	2444.959615
1013.972745	2500.412308
1014.265992	2548.303269
1014.559204	2482.768269
1014.852380	2462.603654
1015.145521	2518.056346
1015.438628	2434.877308
1015.731699	2467.644808
1016.024736	2490.330000
1016.317737	2560.906154
1016.610703	2477.727115
1016.903635	2487.809423
1017.196531	2482.768269
1017.489393	2495.371154
1017.782219	2460.083077
1018.075011	2502.932885
1018.367768	2447.480192
1018.660490	2465.124231
1018.953177	2465.124231
1019.245829	2465.124231
