Dividing Wavelength (nm)	Counts (n)	Blue Motor Position (mm): 5.200000	Red Motor Position (mm): 0.000000	
326.493990	2155.093269
326.888308	2155.093269
327.282561	2155.093269
327.676750	2087.037692
328.070874	2071.914231
328.464933	2069.393654
328.858929	2054.270192
329.252859	2064.352500
329.646726	2107.202308
330.040528	2079.475962
330.434265	2162.655000
330.827938	2074.434808
331.221547	2139.969808
331.615091	2142.490385
332.008571	2192.901923
332.401986	2286.163269
332.795338	2195.422500
333.188625	2238.272308
333.581847	2271.039808
333.975006	2265.998654
334.368100	2240.792885
334.761129	2260.957500
335.154095	2288.683846
335.546996	2288.683846
335.939833	2341.615962
336.332606	2359.260000
336.725315	2394.548077
337.117960	2490.330000
337.510540	2419.753846
337.903056	2344.136538
338.295508	2364.301154
338.687896	2452.521346
339.080220	2434.877308
339.472480	2500.412308
339.864676	2437.397885
340.256807	2487.809423
340.648875	2404.630385
341.040879	2432.356731
341.432818	2414.712692
341.824694	2492.850577
342.216506	2462.603654
342.608253	2497.891731
342.999937	2465.124231
343.391557	2437.397885
343.783113	2470.165385
344.174605	2545.782692
344.566033	2427.315577
344.957397	2457.562500
345.348697	2442.439038
345.739934	2384.465769
346.131106	2437.397885
346.522215	2548.303269
346.913260	2442.439038
347.304241	2465.124231
347.695159	2386.986346
348.086012	2553.344423
348.476802	2462.603654
348.867528	2424.795000
349.258191	2472.685962
349.648789	2482.768269
350.039324	2424.795000
350.429796	2460.083077
350.820203	2427.315577
351.210548	2505.453462
351.600828	2450.000769
351.991045	2492.850577
352.381198	2490.330000
352.771288	2447.480192
353.161314	2437.397885
353.551276	2500.412308
353.941175	2429.836154
354.331010	2515.535769
354.720782	2407.150962
355.110490	2513.015192
355.500135	2490.330000
355.889717	2465.124231
356.279235	2407.150962
356.668689	2366.821731
357.058080	2480.247692
357.447408	2424.795000
357.836672	2467.644808
358.225873	2518.056346
358.615010	2386.986346
359.004084	2455.041923
359.393095	2502.932885
359.782043	2366.821731
360.170927	2457.562500
360.559748	2432.356731
360.948505	2412.192115
361.337199	2520.576923
361.725830	2452.521346
362.114398	2417.233269
362.502903	2399.589231
362.891344	2465.124231
363.279722	2419.753846
363.668037	2495.371154
364.056289	2442.439038
364.444478	2344.136538
364.832603	2442.439038
365.220665	2460.083077
365.608665	2543.262115
365.996601	2455.041923
366.384474	2497.891731
366.772284	2490.330000
367.160031	2434.877308
367.547715	2505.453462
367.935336	2492.850577
368.322893	2437.397885
368.710388	2404.630385
369.097820	2447.480192
369.485189	2432.356731
369.872495	2389.506923
370.259738	2457.562500
370.646918	2432.356731
371.034035	2457.562500
371.421090	2439.918462
371.808081	2369.342308
372.195010	2482.768269
372.581875	2439.918462
372.968678	2492.850577
373.355418	2530.659231
373.742096	2545.782692
374.128710	2429.836154
374.515262	2450.000769
374.901751	2510.494615
375.288177	2444.959615
375.674540	2417.233269
376.060841	2515.535769
376.447079	2394.548077
376.833254	2485.288846
377.219367	2477.727115
377.605417	2442.439038
377.991404	2452.521346
378.377329	2442.439038
378.763191	2437.397885
379.148991	2518.056346
379.534727	2490.330000
379.920402	2429.836154
380.306013	2465.124231
380.691563	2492.850577
381.077049	2397.068654
381.462474	2525.618077
381.847835	2434.877308
382.233134	2432.356731
382.618371	2495.371154
383.003545	2417.233269
383.388657	2482.768269
383.773706	2422.274423
384.158693	2379.424615
384.543618	2482.768269
384.928480	2457.562500
385.313280	2465.124231
385.698017	2485.288846
386.082692	2510.494615
386.467305	2480.247692
386.851856	2442.439038
387.236344	2462.603654
387.620770	2442.439038
388.005133	2495.371154
388.389435	2409.671538
388.773674	2434.877308
389.157851	2505.453462
389.541965	2470.165385
389.926018	2457.562500
390.310008	2409.671538
390.693936	2482.768269
391.077802	2507.974038
391.461606	2475.206538
391.845348	2497.891731
392.229027	2399.589231
392.612645	2490.330000
392.996200	2417.233269
393.379694	2472.685962
393.763125	2422.274423
394.146494	2490.330000
394.529801	2480.247692
394.913047	2472.685962
395.296230	2399.589231
395.679351	2485.288846
396.062410	2424.795000
396.445408	2409.671538
396.828343	2495.371154
397.211217	2460.083077
397.594028	2578.550192
397.976778	2538.220962
398.359466	2525.618077
398.742092	2492.850577
399.124656	2455.041923
399.507158	2467.644808
399.889598	2492.850577
400.271977	2523.097500
400.654294	2460.083077
401.036549	2482.768269
401.418742	2447.480192
401.800874	2394.548077
402.182944	2495.371154
402.564952	2500.412308
402.946898	2515.535769
403.328783	2467.644808
403.710606	2467.644808
404.092367	2432.356731
404.474067	2419.753846
404.855705	2507.974038
405.237282	2477.727115
405.618797	2492.850577
406.000250	2490.330000
406.381642	2535.700385
406.762972	2502.932885
407.144240	2422.274423
407.525447	2465.124231
407.906593	2394.548077
408.287677	2397.068654
408.668700	2409.671538
409.049661	2480.247692
409.430560	2467.644808
409.811399	2513.015192
410.192176	2422.274423
410.572891	2470.165385
410.953545	2540.741538
411.334138	2558.385577
411.714669	2515.535769
412.095139	2429.836154
412.475547	2490.330000
412.855894	2500.412308
413.236180	2477.727115
413.616405	2432.356731
413.996568	2515.535769
414.376670	2439.918462
414.756711	2495.371154
415.136691	2487.809423
415.516609	2394.548077
415.896466	2487.809423
416.276262	2520.576923
416.655997	2422.274423
417.035670	2523.097500
417.415283	2442.439038
417.794834	2548.303269
418.174324	2465.124231
418.553753	2515.535769
418.933121	2409.671538
419.312428	2545.782692
419.691674	2523.097500
420.070859	2402.109808
420.449983	2497.891731
420.829045	2480.247692
421.208047	2543.262115
421.586988	2450.000769
421.965867	2505.453462
422.344686	2482.768269
422.723444	2510.494615
423.102141	2480.247692
423.480777	2404.630385
423.859352	2412.192115
424.237866	2495.371154
424.616319	2500.412308
424.994712	2520.576923
425.373044	2553.344423
425.751314	2465.124231
426.129524	2472.685962
426.507673	2490.330000
426.885762	2490.330000
427.263789	2510.494615
427.641756	2518.056346
428.019662	2429.836154
428.397508	2505.453462
428.775292	2515.535769
429.153016	2495.371154
429.530679	2407.150962
429.908282	2530.659231
430.285824	2472.685962
430.663305	2507.974038
431.040726	2487.809423
431.418086	2402.109808
431.795385	2510.494615
432.172624	2485.288846
432.549802	2472.685962
432.926920	2573.509038
433.303977	2444.959615
433.680974	2389.506923
434.057910	2513.015192
434.434786	2404.630385
434.811601	2495.371154
435.188355	2492.850577
435.565050	2434.877308
435.941683	2530.659231
436.318257	2467.644808
436.694770	2432.356731
437.071222	2465.124231
437.447614	2412.192115
437.823946	2535.700385
438.200218	2472.685962
438.576429	2480.247692
438.952580	2397.068654
439.328670	2450.000769
439.704700	2518.056346
440.080670	2500.412308
440.456580	2414.712692
440.832429	2477.727115
441.208218	2444.959615
441.583947	2437.397885
441.959616	2515.535769
442.335224	2467.644808
442.710773	2518.056346
443.086261	2482.768269
443.461689	2507.974038
443.837057	2538.220962
444.212365	2442.439038
444.587612	2472.685962
444.962800	2470.165385
445.337927	2472.685962
445.712995	2442.439038
446.088002	2480.247692
446.462949	2439.918462
446.837837	2424.795000
447.212664	2485.288846
447.587431	2465.124231
447.962139	2450.000769
448.336786	2470.165385
448.711374	2523.097500
449.085901	2558.385577
449.460369	2502.932885
449.834776	2465.124231
450.209124	2495.371154
450.583412	2424.795000
450.957640	2497.891731
451.331808	2480.247692
451.705917	2558.385577
452.079965	2447.480192
452.453954	2467.644808
452.827883	2492.850577
453.201752	2490.330000
453.575562	2467.644808
453.949311	2487.809423
454.323001	2507.974038
454.696632	2485.288846
455.070202	2530.659231
455.443713	2543.262115
455.817164	2482.768269
456.190556	2502.932885
456.563888	2492.850577
456.937160	2480.247692
457.310373	2460.083077
457.683526	2545.782692
458.056619	2500.412308
458.429653	2465.124231
458.802628	2530.659231
459.175542	2485.288846
459.548398	2472.685962
459.921194	2495.371154
460.293930	2467.644808
460.666607	2500.412308
461.039224	2462.603654
461.411782	2429.836154
461.784280	2487.809423
462.156719	2482.768269
462.529099	2540.741538
462.901419	2485.288846
463.273680	2581.070769
463.645882	2472.685962
464.018024	2540.741538
464.390106	2555.865000
464.762130	2507.974038
465.134094	2485.288846
465.505999	2495.371154
465.877845	2560.906154
466.249631	2437.397885
466.621358	2492.850577
466.993026	2482.768269
467.364634	2523.097500
467.736184	2520.576923
468.107674	2381.945192
468.479105	2545.782692
468.850477	2414.712692
469.221790	2520.576923
469.593043	2470.165385
469.964238	2470.165385
470.335373	2457.562500
470.706449	2477.727115
471.077467	2535.700385
471.448425	2555.865000
471.819324	2485.288846
472.190164	2482.768269
472.560945	2422.274423
472.931667	2533.179808
473.302330	2442.439038
473.672934	2518.056346
474.043479	2530.659231
474.413965	2586.111923
474.784393	2439.918462
475.154761	2485.288846
475.525070	2452.521346
475.895321	2596.194231
476.265513	2548.303269
476.635645	2419.753846
477.005719	2452.521346
477.375734	2455.041923
477.745691	2392.027500
478.115588	2412.192115
478.485427	2470.165385
478.855207	2490.330000
479.224928	2482.768269
479.594591	2515.535769
479.964194	2525.618077
480.333739	2439.918462
480.703226	2550.823846
481.072653	2450.000769
481.442022	2568.467885
481.811333	2482.768269
482.180584	2455.041923
482.549777	2510.494615
482.918912	2439.918462
483.287988	2533.179808
483.657005	2450.000769
484.025964	2462.603654
484.394864	2404.630385
484.763706	2515.535769
485.132489	2480.247692
485.501213	2485.288846
485.869879	2535.700385
486.238487	2457.562500
486.607036	2482.768269
486.975527	2545.782692
487.343959	2518.056346
487.712333	2523.097500
488.080648	2492.850577
488.448905	2515.535769
488.817104	2502.932885
489.185244	2402.109808
489.553326	2510.494615
489.921350	2475.206538
490.289315	2472.685962
490.657222	2369.342308
491.025070	2475.206538
491.392861	2450.000769
491.760593	2518.056346
492.128267	2485.288846
492.495883	2500.412308
492.863440	2442.439038
493.230939	2525.618077
493.598380	2447.480192
493.965763	2538.220962
494.333088	2460.083077
494.700354	2500.412308
495.067563	2568.467885
495.434713	2467.644808
495.801805	2487.809423
496.168839	2540.741538
496.535815	2465.124231
496.902733	2497.891731
497.269593	2467.644808
497.636395	2523.097500
498.003139	2530.659231
498.369825	2467.644808
498.736453	2518.056346
499.103023	2457.562500
499.469535	2525.618077
499.835989	2510.494615
500.202385	2457.562500
500.568723	2437.397885
500.935003	2492.850577
501.301226	2518.056346
501.667390	2500.412308
502.033497	2523.097500
502.399546	2634.002885
502.765537	2439.918462
503.131470	2477.727115
503.497345	2470.165385
503.863163	2560.906154
504.228923	2470.165385
504.594625	2465.124231
504.960269	2467.644808
505.325856	2450.000769
505.691385	2550.823846
506.056856	2490.330000
506.422270	2477.727115
506.787625	2553.344423
507.152924	2490.330000
507.518164	2485.288846
507.883347	2520.576923
508.248472	2487.809423
508.613540	2444.959615
508.978550	2475.206538
509.343503	2447.480192
509.708398	2470.165385
510.073236	2497.891731
510.438016	2543.262115
510.802738	2538.220962
511.167403	2472.685962
511.532010	2475.206538
511.896561	2457.562500
512.261053	2540.741538
512.625488	2482.768269
512.989866	2520.576923
513.354186	2507.974038
513.718449	2543.262115
514.082655	2490.330000
514.446803	2520.576923
514.810894	2495.371154
515.174927	2467.644808
515.538904	2535.700385
515.902822	2565.947308
516.266684	2500.412308
516.630488	2386.986346
516.994235	2492.850577
517.357925	2447.480192
517.721558	2452.521346
518.085133	2475.206538
518.448651	2422.274423
518.812112	2490.330000
519.175516	2513.015192
519.538863	2470.165385
519.902152	2497.891731
520.265385	2424.795000
520.628560	2540.741538
520.991678	2530.659231
521.354739	2460.083077
521.717743	2427.315577
522.080690	2457.562500
522.443580	2439.918462
522.806413	2520.576923
523.169189	2470.165385
523.531908	2462.603654
523.894569	2457.562500
524.257174	2490.330000
524.619722	2545.782692
524.982213	2520.576923
525.344647	2570.988462
525.707025	2502.932885
526.069345	2510.494615
526.431608	2563.426731
526.793815	2444.959615
527.155964	2560.906154
527.518057	2515.535769
527.880093	2419.753846
528.242072	2530.659231
528.603995	2467.644808
528.965860	2439.918462
529.327669	2573.509038
529.689421	2460.083077
530.051117	2520.576923
530.412755	2497.891731
530.774337	2399.589231
531.135862	2500.412308
531.497331	2434.877308
531.858743	2460.083077
532.220098	2548.303269
532.581396	2540.741538
532.942638	2419.753846
533.303824	2538.220962
533.664953	2490.330000
534.026025	2548.303269
534.387040	2535.700385
534.747999	2429.836154
535.108902	2548.303269
535.469748	2480.247692
535.830537	2533.179808
536.191270	2477.727115
536.551947	2495.371154
536.912567	2437.397885
537.273131	2515.535769
537.633638	2510.494615
537.994089	2558.385577
538.354483	2533.179808
538.714821	2447.480192
539.075103	2467.644808
539.435328	2555.865000
539.795497	2568.467885
540.155609	2490.330000
540.515665	2492.850577
540.875665	2538.220962
541.235609	2477.727115
541.595496	2507.974038
541.955328	2500.412308
542.315102	2485.288846
542.674821	2407.150962
543.034483	2457.562500
543.394090	2442.439038
543.753640	2424.795000
544.113134	2477.727115
544.472571	2462.603654
544.831953	2412.192115
545.191278	2505.453462
545.550548	2502.932885
545.909761	2518.056346
546.268918	2439.918462
546.628019	2530.659231
546.987064	2477.727115
547.346053	2560.906154
547.704986	2497.891731
548.063863	2450.000769
548.422684	2520.576923
548.781449	2497.891731
549.140158	2530.659231
549.498811	2523.097500
549.857408	2550.823846
550.215949	2485.288846
550.574434	2457.562500
550.932864	2460.083077
551.291237	2450.000769
551.649555	2515.535769
552.007817	2477.727115
552.366022	2518.056346
552.724173	2470.165385
553.082267	2455.041923
553.440305	2518.056346
553.798288	2543.262115
554.156215	2563.426731
554.514086	2434.877308
554.871902	2467.644808
555.229661	2437.397885
555.587365	2510.494615
555.945014	2439.918462
556.302606	2518.056346
556.660143	2427.315577
557.017625	2568.467885
557.375050	2444.959615
557.732421	2460.083077
558.089735	2452.521346
558.446994	2533.179808
558.804197	2467.644808
559.161345	2462.603654
559.518437	2495.371154
559.875474	2419.753846
560.232455	2581.070769
560.589381	2523.097500
560.946251	2485.288846
561.303065	2507.974038
561.659825	2525.618077
562.016528	2500.412308
562.373177	2535.700385
562.729770	2513.015192
563.086307	2472.685962
563.442789	2492.850577
563.799216	2520.576923
564.155587	2497.891731
564.511904	2500.412308
564.868164	2419.753846
565.224370	2505.453462
565.580520	2399.589231
565.936615	2502.932885
566.292654	2510.494615
566.648638	2510.494615
567.004567	2558.385577
567.360441	2520.576923
567.716260	2490.330000
568.072023	2505.453462
568.427732	2500.412308
568.783385	2492.850577
569.138982	2520.576923
569.494525	2429.836154
569.850013	2432.356731
570.205445	2525.618077
570.560823	2530.659231
570.916145	2545.782692
571.271412	2450.000769
571.626625	2525.618077
571.981782	2502.932885
572.336884	2565.947308
572.691931	2467.644808
573.046923	2525.618077
573.401860	2568.467885
573.756743	2525.618077
574.111570	2432.356731
574.466342	2507.974038
574.821059	2502.932885
575.175722	2497.891731
575.530330	2487.809423
575.884882	2485.288846
576.239380	2477.727115
576.593823	2485.288846
576.948211	2442.439038
577.302544	2548.303269
577.656823	2507.974038
578.011047	2482.768269
578.365216	2437.397885
578.719330	2480.247692
579.073389	2412.192115
579.427394	2492.850577
579.781344	2470.165385
580.135239	2472.685962
580.489080	2555.865000
580.842866	2399.589231
581.196597	2555.865000
581.550273	2535.700385
581.903895	2450.000769
582.257463	2487.809423
582.610975	2480.247692
582.964434	2502.932885
583.317837	2558.385577
583.671186	2500.412308
584.024481	2477.727115
584.377721	2525.618077
584.730906	2439.918462
585.084037	2457.562500
585.437113	2465.124231
585.790135	2447.480192
586.143103	2467.644808
586.496016	2520.576923
586.848874	2457.562500
587.201679	2422.274423
587.554428	2427.315577
587.907124	2598.714808
588.259765	2480.247692
588.612352	2518.056346
588.964884	2500.412308
589.317362	2497.891731
589.669786	2548.303269
590.022155	2475.206538
590.374470	2533.179808
590.726731	2455.041923
591.078937	2477.727115
591.431090	2558.385577
591.783188	2482.768269
592.135232	2495.371154
592.487222	2447.480192
592.839157	2568.467885
593.191038	2548.303269
593.542866	2460.083077
593.894639	2477.727115
594.246358	2492.850577
594.598022	2437.397885
594.949633	2452.521346
595.301190	2480.247692
595.652692	2477.727115
596.004141	2455.041923
596.355535	2518.056346
596.706876	2540.741538
597.058162	2530.659231
597.409395	2487.809423
597.760573	2452.521346
598.111698	2462.603654
598.462768	2576.029615
598.813785	2475.206538
599.164748	2543.262115
599.515657	2530.659231
599.866511	2525.618077
600.217312	2467.644808
600.568060	2442.439038
600.918753	2434.877308
601.269392	2550.823846
601.619978	2507.974038
601.970510	2472.685962
602.320988	2450.000769
602.671412	2563.426731
603.021783	2495.371154
603.372100	2558.385577
603.722363	2470.165385
604.072572	2550.823846
604.422728	2450.000769
604.772830	2533.179808
605.122878	2497.891731
605.472872	2505.453462
605.822813	2515.535769
606.172701	2535.700385
606.522534	2550.823846
606.872314	2528.138654
607.222041	2502.932885
607.571714	2467.644808
607.921333	2462.603654
608.270899	2414.712692
608.620411	2497.891731
608.969870	2520.576923
609.319276	2533.179808
609.668627	2500.412308
610.017926	2538.220962
610.367171	2543.262115
610.716362	2510.494615
611.065500	2470.165385
611.414585	2576.029615
611.763616	2472.685962
612.112594	2419.753846
612.461518	2465.124231
612.810389	2429.836154
613.159207	2472.685962
613.507971	2490.330000
613.856682	2505.453462
614.205340	2482.768269
614.553945	2475.206538
614.902496	2550.823846
615.250994	2470.165385
615.599439	2452.521346
615.947830	2510.494615
616.296169	2497.891731
616.644454	2545.782692
616.992686	2510.494615
617.340864	2490.330000
617.688990	2560.906154
618.037063	2497.891731
618.385082	2538.220962
618.733048	2460.083077
619.080961	2550.823846
619.428821	2475.206538
619.776628	2548.303269
620.124382	2507.974038
620.472083	2485.288846
620.819731	2495.371154
621.167326	2502.932885
621.514868	2523.097500
621.862357	2568.467885
622.209793	2452.521346
622.557176	2482.768269
622.904506	2535.700385
623.251783	2419.753846
623.599007	2487.809423
623.946179	2409.671538
624.293297	2470.165385
624.640363	2518.056346
624.987376	2490.330000
625.334336	2462.603654
625.681243	2581.070769
626.028097	2429.836154
626.374899	2548.303269
626.721647	2520.576923
627.068343	2515.535769
627.414987	2500.412308
627.761577	2520.576923
628.108115	2497.891731
628.454600	2525.618077
628.801032	2513.015192
629.147412	2460.083077
629.493739	2505.453462
629.840014	2467.644808
630.186236	2558.385577
630.532405	2475.206538
630.878521	2414.712692
631.224585	2563.426731
631.570597	2432.356731
631.916556	2528.138654
632.262462	2568.467885
632.608316	2528.138654
632.954117	2475.206538
633.299866	2490.330000
633.645562	2457.562500
633.991206	2422.274423
634.336797	2558.385577
634.682336	2502.932885
635.027823	2510.494615
635.373257	2578.550192
635.718639	2485.288846
636.063968	2462.603654
636.409245	2475.206538
636.754470	2510.494615
637.099642	2447.480192
637.444762	2502.932885
637.789829	2520.576923
638.134845	2457.562500
638.479808	2485.288846
638.824719	2513.015192
639.169577	2480.247692
639.514383	2535.700385
639.859137	2523.097500
640.203839	2502.932885
640.548489	2525.618077
640.893086	2460.083077
641.237632	2588.632500
641.582125	2470.165385
641.926566	2480.247692
642.270955	2462.603654
642.615292	2434.877308
642.959576	2437.397885
643.303809	2500.412308
643.647990	2505.453462
643.992118	2495.371154
644.336195	2523.097500
644.680219	2563.426731
645.024192	2470.165385
645.368112	2568.467885
645.711981	2477.727115
646.055797	2460.083077
646.399562	2525.618077
646.743274	2500.412308
647.086935	2507.974038
647.430544	2487.809423
647.774101	2535.700385
648.117606	2598.714808
648.461059	2505.453462
648.804460	2442.439038
649.147810	2523.097500
649.491108	2497.891731
649.834354	2502.932885
650.177548	2523.097500
650.520690	2530.659231
650.863781	2525.618077
651.206820	2518.056346
651.549807	2515.535769
651.892742	2586.111923
652.235626	2470.165385
652.578458	2523.097500
652.921238	2513.015192
653.263967	2502.932885
653.606644	2507.974038
653.949269	2515.535769
654.291843	2439.918462
654.634365	2540.741538
654.976836	2495.371154
655.319255	2563.426731
655.661622	2507.974038
656.003938	2495.371154
656.346203	2490.330000
656.688416	2442.439038
657.030577	2505.453462
657.372687	2558.385577
657.714746	2497.891731
658.056753	2500.412308
658.398708	2540.741538
658.740612	2513.015192
659.082465	2462.603654
659.424266	2528.138654
659.766016	2500.412308
660.107715	2581.070769
660.449362	2530.659231
660.790958	2485.288846
661.132503	2482.768269
661.473996	2500.412308
661.815438	2535.700385
662.156829	2520.576923
662.498168	2497.891731
662.839456	2495.371154
663.180693	2409.671538
663.521879	2558.385577
663.863013	2455.041923
664.204097	2472.685962
664.545129	2437.397885
664.886110	2460.083077
665.227040	2422.274423
665.567918	2482.768269
665.908746	2490.330000
666.249522	2502.932885
666.590248	2525.618077
666.930922	2490.330000
667.271545	2515.535769
667.612118	2475.206538
667.952639	2429.836154
668.293109	2492.850577
668.633528	2364.301154
668.973896	2568.467885
669.314213	2497.891731
669.654480	2525.618077
669.994695	2439.918462
670.334859	2558.385577
670.674973	2477.727115
671.015035	2507.974038
671.355047	2487.809423
671.695008	2495.371154
672.034918	2467.644808
672.374777	2563.426731
672.714585	2497.891731
673.054342	2543.262115
673.394049	2457.562500
673.733705	2497.891731
674.073310	2480.247692
674.412864	2487.809423
674.752368	2500.412308
675.091820	2477.727115
675.431223	2538.220962
675.770574	2530.659231
676.109875	2477.727115
676.449125	2460.083077
676.788324	2523.097500
677.127473	2518.056346
677.466571	2500.412308
677.805619	2457.562500
678.144616	2394.548077
678.483562	2470.165385
678.822458	2477.727115
679.161303	2576.029615
679.500098	2467.644808
679.838842	2422.274423
680.177535	2495.371154
680.516179	2462.603654
680.854771	2452.521346
681.193314	2578.550192
681.531805	2515.535769
681.870247	2497.891731
682.208638	2419.753846
682.546978	2460.083077
682.885268	2467.644808
683.223508	2538.220962
683.561697	2588.632500
683.899836	2480.247692
684.237925	2535.700385
684.575963	2548.303269
684.913951	2578.550192
685.251889	2452.521346
685.589776	2495.371154
685.927614	2558.385577
686.265401	2518.056346
686.603137	2507.974038
686.940824	2480.247692
687.278460	2553.344423
687.616046	2548.303269
687.953582	2452.521346
688.291068	2548.303269
688.628504	2495.371154
688.965889	2480.247692
689.303224	2442.439038
689.640510	2540.741538
689.977745	2472.685962
690.314930	2447.480192
690.652065	2480.247692
690.989150	2540.741538
691.326185	2520.576923
691.663170	2495.371154
692.000105	2497.891731
692.336990	2500.412308
692.673825	2439.918462
693.010610	2465.124231
693.347345	2528.138654
693.684030	2402.109808
694.020665	2505.453462
694.357251	2520.576923
694.693786	2543.262115
695.030272	2477.727115
695.366707	2555.865000
695.703093	2523.097500
696.039429	2505.453462
696.375716	2555.865000
696.711952	2513.015192
697.048139	2442.439038
697.384276	2535.700385
697.720363	2472.685962
698.056400	2467.644808
698.392388	2485.288846
698.728326	2530.659231
699.064214	2502.932885
699.400053	2389.506923
699.735842	2437.397885
700.071581	2563.426731
700.407270	2495.371154
700.742910	2470.165385
701.078501	2555.865000
701.414042	2497.891731
701.749533	2570.988462
702.084974	2518.056346
702.420366	2495.371154
702.755709	2583.591346
703.091002	2447.480192
703.426246	2515.535769
703.761440	2507.974038
704.096584	2397.068654
704.431679	2480.247692
704.766725	2558.385577
705.101721	2477.727115
705.436668	2392.027500
705.771565	2538.220962
706.106413	2495.371154
706.441212	2563.426731
706.775961	2442.439038
707.110661	2480.247692
707.445311	2507.974038
707.779913	2492.850577
708.114465	2510.494615
708.448967	2540.741538
708.783421	2485.288846
709.117825	2437.397885
709.452180	2515.535769
709.786485	2535.700385
710.120742	2465.124231
710.454949	2538.220962
710.789107	2548.303269
711.123216	2432.356731
711.457275	2467.644808
711.791286	2563.426731
712.125247	2578.550192
712.459159	2507.974038
712.793023	2545.782692
713.126837	2528.138654
713.460602	2535.700385
713.794318	2518.056346
714.127985	2482.768269
714.461602	2492.850577
714.795171	2462.603654
715.128691	2467.644808
715.462162	2538.220962
715.795584	2480.247692
716.128957	2500.412308
716.462281	2520.576923
716.795556	2492.850577
717.128782	2528.138654
717.461960	2485.288846
717.795088	2495.371154
718.128167	2545.782692
718.461198	2480.247692
718.794180	2518.056346
719.127113	2513.015192
719.459997	2462.603654
719.792833	2588.632500
720.125619	2399.589231
720.458357	2467.644808
720.791046	2424.795000
721.123686	2515.535769
721.456278	2523.097500
721.788821	2500.412308
722.121315	2543.262115
722.453761	2452.521346
722.786158	2513.015192
723.118506	2515.535769
723.450805	2450.000769
723.783056	2490.330000
724.115259	2475.206538
724.447412	2439.918462
724.779518	2442.439038
725.111574	2470.165385
725.443582	2475.206538
725.775542	2533.179808
726.107453	2475.206538
726.439315	2409.671538
726.771129	2505.453462
727.102895	2497.891731
727.434612	2545.782692
727.766281	2452.521346
728.097901	2505.453462
728.429473	2492.850577
728.760996	2502.932885
729.092471	2432.356731
729.423897	2490.330000
729.755276	2457.562500
730.086606	2535.700385
730.417887	2490.330000
730.749120	2495.371154
731.080305	2565.947308
731.411442	2487.809423
731.742530	2487.809423
732.073570	2525.618077
732.404562	2513.015192
732.735506	2523.097500
733.066401	2457.562500
733.397249	2553.344423
733.728048	2573.509038
734.058798	2470.165385
734.389501	2515.535769
734.720156	2523.097500
735.050762	2550.823846
735.381320	2515.535769
735.711831	2470.165385
736.042293	2528.138654
736.372707	2460.083077
736.703073	2485.288846
737.033391	2513.015192
737.363661	2500.412308
737.693883	2467.644808
738.024056	2565.947308
738.354182	2467.644808
738.684260	2470.165385
739.014290	2515.535769
739.344272	2457.562500
739.674207	2492.850577
740.004093	2513.015192
740.333931	2495.371154
740.663722	2568.467885
740.993464	2497.891731
741.323159	2530.659231
741.652806	2520.576923
741.982405	2518.056346
742.311956	2477.727115
742.641460	2467.644808
742.970915	2434.877308
743.300323	2560.906154
743.629683	2563.426731
743.958996	2492.850577
744.288260	2563.426731
744.617477	2457.562500
744.946647	2515.535769
745.275768	2480.247692
745.604842	2510.494615
745.933869	2470.165385
746.262847	2528.138654
746.591778	2497.891731
746.920662	2515.535769
747.249498	2500.412308
747.578286	2455.041923
747.907027	2502.932885
748.235720	2533.179808
748.564365	2472.685962
748.892963	2439.918462
749.221514	2457.562500
749.550017	2480.247692
749.878473	2510.494615
750.206881	2586.111923
750.535242	2550.823846
750.863555	2482.768269
751.191821	2550.823846
751.520039	2495.371154
751.848210	2442.439038
752.176334	2480.247692
752.504411	2495.371154
752.832440	2581.070769
753.160421	2523.097500
753.488356	2500.412308
753.816243	2439.918462
754.144082	2452.521346
754.471875	2631.482308
754.799620	2505.453462
755.127318	2540.741538
755.454969	2475.206538
755.782572	2500.412308
756.110129	2495.371154
756.437638	2492.850577
756.765100	2424.795000
757.092515	2538.220962
757.419882	2525.618077
757.747203	2417.233269
758.074477	2475.206538
758.401703	2442.439038
758.728882	2513.015192
759.056014	2467.644808
759.383099	2568.467885
759.710138	2608.797115
760.037129	2495.371154
760.364073	2586.111923
760.690970	2422.274423
761.017820	2487.809423
761.344623	2467.644808
761.671379	2487.809423
761.998088	2543.262115
762.324751	2505.453462
762.651366	2533.179808
762.977935	2523.097500
763.304456	2482.768269
763.630931	2450.000769
763.957359	2502.932885
764.283740	2495.371154
764.610074	2540.741538
764.936362	2394.548077
765.262602	2535.700385
765.588796	2570.988462
765.914943	2462.603654
766.241044	2485.288846
766.567097	2523.097500
766.893104	2462.603654
767.219064	2485.288846
767.544978	2485.288846
767.870845	2543.262115
768.196665	2465.124231
768.522438	2455.041923
768.848165	2482.768269
769.173846	2472.685962
769.499479	2535.700385
769.825066	2452.521346
770.150607	2467.644808
770.476101	2530.659231
770.801548	2444.959615
771.126949	2457.562500
771.452303	2460.083077
771.777611	2507.974038
772.102872	2500.412308
772.428087	2386.986346
772.753256	2417.233269
773.078378	2480.247692
773.403453	2518.056346
773.728482	2565.947308
774.053465	2427.315577
774.378401	2538.220962
774.703291	2480.247692
775.028135	2568.467885
775.352932	2507.974038
775.677683	2487.809423
776.002388	2507.974038
776.327046	2500.412308
776.651658	2457.562500
776.976224	2497.891731
777.300743	2492.850577
777.625216	2442.439038
777.949643	2500.412308
778.274024	2518.056346
778.598359	2558.385577
778.922647	2525.618077
779.246889	2530.659231
779.571086	2530.659231
779.895236	2528.138654
780.219339	2518.056346
780.543397	2417.233269
780.867409	2465.124231
781.191374	2530.659231
781.515294	2417.233269
781.839167	2502.932885
782.162995	2538.220962
782.486776	2447.480192
782.810511	2470.165385
783.134201	2477.727115
783.457844	2530.659231
783.781441	2397.068654
784.104993	2437.397885
784.428498	2475.206538
784.751958	2452.521346
785.075372	2439.918462
785.398739	2432.356731
785.722061	2523.097500
786.045337	2553.344423
786.368568	2470.165385
786.691752	2450.000769
787.014891	2444.959615
787.337983	2520.576923
787.661030	2460.083077
787.984031	2576.029615
788.306987	2490.330000
788.629897	2578.550192
788.952760	2480.247692
789.275579	2530.659231
789.598351	2518.056346
789.921078	2515.535769
790.243759	2477.727115
790.566395	2409.671538
790.888984	2510.494615
791.211529	2477.727115
791.534027	2563.426731
791.856480	2563.426731
792.178888	2520.576923
792.501249	2450.000769
792.823566	2457.562500
793.145836	2465.124231
793.468062	2465.124231
793.790241	2424.795000
794.112375	2480.247692
794.434464	2457.562500
794.756507	2417.233269
795.078505	2467.644808
795.400457	2467.644808
795.722364	2500.412308
796.044226	2482.768269
796.366042	2568.467885
796.687812	2417.233269
797.009538	2492.850577
797.331218	2439.918462
797.652852	2429.836154
797.974442	2533.179808
798.295986	2437.397885
798.617484	2485.288846
798.938938	2565.947308
799.260346	2439.918462
799.581709	2495.371154
799.903026	2523.097500
800.224299	2492.850577
800.545526	2543.262115
800.866708	2525.618077
801.187845	2492.850577
801.508936	2444.959615
801.829983	2455.041923
802.150984	2480.247692
802.471940	2558.385577
802.792851	2470.165385
803.113717	2533.179808
803.434538	2437.397885
803.755314	2470.165385
804.076045	2447.480192
804.396731	2460.083077
804.717372	2480.247692
805.037967	2477.727115
805.358518	2460.083077
805.679024	2452.521346
805.999485	2550.823846
806.319901	2510.494615
806.640272	2497.891731
806.960598	2460.083077
807.280879	2555.865000
807.601115	2460.083077
807.921306	2530.659231
808.241453	2507.974038
808.561554	2480.247692
808.881611	2497.891731
809.201623	2485.288846
809.521590	2525.618077
809.841513	2523.097500
810.161390	2535.700385
810.481223	2507.974038
810.801011	2457.562500
811.120755	2452.521346
811.440453	2490.330000
811.760107	2578.550192
812.079716	2457.562500
812.399281	2507.974038
812.718801	2495.371154
813.038276	2429.836154
813.357707	2548.303269
813.677093	2472.685962
813.996434	2507.974038
814.315731	2523.097500
814.634983	2540.741538
814.954191	2457.562500
815.273354	2495.371154
815.592473	2507.974038
815.911547	2560.906154
816.230577	2525.618077
816.549562	2523.097500
816.868502	2492.850577
817.187399	2518.056346
817.506250	2434.877308
817.825058	2422.274423
818.143821	2540.741538
818.462539	2460.083077
818.781213	2477.727115
819.099843	2442.439038
819.418429	2450.000769
819.736970	2465.124231
820.055466	2540.741538
820.373919	2467.644808
820.692327	2460.083077
821.010691	2480.247692
821.329011	2553.344423
821.647286	2465.124231
821.965517	2487.809423
822.283704	2510.494615
822.601847	2429.836154
822.919945	2500.412308
823.237999	2447.480192
823.556010	2402.109808
823.873976	2555.865000
824.191897	2515.535769
824.509775	2520.576923
824.827609	2548.303269
825.145398	2470.165385
825.463144	2513.015192
825.780845	2593.673654
826.098502	2505.453462
826.416116	2477.727115
826.733685	2505.453462
827.051210	2525.618077
827.368692	2530.659231
827.686129	2502.932885
828.003522	2447.480192
828.320872	2573.509038
828.638177	2523.097500
828.955439	2530.659231
829.272656	2525.618077
829.589830	2492.850577
829.906960	2450.000769
830.224046	2540.741538
830.541088	2505.453462
830.858086	2482.768269
831.175041	2455.041923
831.491952	2515.535769
831.808819	2414.712692
832.125642	2472.685962
832.442421	2596.194231
832.759157	2462.603654
833.075849	2492.850577
833.392497	2472.685962
833.709101	2500.412308
834.025662	2417.233269
834.342179	2530.659231
834.658653	2450.000769
834.975083	2475.206538
835.291469	2586.111923
835.607811	2487.809423
835.924110	2439.918462
836.240366	2470.165385
836.556578	2487.809423
836.872746	2477.727115
837.188871	2442.439038
837.504952	2450.000769
837.820990	2545.782692
838.136984	2432.356731
838.452935	2427.315577
838.768842	2500.412308
839.084706	2510.494615
839.400526	2477.727115
839.716303	2490.330000
840.032037	2558.385577
840.347727	2460.083077
840.663373	2555.865000
840.978977	2573.509038
841.294537	2515.535769
841.610054	2568.467885
841.925527	2485.288846
842.240957	2543.262115
842.556344	2429.836154
842.871687	2442.439038
843.186987	2412.192115
843.502244	2467.644808
843.817458	2520.576923
844.132629	2586.111923
844.447756	2550.823846
844.762840	2495.371154
845.077881	2538.220962
845.392879	2450.000769
845.707833	2543.262115
846.022745	2525.618077
846.337613	2407.150962
846.652438	2528.138654
846.967221	2510.494615
847.281960	2480.247692
847.596656	2392.027500
847.911309	2412.192115
848.225919	2462.603654
848.540485	2515.535769
848.855009	2510.494615
849.169490	2480.247692
849.483928	2510.494615
849.798323	2540.741538
850.112675	2548.303269
850.426984	2500.412308
850.741251	2455.041923
851.055474	2510.494615
851.369654	2500.412308
851.683792	2502.932885
851.997887	2495.371154
852.311938	2578.550192
852.625947	2480.247692
852.939914	2495.371154
853.253837	2409.671538
853.567718	2472.685962
853.881555	2462.603654
854.195350	2460.083077
854.509103	2482.768269
854.822812	2505.453462
855.136479	2485.288846
855.450103	2520.576923
855.763685	2535.700385
856.077224	2505.453462
856.390720	2482.768269
856.704173	2538.220962
857.017584	2429.836154
857.330953	2487.809423
857.644278	2492.850577
857.957561	2439.918462
858.270802	2497.891731
858.584000	2540.741538
858.897155	2392.027500
859.210268	2510.494615
859.523339	2505.453462
859.836367	2477.727115
860.149352	2470.165385
860.462295	2586.111923
860.775195	2500.412308
861.088054	2417.233269
861.400869	2487.809423
861.713642	2570.988462
862.026373	2502.932885
862.339062	2545.782692
862.651708	2477.727115
862.964312	2548.303269
863.276873	2495.371154
863.589392	2434.877308
863.901869	2543.262115
864.214303	2563.426731
864.526696	2583.591346
864.839045	2447.480192
865.151353	2487.809423
865.463619	2465.124231
865.775842	2485.288846
866.088023	2490.330000
866.400162	2492.850577
866.712258	2482.768269
867.024313	2497.891731
867.336325	2518.056346
867.648296	2470.165385
867.960224	2460.083077
868.272110	2545.782692
868.583954	2467.644808
868.895755	2553.344423
869.207515	2576.029615
869.519233	2470.165385
869.830909	2593.673654
870.142542	2447.480192
870.454134	2465.124231
870.765684	2523.097500
871.077191	2429.836154
871.388657	2369.342308
871.700081	2553.344423
872.011463	2492.850577
872.322803	2520.576923
872.634101	2424.795000
872.945357	2550.823846
873.256571	2439.918462
873.567744	2520.576923
873.878874	2379.424615
874.189963	2492.850577
874.501010	2555.865000
874.812015	2510.494615
875.122979	2434.877308
875.433900	2500.412308
875.744780	2485.288846
876.055618	2447.480192
876.366415	2450.000769
876.677169	2507.974038
876.987882	2485.288846
877.298554	2472.685962
877.609183	2528.138654
877.919771	2429.836154
878.230317	2502.932885
878.540822	2447.480192
878.851285	2576.029615
879.161707	2457.562500
879.472087	2490.330000
879.782425	2535.700385
880.092722	2518.056346
880.402977	2482.768269
880.713191	2497.891731
881.023363	2485.288846
881.333494	2442.439038
881.643583	2518.056346
881.953631	2460.083077
882.263637	2553.344423
882.573602	2452.521346
882.883526	2475.206538
883.193408	2507.974038
883.503248	2475.206538
883.813048	2545.782692
884.122806	2434.877308
884.432522	2538.220962
884.742197	2472.685962
885.051831	2528.138654
885.361424	2477.727115
885.670975	2492.850577
885.980485	2543.262115
886.289954	2520.576923
886.599382	2548.303269
886.908768	2497.891731
887.218113	2545.782692
887.527417	2495.371154
887.836680	2495.371154
888.145901	2507.974038
888.455082	2477.727115
888.764221	2482.768269
889.073319	2497.891731
889.382376	2502.932885
889.691392	2442.439038
890.000366	2472.685962
890.309300	2510.494615
890.618193	2487.809423
890.927044	2495.371154
891.235855	2555.865000
891.544625	2480.247692
891.853353	2475.206538
892.162041	2427.315577
892.470687	2447.480192
892.779293	2462.603654
893.087858	2540.741538
893.396381	2452.521346
893.704864	2442.439038
894.013306	2543.262115
894.321707	2475.206538
894.630068	2485.288846
894.938387	2424.795000
895.246665	2475.206538
895.554903	2510.494615
895.863100	2518.056346
896.171256	2462.603654
896.479371	2497.891731
896.787446	2422.274423
897.095480	2505.453462
897.403473	2523.097500
897.711425	2460.083077
898.019336	2472.685962
898.327207	2510.494615
898.635038	2487.809423
898.942827	2505.453462
899.250576	2500.412308
899.558284	2540.741538
899.865952	2480.247692
900.173579	2563.426731
900.481165	2477.727115
900.788711	2424.795000
901.096216	2560.906154
901.403681	2460.083077
901.711105	2429.836154
902.018489	2507.974038
902.325832	2603.755962
902.633135	2505.453462
902.940397	2510.494615
903.247619	2450.000769
903.554800	2381.945192
903.861941	2450.000769
904.169041	2533.179808
904.476101	2515.535769
904.783121	2470.165385
905.090100	2475.206538
905.397039	2490.330000
905.703938	2500.412308
906.010796	2487.809423
906.317614	2470.165385
906.624391	2482.768269
906.931129	2394.548077
907.237826	2500.412308
907.544483	2442.439038
907.851099	2465.124231
908.157675	2470.165385
908.464211	2442.439038
908.770707	2490.330000
909.077163	2465.124231
909.383578	2553.344423
909.689954	2490.330000
909.996289	2414.712692
910.302584	2570.988462
910.608839	2437.397885
910.915054	2444.959615
911.221229	2470.165385
911.527363	2507.974038
911.833458	2419.753846
912.139513	2523.097500
912.445527	2467.644808
912.751502	2475.206538
913.057436	2437.397885
913.363331	2505.453462
913.669186	2465.124231
913.975000	2518.056346
914.280775	2447.480192
914.586510	2457.562500
914.892205	2578.550192
915.197859	2507.974038
915.503475	2533.179808
915.809050	2452.521346
916.114585	2427.315577
916.420081	2457.562500
916.725536	2548.303269
917.030952	2525.618077
917.336328	2399.589231
917.641665	2487.809423
917.946961	2497.891731
918.252218	2497.891731
918.557435	2452.521346
918.862612	2515.535769
919.167750	2538.220962
919.472848	2452.521346
919.777906	2502.932885
920.082925	2525.618077
920.387904	2558.385577
920.692843	2507.974038
920.997743	2586.111923
921.302603	2475.206538
921.607423	2518.056346
921.912204	2437.397885
922.216946	2472.685962
922.521647	2583.591346
922.826310	2407.150962
923.130932	2472.685962
923.435516	2482.768269
923.740059	2455.041923
924.044564	2490.330000
924.349028	2477.727115
924.653454	2414.712692
924.957840	2520.576923
925.262186	2442.439038
925.566493	2495.371154
925.870761	2447.480192
926.174989	2437.397885
926.479178	2480.247692
926.783328	2505.453462
927.087438	2482.768269
927.391509	2523.097500
927.695541	2497.891731
927.999533	2505.453462
928.303486	2497.891731
928.607400	2434.877308
928.911275	2429.836154
929.215110	2412.192115
929.518906	2467.644808
929.822663	2518.056346
930.126381	2528.138654
930.430060	2475.206538
930.733699	2475.206538
931.037299	2432.356731
931.340861	2558.385577
931.644383	2417.233269
931.947866	2472.685962
932.251309	2578.550192
932.554714	2570.988462
932.858080	2442.439038
933.161407	2452.521346
933.464694	2515.535769
933.767943	2502.932885
934.071153	2505.453462
934.374323	2515.535769
934.677455	2530.659231
934.980548	2422.274423
935.283602	2505.453462
935.586617	2392.027500
935.889593	2502.932885
936.192530	2414.712692
936.495428	2490.330000
936.798287	2513.015192
937.101108	2434.877308
937.403890	2424.795000
937.706632	2533.179808
938.009336	2424.795000
938.312002	2434.877308
938.614628	2477.727115
938.917216	2518.056346
939.219765	2591.153077
939.522275	2447.480192
939.824747	2462.603654
940.127179	2462.603654
940.429573	2497.891731
940.731929	2480.247692
941.034246	2568.467885
941.336524	2485.288846
941.638763	2470.165385
941.940964	2518.056346
942.243126	2465.124231
942.545250	2528.138654
942.847335	2477.727115
943.149381	2505.453462
943.451389	2548.303269
943.753359	2538.220962
944.055290	2402.109808
944.357182	2528.138654
944.659036	2487.809423
944.960851	2538.220962
945.262628	2442.439038
945.564367	2555.865000
945.866067	2452.521346
946.167729	2457.562500
946.469352	2513.015192
946.770937	2545.782692
947.072484	2487.809423
947.373992	2606.276538
947.675462	2472.685962
947.976893	2475.206538
948.278286	2598.714808
948.579641	2386.986346
948.880958	2437.397885
949.182236	2540.741538
949.483476	2558.385577
949.784678	2497.891731
950.085841	2467.644808
950.386967	2518.056346
950.688054	2550.823846
950.989103	2518.056346
951.290114	2487.809423
951.591087	2422.274423
951.892021	2502.932885
952.192917	2545.782692
952.493776	2533.179808
952.794596	2492.850577
953.095378	2450.000769
953.396122	2560.906154
953.696828	2497.891731
953.997496	2540.741538
954.298126	2581.070769
954.598718	2485.288846
954.899272	2565.947308
955.199788	2452.521346
955.500266	2515.535769
955.800706	2460.083077
956.101108	2528.138654
956.401472	2487.809423
956.701798	2450.000769
957.002087	2568.467885
957.302337	2500.412308
957.602550	2437.397885
957.902724	2447.480192
958.202861	2545.782692
958.502960	2462.603654
958.803022	2515.535769
959.103045	2397.068654
959.403031	2558.385577
959.702979	2563.426731
960.002889	2465.124231
960.302762	2432.356731
960.602596	2528.138654
960.902393	2487.809423
961.202153	2485.288846
961.501875	2462.603654
961.801559	2394.548077
962.101205	2518.056346
962.400814	2472.685962
962.700385	2513.015192
962.999918	2565.947308
963.299414	2457.562500
963.598873	2417.233269
963.898293	2480.247692
964.197677	2470.165385
964.497022	2518.056346
964.796331	2452.521346
965.095601	2472.685962
965.394835	2364.301154
965.694030	2545.782692
965.993189	2442.439038
966.292309	2460.083077
966.591393	2485.288846
966.890439	2593.673654
967.189447	2462.603654
967.488419	2485.288846
967.787353	2480.247692
968.086249	2472.685962
968.385108	2555.865000
968.683930	2485.288846
968.982714	2507.974038
969.281462	2490.330000
969.580172	2515.535769
969.878844	2533.179808
970.177480	2432.356731
970.476078	2492.850577
970.774639	2450.000769
971.073162	2548.303269
971.371649	2525.618077
971.670098	2495.371154
971.968510	2475.206538
972.266885	2369.342308
972.565223	2487.809423
972.863524	2502.932885
973.161788	2548.303269
973.460014	2568.467885
973.758204	2465.124231
974.056356	2518.056346
974.354471	2545.782692
974.652550	2608.797115
974.950591	2386.986346
975.248595	2523.097500
975.546563	2482.768269
975.844493	2573.509038
976.142386	2528.138654
976.440243	2553.344423
976.738062	2495.371154
977.035845	2530.659231
977.333590	2444.959615
977.631299	2523.097500
977.928971	2470.165385
978.226606	2523.097500
978.524204	2495.371154
978.821765	2492.850577
979.119290	2444.959615
979.416777	2460.083077
979.714228	2460.083077
980.011642	2528.138654
980.309020	2460.083077
980.606360	2487.809423
980.903664	2515.535769
981.200931	2525.618077
981.498162	2538.220962
981.795356	2419.753846
982.092513	2381.945192
982.389633	2533.179808
982.686717	2432.356731
982.983764	2507.974038
983.280775	2510.494615
983.577749	2520.576923
983.874686	2429.836154
984.171587	2460.083077
984.468451	2427.315577
984.765279	2490.330000
985.062070	2460.083077
985.358824	2414.712692
985.655543	2530.659231
985.952224	2402.109808
986.248869	2596.194231
986.545478	2465.124231
986.842050	2487.809423
987.138586	2450.000769
987.435086	2545.782692
987.731549	2482.768269
988.027975	2507.974038
988.324366	2442.439038
988.620719	2500.412308
988.917037	2482.768269
989.213318	2495.371154
989.509563	2523.097500
989.805772	2444.959615
990.101944	2565.947308
990.398080	2460.083077
990.694180	2487.809423
990.990244	2520.576923
991.286271	2467.644808
991.582262	2487.809423
991.878217	2485.288846
992.174136	2548.303269
992.470019	2434.877308
992.765865	2487.809423
993.061676	2563.426731
993.357450	2462.603654
993.653188	2412.192115
993.948890	2497.891731
994.244556	2513.015192
994.540186	2439.918462
994.835780	2510.494615
995.131337	2465.124231
995.426859	2452.521346
995.722345	2419.753846
996.017795	2565.947308
996.313208	2530.659231
996.608586	2558.385577
996.903928	2485.288846
997.199234	2475.206538
997.494504	2422.274423
997.789738	2500.412308
998.084936	2507.974038
998.380099	2482.768269
998.675225	2487.809423
998.970316	2545.782692
999.265371	2424.795000
999.560390	2472.685962
999.855373	2510.494615
1000.150320	2502.932885
1000.445232	2502.932885
1000.740108	2457.562500
1001.034948	2535.700385
1001.329752	2520.576923
1001.624521	2500.412308
1001.919254	2465.124231
1002.213951	2437.397885
1002.508613	2447.480192
1002.803239	2485.288846
1003.097829	2450.000769
1003.392384	2457.562500
1003.686903	2432.356731
1003.981386	2492.850577
1004.275834	2623.920577
1004.570246	2485.288846
1004.864623	2507.974038
1005.158964	2450.000769
1005.453270	2505.453462
1005.747540	2510.494615
1006.041775	2452.521346
1006.335974	2472.685962
1006.630138	2500.412308
1006.924266	2538.220962
1007.218359	2460.083077
1007.512416	2540.741538
1007.806438	2444.959615
1008.100425	2480.247692
1008.394376	2518.056346
1008.688292	2520.576923
1008.982172	2490.330000
1009.276017	2518.056346
1009.569827	2480.247692
1009.863602	2518.056346
1010.157341	2560.906154
1010.451045	2495.371154
1010.744714	2492.850577
1011.038347	2520.576923
1011.331945	2563.426731
1011.625508	2606.276538
1011.919036	2467.644808
1012.212528	2550.823846
1012.505986	2455.041923
1012.799408	2540.741538
1013.092795	2497.891731
1013.386147	2513.015192
1013.679464	2495.371154
1013.972745	2447.480192
1014.265992	2434.877308
1014.559204	2477.727115
1014.852380	2450.000769
1015.145521	2543.262115
1015.438628	2477.727115
1015.731699	2427.315577
1016.024736	2487.809423
1016.317737	2490.330000
1016.610703	2490.330000
1016.903635	2492.850577
1017.196531	2492.850577
1017.489393	2497.891731
1017.782219	2439.918462
1018.075011	2429.836154
1018.367768	2520.576923
1018.660490	2455.041923
1018.953177	2455.041923
1019.245829	2455.041923
