Dividing Wavelength (nm)	Counts (n)	Blue Motor Position (mm): 5.500000	Red Motor Position (mm): 0.000000	
326.493990	2081.996538
326.888308	2081.996538
327.282561	2081.996538
327.676750	2102.161154
328.070874	2016.461538
328.464933	1988.735192
328.858929	2074.434808
329.252859	2064.352500
329.646726	2094.599423
330.040528	2092.078846
330.434265	2122.325769
330.827938	2180.299038
331.221547	2139.969808
331.615091	2185.340192
332.008571	2155.093269
332.401986	2139.969808
332.795338	2172.737308
333.188625	2223.148846
333.581847	2255.916346
333.975006	2260.957500
334.368100	2334.054231
334.761129	2286.163269
335.154095	2341.615962
335.546996	2250.875192
335.939833	2369.342308
336.332606	2437.397885
336.725315	2321.451346
337.117960	2329.013077
337.510540	2414.712692
337.903056	2439.918462
338.295508	2462.603654
338.687896	2404.630385
339.080220	2364.301154
339.472480	2392.027500
339.864676	2490.330000
340.256807	2465.124231
340.648875	2492.850577
341.040879	2417.233269
341.432818	2475.206538
341.824694	2485.288846
342.216506	2472.685962
342.608253	2530.659231
342.999937	2518.056346
343.391557	2528.138654
343.783113	2518.056346
344.174605	2460.083077
344.566033	2460.083077
344.957397	2462.603654
345.348697	2558.385577
345.739934	2487.809423
346.131106	2465.124231
346.522215	2525.618077
346.913260	2485.288846
347.304241	2518.056346
347.695159	2482.768269
348.086012	2507.974038
348.476802	2513.015192
348.867528	2437.397885
349.258191	2427.315577
349.648789	2450.000769
350.039324	2507.974038
350.429796	2490.330000
350.820203	2402.109808
351.210548	2492.850577
351.600828	2455.041923
351.991045	2462.603654
352.381198	2470.165385
352.771288	2470.165385
353.161314	2460.083077
353.551276	2462.603654
353.941175	2450.000769
354.331010	2399.589231
354.720782	2470.165385
355.110490	2404.630385
355.500135	2475.206538
355.889717	2525.618077
356.279235	2470.165385
356.668689	2414.712692
357.058080	2452.521346
357.447408	2442.439038
357.836672	2507.974038
358.225873	2374.383462
358.615010	2477.727115
359.004084	2359.260000
359.393095	2404.630385
359.782043	2452.521346
360.170927	2392.027500
360.559748	2457.562500
360.948505	2505.453462
361.337199	2452.521346
361.725830	2465.124231
362.114398	2404.630385
362.502903	2477.727115
362.891344	2487.809423
363.279722	2444.959615
363.668037	2502.932885
364.056289	2432.356731
364.444478	2472.685962
364.832603	2412.192115
365.220665	2417.233269
365.608665	2480.247692
365.996601	2515.535769
366.384474	2384.465769
366.772284	2510.494615
367.160031	2412.192115
367.547715	2369.342308
367.935336	2437.397885
368.322893	2381.945192
368.710388	2424.795000
369.097820	2515.535769
369.485189	2450.000769
369.872495	2366.821731
370.259738	2414.712692
370.646918	2397.068654
371.034035	2533.179808
371.421090	2394.548077
371.808081	2417.233269
372.195010	2412.192115
372.581875	2442.439038
372.968678	2480.247692
373.355418	2427.315577
373.742096	2462.603654
374.128710	2434.877308
374.515262	2500.412308
374.901751	2444.959615
375.288177	2397.068654
375.674540	2409.671538
376.060841	2472.685962
376.447079	2500.412308
376.833254	2437.397885
377.219367	2472.685962
377.605417	2515.535769
377.991404	2485.288846
378.377329	2525.618077
378.763191	2457.562500
379.148991	2490.330000
379.534727	2381.945192
379.920402	2397.068654
380.306013	2407.150962
380.691563	2407.150962
381.077049	2399.589231
381.462474	2560.906154
381.847835	2442.439038
382.233134	2467.644808
382.618371	2462.603654
383.003545	2500.412308
383.388657	2439.918462
383.773706	2515.535769
384.158693	2427.315577
384.543618	2470.165385
384.928480	2439.918462
385.313280	2450.000769
385.698017	2467.644808
386.082692	2462.603654
386.467305	2485.288846
386.851856	2530.659231
387.236344	2424.795000
387.620770	2472.685962
388.005133	2510.494615
388.389435	2548.303269
388.773674	2540.741538
389.157851	2371.862885
389.541965	2470.165385
389.926018	2450.000769
390.310008	2502.932885
390.693936	2460.083077
391.077802	2495.371154
391.461606	2444.959615
391.845348	2520.576923
392.229027	2530.659231
392.612645	2460.083077
392.996200	2487.809423
393.379694	2492.850577
393.763125	2419.753846
394.146494	2490.330000
394.529801	2485.288846
394.913047	2472.685962
395.296230	2490.330000
395.679351	2581.070769
396.062410	2510.494615
396.445408	2447.480192
396.828343	2455.041923
397.211217	2545.782692
397.594028	2444.959615
397.976778	2460.083077
398.359466	2467.644808
398.742092	2548.303269
399.124656	2558.385577
399.507158	2472.685962
399.889598	2419.753846
400.271977	2467.644808
400.654294	2513.015192
401.036549	2482.768269
401.418742	2530.659231
401.800874	2444.959615
402.182944	2487.809423
402.564952	2510.494615
402.946898	2490.330000
403.328783	2444.959615
403.710606	2497.891731
404.092367	2502.932885
404.474067	2545.782692
404.855705	2480.247692
405.237282	2462.603654
405.618797	2462.603654
406.000250	2525.618077
406.381642	2603.755962
406.762972	2424.795000
407.144240	2555.865000
407.525447	2520.576923
407.906593	2462.603654
408.287677	2409.671538
408.668700	2487.809423
409.049661	2477.727115
409.430560	2455.041923
409.811399	2439.918462
410.192176	2419.753846
410.572891	2492.850577
410.953545	2467.644808
411.334138	2462.603654
411.714669	2515.535769
412.095139	2450.000769
412.475547	2545.782692
412.855894	2497.891731
413.236180	2490.330000
413.616405	2417.233269
413.996568	2500.412308
414.376670	2492.850577
414.756711	2457.562500
415.136691	2500.412308
415.516609	2457.562500
415.896466	2485.288846
416.276262	2500.412308
416.655997	2502.932885
417.035670	2490.330000
417.415283	2452.521346
417.794834	2472.685962
418.174324	2550.823846
418.553753	2510.494615
418.933121	2510.494615
419.312428	2510.494615
419.691674	2414.712692
420.070859	2500.412308
420.449983	2450.000769
420.829045	2520.576923
421.208047	2465.124231
421.586988	2417.233269
421.965867	2455.041923
422.344686	2550.823846
422.723444	2465.124231
423.102141	2518.056346
423.480777	2417.233269
423.859352	2452.521346
424.237866	2465.124231
424.616319	2386.986346
424.994712	2452.521346
425.373044	2452.521346
425.751314	2505.453462
426.129524	2407.150962
426.507673	2457.562500
426.885762	2535.700385
427.263789	2465.124231
427.641756	2497.891731
428.019662	2442.439038
428.397508	2528.138654
428.775292	2356.739423
429.153016	2371.862885
429.530679	2563.426731
429.908282	2490.330000
430.285824	2462.603654
430.663305	2502.932885
431.040726	2444.959615
431.418086	2505.453462
431.795385	2460.083077
432.172624	2460.083077
432.549802	2455.041923
432.926920	2366.821731
433.303977	2477.727115
433.680974	2540.741538
434.057910	2485.288846
434.434786	2472.685962
434.811601	2472.685962
435.188355	2386.986346
435.565050	2434.877308
435.941683	2538.220962
436.318257	2460.083077
436.694770	2485.288846
437.071222	2518.056346
437.447614	2528.138654
437.823946	2432.356731
438.200218	2480.247692
438.576429	2447.480192
438.952580	2548.303269
439.328670	2603.755962
439.704700	2480.247692
440.080670	2515.535769
440.456580	2523.097500
440.832429	2356.739423
441.208218	2560.906154
441.583947	2500.412308
441.959616	2533.179808
442.335224	2444.959615
442.710773	2553.344423
443.086261	2495.371154
443.461689	2545.782692
443.837057	2470.165385
444.212365	2502.932885
444.587612	2480.247692
444.962800	2548.303269
445.337927	2417.233269
445.712995	2530.659231
446.088002	2540.741538
446.462949	2611.317692
446.837837	2407.150962
447.212664	2553.344423
447.587431	2475.206538
447.962139	2470.165385
448.336786	2485.288846
448.711374	2497.891731
449.085901	2500.412308
449.460369	2452.521346
449.834776	2576.029615
450.209124	2422.274423
450.583412	2502.932885
450.957640	2555.865000
451.331808	2429.836154
451.705917	2528.138654
452.079965	2555.865000
452.453954	2540.741538
452.827883	2502.932885
453.201752	2409.671538
453.575562	2462.603654
453.949311	2447.480192
454.323001	2520.576923
454.696632	2540.741538
455.070202	2601.235385
455.443713	2465.124231
455.817164	2502.932885
456.190556	2460.083077
456.563888	2460.083077
456.937160	2535.700385
457.310373	2507.974038
457.683526	2560.906154
458.056619	2475.206538
458.429653	2495.371154
458.802628	2528.138654
459.175542	2507.974038
459.548398	2485.288846
459.921194	2543.262115
460.293930	2518.056346
460.666607	2507.974038
461.039224	2583.591346
461.411782	2543.262115
461.784280	2455.041923
462.156719	2502.932885
462.529099	2578.550192
462.901419	2465.124231
463.273680	2550.823846
463.645882	2523.097500
464.018024	2505.453462
464.390106	2518.056346
464.762130	2583.591346
465.134094	2460.083077
465.505999	2510.494615
465.877845	2578.550192
466.249631	2447.480192
466.621358	2465.124231
466.993026	2470.165385
467.364634	2475.206538
467.736184	2477.727115
468.107674	2563.426731
468.479105	2518.056346
468.850477	2424.795000
469.221790	2518.056346
469.593043	2573.509038
469.964238	2475.206538
470.335373	2568.467885
470.706449	2482.768269
471.077467	2467.644808
471.448425	2535.700385
471.819324	2502.932885
472.190164	2427.315577
472.560945	2490.330000
472.931667	2528.138654
473.302330	2442.439038
473.672934	2480.247692
474.043479	2492.850577
474.413965	2540.741538
474.784393	2432.356731
475.154761	2611.317692
475.525070	2475.206538
475.895321	2444.959615
476.265513	2505.453462
476.635645	2565.947308
477.005719	2475.206538
477.375734	2543.262115
477.745691	2472.685962
478.115588	2386.986346
478.485427	2507.974038
478.855207	2538.220962
479.224928	2444.959615
479.594591	2475.206538
479.964194	2497.891731
480.333739	2497.891731
480.703226	2502.932885
481.072653	2422.274423
481.442022	2563.426731
481.811333	2618.879423
482.180584	2502.932885
482.549777	2485.288846
482.918912	2485.288846
483.287988	2485.288846
483.657005	2422.274423
484.025964	2450.000769
484.394864	2412.192115
484.763706	2548.303269
485.132489	2528.138654
485.501213	2480.247692
485.869879	2450.000769
486.238487	2515.535769
486.607036	2462.603654
486.975527	2412.192115
487.343959	2576.029615
487.712333	2525.618077
488.080648	2548.303269
488.448905	2475.206538
488.817104	2510.494615
489.185244	2472.685962
489.553326	2513.015192
489.921350	2513.015192
490.289315	2487.809423
490.657222	2530.659231
491.025070	2485.288846
491.392861	2510.494615
491.760593	2429.836154
492.128267	2412.192115
492.495883	2470.165385
492.863440	2543.262115
493.230939	2419.753846
493.598380	2565.947308
493.965763	2490.330000
494.333088	2444.959615
494.700354	2475.206538
495.067563	2485.288846
495.434713	2507.974038
495.801805	2510.494615
496.168839	2573.509038
496.535815	2457.562500
496.902733	2492.850577
497.269593	2432.356731
497.636395	2520.576923
498.003139	2485.288846
498.369825	2523.097500
498.736453	2455.041923
499.103023	2429.836154
499.469535	2500.412308
499.835989	2528.138654
500.202385	2439.918462
500.568723	2578.550192
500.935003	2505.453462
501.301226	2515.535769
501.667390	2442.439038
502.033497	2495.371154
502.399546	2492.850577
502.765537	2487.809423
503.131470	2432.356731
503.497345	2555.865000
503.863163	2603.755962
504.228923	2520.576923
504.594625	2477.727115
504.960269	2565.947308
505.325856	2457.562500
505.691385	2550.823846
506.056856	2470.165385
506.422270	2437.397885
506.787625	2432.356731
507.152924	2502.932885
507.518164	2545.782692
507.883347	2535.700385
508.248472	2558.385577
508.613540	2611.317692
508.978550	2434.877308
509.343503	2543.262115
509.708398	2432.356731
510.073236	2518.056346
510.438016	2480.247692
510.802738	2482.768269
511.167403	2460.083077
511.532010	2429.836154
511.896561	2422.274423
512.261053	2424.795000
512.625488	2465.124231
512.989866	2540.741538
513.354186	2570.988462
513.718449	2470.165385
514.082655	2513.015192
514.446803	2568.467885
514.810894	2485.288846
515.174927	2424.795000
515.538904	2485.288846
515.902822	2439.918462
516.266684	2412.192115
516.630488	2482.768269
516.994235	2457.562500
517.357925	2513.015192
517.721558	2485.288846
518.085133	2565.947308
518.448651	2525.618077
518.812112	2487.809423
519.175516	2450.000769
519.538863	2538.220962
519.902152	2518.056346
520.265385	2502.932885
520.628560	2492.850577
520.991678	2515.535769
521.354739	2482.768269
521.717743	2492.850577
522.080690	2555.865000
522.443580	2480.247692
522.806413	2543.262115
523.169189	2500.412308
523.531908	2525.618077
523.894569	2543.262115
524.257174	2450.000769
524.619722	2530.659231
524.982213	2480.247692
525.344647	2427.315577
525.707025	2439.918462
526.069345	2555.865000
526.431608	2520.576923
526.793815	2555.865000
527.155964	2553.344423
527.518057	2515.535769
527.880093	2507.974038
528.242072	2414.712692
528.603995	2482.768269
528.965860	2586.111923
529.327669	2467.644808
529.689421	2366.821731
530.051117	2497.891731
530.412755	2455.041923
530.774337	2447.480192
531.135862	2502.932885
531.497331	2432.356731
531.858743	2507.974038
532.220098	2467.644808
532.581396	2472.685962
532.942638	2515.535769
533.303824	2470.165385
533.664953	2588.632500
534.026025	2563.426731
534.387040	2520.576923
534.747999	2523.097500
535.108902	2439.918462
535.469748	2523.097500
535.830537	2485.288846
536.191270	2470.165385
536.551947	2490.330000
536.912567	2616.358846
537.273131	2495.371154
537.633638	2402.109808
537.994089	2465.124231
538.354483	2545.782692
538.714821	2507.974038
539.075103	2502.932885
539.435328	2429.836154
539.795497	2507.974038
540.155609	2422.274423
540.515665	2477.727115
540.875665	2525.618077
541.235609	2460.083077
541.595496	2523.097500
541.955328	2540.741538
542.315102	2457.562500
542.674821	2472.685962
543.034483	2515.535769
543.394090	2515.535769
543.753640	2530.659231
544.113134	2518.056346
544.472571	2606.276538
544.831953	2487.809423
545.191278	2523.097500
545.550548	2485.288846
545.909761	2578.550192
546.268918	2487.809423
546.628019	2513.015192
546.987064	2520.576923
547.346053	2472.685962
547.704986	2518.056346
548.063863	2507.974038
548.422684	2500.412308
548.781449	2444.959615
549.140158	2525.618077
549.498811	2553.344423
549.857408	2513.015192
550.215949	2520.576923
550.574434	2457.562500
550.932864	2502.932885
551.291237	2465.124231
551.649555	2465.124231
552.007817	2404.630385
552.366022	2437.397885
552.724173	2460.083077
553.082267	2523.097500
553.440305	2467.644808
553.798288	2518.056346
554.156215	2472.685962
554.514086	2429.836154
554.871902	2450.000769
555.229661	2462.603654
555.587365	2472.685962
555.945014	2540.741538
556.302606	2455.041923
556.660143	2555.865000
557.017625	2545.782692
557.375050	2535.700385
557.732421	2540.741538
558.089735	2543.262115
558.446994	2492.850577
558.804197	2588.632500
559.161345	2462.603654
559.518437	2414.712692
559.875474	2540.741538
560.232455	2455.041923
560.589381	2563.426731
560.946251	2570.988462
561.303065	2588.632500
561.659825	2480.247692
562.016528	2518.056346
562.373177	2500.412308
562.729770	2540.741538
563.086307	2477.727115
563.442789	2505.453462
563.799216	2407.150962
564.155587	2500.412308
564.511904	2570.988462
564.868164	2492.850577
565.224370	2588.632500
565.580520	2402.109808
565.936615	2439.918462
566.292654	2581.070769
566.648638	2611.317692
567.004567	2477.727115
567.360441	2520.576923
567.716260	2591.153077
568.072023	2520.576923
568.427732	2510.494615
568.783385	2437.397885
569.138982	2495.371154
569.494525	2465.124231
569.850013	2540.741538
570.205445	2540.741538
570.560823	2518.056346
570.916145	2507.974038
571.271412	2583.591346
571.626625	2540.741538
571.981782	2490.330000
572.336884	2583.591346
572.691931	2462.603654
573.046923	2540.741538
573.401860	2555.865000
573.756743	2455.041923
574.111570	2500.412308
574.466342	2535.700385
574.821059	2450.000769
575.175722	2548.303269
575.530330	2497.891731
575.884882	2480.247692
576.239380	2528.138654
576.593823	2520.576923
576.948211	2583.591346
577.302544	2492.850577
577.656823	2490.330000
578.011047	2492.850577
578.365216	2455.041923
578.719330	2530.659231
579.073389	2525.618077
579.427394	2490.330000
579.781344	2500.412308
580.135239	2507.974038
580.489080	2455.041923
580.842866	2397.068654
581.196597	2470.165385
581.550273	2409.671538
581.903895	2437.397885
582.257463	2487.809423
582.610975	2452.521346
582.964434	2550.823846
583.317837	2434.877308
583.671186	2407.150962
584.024481	2518.056346
584.377721	2540.741538
584.730906	2505.453462
585.084037	2553.344423
585.437113	2477.727115
585.790135	2598.714808
586.143103	2560.906154
586.496016	2518.056346
586.848874	2470.165385
587.201679	2432.356731
587.554428	2518.056346
587.907124	2515.535769
588.259765	2553.344423
588.612352	2480.247692
588.964884	2439.918462
589.317362	2482.768269
589.669786	2487.809423
590.022155	2520.576923
590.374470	2515.535769
590.726731	2550.823846
591.078937	2525.618077
591.431090	2523.097500
591.783188	2530.659231
592.135232	2563.426731
592.487222	2505.453462
592.839157	2492.850577
593.191038	2530.659231
593.542866	2424.795000
593.894639	2555.865000
594.246358	2417.233269
594.598022	2500.412308
594.949633	2495.371154
595.301190	2487.809423
595.652692	2442.439038
596.004141	2477.727115
596.355535	2510.494615
596.706876	2492.850577
597.058162	2518.056346
597.409395	2470.165385
597.760573	2528.138654
598.111698	2419.753846
598.462768	2520.576923
598.813785	2523.097500
599.164748	2560.906154
599.515657	2427.315577
599.866511	2530.659231
600.217312	2450.000769
600.568060	2515.535769
600.918753	2465.124231
601.269392	2497.891731
601.619978	2520.576923
601.970510	2540.741538
602.320988	2553.344423
602.671412	2447.480192
603.021783	2467.644808
603.372100	2444.959615
603.722363	2465.124231
604.072572	2490.330000
604.422728	2447.480192
604.772830	2467.644808
605.122878	2487.809423
605.472872	2513.015192
605.822813	2450.000769
606.172701	2447.480192
606.522534	2432.356731
606.872314	2528.138654
607.222041	2530.659231
607.571714	2444.959615
607.921333	2487.809423
608.270899	2515.535769
608.620411	2523.097500
608.969870	2429.836154
609.319276	2553.344423
609.668627	2472.685962
610.017926	2472.685962
610.367171	2540.741538
610.716362	2480.247692
611.065500	2560.906154
611.414585	2576.029615
611.763616	2530.659231
612.112594	2495.371154
612.461518	2444.959615
612.810389	2550.823846
613.159207	2533.179808
613.507971	2480.247692
613.856682	2528.138654
614.205340	2467.644808
614.553945	2500.412308
614.902496	2460.083077
615.250994	2490.330000
615.599439	2477.727115
615.947830	2482.768269
616.296169	2520.576923
616.644454	2550.823846
616.992686	2470.165385
617.340864	2528.138654
617.688990	2465.124231
618.037063	2515.535769
618.385082	2565.947308
618.733048	2515.535769
619.080961	2543.262115
619.428821	2457.562500
619.776628	2482.768269
620.124382	2487.809423
620.472083	2477.727115
620.819731	2470.165385
621.167326	2462.603654
621.514868	2480.247692
621.862357	2432.356731
622.209793	2558.385577
622.557176	2480.247692
622.904506	2520.576923
623.251783	2490.330000
623.599007	2404.630385
623.946179	2477.727115
624.293297	2470.165385
624.640363	2515.535769
624.987376	2530.659231
625.334336	2563.426731
625.681243	2432.356731
626.028097	2545.782692
626.374899	2558.385577
626.721647	2570.988462
627.068343	2414.712692
627.414987	2480.247692
627.761577	2472.685962
628.108115	2538.220962
628.454600	2525.618077
628.801032	2462.603654
629.147412	2500.412308
629.493739	2485.288846
629.840014	2573.509038
630.186236	2447.480192
630.532405	2505.453462
630.878521	2530.659231
631.224585	2502.932885
631.570597	2540.741538
631.916556	2538.220962
632.262462	2518.056346
632.608316	2480.247692
632.954117	2495.371154
633.299866	2500.412308
633.645562	2502.932885
633.991206	2492.850577
634.336797	2515.535769
634.682336	2487.809423
635.027823	2490.330000
635.373257	2414.712692
635.718639	2505.453462
636.063968	2523.097500
636.409245	2548.303269
636.754470	2490.330000
637.099642	2487.809423
637.444762	2467.644808
637.789829	2500.412308
638.134845	2578.550192
638.479808	2535.700385
638.824719	2593.673654
639.169577	2513.015192
639.514383	2530.659231
639.859137	2482.768269
640.203839	2477.727115
640.548489	2465.124231
640.893086	2470.165385
641.237632	2565.947308
641.582125	2520.576923
641.926566	2472.685962
642.270955	2432.356731
642.615292	2465.124231
642.959576	2457.562500
643.303809	2515.535769
643.647990	2505.453462
643.992118	2465.124231
644.336195	2492.850577
644.680219	2462.603654
645.024192	2467.644808
645.368112	2447.480192
645.711981	2447.480192
646.055797	2555.865000
646.399562	2545.782692
646.743274	2523.097500
647.086935	2543.262115
647.430544	2487.809423
647.774101	2482.768269
648.117606	2492.850577
648.461059	2525.618077
648.804460	2515.535769
649.147810	2482.768269
649.491108	2555.865000
649.834354	2510.494615
650.177548	2533.179808
650.520690	2533.179808
650.863781	2550.823846
651.206820	2487.809423
651.549807	2515.535769
651.892742	2520.576923
652.235626	2470.165385
652.578458	2485.288846
652.921238	2523.097500
653.263967	2513.015192
653.606644	2374.383462
653.949269	2455.041923
654.291843	2563.426731
654.634365	2550.823846
654.976836	2465.124231
655.319255	2447.480192
655.661622	2507.974038
656.003938	2495.371154
656.346203	2490.330000
656.688416	2417.233269
657.030577	2538.220962
657.372687	2513.015192
657.714746	2497.891731
658.056753	2500.412308
658.398708	2457.562500
658.740612	2502.932885
659.082465	2460.083077
659.424266	2518.056346
659.766016	2470.165385
660.107715	2528.138654
660.449362	2424.795000
660.790958	2525.618077
661.132503	2487.809423
661.473996	2540.741538
661.815438	2528.138654
662.156829	2513.015192
662.498168	2427.315577
662.839456	2502.932885
663.180693	2490.330000
663.521879	2548.303269
663.863013	2490.330000
664.204097	2568.467885
664.545129	2434.877308
664.886110	2515.535769
665.227040	2507.974038
665.567918	2480.247692
665.908746	2523.097500
666.249522	2432.356731
666.590248	2467.644808
666.930922	2548.303269
667.271545	2505.453462
667.612118	2510.494615
667.952639	2525.618077
668.293109	2452.521346
668.633528	2487.809423
668.973896	2472.685962
669.314213	2576.029615
669.654480	2533.179808
669.994695	2510.494615
670.334859	2432.356731
670.674973	2515.535769
671.015035	2477.727115
671.355047	2616.358846
671.695008	2439.918462
672.034918	2485.288846
672.374777	2563.426731
672.714585	2497.891731
673.054342	2502.932885
673.394049	2520.576923
673.733705	2523.097500
674.073310	2540.741538
674.412864	2513.015192
674.752368	2490.330000
675.091820	2460.083077
675.431223	2576.029615
675.770574	2429.836154
676.109875	2510.494615
676.449125	2490.330000
676.788324	2530.659231
677.127473	2482.768269
677.466571	2465.124231
677.805619	2540.741538
678.144616	2450.000769
678.483562	2409.671538
678.822458	2470.165385
679.161303	2593.673654
679.500098	2616.358846
679.838842	2560.906154
680.177535	2470.165385
680.516179	2510.494615
680.854771	2596.194231
681.193314	2533.179808
681.531805	2545.782692
681.870247	2555.865000
682.208638	2404.630385
682.546978	2538.220962
682.885268	2550.823846
683.223508	2467.644808
683.561697	2538.220962
683.899836	2482.768269
684.237925	2507.974038
684.575963	2535.700385
684.913951	2462.603654
685.251889	2578.550192
685.589776	2465.124231
685.927614	2492.850577
686.265401	2467.644808
686.603137	2586.111923
686.940824	2563.426731
687.278460	2528.138654
687.616046	2525.618077
687.953582	2523.097500
688.291068	2583.591346
688.628504	2485.288846
688.965889	2482.768269
689.303224	2518.056346
689.640510	2490.330000
689.977745	2485.288846
690.314930	2523.097500
690.652065	2414.712692
690.989150	2518.056346
691.326185	2455.041923
691.663170	2457.562500
692.000105	2455.041923
692.336990	2457.562500
692.673825	2487.809423
693.010610	2578.550192
693.347345	2497.891731
693.684030	2558.385577
694.020665	2457.562500
694.357251	2497.891731
694.693786	2497.891731
695.030272	2528.138654
695.366707	2507.974038
695.703093	2523.097500
696.039429	2497.891731
696.375716	2477.727115
696.711952	2543.262115
697.048139	2553.344423
697.384276	2500.412308
697.720363	2452.521346
698.056400	2543.262115
698.392388	2495.371154
698.728326	2510.494615
699.064214	2565.947308
699.400053	2535.700385
699.735842	2475.206538
700.071581	2608.797115
700.407270	2565.947308
700.742910	2427.315577
701.078501	2518.056346
701.414042	2467.644808
701.749533	2497.891731
702.084974	2507.974038
702.420366	2386.986346
702.755709	2477.727115
703.091002	2502.932885
703.426246	2538.220962
703.761440	2447.480192
704.096584	2437.397885
704.431679	2432.356731
704.766725	2470.165385
705.101721	2538.220962
705.436668	2457.562500
705.771565	2502.932885
706.106413	2455.041923
706.441212	2500.412308
706.775961	2437.397885
707.110661	2573.509038
707.445311	2475.206538
707.779913	2507.974038
708.114465	2434.877308
708.448967	2477.727115
708.783421	2394.548077
709.117825	2457.562500
709.452180	2528.138654
709.786485	2568.467885
710.120742	2548.303269
710.454949	2492.850577
710.789107	2487.809423
711.123216	2548.303269
711.457275	2492.850577
711.791286	2472.685962
712.125247	2409.671538
712.459159	2507.974038
712.793023	2422.274423
713.126837	2444.959615
713.460602	2424.795000
713.794318	2429.836154
714.127985	2533.179808
714.461602	2369.342308
714.795171	2442.439038
715.128691	2558.385577
715.462162	2439.918462
715.795584	2505.453462
716.128957	2535.700385
716.462281	2525.618077
716.795556	2518.056346
717.128782	2576.029615
717.461960	2487.809423
717.795088	2543.262115
718.128167	2538.220962
718.461198	2467.644808
718.794180	2518.056346
719.127113	2452.521346
719.459997	2490.330000
719.792833	2523.097500
720.125619	2528.138654
720.458357	2432.356731
720.791046	2455.041923
721.123686	2535.700385
721.456278	2550.823846
721.788821	2573.509038
722.121315	2515.535769
722.453761	2513.015192
722.786158	2538.220962
723.118506	2530.659231
723.450805	2465.124231
723.783056	2492.850577
724.115259	2444.959615
724.447412	2447.480192
724.779518	2525.618077
725.111574	2462.603654
725.443582	2465.124231
725.775542	2528.138654
726.107453	2492.850577
726.439315	2432.356731
726.771129	2530.659231
727.102895	2553.344423
727.434612	2523.097500
727.766281	2475.206538
728.097901	2490.330000
728.429473	2475.206538
728.760996	2515.535769
729.092471	2520.576923
729.423897	2528.138654
729.755276	2555.865000
730.086606	2392.027500
730.417887	2593.673654
730.749120	2480.247692
731.080305	2502.932885
731.411442	2472.685962
731.742530	2535.700385
732.073570	2591.153077
732.404562	2419.753846
732.735506	2444.959615
733.066401	2495.371154
733.397249	2588.632500
733.728048	2429.836154
734.058798	2419.753846
734.389501	2497.891731
734.720156	2568.467885
735.050762	2644.085192
735.381320	2455.041923
735.711831	2480.247692
736.042293	2487.809423
736.372707	2497.891731
736.703073	2505.453462
737.033391	2558.385577
737.363661	2545.782692
737.693883	2402.109808
738.024056	2492.850577
738.354182	2457.562500
738.684260	2528.138654
739.014290	2402.109808
739.344272	2434.877308
739.674207	2535.700385
740.004093	2568.467885
740.333931	2452.521346
740.663722	2490.330000
740.993464	2442.439038
741.323159	2593.673654
741.652806	2427.315577
741.982405	2540.741538
742.311956	2535.700385
742.641460	2444.959615
742.970915	2429.836154
743.300323	2452.521346
743.629683	2485.288846
743.958996	2553.344423
744.288260	2558.385577
744.617477	2555.865000
744.946647	2500.412308
745.275768	2583.591346
745.604842	2414.712692
745.933869	2452.521346
746.262847	2417.233269
746.591778	2434.877308
746.920662	2434.877308
747.249498	2513.015192
747.578286	2500.412308
747.907027	2492.850577
748.235720	2402.109808
748.564365	2487.809423
748.892963	2520.576923
749.221514	2455.041923
749.550017	2409.671538
749.878473	2525.618077
750.206881	2457.562500
750.535242	2450.000769
750.863555	2548.303269
751.191821	2475.206538
751.520039	2432.356731
751.848210	2507.974038
752.176334	2576.029615
752.504411	2543.262115
752.832440	2467.644808
753.160421	2374.383462
753.488356	2482.768269
753.816243	2467.644808
754.144082	2470.165385
754.471875	2523.097500
754.799620	2472.685962
755.127318	2520.576923
755.454969	2487.809423
755.782572	2490.330000
756.110129	2465.124231
756.437638	2510.494615
756.765100	2460.083077
757.092515	2402.109808
757.419882	2455.041923
757.747203	2598.714808
758.074477	2495.371154
758.401703	2586.111923
758.728882	2535.700385
759.056014	2487.809423
759.383099	2407.150962
759.710138	2507.974038
760.037129	2487.809423
760.364073	2497.891731
760.690970	2578.550192
761.017820	2497.891731
761.344623	2553.344423
761.671379	2477.727115
761.998088	2523.097500
762.324751	2467.644808
762.651366	2523.097500
762.977935	2525.618077
763.304456	2513.015192
763.630931	2429.836154
763.957359	2507.974038
764.283740	2581.070769
764.610074	2392.027500
764.936362	2570.988462
765.262602	2470.165385
765.588796	2437.397885
765.914943	2495.371154
766.241044	2465.124231
766.567097	2515.535769
766.893104	2596.194231
767.219064	2457.562500
767.544978	2497.891731
767.870845	2487.809423
768.196665	2528.138654
768.522438	2462.603654
768.848165	2487.809423
769.173846	2462.603654
769.499479	2563.426731
769.825066	2513.015192
770.150607	2570.988462
770.476101	2492.850577
770.801548	2424.795000
771.126949	2475.206538
771.452303	2485.288846
771.777611	2465.124231
772.102872	2520.576923
772.428087	2518.056346
772.753256	2472.685962
773.078378	2502.932885
773.403453	2502.932885
773.728482	2535.700385
774.053465	2487.809423
774.378401	2565.947308
774.703291	2555.865000
775.028135	2444.959615
775.352932	2386.986346
775.677683	2513.015192
776.002388	2558.385577
776.327046	2482.768269
776.651658	2487.809423
776.976224	2472.685962
777.300743	2424.795000
777.625216	2548.303269
777.949643	2419.753846
778.274024	2502.932885
778.598359	2510.494615
778.922647	2507.974038
779.246889	2492.850577
779.571086	2475.206538
779.895236	2570.988462
780.219339	2465.124231
780.543397	2523.097500
780.867409	2480.247692
781.191374	2573.509038
781.515294	2591.153077
781.839167	2457.562500
782.162995	2535.700385
782.486776	2515.535769
782.810511	2470.165385
783.134201	2576.029615
783.457844	2513.015192
783.781441	2513.015192
784.104993	2533.179808
784.428498	2570.988462
784.751958	2538.220962
785.075372	2465.124231
785.398739	2470.165385
785.722061	2560.906154
786.045337	2510.494615
786.368568	2518.056346
786.691752	2543.262115
787.014891	2450.000769
787.337983	2439.918462
787.661030	2429.836154
787.984031	2558.385577
788.306987	2500.412308
788.629897	2555.865000
788.952760	2480.247692
789.275579	2530.659231
789.598351	2462.603654
789.921078	2490.330000
790.243759	2437.397885
790.566395	2530.659231
790.888984	2424.795000
791.211529	2520.576923
791.534027	2565.947308
791.856480	2442.439038
792.178888	2429.836154
792.501249	2427.315577
792.823566	2500.412308
793.145836	2543.262115
793.468062	2520.576923
793.790241	2434.877308
794.112375	2447.480192
794.434464	2550.823846
794.756507	2505.453462
795.078505	2500.412308
795.400457	2568.467885
795.722364	2482.768269
796.044226	2409.671538
796.366042	2507.974038
796.687812	2520.576923
797.009538	2467.644808
797.331218	2450.000769
797.652852	2475.206538
797.974442	2523.097500
798.295986	2490.330000
798.617484	2543.262115
798.938938	2439.918462
799.260346	2457.562500
799.581709	2444.959615
799.903026	2586.111923
800.224299	2424.795000
800.545526	2399.589231
800.866708	2452.521346
801.187845	2553.344423
801.508936	2477.727115
801.829983	2518.056346
802.150984	2570.988462
802.471940	2560.906154
802.792851	2510.494615
803.113717	2487.809423
803.434538	2437.397885
803.755314	2545.782692
804.076045	2581.070769
804.396731	2460.083077
804.717372	2523.097500
805.037967	2482.768269
805.358518	2497.891731
805.679024	2429.836154
805.999485	2485.288846
806.319901	2480.247692
806.640272	2550.823846
806.960598	2533.179808
807.280879	2555.865000
807.601115	2452.521346
807.921306	2460.083077
808.241453	2460.083077
808.561554	2490.330000
808.881611	2452.521346
809.201623	2535.700385
809.521590	2510.494615
809.841513	2450.000769
810.161390	2500.412308
810.481223	2490.330000
810.801011	2422.274423
811.120755	2480.247692
811.440453	2470.165385
811.760107	2480.247692
812.079716	2444.959615
812.399281	2480.247692
812.718801	2485.288846
813.038276	2450.000769
813.357707	2470.165385
813.677093	2497.891731
813.996434	2490.330000
814.315731	2472.685962
814.634983	2495.371154
814.954191	2545.782692
815.273354	2492.850577
815.592473	2515.535769
815.911547	2485.288846
816.230577	2563.426731
816.549562	2447.480192
816.868502	2525.618077
817.187399	2472.685962
817.506250	2548.303269
817.825058	2424.795000
818.143821	2497.891731
818.462539	2467.644808
818.781213	2545.782692
819.099843	2402.109808
819.418429	2528.138654
819.736970	2533.179808
820.055466	2533.179808
820.373919	2447.480192
820.692327	2555.865000
821.010691	2447.480192
821.329011	2505.453462
821.647286	2525.618077
821.965517	2513.015192
822.283704	2518.056346
822.601847	2467.644808
822.919945	2467.644808
823.237999	2497.891731
823.556010	2475.206538
823.873976	2487.809423
824.191897	2467.644808
824.509775	2477.727115
824.827609	2518.056346
825.145398	2553.344423
825.463144	2437.397885
825.780845	2397.068654
826.098502	2553.344423
826.416116	2518.056346
826.733685	2480.247692
827.051210	2518.056346
827.368692	2487.809423
827.686129	2500.412308
828.003522	2553.344423
828.320872	2455.041923
828.638177	2518.056346
828.955439	2472.685962
829.272656	2525.618077
829.589830	2565.947308
829.906960	2452.521346
830.224046	2437.397885
830.541088	2475.206538
830.858086	2518.056346
831.175041	2507.974038
831.491952	2495.371154
831.808819	2437.397885
832.125642	2472.685962
832.442421	2477.727115
832.759157	2497.891731
833.075849	2487.809423
833.392497	2518.056346
833.709101	2439.918462
834.025662	2452.521346
834.342179	2437.397885
834.658653	2538.220962
834.975083	2452.521346
835.291469	2505.453462
835.607811	2470.165385
835.924110	2528.138654
836.240366	2427.315577
836.556578	2455.041923
836.872746	2507.974038
837.188871	2475.206538
837.504952	2497.891731
837.820990	2492.850577
838.136984	2407.150962
838.452935	2437.397885
838.768842	2548.303269
839.084706	2442.439038
839.400526	2505.453462
839.716303	2447.480192
840.032037	2502.932885
840.347727	2467.644808
840.663373	2490.330000
840.978977	2563.426731
841.294537	2518.056346
841.610054	2500.412308
841.925527	2528.138654
842.240957	2475.206538
842.556344	2560.906154
842.871687	2543.262115
843.186987	2525.618077
843.502244	2513.015192
843.817458	2497.891731
844.132629	2434.877308
844.447756	2485.288846
844.762840	2442.439038
845.077881	2515.535769
845.392879	2568.467885
845.707833	2482.768269
846.022745	2462.603654
846.337613	2455.041923
846.652438	2497.891731
846.967221	2548.303269
847.281960	2505.453462
847.596656	2439.918462
847.911309	2467.644808
848.225919	2477.727115
848.540485	2467.644808
848.855009	2563.426731
849.169490	2525.618077
849.483928	2477.727115
849.798323	2543.262115
850.112675	2487.809423
850.426984	2485.288846
850.741251	2402.109808
851.055474	2487.809423
851.369654	2439.918462
851.683792	2432.356731
851.997887	2507.974038
852.311938	2485.288846
852.625947	2518.056346
852.939914	2490.330000
853.253837	2515.535769
853.567718	2402.109808
853.881555	2543.262115
854.195350	2507.974038
854.509103	2460.083077
854.822812	2528.138654
855.136479	2505.453462
855.450103	2520.576923
855.763685	2513.015192
856.077224	2525.618077
856.390720	2477.727115
856.704173	2487.809423
857.017584	2434.877308
857.330953	2394.548077
857.644278	2467.644808
857.957561	2507.974038
858.270802	2543.262115
858.584000	2447.480192
858.897155	2528.138654
859.210268	2513.015192
859.523339	2533.179808
859.836367	2460.083077
860.149352	2487.809423
860.462295	2523.097500
860.775195	2475.206538
861.088054	2515.535769
861.400869	2576.029615
861.713642	2502.932885
862.026373	2525.618077
862.339062	2417.233269
862.651708	2502.932885
862.964312	2518.056346
863.276873	2460.083077
863.589392	2482.768269
863.901869	2487.809423
864.214303	2455.041923
864.526696	2497.891731
864.839045	2545.782692
865.151353	2409.671538
865.463619	2467.644808
865.775842	2518.056346
866.088023	2548.303269
866.400162	2432.356731
866.712258	2560.906154
867.024313	2371.862885
867.336325	2538.220962
867.648296	2412.192115
867.960224	2545.782692
868.272110	2570.988462
868.583954	2450.000769
868.895755	2477.727115
869.207515	2515.535769
869.519233	2568.467885
869.830909	2545.782692
870.142542	2429.836154
870.454134	2467.644808
870.765684	2397.068654
871.077191	2482.768269
871.388657	2573.509038
871.700081	2505.453462
872.011463	2482.768269
872.322803	2518.056346
872.634101	2455.041923
872.945357	2429.836154
873.256571	2442.439038
873.567744	2530.659231
873.878874	2502.932885
874.189963	2432.356731
874.501010	2455.041923
874.812015	2389.506923
875.122979	2510.494615
875.433900	2495.371154
875.744780	2525.618077
876.055618	2472.685962
876.366415	2500.412308
876.677169	2545.782692
876.987882	2381.945192
877.298554	2548.303269
877.609183	2505.453462
877.919771	2505.453462
878.230317	2482.768269
878.540822	2505.453462
878.851285	2497.891731
879.161707	2492.850577
879.472087	2477.727115
879.782425	2475.206538
880.092722	2472.685962
880.402977	2533.179808
880.713191	2495.371154
881.023363	2528.138654
881.333494	2502.932885
881.643583	2606.276538
881.953631	2485.288846
882.263637	2507.974038
882.573602	2472.685962
882.883526	2545.782692
883.193408	2513.015192
883.503248	2447.480192
883.813048	2518.056346
884.122806	2460.083077
884.432522	2528.138654
884.742197	2510.494615
885.051831	2533.179808
885.361424	2497.891731
885.670975	2565.947308
885.980485	2538.220962
886.289954	2505.453462
886.599382	2565.947308
886.908768	2487.809423
887.218113	2452.521346
887.527417	2528.138654
887.836680	2513.015192
888.145901	2507.974038
888.455082	2518.056346
888.764221	2485.288846
889.073319	2502.932885
889.382376	2490.330000
889.691392	2538.220962
890.000366	2563.426731
890.309300	2583.591346
890.618193	2495.371154
890.927044	2434.877308
891.235855	2447.480192
891.544625	2460.083077
891.853353	2455.041923
892.162041	2568.467885
892.470687	2543.262115
892.779293	2472.685962
893.087858	2475.206538
893.396381	2427.315577
893.704864	2558.385577
894.013306	2419.753846
894.321707	2475.206538
894.630068	2442.439038
894.938387	2523.097500
895.246665	2477.727115
895.554903	2500.412308
895.863100	2543.262115
896.171256	2480.247692
896.479371	2434.877308
896.787446	2548.303269
897.095480	2485.288846
897.403473	2565.947308
897.711425	2500.412308
898.019336	2462.603654
898.327207	2462.603654
898.635038	2487.809423
898.942827	2558.385577
899.250576	2515.535769
899.558284	2450.000769
899.865952	2495.371154
900.173579	2573.509038
900.481165	2523.097500
900.788711	2482.768269
901.096216	2485.288846
901.403681	2573.509038
901.711105	2525.618077
902.018489	2545.782692
902.325832	2434.877308
902.633135	2518.056346
902.940397	2550.823846
903.247619	2533.179808
903.554800	2502.932885
903.861941	2523.097500
904.169041	2477.727115
904.476101	2500.412308
904.783121	2520.576923
905.090100	2460.083077
905.397039	2510.494615
905.703938	2502.932885
906.010796	2450.000769
906.317614	2530.659231
906.624391	2515.535769
906.931129	2510.494615
907.237826	2555.865000
907.544483	2439.918462
907.851099	2520.576923
908.157675	2397.068654
908.464211	2520.576923
908.770707	2457.562500
909.077163	2520.576923
909.383578	2555.865000
909.689954	2553.344423
909.996289	2470.165385
910.302584	2452.521346
910.608839	2424.795000
910.915054	2553.344423
911.221229	2424.795000
911.527363	2495.371154
911.833458	2429.836154
912.139513	2487.809423
912.445527	2475.206538
912.751502	2417.233269
913.057436	2447.480192
913.363331	2570.988462
913.669186	2528.138654
913.975000	2563.426731
914.280775	2553.344423
914.586510	2467.644808
914.892205	2465.124231
915.197859	2548.303269
915.503475	2490.330000
915.809050	2389.506923
916.114585	2523.097500
916.420081	2543.262115
916.725536	2558.385577
917.030952	2520.576923
917.336328	2409.671538
917.641665	2455.041923
917.946961	2510.494615
918.252218	2447.480192
918.557435	2465.124231
918.862612	2555.865000
919.167750	2518.056346
919.472848	2520.576923
919.777906	2477.727115
920.082925	2442.439038
920.387904	2437.397885
920.692843	2422.274423
920.997743	2535.700385
921.302603	2447.480192
921.607423	2439.918462
921.912204	2472.685962
922.216946	2460.083077
922.521647	2533.179808
922.826310	2412.192115
923.130932	2535.700385
923.435516	2470.165385
923.740059	2576.029615
924.044564	2535.700385
924.349028	2535.700385
924.653454	2467.644808
924.957840	2540.741538
925.262186	2518.056346
925.566493	2523.097500
925.870761	2467.644808
926.174989	2462.603654
926.479178	2444.959615
926.783328	2492.850577
927.087438	2520.576923
927.391509	2482.768269
927.695541	2520.576923
927.999533	2578.550192
928.303486	2495.371154
928.607400	2520.576923
928.911275	2540.741538
929.215110	2384.465769
929.518906	2487.809423
929.822663	2462.603654
930.126381	2475.206538
930.430060	2450.000769
930.733699	2407.150962
931.037299	2482.768269
931.340861	2414.712692
931.644383	2462.603654
931.947866	2465.124231
932.251309	2472.685962
932.554714	2439.918462
932.858080	2533.179808
933.161407	2530.659231
933.464694	2482.768269
933.767943	2515.535769
934.071153	2500.412308
934.374323	2495.371154
934.677455	2520.576923
934.980548	2480.247692
935.283602	2467.644808
935.586617	2480.247692
935.889593	2497.891731
936.192530	2490.330000
936.495428	2565.947308
936.798287	2467.644808
937.101108	2530.659231
937.403890	2452.521346
937.706632	2510.494615
938.009336	2513.015192
938.312002	2513.015192
938.614628	2550.823846
938.917216	2480.247692
939.219765	2555.865000
939.522275	2480.247692
939.824747	2515.535769
940.127179	2515.535769
940.429573	2460.083077
940.731929	2568.467885
941.034246	2470.165385
941.336524	2563.426731
941.638763	2497.891731
941.940964	2515.535769
942.243126	2588.632500
942.545250	2530.659231
942.847335	2490.330000
943.149381	2472.685962
943.451389	2497.891731
943.753359	2497.891731
944.055290	2560.906154
944.357182	2439.918462
944.659036	2505.453462
944.960851	2407.150962
945.262628	2538.220962
945.564367	2525.618077
945.866067	2470.165385
946.167729	2528.138654
946.469352	2462.603654
946.770937	2477.727115
947.072484	2437.397885
947.373992	2434.877308
947.675462	2482.768269
947.976893	2444.959615
948.278286	2518.056346
948.579641	2492.850577
948.880958	2513.015192
949.182236	2429.836154
949.483476	2523.097500
949.784678	2513.015192
950.085841	2419.753846
950.386967	2439.918462
950.688054	2495.371154
950.989103	2439.918462
951.290114	2465.124231
951.591087	2510.494615
951.892021	2530.659231
952.192917	2507.974038
952.493776	2500.412308
952.794596	2558.385577
953.095378	2510.494615
953.396122	2480.247692
953.696828	2487.809423
953.997496	2460.083077
954.298126	2523.097500
954.598718	2475.206538
954.899272	2545.782692
955.199788	2487.809423
955.500266	2480.247692
955.800706	2450.000769
956.101108	2427.315577
956.401472	2497.891731
956.701798	2518.056346
957.002087	2515.535769
957.302337	2540.741538
957.602550	2487.809423
957.902724	2482.768269
958.202861	2472.685962
958.502960	2538.220962
958.803022	2475.206538
959.103045	2497.891731
959.403031	2490.330000
959.702979	2570.988462
960.002889	2497.891731
960.302762	2457.562500
960.602596	2427.315577
960.902393	2485.288846
961.202153	2485.288846
961.501875	2462.603654
961.801559	2523.097500
962.101205	2543.262115
962.400814	2553.344423
962.700385	2447.480192
962.999918	2470.165385
963.299414	2460.083077
963.598873	2495.371154
963.898293	2460.083077
964.197677	2477.727115
964.497022	2429.836154
964.796331	2485.288846
965.095601	2497.891731
965.394835	2510.494615
965.694030	2412.192115
965.993189	2570.988462
966.292309	2553.344423
966.591393	2477.727115
966.890439	2530.659231
967.189447	2460.083077
967.488419	2495.371154
967.787353	2465.124231
968.086249	2492.850577
968.385108	2490.330000
968.683930	2510.494615
968.982714	2467.644808
969.281462	2472.685962
969.580172	2485.288846
969.878844	2505.453462
970.177480	2455.041923
970.476078	2447.480192
970.774639	2550.823846
971.073162	2553.344423
971.371649	2502.932885
971.670098	2477.727115
971.968510	2497.891731
972.266885	2500.412308
972.565223	2530.659231
972.863524	2444.959615
973.161788	2523.097500
973.460014	2457.562500
973.758204	2485.288846
974.056356	2525.618077
974.354471	2472.685962
974.652550	2475.206538
974.950591	2533.179808
975.248595	2472.685962
975.546563	2462.603654
975.844493	2515.535769
976.142386	2523.097500
976.440243	2485.288846
976.738062	2540.741538
977.035845	2525.618077
977.333590	2472.685962
977.631299	2429.836154
977.928971	2513.015192
978.226606	2480.247692
978.524204	2502.932885
978.821765	2465.124231
979.119290	2450.000769
979.416777	2515.535769
979.714228	2525.618077
980.011642	2470.165385
980.309020	2467.644808
980.606360	2480.247692
980.903664	2452.521346
981.200931	2578.550192
981.498162	2399.589231
981.795356	2528.138654
982.092513	2450.000769
982.389633	2490.330000
982.686717	2477.727115
982.983764	2439.918462
983.280775	2452.521346
983.577749	2500.412308
983.874686	2560.906154
984.171587	2457.562500
984.468451	2520.576923
984.765279	2455.041923
985.062070	2505.453462
985.358824	2550.823846
985.655543	2608.797115
985.952224	2460.083077
986.248869	2507.974038
986.545478	2487.809423
986.842050	2444.959615
987.138586	2523.097500
987.435086	2455.041923
987.731549	2518.056346
988.027975	2467.644808
988.324366	2492.850577
988.620719	2460.083077
988.917037	2467.644808
989.213318	2407.150962
989.509563	2518.056346
989.805772	2434.877308
990.101944	2429.836154
990.398080	2497.891731
990.694180	2472.685962
990.990244	2507.974038
991.286271	2422.274423
991.582262	2545.782692
991.878217	2427.315577
992.174136	2525.618077
992.470019	2402.109808
992.765865	2480.247692
993.061676	2477.727115
993.357450	2492.850577
993.653188	2543.262115
993.948890	2525.618077
994.244556	2545.782692
994.540186	2533.179808
994.835780	2450.000769
995.131337	2429.836154
995.426859	2437.397885
995.722345	2472.685962
996.017795	2601.235385
996.313208	2515.535769
996.608586	2480.247692
996.903928	2548.303269
997.199234	2510.494615
997.494504	2439.918462
997.789738	2523.097500
998.084936	2530.659231
998.380099	2507.974038
998.675225	2490.330000
998.970316	2510.494615
999.265371	2500.412308
999.560390	2495.371154
999.855373	2437.397885
1000.150320	2515.535769
1000.445232	2444.959615
1000.740108	2480.247692
1001.034948	2507.974038
1001.329752	2513.015192
1001.624521	2593.673654
1001.919254	2432.356731
1002.213951	2485.288846
1002.508613	2457.562500
1002.803239	2475.206538
1003.097829	2616.358846
1003.392384	2450.000769
1003.686903	2422.274423
1003.981386	2518.056346
1004.275834	2492.850577
1004.570246	2427.315577
1004.864623	2510.494615
1005.158964	2424.795000
1005.453270	2477.727115
1005.747540	2591.153077
1006.041775	2533.179808
1006.335974	2480.247692
1006.630138	2513.015192
1006.924266	2386.986346
1007.218359	2369.342308
1007.512416	2545.782692
1007.806438	2480.247692
1008.100425	2495.371154
1008.394376	2432.356731
1008.688292	2540.741538
1008.982172	2502.932885
1009.276017	2530.659231
1009.569827	2518.056346
1009.863602	2460.083077
1010.157341	2520.576923
1010.451045	2404.630385
1010.744714	2455.041923
1011.038347	2492.850577
1011.331945	2359.260000
1011.625508	2520.576923
1011.919036	2538.220962
1012.212528	2518.056346
1012.505986	2450.000769
1012.799408	2490.330000
1013.092795	2555.865000
1013.386147	2462.603654
1013.679464	2487.809423
1013.972745	2480.247692
1014.265992	2480.247692
1014.559204	2462.603654
1014.852380	2450.000769
1015.145521	2427.315577
1015.438628	2510.494615
1015.731699	2505.453462
1016.024736	2470.165385
1016.317737	2505.453462
1016.610703	2437.397885
1016.903635	2515.535769
1017.196531	2502.932885
1017.489393	2505.453462
1017.782219	2533.179808
1018.075011	2422.274423
1018.367768	2452.521346
1018.660490	2540.741538
1018.953177	2540.741538
1019.245829	2540.741538
