Dividing Wavelength (nm)	Counts (n)	Blue Motor Position (mm): 1.900000	Red Motor Position (mm): 0.000000	
326.493990	2061.831923
326.888308	2061.831923
327.282561	2061.831923
327.676750	2054.270192
328.070874	2064.352500
328.464933	2069.393654
328.858929	2018.982115
329.252859	2102.161154
329.646726	2018.982115
330.040528	2074.434808
330.434265	2066.873077
330.827938	2071.914231
331.221547	2160.134423
331.615091	2177.778462
332.008571	2134.928654
332.401986	2167.696154
332.795338	2260.957500
333.188625	2208.025385
333.581847	2218.107692
333.975006	2255.916346
334.368100	2339.095385
334.761129	2233.231154
335.154095	2308.848462
335.546996	2303.807308
335.939833	2351.698269
336.332606	2434.877308
336.725315	2296.245577
337.117960	2344.136538
337.510540	2402.109808
337.903056	2444.959615
338.295508	2437.397885
338.687896	2412.192115
339.080220	2412.192115
339.472480	2490.330000
339.864676	2472.685962
340.256807	2497.891731
340.648875	2444.959615
341.040879	2414.712692
341.432818	2404.630385
341.824694	2480.247692
342.216506	2467.644808
342.608253	2523.097500
342.999937	2548.303269
343.391557	2412.192115
343.783113	2439.918462
344.174605	2502.932885
344.566033	2460.083077
344.957397	2502.932885
345.348697	2485.288846
345.739934	2460.083077
346.131106	2470.165385
346.522215	2576.029615
346.913260	2394.548077
347.304241	2437.397885
347.695159	2439.918462
348.086012	2570.988462
348.476802	2457.562500
348.867528	2492.850577
349.258191	2371.862885
349.648789	2389.506923
350.039324	2414.712692
350.429796	2432.356731
350.820203	2354.218846
351.210548	2460.083077
351.600828	2480.247692
351.991045	2533.179808
352.381198	2434.877308
352.771288	2462.603654
353.161314	2495.371154
353.551276	2455.041923
353.941175	2490.330000
354.331010	2366.821731
354.720782	2414.712692
355.110490	2477.727115
355.500135	2341.615962
355.889717	2369.342308
356.279235	2462.603654
356.668689	2432.356731
357.058080	2487.809423
357.447408	2465.124231
357.836672	2394.548077
358.225873	2379.424615
358.615010	2429.836154
359.004084	2507.974038
359.393095	2402.109808
359.782043	2472.685962
360.170927	2475.206538
360.559748	2530.659231
360.948505	2432.356731
361.337199	2495.371154
361.725830	2470.165385
362.114398	2427.315577
362.502903	2465.124231
362.891344	2485.288846
363.279722	2447.480192
363.668037	2510.494615
364.056289	2533.179808
364.444478	2462.603654
364.832603	2452.521346
365.220665	2447.480192
365.608665	2379.424615
365.996601	2540.741538
366.384474	2399.589231
366.772284	2520.576923
367.160031	2462.603654
367.547715	2455.041923
367.935336	2455.041923
368.322893	2444.959615
368.710388	2434.877308
369.097820	2465.124231
369.485189	2447.480192
369.872495	2356.739423
370.259738	2487.809423
370.646918	2462.603654
371.034035	2487.809423
371.421090	2472.685962
371.808081	2457.562500
372.195010	2432.356731
372.581875	2470.165385
372.968678	2472.685962
373.355418	2424.795000
373.742096	2492.850577
374.128710	2444.959615
374.515262	2364.301154
374.901751	2540.741538
375.288177	2487.809423
375.674540	2424.795000
376.060841	2402.109808
376.447079	2422.274423
376.833254	2490.330000
377.219367	2427.315577
377.605417	2528.138654
377.991404	2424.795000
378.377329	2475.206538
378.763191	2465.124231
379.148991	2482.768269
379.534727	2437.397885
379.920402	2442.439038
380.306013	2432.356731
380.691563	2442.439038
381.077049	2545.782692
381.462474	2492.850577
381.847835	2510.494615
382.233134	2475.206538
382.618371	2429.836154
383.003545	2457.562500
383.388657	2384.465769
383.773706	2424.795000
384.158693	2528.138654
384.543618	2495.371154
384.928480	2452.521346
385.313280	2422.274423
385.698017	2452.521346
386.082692	2472.685962
386.467305	2412.192115
386.851856	2495.371154
387.236344	2404.630385
387.620770	2520.576923
388.005133	2495.371154
388.389435	2429.836154
388.773674	2548.303269
389.157851	2402.109808
389.541965	2470.165385
389.926018	2447.480192
390.310008	2434.877308
390.693936	2467.644808
391.077802	2545.782692
391.461606	2460.083077
391.845348	2447.480192
392.229027	2422.274423
392.612645	2487.809423
392.996200	2457.562500
393.379694	2520.576923
393.763125	2502.932885
394.146494	2480.247692
394.529801	2427.315577
394.913047	2497.891731
395.296230	2429.836154
395.679351	2460.083077
396.062410	2404.630385
396.445408	2528.138654
396.828343	2462.603654
397.211217	2439.918462
397.594028	2520.576923
397.976778	2487.809423
398.359466	2477.727115
398.742092	2419.753846
399.124656	2439.918462
399.507158	2535.700385
399.889598	2472.685962
400.271977	2467.644808
400.654294	2450.000769
401.036549	2450.000769
401.418742	2407.150962
401.800874	2505.453462
402.182944	2472.685962
402.564952	2460.083077
402.946898	2399.589231
403.328783	2492.850577
403.710606	2487.809423
404.092367	2530.659231
404.474067	2485.288846
404.855705	2530.659231
405.237282	2495.371154
405.618797	2361.780577
406.000250	2450.000769
406.381642	2371.862885
406.762972	2460.083077
407.144240	2417.233269
407.525447	2490.330000
407.906593	2475.206538
408.287677	2545.782692
408.668700	2480.247692
409.049661	2502.932885
409.430560	2434.877308
409.811399	2477.727115
410.192176	2462.603654
410.572891	2434.877308
410.953545	2409.671538
411.334138	2543.262115
411.714669	2487.809423
412.095139	2399.589231
412.475547	2447.480192
412.855894	2450.000769
413.236180	2530.659231
413.616405	2472.685962
413.996568	2460.083077
414.376670	2608.797115
414.756711	2510.494615
415.136691	2505.453462
415.516609	2429.836154
415.896466	2515.535769
416.276262	2452.521346
416.655997	2495.371154
417.035670	2477.727115
417.415283	2480.247692
417.794834	2538.220962
418.174324	2429.836154
418.553753	2507.974038
418.933121	2497.891731
419.312428	2520.576923
419.691674	2558.385577
420.070859	2495.371154
420.449983	2467.644808
420.829045	2361.780577
421.208047	2460.083077
421.586988	2467.644808
421.965867	2492.850577
422.344686	2457.562500
422.723444	2450.000769
423.102141	2444.959615
423.480777	2422.274423
423.859352	2500.412308
424.237866	2442.439038
424.616319	2439.918462
424.994712	2502.932885
425.373044	2535.700385
425.751314	2545.782692
426.129524	2485.288846
426.507673	2470.165385
426.885762	2450.000769
427.263789	2427.315577
427.641756	2467.644808
428.019662	2528.138654
428.397508	2414.712692
428.775292	2540.741538
429.153016	2412.192115
429.530679	2442.439038
429.908282	2528.138654
430.285824	2467.644808
430.663305	2490.330000
431.040726	2550.823846
431.418086	2439.918462
431.795385	2462.603654
432.172624	2487.809423
432.549802	2480.247692
432.926920	2414.712692
433.303977	2455.041923
433.680974	2470.165385
434.057910	2543.262115
434.434786	2450.000769
434.811601	2482.768269
435.188355	2523.097500
435.565050	2505.453462
435.941683	2570.988462
436.318257	2439.918462
436.694770	2545.782692
437.071222	2439.918462
437.447614	2543.262115
437.823946	2490.330000
438.200218	2510.494615
438.576429	2381.945192
438.952580	2455.041923
439.328670	2480.247692
439.704700	2550.823846
440.080670	2465.124231
440.456580	2520.576923
440.832429	2417.233269
441.208218	2490.330000
441.583947	2444.959615
441.959616	2437.397885
442.335224	2530.659231
442.710773	2462.603654
443.086261	2555.865000
443.461689	2528.138654
443.837057	2533.179808
444.212365	2404.630385
444.587612	2505.453462
444.962800	2487.809423
445.337927	2497.891731
445.712995	2515.535769
446.088002	2543.262115
446.462949	2457.562500
446.837837	2477.727115
447.212664	2462.603654
447.587431	2467.644808
447.962139	2525.618077
448.336786	2507.974038
448.711374	2497.891731
449.085901	2450.000769
449.460369	2452.521346
449.834776	2432.356731
450.209124	2467.644808
450.583412	2477.727115
450.957640	2490.330000
451.331808	2505.453462
451.705917	2470.165385
452.079965	2427.315577
452.453954	2477.727115
452.827883	2485.288846
453.201752	2452.521346
453.575562	2465.124231
453.949311	2407.150962
454.323001	2472.685962
454.696632	2487.809423
455.070202	2535.700385
455.443713	2487.809423
455.817164	2497.891731
456.190556	2444.959615
456.563888	2523.097500
456.937160	2497.891731
457.310373	2533.179808
457.683526	2392.027500
458.056619	2513.015192
458.429653	2570.988462
458.802628	2472.685962
459.175542	2495.371154
459.548398	2394.548077
459.921194	2399.589231
460.293930	2570.988462
460.666607	2465.124231
461.039224	2412.192115
461.411782	2472.685962
461.784280	2465.124231
462.156719	2465.124231
462.529099	2477.727115
462.901419	2545.782692
463.273680	2505.453462
463.645882	2371.862885
464.018024	2437.397885
464.390106	2447.480192
464.762130	2513.015192
465.134094	2497.891731
465.505999	2470.165385
465.877845	2487.809423
466.249631	2472.685962
466.621358	2525.618077
466.993026	2507.974038
467.364634	2470.165385
467.736184	2432.356731
468.107674	2485.288846
468.479105	2442.439038
468.850477	2497.891731
469.221790	2404.630385
469.593043	2455.041923
469.964238	2507.974038
470.335373	2490.330000
470.706449	2513.015192
471.077467	2477.727115
471.448425	2397.068654
471.819324	2452.521346
472.190164	2444.959615
472.560945	2515.535769
472.931667	2487.809423
473.302330	2457.562500
473.672934	2460.083077
474.043479	2422.274423
474.413965	2513.015192
474.784393	2432.356731
475.154761	2447.480192
475.525070	2424.795000
475.895321	2450.000769
476.265513	2586.111923
476.635645	2444.959615
477.005719	2442.439038
477.375734	2497.891731
477.745691	2409.671538
478.115588	2497.891731
478.485427	2472.685962
478.855207	2520.576923
479.224928	2518.056346
479.594591	2581.070769
479.964194	2477.727115
480.333739	2465.124231
480.703226	2424.795000
481.072653	2442.439038
481.442022	2565.947308
481.811333	2482.768269
482.180584	2553.344423
482.549777	2462.603654
482.918912	2545.782692
483.287988	2462.603654
483.657005	2470.165385
484.025964	2535.700385
484.394864	2485.288846
484.763706	2538.220962
485.132489	2525.618077
485.501213	2485.288846
485.869879	2513.015192
486.238487	2492.850577
486.607036	2502.932885
486.975527	2477.727115
487.343959	2477.727115
487.712333	2485.288846
488.080648	2500.412308
488.448905	2434.877308
488.817104	2492.850577
489.185244	2482.768269
489.553326	2477.727115
489.921350	2530.659231
490.289315	2467.644808
490.657222	2480.247692
491.025070	2439.918462
491.392861	2497.891731
491.760593	2535.700385
492.128267	2447.480192
492.495883	2520.576923
492.863440	2490.330000
493.230939	2457.562500
493.598380	2487.809423
493.965763	2452.521346
494.333088	2409.671538
494.700354	2510.494615
495.067563	2432.356731
495.434713	2482.768269
495.801805	2570.988462
496.168839	2581.070769
496.535815	2505.453462
496.902733	2510.494615
497.269593	2434.877308
497.636395	2495.371154
498.003139	2485.288846
498.369825	2462.603654
498.736453	2450.000769
499.103023	2467.644808
499.469535	2528.138654
499.835989	2492.850577
500.202385	2480.247692
500.568723	2500.412308
500.935003	2492.850577
501.301226	2588.632500
501.667390	2530.659231
502.033497	2555.865000
502.399546	2419.753846
502.765537	2500.412308
503.131470	2477.727115
503.497345	2455.041923
503.863163	2558.385577
504.228923	2475.206538
504.594625	2520.576923
504.960269	2447.480192
505.325856	2523.097500
505.691385	2427.315577
506.056856	2523.097500
506.422270	2480.247692
506.787625	2492.850577
507.152924	2444.959615
507.518164	2543.262115
507.883347	2525.618077
508.248472	2510.494615
508.613540	2480.247692
508.978550	2497.891731
509.343503	2419.753846
509.708398	2467.644808
510.073236	2490.330000
510.438016	2490.330000
510.802738	2477.727115
511.167403	2485.288846
511.532010	2553.344423
511.896561	2540.741538
512.261053	2485.288846
512.625488	2553.344423
512.989866	2427.315577
513.354186	2490.330000
513.718449	2510.494615
514.082655	2492.850577
514.446803	2444.959615
514.810894	2472.685962
515.174927	2560.906154
515.538904	2495.371154
515.902822	2419.753846
516.266684	2502.932885
516.630488	2525.618077
516.994235	2495.371154
517.357925	2487.809423
517.721558	2419.753846
518.085133	2490.330000
518.448651	2518.056346
518.812112	2437.397885
519.175516	2492.850577
519.538863	2525.618077
519.902152	2450.000769
520.265385	2447.480192
520.628560	2518.056346
520.991678	2470.165385
521.354739	2412.192115
521.717743	2545.782692
522.080690	2392.027500
522.443580	2502.932885
522.806413	2444.959615
523.169189	2525.618077
523.531908	2507.974038
523.894569	2444.959615
524.257174	2545.782692
524.619722	2477.727115
524.982213	2502.932885
525.344647	2402.109808
525.707025	2462.603654
526.069345	2513.015192
526.431608	2427.315577
526.793815	2530.659231
527.155964	2535.700385
527.518057	2565.947308
527.880093	2429.836154
528.242072	2432.356731
528.603995	2404.630385
528.965860	2487.809423
529.327669	2472.685962
529.689421	2586.111923
530.051117	2545.782692
530.412755	2487.809423
530.774337	2588.632500
531.135862	2530.659231
531.497331	2442.439038
531.858743	2467.644808
532.220098	2568.467885
532.581396	2437.397885
532.942638	2480.247692
533.303824	2520.576923
533.664953	2482.768269
534.026025	2467.644808
534.387040	2402.109808
534.747999	2515.535769
535.108902	2500.412308
535.469748	2495.371154
535.830537	2427.315577
536.191270	2550.823846
536.551947	2477.727115
536.912567	2591.153077
537.273131	2477.727115
537.633638	2417.233269
537.994089	2455.041923
538.354483	2452.521346
538.714821	2515.535769
539.075103	2472.685962
539.435328	2513.015192
539.795497	2578.550192
540.155609	2560.906154
540.515665	2472.685962
540.875665	2581.070769
541.235609	2510.494615
541.595496	2634.002885
541.955328	2480.247692
542.315102	2555.865000
542.674821	2470.165385
543.034483	2490.330000
543.394090	2560.906154
543.753640	2505.453462
544.113134	2467.644808
544.472571	2485.288846
544.831953	2480.247692
545.191278	2540.741538
545.550548	2397.068654
545.909761	2392.027500
546.268918	2513.015192
546.628019	2545.782692
546.987064	2540.741538
547.346053	2376.904038
547.704986	2555.865000
548.063863	2424.795000
548.422684	2467.644808
548.781449	2520.576923
549.140158	2528.138654
549.498811	2487.809423
549.857408	2568.467885
550.215949	2573.509038
550.574434	2495.371154
550.932864	2528.138654
551.291237	2523.097500
551.649555	2482.768269
552.007817	2450.000769
552.366022	2533.179808
552.724173	2482.768269
553.082267	2591.153077
553.440305	2495.371154
553.798288	2515.535769
554.156215	2434.877308
554.514086	2515.535769
554.871902	2485.288846
555.229661	2492.850577
555.587365	2437.397885
555.945014	2523.097500
556.302606	2477.727115
556.660143	2492.850577
557.017625	2455.041923
557.375050	2507.974038
557.732421	2480.247692
558.089735	2442.439038
558.446994	2455.041923
558.804197	2407.150962
559.161345	2497.891731
559.518437	2540.741538
559.875474	2500.412308
560.232455	2497.891731
560.589381	2518.056346
560.946251	2518.056346
561.303065	2490.330000
561.659825	2480.247692
562.016528	2472.685962
562.373177	2477.727115
562.729770	2447.480192
563.086307	2520.576923
563.442789	2515.535769
563.799216	2450.000769
564.155587	2523.097500
564.511904	2513.015192
564.868164	2409.671538
565.224370	2538.220962
565.580520	2505.453462
565.936615	2570.988462
566.292654	2485.288846
566.648638	2520.576923
567.004567	2533.179808
567.360441	2482.768269
567.716260	2540.741538
568.072023	2538.220962
568.427732	2470.165385
568.783385	2540.741538
569.138982	2530.659231
569.494525	2500.412308
569.850013	2563.426731
570.205445	2419.753846
570.560823	2480.247692
570.916145	2485.288846
571.271412	2535.700385
571.626625	2399.589231
571.981782	2475.206538
572.336884	2480.247692
572.691931	2487.809423
573.046923	2513.015192
573.401860	2490.330000
573.756743	2497.891731
574.111570	2545.782692
574.466342	2543.262115
574.821059	2475.206538
575.175722	2490.330000
575.530330	2467.644808
575.884882	2462.603654
576.239380	2525.618077
576.593823	2497.891731
576.948211	2530.659231
577.302544	2467.644808
577.656823	2485.288846
578.011047	2507.974038
578.365216	2487.809423
578.719330	2470.165385
579.073389	2492.850577
579.427394	2497.891731
579.781344	2568.467885
580.135239	2452.521346
580.489080	2510.494615
580.842866	2490.330000
581.196597	2447.480192
581.550273	2528.138654
581.903895	2530.659231
582.257463	2485.288846
582.610975	2424.795000
582.964434	2523.097500
583.317837	2513.015192
583.671186	2460.083077
584.024481	2523.097500
584.377721	2447.480192
584.730906	2434.877308
585.084037	2485.288846
585.437113	2525.618077
585.790135	2530.659231
586.143103	2417.233269
586.496016	2523.097500
586.848874	2472.685962
587.201679	2518.056346
587.554428	2500.412308
587.907124	2507.974038
588.259765	2490.330000
588.612352	2490.330000
588.964884	2523.097500
589.317362	2510.494615
589.669786	2538.220962
590.022155	2505.453462
590.374470	2485.288846
590.726731	2434.877308
591.078937	2460.083077
591.431090	2422.274423
591.783188	2518.056346
592.135232	2412.192115
592.487222	2513.015192
592.839157	2470.165385
593.191038	2525.618077
593.542866	2492.850577
593.894639	2485.288846
594.246358	2550.823846
594.598022	2465.124231
594.949633	2447.480192
595.301190	2505.453462
595.652692	2513.015192
596.004141	2540.741538
596.355535	2538.220962
596.706876	2442.439038
597.058162	2467.644808
597.409395	2530.659231
597.760573	2520.576923
598.111698	2502.932885
598.462768	2434.877308
598.813785	2442.439038
599.164748	2550.823846
599.515657	2505.453462
599.866511	2515.535769
600.217312	2507.974038
600.568060	2520.576923
600.918753	2480.247692
601.269392	2497.891731
601.619978	2462.603654
601.970510	2593.673654
602.320988	2490.330000
602.671412	2455.041923
603.021783	2472.685962
603.372100	2439.918462
603.722363	2520.576923
604.072572	2475.206538
604.422728	2487.809423
604.772830	2500.412308
605.122878	2500.412308
605.472872	2455.041923
605.822813	2442.439038
606.172701	2583.591346
606.522534	2455.041923
606.872314	2485.288846
607.222041	2558.385577
607.571714	2460.083077
607.921333	2530.659231
608.270899	2563.426731
608.620411	2543.262115
608.969870	2477.727115
609.319276	2475.206538
609.668627	2535.700385
610.017926	2510.494615
610.367171	2500.412308
610.716362	2467.644808
611.065500	2507.974038
611.414585	2523.097500
611.763616	2500.412308
612.112594	2530.659231
612.461518	2518.056346
612.810389	2462.603654
613.159207	2525.618077
613.507971	2414.712692
613.856682	2515.535769
614.205340	2487.809423
614.553945	2490.330000
614.902496	2492.850577
615.250994	2513.015192
615.599439	2412.192115
615.947830	2543.262115
616.296169	2384.465769
616.644454	2429.836154
616.992686	2470.165385
617.340864	2510.494615
617.688990	2570.988462
618.037063	2523.097500
618.385082	2525.618077
618.733048	2399.589231
619.080961	2565.947308
619.428821	2510.494615
619.776628	2490.330000
620.124382	2523.097500
620.472083	2485.288846
620.819731	2573.509038
621.167326	2434.877308
621.514868	2500.412308
621.862357	2475.206538
622.209793	2422.274423
622.557176	2510.494615
622.904506	2472.685962
623.251783	2485.288846
623.599007	2497.891731
623.946179	2500.412308
624.293297	2444.959615
624.640363	2465.124231
624.987376	2432.356731
625.334336	2548.303269
625.681243	2525.618077
626.028097	2502.932885
626.374899	2507.974038
626.721647	2550.823846
627.068343	2482.768269
627.414987	2528.138654
627.761577	2429.836154
628.108115	2543.262115
628.454600	2485.288846
628.801032	2530.659231
629.147412	2472.685962
629.493739	2429.836154
629.840014	2550.823846
630.186236	2497.891731
630.532405	2500.412308
630.878521	2419.753846
631.224585	2540.741538
631.570597	2475.206538
631.916556	2477.727115
632.262462	2485.288846
632.608316	2565.947308
632.954117	2434.877308
633.299866	2568.467885
633.645562	2467.644808
633.991206	2437.397885
634.336797	2462.603654
634.682336	2528.138654
635.027823	2487.809423
635.373257	2457.562500
635.718639	2437.397885
636.063968	2535.700385
636.409245	2487.809423
636.754470	2467.644808
637.099642	2502.932885
637.444762	2518.056346
637.789829	2462.603654
638.134845	2487.809423
638.479808	2477.727115
638.824719	2500.412308
639.169577	2523.097500
639.514383	2510.494615
639.859137	2452.521346
640.203839	2507.974038
640.548489	2535.700385
640.893086	2505.453462
641.237632	2515.535769
641.582125	2404.630385
641.926566	2482.768269
642.270955	2497.891731
642.615292	2507.974038
642.959576	2462.603654
643.303809	2538.220962
643.647990	2495.371154
643.992118	2558.385577
644.336195	2507.974038
644.680219	2550.823846
645.024192	2538.220962
645.368112	2472.685962
645.711981	2432.356731
646.055797	2427.315577
646.399562	2394.548077
646.743274	2563.426731
647.086935	2429.836154
647.430544	2555.865000
647.774101	2452.521346
648.117606	2422.274423
648.461059	2550.823846
648.804460	2515.535769
649.147810	2518.056346
649.491108	2450.000769
649.834354	2495.371154
650.177548	2475.206538
650.520690	2477.727115
650.863781	2588.632500
651.206820	2495.371154
651.549807	2513.015192
651.892742	2507.974038
652.235626	2513.015192
652.578458	2477.727115
652.921238	2472.685962
653.263967	2465.124231
653.606644	2427.315577
653.949269	2480.247692
654.291843	2427.315577
654.634365	2520.576923
654.976836	2598.714808
655.319255	2497.891731
655.661622	2465.124231
656.003938	2492.850577
656.346203	2480.247692
656.688416	2502.932885
657.030577	2558.385577
657.372687	2447.480192
657.714746	2414.712692
658.056753	2480.247692
658.398708	2444.959615
658.740612	2518.056346
659.082465	2492.850577
659.424266	2497.891731
659.766016	2591.153077
660.107715	2492.850577
660.449362	2613.838269
660.790958	2560.906154
661.132503	2477.727115
661.473996	2545.782692
661.815438	2495.371154
662.156829	2470.165385
662.498168	2560.906154
662.839456	2437.397885
663.180693	2523.097500
663.521879	2482.768269
663.863013	2500.412308
664.204097	2500.412308
664.545129	2492.850577
664.886110	2510.494615
665.227040	2540.741538
665.567918	2520.576923
665.908746	2505.453462
666.249522	2485.288846
666.590248	2455.041923
666.930922	2475.206538
667.271545	2530.659231
667.612118	2467.644808
667.952639	2442.439038
668.293109	2528.138654
668.633528	2523.097500
668.973896	2490.330000
669.314213	2452.521346
669.654480	2570.988462
669.994695	2482.768269
670.334859	2465.124231
670.674973	2565.947308
671.015035	2576.029615
671.355047	2450.000769
671.695008	2495.371154
672.034918	2507.974038
672.374777	2548.303269
672.714585	2497.891731
673.054342	2495.371154
673.394049	2472.685962
673.733705	2482.768269
674.073310	2513.015192
674.412864	2507.974038
674.752368	2482.768269
675.091820	2485.288846
675.431223	2450.000769
675.770574	2480.247692
676.109875	2422.274423
676.449125	2565.947308
676.788324	2482.768269
677.127473	2475.206538
677.466571	2515.535769
677.805619	2490.330000
678.144616	2442.439038
678.483562	2500.412308
678.822458	2553.344423
679.161303	2447.480192
679.500098	2515.535769
679.838842	2470.165385
680.177535	2384.465769
680.516179	2545.782692
680.854771	2523.097500
681.193314	2533.179808
681.531805	2470.165385
681.870247	2482.768269
682.208638	2467.644808
682.546978	2450.000769
682.885268	2419.753846
683.223508	2525.618077
683.561697	2530.659231
683.899836	2513.015192
684.237925	2545.782692
684.575963	2490.330000
684.913951	2467.644808
685.251889	2586.111923
685.589776	2500.412308
685.927614	2482.768269
686.265401	2475.206538
686.603137	2543.262115
686.940824	2442.439038
687.278460	2505.453462
687.616046	2525.618077
687.953582	2447.480192
688.291068	2374.383462
688.628504	2490.330000
688.965889	2492.850577
689.303224	2457.562500
689.640510	2402.109808
689.977745	2397.068654
690.314930	2434.877308
690.652065	2495.371154
690.989150	2447.480192
691.326185	2505.453462
691.663170	2487.809423
692.000105	2477.727115
692.336990	2543.262115
692.673825	2467.644808
693.010610	2518.056346
693.347345	2492.850577
693.684030	2477.727115
694.020665	2475.206538
694.357251	2548.303269
694.693786	2497.891731
695.030272	2460.083077
695.366707	2452.521346
695.703093	2477.727115
696.039429	2513.015192
696.375716	2502.932885
696.711952	2465.124231
697.048139	2455.041923
697.384276	2482.768269
697.720363	2434.877308
698.056400	2490.330000
698.392388	2407.150962
698.728326	2588.632500
699.064214	2485.288846
699.400053	2457.562500
699.735842	2480.247692
700.071581	2507.974038
700.407270	2507.974038
700.742910	2518.056346
701.078501	2507.974038
701.414042	2455.041923
701.749533	2432.356731
702.084974	2518.056346
702.420366	2543.262115
702.755709	2462.603654
703.091002	2538.220962
703.426246	2505.453462
703.761440	2578.550192
704.096584	2434.877308
704.431679	2560.906154
704.766725	2528.138654
705.101721	2487.809423
705.436668	2533.179808
705.771565	2432.356731
706.106413	2505.453462
706.441212	2553.344423
706.775961	2457.562500
707.110661	2550.823846
707.445311	2465.124231
707.779913	2507.974038
708.114465	2419.753846
708.448967	2528.138654
708.783421	2535.700385
709.117825	2442.439038
709.452180	2457.562500
709.786485	2510.494615
710.120742	2417.233269
710.454949	2598.714808
710.789107	2550.823846
711.123216	2573.509038
711.457275	2424.795000
711.791286	2472.685962
712.125247	2477.727115
712.459159	2485.288846
712.793023	2505.453462
713.126837	2502.932885
713.460602	2485.288846
713.794318	2548.303269
714.127985	2462.603654
714.461602	2543.262115
714.795171	2419.753846
715.128691	2608.797115
715.462162	2407.150962
715.795584	2555.865000
716.128957	2505.453462
716.462281	2495.371154
716.795556	2467.644808
717.128782	2502.932885
717.461960	2533.179808
717.795088	2507.974038
718.128167	2538.220962
718.461198	2502.932885
718.794180	2424.795000
719.127113	2525.618077
719.459997	2553.344423
719.792833	2497.891731
720.125619	2530.659231
720.458357	2513.015192
720.791046	2497.891731
721.123686	2384.465769
721.456278	2497.891731
721.788821	2450.000769
722.121315	2490.330000
722.453761	2523.097500
722.786158	2513.015192
723.118506	2502.932885
723.450805	2455.041923
723.783056	2444.959615
724.115259	2485.288846
724.447412	2450.000769
724.779518	2550.823846
725.111574	2538.220962
725.443582	2482.768269
725.775542	2518.056346
726.107453	2475.206538
726.439315	2535.700385
726.771129	2487.809423
727.102895	2475.206538
727.434612	2482.768269
727.766281	2588.632500
728.097901	2457.562500
728.429473	2472.685962
728.760996	2442.439038
729.092471	2520.576923
729.423897	2492.850577
729.755276	2462.603654
730.086606	2545.782692
730.417887	2465.124231
730.749120	2510.494615
731.080305	2520.576923
731.411442	2510.494615
731.742530	2513.015192
732.073570	2533.179808
732.404562	2495.371154
732.735506	2515.535769
733.066401	2530.659231
733.397249	2444.959615
733.728048	2500.412308
734.058798	2437.397885
734.389501	2467.644808
734.720156	2429.836154
735.050762	2568.467885
735.381320	2485.288846
735.711831	2487.809423
736.042293	2513.015192
736.372707	2439.918462
736.703073	2507.974038
737.033391	2507.974038
737.363661	2472.685962
737.693883	2550.823846
738.024056	2515.535769
738.354182	2442.439038
738.684260	2492.850577
739.014290	2434.877308
739.344272	2485.288846
739.674207	2482.768269
740.004093	2500.412308
740.333931	2414.712692
740.663722	2548.303269
740.993464	2442.439038
741.323159	2510.494615
741.652806	2586.111923
741.982405	2507.974038
742.311956	2558.385577
742.641460	2505.453462
742.970915	2500.412308
743.300323	2482.768269
743.629683	2472.685962
743.958996	2497.891731
744.288260	2472.685962
744.617477	2495.371154
744.946647	2550.823846
745.275768	2485.288846
745.604842	2477.727115
745.933869	2455.041923
746.262847	2568.467885
746.591778	2581.070769
746.920662	2477.727115
747.249498	2502.932885
747.578286	2457.562500
747.907027	2462.603654
748.235720	2525.618077
748.564365	2533.179808
748.892963	2404.630385
749.221514	2543.262115
749.550017	2510.494615
749.878473	2538.220962
750.206881	2460.083077
750.535242	2492.850577
750.863555	2540.741538
751.191821	2520.576923
751.520039	2558.385577
751.848210	2530.659231
752.176334	2470.165385
752.504411	2550.823846
752.832440	2475.206538
753.160421	2513.015192
753.488356	2515.535769
753.816243	2500.412308
754.144082	2525.618077
754.471875	2533.179808
754.799620	2520.576923
755.127318	2462.603654
755.454969	2560.906154
755.782572	2533.179808
756.110129	2450.000769
756.437638	2470.165385
756.765100	2475.206538
757.092515	2495.371154
757.419882	2475.206538
757.747203	2565.947308
758.074477	2500.412308
758.401703	2427.315577
758.728882	2482.768269
759.056014	2467.644808
759.383099	2427.315577
759.710138	2490.330000
760.037129	2472.685962
760.364073	2475.206538
760.690970	2543.262115
761.017820	2573.509038
761.344623	2500.412308
761.671379	2450.000769
761.998088	2528.138654
762.324751	2560.906154
762.651366	2475.206538
762.977935	2525.618077
763.304456	2535.700385
763.630931	2528.138654
763.957359	2490.330000
764.283740	2432.356731
764.610074	2593.673654
764.936362	2507.974038
765.262602	2513.015192
765.588796	2465.124231
765.914943	2570.988462
766.241044	2500.412308
766.567097	2497.891731
766.893104	2525.618077
767.219064	2533.179808
767.544978	2465.124231
767.870845	2545.782692
768.196665	2427.315577
768.522438	2502.932885
768.848165	2475.206538
769.173846	2472.685962
769.499479	2538.220962
769.825066	2492.850577
770.150607	2455.041923
770.476101	2513.015192
770.801548	2545.782692
771.126949	2573.509038
771.452303	2450.000769
771.777611	2442.439038
772.102872	2490.330000
772.428087	2558.385577
772.753256	2500.412308
773.078378	2520.576923
773.403453	2475.206538
773.728482	2515.535769
774.053465	2482.768269
774.378401	2576.029615
774.703291	2485.288846
775.028135	2487.809423
775.352932	2462.603654
775.677683	2470.165385
776.002388	2518.056346
776.327046	2523.097500
776.651658	2482.768269
776.976224	2540.741538
777.300743	2419.753846
777.625216	2513.015192
777.949643	2510.494615
778.274024	2379.424615
778.598359	2545.782692
778.922647	2450.000769
779.246889	2505.453462
779.571086	2500.412308
779.895236	2434.877308
780.219339	2538.220962
780.543397	2475.206538
780.867409	2523.097500
781.191374	2475.206538
781.515294	2487.809423
781.839167	2407.150962
782.162995	2412.192115
782.486776	2540.741538
782.810511	2412.192115
783.134201	2467.644808
783.457844	2457.562500
783.781441	2555.865000
784.104993	2429.836154
784.428498	2495.371154
784.751958	2447.480192
785.075372	2447.480192
785.398739	2538.220962
785.722061	2399.589231
786.045337	2578.550192
786.368568	2452.521346
786.691752	2553.344423
787.014891	2452.521346
787.337983	2576.029615
787.661030	2492.850577
787.984031	2520.576923
788.306987	2515.535769
788.629897	2545.782692
788.952760	2523.097500
789.275579	2550.823846
789.598351	2560.906154
789.921078	2482.768269
790.243759	2452.521346
790.566395	2460.083077
790.888984	2550.823846
791.211529	2460.083077
791.534027	2475.206538
791.856480	2515.535769
792.178888	2500.412308
792.501249	2475.206538
792.823566	2510.494615
793.145836	2528.138654
793.468062	2462.603654
793.790241	2475.206538
794.112375	2462.603654
794.434464	2500.412308
794.756507	2548.303269
795.078505	2495.371154
795.400457	2518.056346
795.722364	2450.000769
796.044226	2505.453462
796.366042	2513.015192
796.687812	2472.685962
797.009538	2477.727115
797.331218	2505.453462
797.652852	2598.714808
797.974442	2525.618077
798.295986	2475.206538
798.617484	2513.015192
798.938938	2392.027500
799.260346	2528.138654
799.581709	2467.644808
799.903026	2513.015192
800.224299	2500.412308
800.545526	2450.000769
800.866708	2502.932885
801.187845	2482.768269
801.508936	2465.124231
801.829983	2414.712692
802.150984	2470.165385
802.471940	2490.330000
802.792851	2530.659231
803.113717	2487.809423
803.434538	2563.426731
803.755314	2444.959615
804.076045	2455.041923
804.396731	2450.000769
804.717372	2563.426731
805.037967	2424.795000
805.358518	2518.056346
805.679024	2462.603654
805.999485	2439.918462
806.319901	2515.535769
806.640272	2533.179808
806.960598	2386.986346
807.280879	2470.165385
807.601115	2460.083077
807.921306	2497.891731
808.241453	2465.124231
808.561554	2523.097500
808.881611	2490.330000
809.201623	2465.124231
809.521590	2462.603654
809.841513	2482.768269
810.161390	2429.836154
810.481223	2505.453462
810.801011	2452.521346
811.120755	2535.700385
811.440453	2525.618077
811.760107	2530.659231
812.079716	2487.809423
812.399281	2470.165385
812.718801	2477.727115
813.038276	2523.097500
813.357707	2394.548077
813.677093	2447.480192
813.996434	2520.576923
814.315731	2452.521346
814.634983	2444.959615
814.954191	2477.727115
815.273354	2533.179808
815.592473	2444.959615
815.911547	2379.424615
816.230577	2548.303269
816.549562	2487.809423
816.868502	2535.700385
817.187399	2502.932885
817.506250	2470.165385
817.825058	2437.397885
818.143821	2381.945192
818.462539	2497.891731
818.781213	2485.288846
819.099843	2455.041923
819.418429	2523.097500
819.736970	2439.918462
820.055466	2513.015192
820.373919	2492.850577
820.692327	2477.727115
821.010691	2505.453462
821.329011	2510.494615
821.647286	2475.206538
821.965517	2570.988462
822.283704	2518.056346
822.601847	2467.644808
822.919945	2419.753846
823.237999	2371.862885
823.556010	2485.288846
823.873976	2553.344423
824.191897	2502.932885
824.509775	2490.330000
824.827609	2525.618077
825.145398	2467.644808
825.463144	2500.412308
825.780845	2434.877308
826.098502	2520.576923
826.416116	2442.439038
826.733685	2513.015192
827.051210	2460.083077
827.368692	2497.891731
827.686129	2470.165385
828.003522	2450.000769
828.320872	2505.453462
828.638177	2475.206538
828.955439	2543.262115
829.272656	2490.330000
829.589830	2485.288846
829.906960	2487.809423
830.224046	2502.932885
830.541088	2586.111923
830.858086	2475.206538
831.175041	2497.891731
831.491952	2502.932885
831.808819	2540.741538
832.125642	2583.591346
832.442421	2477.727115
832.759157	2477.727115
833.075849	2540.741538
833.392497	2414.712692
833.709101	2621.400000
834.025662	2477.727115
834.342179	2472.685962
834.658653	2555.865000
834.975083	2497.891731
835.291469	2485.288846
835.607811	2472.685962
835.924110	2555.865000
836.240366	2502.932885
836.556578	2457.562500
836.872746	2523.097500
837.188871	2505.453462
837.504952	2487.809423
837.820990	2505.453462
838.136984	2513.015192
838.452935	2470.165385
838.768842	2502.932885
839.084706	2563.426731
839.400526	2462.603654
839.716303	2500.412308
840.032037	2485.288846
840.347727	2485.288846
840.663373	2490.330000
840.978977	2409.671538
841.294537	2550.823846
841.610054	2462.603654
841.925527	2528.138654
842.240957	2490.330000
842.556344	2480.247692
842.871687	2444.959615
843.186987	2470.165385
843.502244	2502.932885
843.817458	2510.494615
844.132629	2560.906154
844.447756	2538.220962
844.762840	2409.671538
845.077881	2480.247692
845.392879	2480.247692
845.707833	2460.083077
846.022745	2477.727115
846.337613	2505.453462
846.652438	2525.618077
846.967221	2480.247692
847.281960	2490.330000
847.596656	2558.385577
847.911309	2513.015192
848.225919	2513.015192
848.540485	2465.124231
848.855009	2560.906154
849.169490	2467.644808
849.483928	2485.288846
849.798323	2495.371154
850.112675	2497.891731
850.426984	2485.288846
850.741251	2462.603654
851.055474	2477.727115
851.369654	2442.439038
851.683792	2467.644808
851.997887	2427.315577
852.311938	2520.576923
852.625947	2497.891731
852.939914	2530.659231
853.253837	2412.192115
853.567718	2412.192115
853.881555	2419.753846
854.195350	2513.015192
854.509103	2515.535769
854.822812	2444.959615
855.136479	2485.288846
855.450103	2485.288846
855.763685	2495.371154
856.077224	2462.603654
856.390720	2447.480192
856.704173	2381.945192
857.017584	2518.056346
857.330953	2518.056346
857.644278	2450.000769
857.957561	2356.739423
858.270802	2510.494615
858.584000	2583.591346
858.897155	2447.480192
859.210268	2434.877308
859.523339	2518.056346
859.836367	2500.412308
860.149352	2525.618077
860.462295	2492.850577
860.775195	2467.644808
861.088054	2507.974038
861.400869	2490.330000
861.713642	2492.850577
862.026373	2460.083077
862.339062	2487.809423
862.651708	2437.397885
862.964312	2500.412308
863.276873	2485.288846
863.589392	2450.000769
863.901869	2412.192115
864.214303	2518.056346
864.526696	2444.959615
864.839045	2497.891731
865.151353	2500.412308
865.463619	2444.959615
865.775842	2558.385577
866.088023	2492.850577
866.400162	2543.262115
866.712258	2550.823846
867.024313	2507.974038
867.336325	2482.768269
867.648296	2470.165385
867.960224	2505.453462
868.272110	2555.865000
868.583954	2502.932885
868.895755	2480.247692
869.207515	2530.659231
869.519233	2472.685962
869.830909	2538.220962
870.142542	2525.618077
870.454134	2480.247692
870.765684	2424.795000
871.077191	2444.959615
871.388657	2492.850577
871.700081	2482.768269
872.011463	2550.823846
872.322803	2467.644808
872.634101	2528.138654
872.945357	2525.618077
873.256571	2460.083077
873.567744	2450.000769
873.878874	2553.344423
874.189963	2538.220962
874.501010	2447.480192
874.812015	2475.206538
875.122979	2500.412308
875.433900	2535.700385
875.744780	2442.439038
876.055618	2553.344423
876.366415	2497.891731
876.677169	2520.576923
876.987882	2533.179808
877.298554	2545.782692
877.609183	2545.782692
877.919771	2467.644808
878.230317	2485.288846
878.540822	2399.589231
878.851285	2482.768269
879.161707	2573.509038
879.472087	2452.521346
879.782425	2492.850577
880.092722	2500.412308
880.402977	2490.330000
880.713191	2470.165385
881.023363	2450.000769
881.333494	2480.247692
881.643583	2530.659231
881.953631	2560.906154
882.263637	2465.124231
882.573602	2540.741538
882.883526	2525.618077
883.193408	2525.618077
883.503248	2535.700385
883.813048	2497.891731
884.122806	2394.548077
884.432522	2523.097500
884.742197	2442.439038
885.051831	2437.397885
885.361424	2472.685962
885.670975	2412.192115
885.980485	2570.988462
886.289954	2525.618077
886.599382	2457.562500
886.908768	2485.288846
887.218113	2424.795000
887.527417	2515.535769
887.836680	2457.562500
888.145901	2346.657115
888.455082	2447.480192
888.764221	2447.480192
889.073319	2543.262115
889.382376	2518.056346
889.691392	2513.015192
890.000366	2518.056346
890.309300	2533.179808
890.618193	2545.782692
890.927044	2487.809423
891.235855	2429.836154
891.544625	2533.179808
891.853353	2505.453462
892.162041	2528.138654
892.470687	2427.315577
892.779293	2510.494615
893.087858	2530.659231
893.396381	2432.356731
893.704864	2432.356731
894.013306	2487.809423
894.321707	2475.206538
894.630068	2475.206538
894.938387	2424.795000
895.246665	2455.041923
895.554903	2427.315577
895.863100	2472.685962
896.171256	2437.397885
896.479371	2513.015192
896.787446	2412.192115
897.095480	2533.179808
897.403473	2480.247692
897.711425	2407.150962
898.019336	2545.782692
898.327207	2460.083077
898.635038	2384.465769
898.942827	2439.918462
899.250576	2513.015192
899.558284	2573.509038
899.865952	2581.070769
900.173579	2452.521346
900.481165	2505.453462
900.788711	2460.083077
901.096216	2450.000769
901.403681	2490.330000
901.711105	2384.465769
902.018489	2457.562500
902.325832	2525.618077
902.633135	2419.753846
902.940397	2434.877308
903.247619	2523.097500
903.554800	2477.727115
903.861941	2482.768269
904.169041	2444.959615
904.476101	2402.109808
904.783121	2460.083077
905.090100	2528.138654
905.397039	2596.194231
905.703938	2513.015192
906.010796	2495.371154
906.317614	2470.165385
906.624391	2538.220962
906.931129	2487.809423
907.237826	2530.659231
907.544483	2568.467885
907.851099	2485.288846
908.157675	2523.097500
908.464211	2472.685962
908.770707	2510.494615
909.077163	2502.932885
909.383578	2513.015192
909.689954	2535.700385
909.996289	2399.589231
910.302584	2520.576923
910.608839	2480.247692
910.915054	2480.247692
911.221229	2543.262115
911.527363	2485.288846
911.833458	2434.877308
912.139513	2520.576923
912.445527	2505.453462
912.751502	2465.124231
913.057436	2462.603654
913.363331	2482.768269
913.669186	2485.288846
913.975000	2507.974038
914.280775	2487.809423
914.586510	2485.288846
914.892205	2424.795000
915.197859	2563.426731
915.503475	2492.850577
915.809050	2467.644808
916.114585	2558.385577
916.420081	2543.262115
916.725536	2434.877308
917.030952	2465.124231
917.336328	2462.603654
917.641665	2447.480192
917.946961	2485.288846
918.252218	2502.932885
918.557435	2502.932885
918.862612	2475.206538
919.167750	2528.138654
919.472848	2497.891731
919.777906	2434.877308
920.082925	2560.906154
920.387904	2538.220962
920.692843	2513.015192
920.997743	2563.426731
921.302603	2427.315577
921.607423	2495.371154
921.912204	2482.768269
922.216946	2470.165385
922.521647	2485.288846
922.826310	2392.027500
923.130932	2376.904038
923.435516	2535.700385
923.740059	2505.453462
924.044564	2417.233269
924.349028	2525.618077
924.653454	2507.974038
924.957840	2477.727115
925.262186	2502.932885
925.566493	2588.632500
925.870761	2523.097500
926.174989	2492.850577
926.479178	2477.727115
926.783328	2460.083077
927.087438	2437.397885
927.391509	2560.906154
927.695541	2515.535769
927.999533	2538.220962
928.303486	2460.083077
928.607400	2497.891731
928.911275	2439.918462
929.215110	2487.809423
929.518906	2507.974038
929.822663	2540.741538
930.126381	2518.056346
930.430060	2510.494615
930.733699	2538.220962
931.037299	2487.809423
931.340861	2414.712692
931.644383	2497.891731
931.947866	2500.412308
932.251309	2507.974038
932.554714	2492.850577
932.858080	2518.056346
933.161407	2447.480192
933.464694	2455.041923
933.767943	2502.932885
934.071153	2540.741538
934.374323	2402.109808
934.677455	2528.138654
934.980548	2528.138654
935.283602	2455.041923
935.586617	2540.741538
935.889593	2570.988462
936.192530	2457.562500
936.495428	2477.727115
936.798287	2437.397885
937.101108	2460.083077
937.403890	2510.494615
937.706632	2467.644808
938.009336	2553.344423
938.312002	2437.397885
938.614628	2540.741538
938.917216	2465.124231
939.219765	2513.015192
939.522275	2480.247692
939.824747	2528.138654
940.127179	2409.671538
940.429573	2482.768269
940.731929	2470.165385
941.034246	2450.000769
941.336524	2432.356731
941.638763	2460.083077
941.940964	2470.165385
942.243126	2450.000769
942.545250	2490.330000
942.847335	2485.288846
943.149381	2460.083077
943.451389	2540.741538
943.753359	2560.906154
944.055290	2550.823846
944.357182	2528.138654
944.659036	2485.288846
944.960851	2490.330000
945.262628	2450.000769
945.564367	2510.494615
945.866067	2452.521346
946.167729	2538.220962
946.469352	2475.206538
946.770937	2515.535769
947.072484	2545.782692
947.373992	2490.330000
947.675462	2538.220962
947.976893	2477.727115
948.278286	2447.480192
948.579641	2457.562500
948.880958	2515.535769
949.182236	2467.644808
949.483476	2492.850577
949.784678	2487.809423
950.085841	2538.220962
950.386967	2472.685962
950.688054	2568.467885
950.989103	2480.247692
951.290114	2492.850577
951.591087	2487.809423
951.892021	2369.342308
952.192917	2523.097500
952.493776	2475.206538
952.794596	2429.836154
953.095378	2502.932885
953.396122	2399.589231
953.696828	2455.041923
953.997496	2472.685962
954.298126	2616.358846
954.598718	2475.206538
954.899272	2429.836154
955.199788	2558.385577
955.500266	2495.371154
955.800706	2568.467885
956.101108	2533.179808
956.401472	2545.782692
956.701798	2427.315577
957.002087	2538.220962
957.302337	2487.809423
957.602550	2520.576923
957.902724	2507.974038
958.202861	2518.056346
958.502960	2487.809423
958.803022	2538.220962
959.103045	2444.959615
959.403031	2477.727115
959.702979	2487.809423
960.002889	2502.932885
960.302762	2563.426731
960.602596	2558.385577
960.902393	2482.768269
961.202153	2528.138654
961.501875	2545.782692
961.801559	2414.712692
962.101205	2578.550192
962.400814	2399.589231
962.700385	2513.015192
962.999918	2528.138654
963.299414	2558.385577
963.598873	2533.179808
963.898293	2444.959615
964.197677	2450.000769
964.497022	2568.467885
964.796331	2477.727115
965.095601	2530.659231
965.394835	2407.150962
965.694030	2475.206538
965.993189	2507.974038
966.292309	2467.644808
966.591393	2409.671538
966.890439	2523.097500
967.189447	2417.233269
967.488419	2477.727115
967.787353	2442.439038
968.086249	2535.700385
968.385108	2500.412308
968.683930	2507.974038
968.982714	2462.603654
969.281462	2439.918462
969.580172	2467.644808
969.878844	2500.412308
970.177480	2568.467885
970.476078	2444.959615
970.774639	2399.589231
971.073162	2523.097500
971.371649	2465.124231
971.670098	2528.138654
971.968510	2548.303269
972.266885	2434.877308
972.565223	2530.659231
972.863524	2528.138654
973.161788	2573.509038
973.460014	2583.591346
973.758204	2538.220962
974.056356	2429.836154
974.354471	2427.315577
974.652550	2505.453462
974.950591	2560.906154
975.248595	2472.685962
975.546563	2560.906154
975.844493	2507.974038
976.142386	2447.480192
976.440243	2465.124231
976.738062	2470.165385
977.035845	2465.124231
977.333590	2477.727115
977.631299	2472.685962
977.928971	2528.138654
978.226606	2460.083077
978.524204	2543.262115
978.821765	2447.480192
979.119290	2429.836154
979.416777	2437.397885
979.714228	2500.412308
980.011642	2555.865000
980.309020	2447.480192
980.606360	2535.700385
980.903664	2462.603654
981.200931	2485.288846
981.498162	2437.397885
981.795356	2533.179808
982.092513	2492.850577
982.389633	2540.741538
982.686717	2482.768269
982.983764	2543.262115
983.280775	2490.330000
983.577749	2505.453462
983.874686	2545.782692
984.171587	2505.453462
984.468451	2565.947308
984.765279	2591.153077
985.062070	2407.150962
985.358824	2447.480192
985.655543	2487.809423
985.952224	2442.439038
986.248869	2520.576923
986.545478	2442.439038
986.842050	2518.056346
987.138586	2432.356731
987.435086	2490.330000
987.731549	2444.959615
988.027975	2495.371154
988.324366	2538.220962
988.620719	2570.988462
988.917037	2450.000769
989.213318	2346.657115
989.509563	2497.891731
989.805772	2528.138654
990.101944	2450.000769
990.398080	2429.836154
990.694180	2482.768269
990.990244	2487.809423
991.286271	2563.426731
991.582262	2545.782692
991.878217	2485.288846
992.174136	2510.494615
992.470019	2492.850577
992.765865	2500.412308
993.061676	2422.274423
993.357450	2472.685962
993.653188	2545.782692
993.948890	2414.712692
994.244556	2495.371154
994.540186	2419.753846
994.835780	2490.330000
995.131337	2442.439038
995.426859	2422.274423
995.722345	2497.891731
996.017795	2490.330000
996.313208	2480.247692
996.608586	2450.000769
996.903928	2540.741538
997.199234	2371.862885
997.494504	2470.165385
997.789738	2465.124231
998.084936	2429.836154
998.380099	2495.371154
998.675225	2414.712692
998.970316	2439.918462
999.265371	2452.521346
999.560390	2515.535769
999.855373	2457.562500
1000.150320	2502.932885
1000.445232	2490.330000
1000.740108	2530.659231
1001.034948	2412.192115
1001.329752	2492.850577
1001.624521	2550.823846
1001.919254	2505.453462
1002.213951	2480.247692
1002.508613	2465.124231
1002.803239	2475.206538
1003.097829	2480.247692
1003.392384	2588.632500
1003.686903	2475.206538
1003.981386	2497.891731
1004.275834	2452.521346
1004.570246	2485.288846
1004.864623	2523.097500
1005.158964	2487.809423
1005.453270	2467.644808
1005.747540	2510.494615
1006.041775	2528.138654
1006.335974	2480.247692
1006.630138	2497.891731
1006.924266	2492.850577
1007.218359	2379.424615
1007.512416	2407.150962
1007.806438	2475.206538
1008.100425	2477.727115
1008.394376	2510.494615
1008.688292	2424.795000
1008.982172	2482.768269
1009.276017	2477.727115
1009.569827	2538.220962
1009.863602	2434.877308
1010.157341	2477.727115
1010.451045	2480.247692
1010.744714	2452.521346
1011.038347	2507.974038
1011.331945	2482.768269
1011.625508	2513.015192
1011.919036	2475.206538
1012.212528	2515.535769
1012.505986	2528.138654
1012.799408	2450.000769
1013.092795	2450.000769
1013.386147	2402.109808
1013.679464	2477.727115
1013.972745	2437.397885
1014.265992	2500.412308
1014.559204	2510.494615
1014.852380	2429.836154
1015.145521	2477.727115
1015.438628	2472.685962
1015.731699	2500.412308
1016.024736	2545.782692
1016.317737	2439.918462
1016.610703	2487.809423
1016.903635	2439.918462
1017.196531	2429.836154
1017.489393	2558.385577
1017.782219	2404.630385
1018.075011	2447.480192
1018.367768	2515.535769
1018.660490	2560.906154
1018.953177	2560.906154
1019.245829	2560.906154
