Dividing Wavelength (nm)	Counts (n)	Blue Motor Position (mm): 5.600000	Red Motor Position (mm): 0.000000	
326.493990	2150.052115
326.888308	2150.052115
327.282561	2150.052115
327.676750	2142.490385
328.070874	2008.899808
328.464933	2046.708462
328.858929	2044.187885
329.252859	2109.722885
329.646726	2099.640577
330.040528	2177.778462
330.434265	2202.984231
330.827938	2114.764038
331.221547	2132.408077
331.615091	2223.148846
332.008571	2157.613846
332.401986	2150.052115
332.795338	2190.381346
333.188625	2255.916346
333.581847	2276.080962
333.975006	2268.519231
334.368100	2268.519231
334.761129	2303.807308
335.154095	2356.739423
335.546996	2361.780577
335.939833	2414.712692
336.332606	2429.836154
336.725315	2412.192115
337.117960	2492.850577
337.510540	2414.712692
337.903056	2326.492500
338.295508	2394.548077
338.687896	2409.671538
339.080220	2470.165385
339.472480	2422.274423
339.864676	2472.685962
340.256807	2558.385577
340.648875	2419.753846
341.040879	2510.494615
341.432818	2480.247692
341.824694	2399.589231
342.216506	2472.685962
342.608253	2424.795000
342.999937	2530.659231
343.391557	2364.301154
343.783113	2399.589231
344.174605	2414.712692
344.566033	2467.644808
344.957397	2500.412308
345.348697	2518.056346
345.739934	2399.589231
346.131106	2523.097500
346.522215	2462.603654
346.913260	2500.412308
347.304241	2392.027500
347.695159	2480.247692
348.086012	2480.247692
348.476802	2444.959615
348.867528	2409.671538
349.258191	2434.877308
349.648789	2465.124231
350.039324	2570.988462
350.429796	2417.233269
350.820203	2465.124231
351.210548	2472.685962
351.600828	2386.986346
351.991045	2419.753846
352.381198	2432.356731
352.771288	2442.439038
353.161314	2455.041923
353.551276	2518.056346
353.941175	2465.124231
354.331010	2429.836154
354.720782	2414.712692
355.110490	2422.274423
355.500135	2457.562500
355.889717	2326.492500
356.279235	2424.795000
356.668689	2407.150962
357.058080	2460.083077
357.447408	2386.986346
357.836672	2442.439038
358.225873	2467.644808
358.615010	2427.315577
359.004084	2505.453462
359.393095	2356.739423
359.782043	2424.795000
360.170927	2427.315577
360.559748	2452.521346
360.948505	2447.480192
361.337199	2412.192115
361.725830	2482.768269
362.114398	2452.521346
362.502903	2429.836154
362.891344	2502.932885
363.279722	2475.206538
363.668037	2419.753846
364.056289	2399.589231
364.444478	2505.453462
364.832603	2399.589231
365.220665	2386.986346
365.608665	2409.671538
365.996601	2485.288846
366.384474	2432.356731
366.772284	2409.671538
367.160031	2467.644808
367.547715	2379.424615
367.935336	2497.891731
368.322893	2414.712692
368.710388	2465.124231
369.097820	2412.192115
369.485189	2465.124231
369.872495	2381.945192
370.259738	2487.809423
370.646918	2442.439038
371.034035	2444.959615
371.421090	2437.397885
371.808081	2480.247692
372.195010	2477.727115
372.581875	2434.877308
372.968678	2417.233269
373.355418	2457.562500
373.742096	2369.342308
374.128710	2523.097500
374.515262	2402.109808
374.901751	2452.521346
375.288177	2437.397885
375.674540	2525.618077
376.060841	2424.795000
376.447079	2520.576923
376.833254	2434.877308
377.219367	2442.439038
377.605417	2472.685962
377.991404	2457.562500
378.377329	2490.330000
378.763191	2472.685962
379.148991	2399.589231
379.534727	2480.247692
379.920402	2447.480192
380.306013	2465.124231
380.691563	2414.712692
381.077049	2424.795000
381.462474	2500.412308
381.847835	2477.727115
382.233134	2492.850577
382.618371	2462.603654
383.003545	2412.192115
383.388657	2555.865000
383.773706	2412.192115
384.158693	2409.671538
384.543618	2500.412308
384.928480	2450.000769
385.313280	2437.397885
385.698017	2429.836154
386.082692	2485.288846
386.467305	2475.206538
386.851856	2485.288846
387.236344	2447.480192
387.620770	2480.247692
388.005133	2518.056346
388.389435	2472.685962
388.773674	2462.603654
389.157851	2392.027500
389.541965	2485.288846
389.926018	2432.356731
390.310008	2545.782692
390.693936	2460.083077
391.077802	2485.288846
391.461606	2523.097500
391.845348	2439.918462
392.229027	2538.220962
392.612645	2404.630385
392.996200	2432.356731
393.379694	2495.371154
393.763125	2460.083077
394.146494	2528.138654
394.529801	2482.768269
394.913047	2505.453462
395.296230	2442.439038
395.679351	2495.371154
396.062410	2432.356731
396.445408	2465.124231
396.828343	2432.356731
397.211217	2424.795000
397.594028	2482.768269
397.976778	2470.165385
398.359466	2487.809423
398.742092	2510.494615
399.124656	2543.262115
399.507158	2510.494615
399.889598	2510.494615
400.271977	2467.644808
400.654294	2455.041923
401.036549	2409.671538
401.418742	2334.054231
401.800874	2485.288846
402.182944	2462.603654
402.564952	2452.521346
402.946898	2399.589231
403.328783	2422.274423
403.710606	2402.109808
404.092367	2530.659231
404.474067	2490.330000
404.855705	2510.494615
405.237282	2530.659231
405.618797	2520.576923
406.000250	2379.424615
406.381642	2475.206538
406.762972	2434.877308
407.144240	2465.124231
407.525447	2374.383462
407.906593	2520.576923
408.287677	2558.385577
408.668700	2502.932885
409.049661	2452.521346
409.430560	2407.150962
409.811399	2535.700385
410.192176	2518.056346
410.572891	2475.206538
410.953545	2550.823846
411.334138	2422.274423
411.714669	2528.138654
412.095139	2487.809423
412.475547	2457.562500
412.855894	2525.618077
413.236180	2394.548077
413.616405	2497.891731
413.996568	2507.974038
414.376670	2457.562500
414.756711	2442.439038
415.136691	2513.015192
415.516609	2523.097500
415.896466	2477.727115
416.276262	2533.179808
416.655997	2404.630385
417.035670	2399.589231
417.415283	2434.877308
417.794834	2467.644808
418.174324	2450.000769
418.553753	2492.850577
418.933121	2505.453462
419.312428	2543.262115
419.691674	2482.768269
420.070859	2515.535769
420.449983	2520.576923
420.829045	2452.521346
421.208047	2535.700385
421.586988	2434.877308
421.965867	2427.315577
422.344686	2515.535769
422.723444	2505.453462
423.102141	2482.768269
423.480777	2442.439038
423.859352	2452.521346
424.237866	2432.356731
424.616319	2487.809423
424.994712	2490.330000
425.373044	2429.836154
425.751314	2450.000769
426.129524	2485.288846
426.507673	2427.315577
426.885762	2540.741538
427.263789	2485.288846
427.641756	2455.041923
428.019662	2538.220962
428.397508	2497.891731
428.775292	2414.712692
429.153016	2578.550192
429.530679	2528.138654
429.908282	2472.685962
430.285824	2472.685962
430.663305	2578.550192
431.040726	2467.644808
431.418086	2502.932885
431.795385	2389.506923
432.172624	2450.000769
432.549802	2487.809423
432.926920	2462.603654
433.303977	2596.194231
433.680974	2515.535769
434.057910	2450.000769
434.434786	2482.768269
434.811601	2409.671538
435.188355	2407.150962
435.565050	2518.056346
435.941683	2455.041923
436.318257	2460.083077
436.694770	2535.700385
437.071222	2538.220962
437.447614	2528.138654
437.823946	2457.562500
438.200218	2490.330000
438.576429	2492.850577
438.952580	2518.056346
439.328670	2482.768269
439.704700	2487.809423
440.080670	2429.836154
440.456580	2530.659231
440.832429	2472.685962
441.208218	2455.041923
441.583947	2513.015192
441.959616	2374.383462
442.335224	2525.618077
442.710773	2480.247692
443.086261	2482.768269
443.461689	2480.247692
443.837057	2472.685962
444.212365	2513.015192
444.587612	2470.165385
444.962800	2535.700385
445.337927	2505.453462
445.712995	2480.247692
446.088002	2455.041923
446.462949	2480.247692
446.837837	2412.192115
447.212664	2487.809423
447.587431	2485.288846
447.962139	2462.603654
448.336786	2480.247692
448.711374	2455.041923
449.085901	2432.356731
449.460369	2543.262115
449.834776	2465.124231
450.209124	2520.576923
450.583412	2548.303269
450.957640	2565.947308
451.331808	2470.165385
451.705917	2513.015192
452.079965	2515.535769
452.453954	2497.891731
452.827883	2507.974038
453.201752	2439.918462
453.575562	2520.576923
453.949311	2487.809423
454.323001	2497.891731
454.696632	2502.932885
455.070202	2505.453462
455.443713	2576.029615
455.817164	2402.109808
456.190556	2437.397885
456.563888	2450.000769
456.937160	2457.562500
457.310373	2518.056346
457.683526	2586.111923
458.056619	2457.562500
458.429653	2535.700385
458.802628	2513.015192
459.175542	2497.891731
459.548398	2487.809423
459.921194	2442.439038
460.293930	2407.150962
460.666607	2591.153077
461.039224	2573.509038
461.411782	2482.768269
461.784280	2490.330000
462.156719	2477.727115
462.529099	2490.330000
462.901419	2505.453462
463.273680	2485.288846
463.645882	2485.288846
464.018024	2497.891731
464.390106	2444.959615
464.762130	2533.179808
465.134094	2482.768269
465.505999	2467.644808
465.877845	2462.603654
466.249631	2427.315577
466.621358	2465.124231
466.993026	2470.165385
467.364634	2588.632500
467.736184	2505.453462
468.107674	2497.891731
468.479105	2598.714808
468.850477	2480.247692
469.221790	2507.974038
469.593043	2432.356731
469.964238	2447.480192
470.335373	2462.603654
470.706449	2535.700385
471.077467	2492.850577
471.448425	2475.206538
471.819324	2482.768269
472.190164	2515.535769
472.560945	2558.385577
472.931667	2359.260000
473.302330	2553.344423
473.672934	2404.630385
474.043479	2568.467885
474.413965	2482.768269
474.784393	2515.535769
475.154761	2515.535769
475.525070	2457.562500
475.895321	2437.397885
476.265513	2550.823846
476.635645	2538.220962
477.005719	2422.274423
477.375734	2417.233269
477.745691	2492.850577
478.115588	2560.906154
478.485427	2502.932885
478.855207	2510.494615
479.224928	2482.768269
479.594591	2560.906154
479.964194	2530.659231
480.333739	2560.906154
480.703226	2475.206538
481.072653	2475.206538
481.442022	2460.083077
481.811333	2495.371154
482.180584	2419.753846
482.549777	2608.797115
482.918912	2497.891731
483.287988	2424.795000
483.657005	2392.027500
484.025964	2434.877308
484.394864	2442.439038
484.763706	2528.138654
485.132489	2563.426731
485.501213	2510.494615
485.869879	2392.027500
486.238487	2555.865000
486.607036	2462.603654
486.975527	2515.535769
487.343959	2414.712692
487.712333	2505.453462
488.080648	2447.480192
488.448905	2455.041923
488.817104	2432.356731
489.185244	2553.344423
489.553326	2507.974038
489.921350	2467.644808
490.289315	2492.850577
490.657222	2439.918462
491.025070	2455.041923
491.392861	2452.521346
491.760593	2553.344423
492.128267	2515.535769
492.495883	2530.659231
492.863440	2462.603654
493.230939	2540.741538
493.598380	2495.371154
493.965763	2472.685962
494.333088	2450.000769
494.700354	2505.453462
495.067563	2450.000769
495.434713	2407.150962
495.801805	2450.000769
496.168839	2555.865000
496.535815	2528.138654
496.902733	2510.494615
497.269593	2533.179808
497.636395	2576.029615
498.003139	2502.932885
498.369825	2518.056346
498.736453	2510.494615
499.103023	2485.288846
499.469535	2497.891731
499.835989	2535.700385
500.202385	2447.480192
500.568723	2515.535769
500.935003	2487.809423
501.301226	2442.439038
501.667390	2513.015192
502.033497	2497.891731
502.399546	2518.056346
502.765537	2507.974038
503.131470	2495.371154
503.497345	2490.330000
503.863163	2533.179808
504.228923	2462.603654
504.594625	2447.480192
504.960269	2588.632500
505.325856	2470.165385
505.691385	2495.371154
506.056856	2465.124231
506.422270	2502.932885
506.787625	2533.179808
507.152924	2550.823846
507.518164	2477.727115
507.883347	2513.015192
508.248472	2525.618077
508.613540	2424.795000
508.978550	2525.618077
509.343503	2513.015192
509.708398	2480.247692
510.073236	2518.056346
510.438016	2462.603654
510.802738	2452.521346
511.167403	2586.111923
511.532010	2429.836154
511.896561	2533.179808
512.261053	2510.494615
512.625488	2560.906154
512.989866	2472.685962
513.354186	2455.041923
513.718449	2525.618077
514.082655	2495.371154
514.446803	2465.124231
514.810894	2500.412308
515.174927	2513.015192
515.538904	2412.192115
515.902822	2477.727115
516.266684	2422.274423
516.630488	2515.535769
516.994235	2550.823846
517.357925	2470.165385
517.721558	2502.932885
518.085133	2455.041923
518.448651	2538.220962
518.812112	2434.877308
519.175516	2555.865000
519.538863	2475.206538
519.902152	2558.385577
520.265385	2513.015192
520.628560	2528.138654
520.991678	2497.891731
521.354739	2492.850577
521.717743	2462.603654
522.080690	2550.823846
522.443580	2447.480192
522.806413	2442.439038
523.169189	2530.659231
523.531908	2560.906154
523.894569	2460.083077
524.257174	2578.550192
524.619722	2520.576923
524.982213	2480.247692
525.344647	2495.371154
525.707025	2560.906154
526.069345	2523.097500
526.431608	2500.412308
526.793815	2450.000769
527.155964	2467.644808
527.518057	2444.959615
527.880093	2505.453462
528.242072	2460.083077
528.603995	2465.124231
528.965860	2497.891731
529.327669	2588.632500
529.689421	2533.179808
530.051117	2510.494615
530.412755	2482.768269
530.774337	2528.138654
531.135862	2437.397885
531.497331	2490.330000
531.858743	2515.535769
532.220098	2510.494615
532.581396	2528.138654
532.942638	2487.809423
533.303824	2465.124231
533.664953	2497.891731
534.026025	2505.453462
534.387040	2462.603654
534.747999	2467.644808
535.108902	2543.262115
535.469748	2513.015192
535.830537	2533.179808
536.191270	2490.330000
536.551947	2457.562500
536.912567	2545.782692
537.273131	2450.000769
537.633638	2550.823846
537.994089	2570.988462
538.354483	2412.192115
538.714821	2482.768269
539.075103	2480.247692
539.435328	2525.618077
539.795497	2434.877308
540.155609	2460.083077
540.515665	2490.330000
540.875665	2485.288846
541.235609	2422.274423
541.595496	2528.138654
541.955328	2475.206538
542.315102	2540.741538
542.674821	2457.562500
543.034483	2480.247692
543.394090	2457.562500
543.753640	2502.932885
544.113134	2465.124231
544.472571	2523.097500
544.831953	2530.659231
545.191278	2578.550192
545.550548	2460.083077
545.909761	2533.179808
546.268918	2475.206538
546.628019	2565.947308
546.987064	2507.974038
547.346053	2490.330000
547.704986	2439.918462
548.063863	2417.233269
548.422684	2462.603654
548.781449	2528.138654
549.140158	2424.795000
549.498811	2540.741538
549.857408	2457.562500
550.215949	2565.947308
550.574434	2467.644808
550.932864	2513.015192
551.291237	2530.659231
551.649555	2583.591346
552.007817	2402.109808
552.366022	2492.850577
552.724173	2465.124231
553.082267	2485.288846
553.440305	2485.288846
553.798288	2596.194231
554.156215	2495.371154
554.514086	2543.262115
554.871902	2523.097500
555.229661	2563.426731
555.587365	2442.439038
555.945014	2467.644808
556.302606	2485.288846
556.660143	2550.823846
557.017625	2475.206538
557.375050	2465.124231
557.732421	2457.562500
558.089735	2427.315577
558.446994	2490.330000
558.804197	2482.768269
559.161345	2502.932885
559.518437	2513.015192
559.875474	2578.550192
560.232455	2455.041923
560.589381	2560.906154
560.946251	2429.836154
561.303065	2581.070769
561.659825	2558.385577
562.016528	2548.303269
562.373177	2550.823846
562.729770	2429.836154
563.086307	2540.741538
563.442789	2427.315577
563.799216	2523.097500
564.155587	2480.247692
564.511904	2515.535769
564.868164	2465.124231
565.224370	2528.138654
565.580520	2490.330000
565.936615	2535.700385
566.292654	2502.932885
566.648638	2553.344423
567.004567	2553.344423
567.360441	2465.124231
567.716260	2462.603654
568.072023	2480.247692
568.427732	2525.618077
568.783385	2480.247692
569.138982	2422.274423
569.494525	2480.247692
569.850013	2510.494615
570.205445	2507.974038
570.560823	2500.412308
570.916145	2520.576923
571.271412	2550.823846
571.626625	2495.371154
571.981782	2417.233269
572.336884	2545.782692
572.691931	2530.659231
573.046923	2470.165385
573.401860	2593.673654
573.756743	2538.220962
574.111570	2492.850577
574.466342	2444.959615
574.821059	2490.330000
575.175722	2520.576923
575.530330	2598.714808
575.884882	2515.535769
576.239380	2518.056346
576.593823	2424.795000
576.948211	2475.206538
577.302544	2533.179808
577.656823	2518.056346
578.011047	2563.426731
578.365216	2538.220962
578.719330	2477.727115
579.073389	2500.412308
579.427394	2533.179808
579.781344	2470.165385
580.135239	2533.179808
580.489080	2543.262115
580.842866	2460.083077
581.196597	2490.330000
581.550273	2409.671538
581.903895	2525.618077
582.257463	2460.083077
582.610975	2450.000769
582.964434	2424.795000
583.317837	2515.535769
583.671186	2412.192115
584.024481	2550.823846
584.377721	2495.371154
584.730906	2447.480192
585.084037	2513.015192
585.437113	2455.041923
585.790135	2510.494615
586.143103	2513.015192
586.496016	2538.220962
586.848874	2475.206538
587.201679	2442.439038
587.554428	2490.330000
587.907124	2414.712692
588.259765	2507.974038
588.612352	2397.068654
588.964884	2485.288846
589.317362	2444.959615
589.669786	2442.439038
590.022155	2518.056346
590.374470	2467.644808
590.726731	2538.220962
591.078937	2513.015192
591.431090	2565.947308
591.783188	2533.179808
592.135232	2437.397885
592.487222	2583.591346
592.839157	2515.535769
593.191038	2447.480192
593.542866	2520.576923
593.894639	2457.562500
594.246358	2475.206538
594.598022	2553.344423
594.949633	2548.303269
595.301190	2540.741538
595.652692	2518.056346
596.004141	2553.344423
596.355535	2480.247692
596.706876	2497.891731
597.058162	2525.618077
597.409395	2513.015192
597.760573	2475.206538
598.111698	2495.371154
598.462768	2513.015192
598.813785	2492.850577
599.164748	2576.029615
599.515657	2533.179808
599.866511	2452.521346
600.217312	2500.412308
600.568060	2470.165385
600.918753	2487.809423
601.269392	2485.288846
601.619978	2525.618077
601.970510	2515.535769
602.320988	2374.383462
602.671412	2518.056346
603.021783	2523.097500
603.372100	2462.603654
603.722363	2502.932885
604.072572	2417.233269
604.422728	2558.385577
604.772830	2530.659231
605.122878	2434.877308
605.472872	2505.453462
605.822813	2457.562500
606.172701	2457.562500
606.522534	2439.918462
606.872314	2477.727115
607.222041	2507.974038
607.571714	2507.974038
607.921333	2462.603654
608.270899	2545.782692
608.620411	2432.356731
608.969870	2502.932885
609.319276	2452.521346
609.668627	2475.206538
610.017926	2507.974038
610.367171	2495.371154
610.716362	2510.494615
611.065500	2480.247692
611.414585	2482.768269
611.763616	2523.097500
612.112594	2502.932885
612.461518	2606.276538
612.810389	2495.371154
613.159207	2515.535769
613.507971	2500.412308
613.856682	2555.865000
614.205340	2482.768269
614.553945	2467.644808
614.902496	2528.138654
615.250994	2419.753846
615.599439	2513.015192
615.947830	2455.041923
616.296169	2573.509038
616.644454	2397.068654
616.992686	2500.412308
617.340864	2500.412308
617.688990	2523.097500
618.037063	2470.165385
618.385082	2523.097500
618.733048	2500.412308
619.080961	2540.741538
619.428821	2545.782692
619.776628	2525.618077
620.124382	2460.083077
620.472083	2379.424615
620.819731	2530.659231
621.167326	2492.850577
621.514868	2487.809423
621.862357	2510.494615
622.209793	2399.589231
622.557176	2455.041923
622.904506	2586.111923
623.251783	2502.932885
623.599007	2535.700385
623.946179	2434.877308
624.293297	2513.015192
624.640363	2462.603654
624.987376	2505.453462
625.334336	2462.603654
625.681243	2427.315577
626.028097	2505.453462
626.374899	2444.959615
626.721647	2477.727115
627.068343	2460.083077
627.414987	2432.356731
627.761577	2447.480192
628.108115	2543.262115
628.454600	2543.262115
628.801032	2475.206538
629.147412	2550.823846
629.493739	2497.891731
629.840014	2434.877308
630.186236	2475.206538
630.532405	2462.603654
630.878521	2535.700385
631.224585	2507.974038
631.570597	2467.644808
631.916556	2437.397885
632.262462	2530.659231
632.608316	2568.467885
632.954117	2497.891731
633.299866	2502.932885
633.645562	2518.056346
633.991206	2500.412308
634.336797	2467.644808
634.682336	2472.685962
635.027823	2550.823846
635.373257	2447.480192
635.718639	2515.535769
636.063968	2477.727115
636.409245	2565.947308
636.754470	2444.959615
637.099642	2523.097500
637.444762	2437.397885
637.789829	2533.179808
638.134845	2472.685962
638.479808	2538.220962
638.824719	2475.206538
639.169577	2452.521346
639.514383	2576.029615
639.859137	2500.412308
640.203839	2447.480192
640.548489	2487.809423
640.893086	2485.288846
641.237632	2528.138654
641.582125	2450.000769
641.926566	2513.015192
642.270955	2452.521346
642.615292	2528.138654
642.959576	2528.138654
643.303809	2510.494615
643.647990	2460.083077
643.992118	2455.041923
644.336195	2548.303269
644.680219	2603.755962
645.024192	2515.535769
645.368112	2480.247692
645.711981	2427.315577
646.055797	2538.220962
646.399562	2470.165385
646.743274	2487.809423
647.086935	2465.124231
647.430544	2523.097500
647.774101	2472.685962
648.117606	2565.947308
648.461059	2452.521346
648.804460	2558.385577
649.147810	2439.918462
649.491108	2510.494615
649.834354	2553.344423
650.177548	2470.165385
650.520690	2513.015192
650.863781	2505.453462
651.206820	2480.247692
651.549807	2515.535769
651.892742	2510.494615
652.235626	2576.029615
652.578458	2518.056346
652.921238	2560.906154
653.263967	2603.755962
653.606644	2606.276538
653.949269	2518.056346
654.291843	2437.397885
654.634365	2444.959615
654.976836	2505.453462
655.319255	2513.015192
655.661622	2467.644808
656.003938	2528.138654
656.346203	2543.262115
656.688416	2442.439038
657.030577	2455.041923
657.372687	2543.262115
657.714746	2538.220962
658.056753	2475.206538
658.398708	2480.247692
658.740612	2507.974038
659.082465	2591.153077
659.424266	2482.768269
659.766016	2533.179808
660.107715	2444.959615
660.449362	2548.303269
660.790958	2470.165385
661.132503	2525.618077
661.473996	2429.836154
661.815438	2472.685962
662.156829	2457.562500
662.498168	2495.371154
662.839456	2482.768269
663.180693	2515.535769
663.521879	2485.288846
663.863013	2538.220962
664.204097	2513.015192
664.545129	2525.618077
664.886110	2467.644808
665.227040	2452.521346
665.567918	2467.644808
665.908746	2555.865000
666.249522	2558.385577
666.590248	2502.932885
666.930922	2424.795000
667.271545	2533.179808
667.612118	2533.179808
667.952639	2513.015192
668.293109	2525.618077
668.633528	2477.727115
668.973896	2510.494615
669.314213	2455.041923
669.654480	2475.206538
669.994695	2553.344423
670.334859	2558.385577
670.674973	2535.700385
671.015035	2467.644808
671.355047	2492.850577
671.695008	2429.836154
672.034918	2487.809423
672.374777	2497.891731
672.714585	2487.809423
673.054342	2485.288846
673.394049	2505.453462
673.733705	2422.274423
674.073310	2563.426731
674.412864	2538.220962
674.752368	2513.015192
675.091820	2447.480192
675.431223	2510.494615
675.770574	2419.753846
676.109875	2533.179808
676.449125	2475.206538
676.788324	2528.138654
677.127473	2495.371154
677.466571	2495.371154
677.805619	2505.453462
678.144616	2477.727115
678.483562	2513.015192
678.822458	2492.850577
679.161303	2533.179808
679.500098	2487.809423
679.838842	2502.932885
680.177535	2621.400000
680.516179	2505.453462
680.854771	2565.947308
681.193314	2543.262115
681.531805	2601.235385
681.870247	2535.700385
682.208638	2507.974038
682.546978	2533.179808
682.885268	2540.741538
683.223508	2465.124231
683.561697	2513.015192
683.899836	2573.509038
684.237925	2480.247692
684.575963	2470.165385
684.913951	2497.891731
685.251889	2535.700385
685.589776	2455.041923
685.927614	2450.000769
686.265401	2510.494615
686.603137	2452.521346
686.940824	2492.850577
687.278460	2507.974038
687.616046	2515.535769
687.953582	2515.535769
688.291068	2570.988462
688.628504	2455.041923
688.965889	2462.603654
689.303224	2467.644808
689.640510	2432.356731
689.977745	2555.865000
690.314930	2412.192115
690.652065	2505.453462
690.989150	2548.303269
691.326185	2485.288846
691.663170	2513.015192
692.000105	2535.700385
692.336990	2452.521346
692.673825	2583.591346
693.010610	2462.603654
693.347345	2490.330000
693.684030	2513.015192
694.020665	2500.412308
694.357251	2424.795000
694.693786	2540.741538
695.030272	2480.247692
695.366707	2581.070769
695.703093	2530.659231
696.039429	2487.809423
696.375716	2500.412308
696.711952	2530.659231
697.048139	2540.741538
697.384276	2480.247692
697.720363	2523.097500
698.056400	2409.671538
698.392388	2424.795000
698.728326	2500.412308
699.064214	2550.823846
699.400053	2535.700385
699.735842	2470.165385
700.071581	2467.644808
700.407270	2359.260000
700.742910	2495.371154
701.078501	2548.303269
701.414042	2515.535769
701.749533	2492.850577
702.084974	2485.288846
702.420366	2477.727115
702.755709	2492.850577
703.091002	2528.138654
703.426246	2480.247692
703.761440	2497.891731
704.096584	2437.397885
704.431679	2500.412308
704.766725	2507.974038
705.101721	2434.877308
705.436668	2497.891731
705.771565	2492.850577
706.106413	2455.041923
706.441212	2518.056346
706.775961	2457.562500
707.110661	2507.974038
707.445311	2500.412308
707.779913	2462.603654
708.114465	2502.932885
708.448967	2477.727115
708.783421	2543.262115
709.117825	2460.083077
709.452180	2565.947308
709.786485	2545.782692
710.120742	2528.138654
710.454949	2495.371154
710.789107	2510.494615
711.123216	2392.027500
711.457275	2507.974038
711.791286	2417.233269
712.125247	2528.138654
712.459159	2515.535769
712.793023	2480.247692
713.126837	2452.521346
713.460602	2487.809423
713.794318	2507.974038
714.127985	2533.179808
714.461602	2495.371154
714.795171	2540.741538
715.128691	2533.179808
715.462162	2513.015192
715.795584	2530.659231
716.128957	2528.138654
716.462281	2465.124231
716.795556	2535.700385
717.128782	2470.165385
717.461960	2470.165385
717.795088	2417.233269
718.128167	2502.932885
718.461198	2412.192115
718.794180	2525.618077
719.127113	2490.330000
719.459997	2462.603654
719.792833	2525.618077
720.125619	2530.659231
720.458357	2482.768269
720.791046	2465.124231
721.123686	2530.659231
721.456278	2558.385577
721.788821	2485.288846
722.121315	2510.494615
722.453761	2397.068654
722.786158	2500.412308
723.118506	2487.809423
723.450805	2502.932885
723.783056	2409.671538
724.115259	2462.603654
724.447412	2480.247692
724.779518	2563.426731
725.111574	2535.700385
725.443582	2515.535769
725.775542	2455.041923
726.107453	2525.618077
726.439315	2606.276538
726.771129	2397.068654
727.102895	2548.303269
727.434612	2538.220962
727.766281	2497.891731
728.097901	2518.056346
728.429473	2477.727115
728.760996	2492.850577
729.092471	2548.303269
729.423897	2518.056346
729.755276	2528.138654
730.086606	2543.262115
730.417887	2550.823846
730.749120	2432.356731
731.080305	2518.056346
731.411442	2472.685962
731.742530	2475.206538
732.073570	2434.877308
732.404562	2530.659231
732.735506	2583.591346
733.066401	2429.836154
733.397249	2477.727115
733.728048	2427.315577
734.058798	2505.453462
734.389501	2515.535769
734.720156	2535.700385
735.050762	2437.397885
735.381320	2447.480192
735.711831	2528.138654
736.042293	2502.932885
736.372707	2477.727115
736.703073	2447.480192
737.033391	2573.509038
737.363661	2482.768269
737.693883	2530.659231
738.024056	2432.356731
738.354182	2543.262115
738.684260	2495.371154
739.014290	2500.412308
739.344272	2465.124231
739.674207	2515.535769
740.004093	2500.412308
740.333931	2513.015192
740.663722	2339.095385
740.993464	2442.439038
741.323159	2543.262115
741.652806	2455.041923
741.982405	2525.618077
742.311956	2444.959615
742.641460	2525.618077
742.970915	2525.618077
743.300323	2543.262115
743.629683	2497.891731
743.958996	2507.974038
744.288260	2548.303269
744.617477	2472.685962
744.946647	2429.836154
745.275768	2487.809423
745.604842	2558.385577
745.933869	2472.685962
746.262847	2455.041923
746.591778	2490.330000
746.920662	2477.727115
747.249498	2457.562500
747.578286	2460.083077
747.907027	2523.097500
748.235720	2404.630385
748.564365	2407.150962
748.892963	2543.262115
749.221514	2500.412308
749.550017	2419.753846
749.878473	2447.480192
750.206881	2487.809423
750.535242	2429.836154
750.863555	2555.865000
751.191821	2565.947308
751.520039	2502.932885
751.848210	2442.439038
752.176334	2419.753846
752.504411	2518.056346
752.832440	2482.768269
753.160421	2515.535769
753.488356	2444.959615
753.816243	2540.741538
754.144082	2492.850577
754.471875	2525.618077
754.799620	2487.809423
755.127318	2533.179808
755.454969	2444.959615
755.782572	2581.070769
756.110129	2427.315577
756.437638	2513.015192
756.765100	2409.671538
757.092515	2533.179808
757.419882	2570.988462
757.747203	2548.303269
758.074477	2525.618077
758.401703	2455.041923
758.728882	2495.371154
759.056014	2450.000769
759.383099	2563.426731
759.710138	2533.179808
760.037129	2487.809423
760.364073	2543.262115
760.690970	2586.111923
761.017820	2515.535769
761.344623	2470.165385
761.671379	2578.550192
761.998088	2470.165385
762.324751	2457.562500
762.651366	2447.480192
762.977935	2510.494615
763.304456	2482.768269
763.630931	2429.836154
763.957359	2467.644808
764.283740	2412.192115
764.610074	2545.782692
764.936362	2520.576923
765.262602	2490.330000
765.588796	2553.344423
765.914943	2465.124231
766.241044	2543.262115
766.567097	2419.753846
766.893104	2540.741538
767.219064	2490.330000
767.544978	2507.974038
767.870845	2500.412308
768.196665	2485.288846
768.522438	2455.041923
768.848165	2485.288846
769.173846	2462.603654
769.499479	2490.330000
769.825066	2457.562500
770.150607	2457.562500
770.476101	2492.850577
770.801548	2480.247692
771.126949	2530.659231
771.452303	2437.397885
771.777611	2482.768269
772.102872	2510.494615
772.428087	2515.535769
772.753256	2429.836154
773.078378	2523.097500
773.403453	2444.959615
773.728482	2545.782692
774.053465	2452.521346
774.378401	2505.453462
774.703291	2439.918462
775.028135	2497.891731
775.352932	2452.521346
775.677683	2465.124231
776.002388	2543.262115
776.327046	2480.247692
776.651658	2563.426731
776.976224	2505.453462
777.300743	2442.439038
777.625216	2545.782692
777.949643	2460.083077
778.274024	2429.836154
778.598359	2422.274423
778.922647	2455.041923
779.246889	2457.562500
779.571086	2434.877308
779.895236	2515.535769
780.219339	2565.947308
780.543397	2507.974038
780.867409	2502.932885
781.191374	2497.891731
781.515294	2497.891731
781.839167	2482.768269
782.162995	2452.521346
782.486776	2520.576923
782.810511	2502.932885
783.134201	2462.603654
783.457844	2465.124231
783.781441	2510.494615
784.104993	2570.988462
784.428498	2525.618077
784.751958	2530.659231
785.075372	2452.521346
785.398739	2495.371154
785.722061	2439.918462
786.045337	2492.850577
786.368568	2460.083077
786.691752	2570.988462
787.014891	2487.809423
787.337983	2525.618077
787.661030	2485.288846
787.984031	2530.659231
788.306987	2465.124231
788.629897	2487.809423
788.952760	2467.644808
789.275579	2482.768269
789.598351	2510.494615
789.921078	2467.644808
790.243759	2528.138654
790.566395	2533.179808
790.888984	2444.959615
791.211529	2495.371154
791.534027	2457.562500
791.856480	2538.220962
792.178888	2475.206538
792.501249	2538.220962
792.823566	2548.303269
793.145836	2497.891731
793.468062	2492.850577
793.790241	2397.068654
794.112375	2452.521346
794.434464	2482.768269
794.756507	2563.426731
795.078505	2480.247692
795.400457	2568.467885
795.722364	2434.877308
796.044226	2520.576923
796.366042	2460.083077
796.687812	2490.330000
797.009538	2437.397885
797.331218	2502.932885
797.652852	2495.371154
797.974442	2545.782692
798.295986	2495.371154
798.617484	2553.344423
798.938938	2555.865000
799.260346	2518.056346
799.581709	2477.727115
799.903026	2407.150962
800.224299	2576.029615
800.545526	2482.768269
800.866708	2487.809423
801.187845	2462.603654
801.508936	2538.220962
801.829983	2523.097500
802.150984	2485.288846
802.471940	2452.521346
802.792851	2510.494615
803.113717	2538.220962
803.434538	2419.753846
803.755314	2472.685962
804.076045	2520.576923
804.396731	2485.288846
804.717372	2472.685962
805.037967	2444.959615
805.358518	2550.823846
805.679024	2389.506923
805.999485	2467.644808
806.319901	2455.041923
806.640272	2533.179808
806.960598	2505.453462
807.280879	2485.288846
807.601115	2543.262115
807.921306	2447.480192
808.241453	2611.317692
808.561554	2432.356731
808.881611	2492.850577
809.201623	2480.247692
809.521590	2513.015192
809.841513	2545.782692
810.161390	2485.288846
810.481223	2414.712692
810.801011	2545.782692
811.120755	2480.247692
811.440453	2462.603654
811.760107	2518.056346
812.079716	2482.768269
812.399281	2422.274423
812.718801	2485.288846
813.038276	2525.618077
813.357707	2381.945192
813.677093	2475.206538
813.996434	2455.041923
814.315731	2457.562500
814.634983	2477.727115
814.954191	2455.041923
815.273354	2502.932885
815.592473	2558.385577
815.911547	2573.509038
816.230577	2568.467885
816.549562	2487.809423
816.868502	2540.741538
817.187399	2513.015192
817.506250	2480.247692
817.825058	2447.480192
818.143821	2533.179808
818.462539	2520.576923
818.781213	2565.947308
819.099843	2394.548077
819.418429	2447.480192
819.736970	2475.206538
820.055466	2490.330000
820.373919	2518.056346
820.692327	2437.397885
821.010691	2487.809423
821.329011	2452.521346
821.647286	2586.111923
821.965517	2558.385577
822.283704	2533.179808
822.601847	2477.727115
822.919945	2490.330000
823.237999	2513.015192
823.556010	2437.397885
823.873976	2485.288846
824.191897	2462.603654
824.509775	2510.494615
824.827609	2450.000769
825.145398	2558.385577
825.463144	2528.138654
825.780845	2374.383462
826.098502	2439.918462
826.416116	2490.330000
826.733685	2477.727115
827.051210	2502.932885
827.368692	2497.891731
827.686129	2465.124231
828.003522	2480.247692
828.320872	2563.426731
828.638177	2555.865000
828.955439	2568.467885
829.272656	2507.974038
829.589830	2485.288846
829.906960	2500.412308
830.224046	2427.315577
830.541088	2518.056346
830.858086	2462.603654
831.175041	2538.220962
831.491952	2470.165385
831.808819	2523.097500
832.125642	2462.603654
832.442421	2399.589231
832.759157	2553.344423
833.075849	2480.247692
833.392497	2550.823846
833.709101	2475.206538
834.025662	2515.535769
834.342179	2581.070769
834.658653	2465.124231
834.975083	2465.124231
835.291469	2452.521346
835.607811	2457.562500
835.924110	2450.000769
836.240366	2492.850577
836.556578	2497.891731
836.872746	2450.000769
837.188871	2477.727115
837.504952	2465.124231
837.820990	2545.782692
838.136984	2487.809423
838.452935	2540.741538
838.768842	2487.809423
839.084706	2472.685962
839.400526	2477.727115
839.716303	2538.220962
840.032037	2505.453462
840.347727	2538.220962
840.663373	2490.330000
840.978977	2513.015192
841.294537	2568.467885
841.610054	2477.727115
841.925527	2608.797115
842.240957	2455.041923
842.556344	2505.453462
842.871687	2472.685962
843.186987	2568.467885
843.502244	2407.150962
843.817458	2598.714808
844.132629	2523.097500
844.447756	2465.124231
844.762840	2472.685962
845.077881	2457.562500
845.392879	2513.015192
845.707833	2515.535769
846.022745	2502.932885
846.337613	2560.906154
846.652438	2497.891731
846.967221	2490.330000
847.281960	2598.714808
847.596656	2439.918462
847.911309	2490.330000
848.225919	2477.727115
848.540485	2540.741538
848.855009	2472.685962
849.169490	2485.288846
849.483928	2505.453462
849.798323	2543.262115
850.112675	2485.288846
850.426984	2515.535769
850.741251	2482.768269
851.055474	2492.850577
851.369654	2455.041923
851.683792	2381.945192
851.997887	2513.015192
852.311938	2520.576923
852.625947	2450.000769
852.939914	2593.673654
853.253837	2475.206538
853.567718	2475.206538
853.881555	2455.041923
854.195350	2540.741538
854.509103	2450.000769
854.822812	2578.550192
855.136479	2568.467885
855.450103	2588.632500
855.763685	2495.371154
856.077224	2515.535769
856.390720	2472.685962
856.704173	2548.303269
857.017584	2507.974038
857.330953	2457.562500
857.644278	2447.480192
857.957561	2500.412308
858.270802	2507.974038
858.584000	2578.550192
858.897155	2487.809423
859.210268	2422.274423
859.523339	2515.535769
859.836367	2518.056346
860.149352	2432.356731
860.462295	2513.015192
860.775195	2490.330000
861.088054	2432.356731
861.400869	2482.768269
861.713642	2414.712692
862.026373	2450.000769
862.339062	2359.260000
862.651708	2414.712692
862.964312	2555.865000
863.276873	2442.439038
863.589392	2565.947308
863.901869	2586.111923
864.214303	2402.109808
864.526696	2477.727115
864.839045	2480.247692
865.151353	2467.644808
865.463619	2487.809423
865.775842	2480.247692
866.088023	2533.179808
866.400162	2424.795000
866.712258	2487.809423
867.024313	2507.974038
867.336325	2550.823846
867.648296	2470.165385
867.960224	2497.891731
868.272110	2528.138654
868.583954	2452.521346
868.895755	2535.700385
869.207515	2485.288846
869.519233	2528.138654
869.830909	2492.850577
870.142542	2495.371154
870.454134	2417.233269
870.765684	2477.727115
871.077191	2437.397885
871.388657	2465.124231
871.700081	2513.015192
872.011463	2573.509038
872.322803	2558.385577
872.634101	2477.727115
872.945357	2502.932885
873.256571	2424.795000
873.567744	2399.589231
873.878874	2482.768269
874.189963	2513.015192
874.501010	2530.659231
874.812015	2417.233269
875.122979	2480.247692
875.433900	2485.288846
875.744780	2424.795000
876.055618	2515.535769
876.366415	2502.932885
876.677169	2490.330000
876.987882	2477.727115
877.298554	2437.397885
877.609183	2563.426731
877.919771	2465.124231
878.230317	2465.124231
878.540822	2482.768269
878.851285	2492.850577
879.161707	2394.548077
879.472087	2583.591346
879.782425	2447.480192
880.092722	2465.124231
880.402977	2480.247692
880.713191	2518.056346
881.023363	2490.330000
881.333494	2507.974038
881.643583	2573.509038
881.953631	2525.618077
882.263637	2492.850577
882.573602	2576.029615
882.883526	2543.262115
883.193408	2540.741538
883.503248	2482.768269
883.813048	2465.124231
884.122806	2472.685962
884.432522	2475.206538
884.742197	2505.453462
885.051831	2525.618077
885.361424	2467.644808
885.670975	2540.741538
885.980485	2538.220962
886.289954	2386.986346
886.599382	2502.932885
886.908768	2487.809423
887.218113	2576.029615
887.527417	2467.644808
887.836680	2502.932885
888.145901	2500.412308
888.455082	2573.509038
888.764221	2432.356731
889.073319	2543.262115
889.382376	2429.836154
889.691392	2530.659231
890.000366	2465.124231
890.309300	2540.741538
890.618193	2450.000769
890.927044	2505.453462
891.235855	2480.247692
891.544625	2457.562500
891.853353	2429.836154
892.162041	2374.383462
892.470687	2492.850577
892.779293	2485.288846
893.087858	2608.797115
893.396381	2465.124231
893.704864	2477.727115
894.013306	2434.877308
894.321707	2371.862885
894.630068	2492.850577
894.938387	2361.780577
895.246665	2523.097500
895.554903	2497.891731
895.863100	2434.877308
896.171256	2565.947308
896.479371	2485.288846
896.787446	2470.165385
897.095480	2477.727115
897.403473	2487.809423
897.711425	2538.220962
898.019336	2507.974038
898.327207	2570.988462
898.635038	2573.509038
898.942827	2432.356731
899.250576	2462.603654
899.558284	2482.768269
899.865952	2515.535769
900.173579	2480.247692
900.481165	2515.535769
900.788711	2505.453462
901.096216	2540.741538
901.403681	2523.097500
901.711105	2520.576923
902.018489	2507.974038
902.325832	2502.932885
902.633135	2520.576923
902.940397	2601.235385
903.247619	2515.535769
903.554800	2442.439038
903.861941	2535.700385
904.169041	2535.700385
904.476101	2520.576923
904.783121	2477.727115
905.090100	2470.165385
905.397039	2563.426731
905.703938	2462.603654
906.010796	2424.795000
906.317614	2467.644808
906.624391	2460.083077
906.931129	2414.712692
907.237826	2540.741538
907.544483	2518.056346
907.851099	2518.056346
908.157675	2510.494615
908.464211	2513.015192
908.770707	2419.753846
909.077163	2467.644808
909.383578	2407.150962
909.689954	2439.918462
909.996289	2439.918462
910.302584	2455.041923
910.608839	2432.356731
910.915054	2558.385577
911.221229	2525.618077
911.527363	2434.877308
911.833458	2553.344423
912.139513	2475.206538
912.445527	2462.603654
912.751502	2422.274423
913.057436	2513.015192
913.363331	2465.124231
913.669186	2457.562500
913.975000	2429.836154
914.280775	2439.918462
914.586510	2515.535769
914.892205	2487.809423
915.197859	2472.685962
915.503475	2540.741538
915.809050	2560.906154
916.114585	2553.344423
916.420081	2548.303269
916.725536	2450.000769
917.030952	2525.618077
917.336328	2444.959615
917.641665	2570.988462
917.946961	2477.727115
918.252218	2500.412308
918.557435	2412.192115
918.862612	2507.974038
919.167750	2520.576923
919.472848	2538.220962
919.777906	2429.836154
920.082925	2429.836154
920.387904	2452.521346
920.692843	2465.124231
920.997743	2523.097500
921.302603	2424.795000
921.607423	2399.589231
921.912204	2485.288846
922.216946	2482.768269
922.521647	2480.247692
922.826310	2558.385577
923.130932	2460.083077
923.435516	2548.303269
923.740059	2530.659231
924.044564	2596.194231
924.349028	2457.562500
924.653454	2465.124231
924.957840	2513.015192
925.262186	2525.618077
925.566493	2497.891731
925.870761	2487.809423
926.174989	2513.015192
926.479178	2470.165385
926.783328	2447.480192
927.087438	2402.109808
927.391509	2502.932885
927.695541	2535.700385
927.999533	2480.247692
928.303486	2533.179808
928.607400	2490.330000
928.911275	2470.165385
929.215110	2477.727115
929.518906	2535.700385
929.822663	2455.041923
930.126381	2550.823846
930.430060	2419.753846
930.733699	2482.768269
931.037299	2487.809423
931.340861	2523.097500
931.644383	2500.412308
931.947866	2404.630385
932.251309	2475.206538
932.554714	2452.521346
932.858080	2419.753846
933.161407	2520.576923
933.464694	2477.727115
933.767943	2467.644808
934.071153	2434.877308
934.374323	2565.947308
934.677455	2525.618077
934.980548	2518.056346
935.283602	2523.097500
935.586617	2518.056346
935.889593	2523.097500
936.192530	2452.521346
936.495428	2462.603654
936.798287	2470.165385
937.101108	2482.768269
937.403890	2520.576923
937.706632	2480.247692
938.009336	2394.548077
938.312002	2495.371154
938.614628	2485.288846
938.917216	2570.988462
939.219765	2404.630385
939.522275	2502.932885
939.824747	2472.685962
940.127179	2472.685962
940.429573	2460.083077
940.731929	2462.603654
941.034246	2475.206538
941.336524	2444.959615
941.638763	2455.041923
941.940964	2520.576923
942.243126	2565.947308
942.545250	2513.015192
942.847335	2457.562500
943.149381	2462.603654
943.451389	2495.371154
943.753359	2507.974038
944.055290	2505.453462
944.357182	2497.891731
944.659036	2560.906154
944.960851	2502.932885
945.262628	2452.521346
945.564367	2452.521346
945.866067	2528.138654
946.167729	2540.741538
946.469352	2465.124231
946.770937	2490.330000
947.072484	2485.288846
947.373992	2457.562500
947.675462	2429.836154
947.976893	2543.262115
948.278286	2460.083077
948.579641	2482.768269
948.880958	2477.727115
949.182236	2450.000769
949.483476	2369.342308
949.784678	2450.000769
950.085841	2470.165385
950.386967	2507.974038
950.688054	2490.330000
950.989103	2525.618077
951.290114	2520.576923
951.591087	2429.836154
951.892021	2462.603654
952.192917	2485.288846
952.493776	2452.521346
952.794596	2434.877308
953.095378	2510.494615
953.396122	2500.412308
953.696828	2523.097500
953.997496	2455.041923
954.298126	2507.974038
954.598718	2470.165385
954.899272	2500.412308
955.199788	2444.959615
955.500266	2533.179808
955.800706	2437.397885
956.101108	2444.959615
956.401472	2560.906154
956.701798	2437.397885
957.002087	2520.576923
957.302337	2507.974038
957.602550	2523.097500
957.902724	2480.247692
958.202861	2538.220962
958.502960	2450.000769
958.803022	2462.603654
959.103045	2475.206538
959.403031	2530.659231
959.702979	2422.274423
960.002889	2424.795000
960.302762	2490.330000
960.602596	2533.179808
960.902393	2540.741538
961.202153	2485.288846
961.501875	2523.097500
961.801559	2384.465769
962.101205	2525.618077
962.400814	2540.741538
962.700385	2507.974038
962.999918	2586.111923
963.299414	2528.138654
963.598873	2502.932885
963.898293	2450.000769
964.197677	2472.685962
964.497022	2558.385577
964.796331	2497.891731
965.095601	2424.795000
965.394835	2444.959615
965.694030	2495.371154
965.993189	2528.138654
966.292309	2437.397885
966.591393	2457.562500
966.890439	2518.056346
967.189447	2528.138654
967.488419	2422.274423
967.787353	2513.015192
968.086249	2558.385577
968.385108	2543.262115
968.683930	2518.056346
968.982714	2434.877308
969.281462	2475.206538
969.580172	2518.056346
969.878844	2480.247692
970.177480	2523.097500
970.476078	2472.685962
970.774639	2502.932885
971.073162	2492.850577
971.371649	2389.506923
971.670098	2540.741538
971.968510	2455.041923
972.266885	2465.124231
972.565223	2455.041923
972.863524	2485.288846
973.161788	2465.124231
973.460014	2518.056346
973.758204	2437.397885
974.056356	2502.932885
974.354471	2462.603654
974.652550	2518.056346
974.950591	2507.974038
975.248595	2482.768269
975.546563	2485.288846
975.844493	2490.330000
976.142386	2487.809423
976.440243	2513.015192
976.738062	2450.000769
977.035845	2472.685962
977.333590	2525.618077
977.631299	2588.632500
977.928971	2444.959615
978.226606	2404.630385
978.524204	2550.823846
978.821765	2513.015192
979.119290	2533.179808
979.416777	2507.974038
979.714228	2447.480192
980.011642	2545.782692
980.309020	2515.535769
980.606360	2490.330000
980.903664	2533.179808
981.200931	2538.220962
981.498162	2563.426731
981.795356	2518.056346
982.092513	2465.124231
982.389633	2500.412308
982.686717	2402.109808
982.983764	2490.330000
983.280775	2568.467885
983.577749	2472.685962
983.874686	2490.330000
984.171587	2429.836154
984.468451	2450.000769
984.765279	2507.974038
985.062070	2439.918462
985.358824	2520.576923
985.655543	2570.988462
985.952224	2500.412308
986.248869	2502.932885
986.545478	2450.000769
986.842050	2535.700385
987.138586	2460.083077
987.435086	2530.659231
987.731549	2525.618077
988.027975	2434.877308
988.324366	2513.015192
988.620719	2555.865000
988.917037	2465.124231
989.213318	2543.262115
989.509563	2402.109808
989.805772	2500.412308
990.101944	2477.727115
990.398080	2548.303269
990.694180	2490.330000
990.990244	2455.041923
991.286271	2520.576923
991.582262	2437.397885
991.878217	2497.891731
992.174136	2480.247692
992.470019	2477.727115
992.765865	2444.959615
993.061676	2407.150962
993.357450	2523.097500
993.653188	2485.288846
993.948890	2487.809423
994.244556	2507.974038
994.540186	2553.344423
994.835780	2465.124231
995.131337	2487.809423
995.426859	2427.315577
995.722345	2487.809423
996.017795	2530.659231
996.313208	2513.015192
996.608586	2502.932885
996.903928	2513.015192
997.199234	2477.727115
997.494504	2455.041923
997.789738	2500.412308
998.084936	2560.906154
998.380099	2495.371154
998.675225	2407.150962
998.970316	2477.727115
999.265371	2374.383462
999.560390	2470.165385
999.855373	2472.685962
1000.150320	2477.727115
1000.445232	2447.480192
1000.740108	2472.685962
1001.034948	2490.330000
1001.329752	2495.371154
1001.624521	2568.467885
1001.919254	2402.109808
1002.213951	2424.795000
1002.508613	2510.494615
1002.803239	2492.850577
1003.097829	2492.850577
1003.392384	2515.535769
1003.686903	2472.685962
1003.981386	2419.753846
1004.275834	2364.301154
1004.570246	2439.918462
1004.864623	2518.056346
1005.158964	2470.165385
1005.453270	2520.576923
1005.747540	2477.727115
1006.041775	2409.671538
1006.335974	2513.015192
1006.630138	2475.206538
1006.924266	2450.000769
1007.218359	2467.644808
1007.512416	2470.165385
1007.806438	2576.029615
1008.100425	2563.426731
1008.394376	2505.453462
1008.688292	2487.809423
1008.982172	2500.412308
1009.276017	2507.974038
1009.569827	2460.083077
1009.863602	2462.603654
1010.157341	2427.315577
1010.451045	2515.535769
1010.744714	2548.303269
1011.038347	2465.124231
1011.331945	2379.424615
1011.625508	2452.521346
1011.919036	2487.809423
1012.212528	2477.727115
1012.505986	2467.644808
1012.799408	2606.276538
1013.092795	2495.371154
1013.386147	2507.974038
1013.679464	2553.344423
1013.972745	2523.097500
1014.265992	2502.932885
1014.559204	2492.850577
1014.852380	2462.603654
1015.145521	2545.782692
1015.438628	2545.782692
1015.731699	2495.371154
1016.024736	2530.659231
1016.317737	2475.206538
1016.610703	2447.480192
1016.903635	2492.850577
1017.196531	2432.356731
1017.489393	2455.041923
1017.782219	2482.768269
1018.075011	2432.356731
1018.367768	2505.453462
1018.660490	2450.000769
1018.953177	2450.000769
1019.245829	2450.000769
