Dividing Wavelength (nm)	Counts (n)	Blue Motor Position (mm): 0.400000	Red Motor Position (mm): 0.000000	
326.493990	2112.243462
326.888308	2112.243462
327.282561	2112.243462
327.676750	2044.187885
328.070874	2044.187885
328.464933	2109.722885
328.858929	2137.449231
329.252859	2013.940962
329.646726	2150.052115
330.040528	2119.805192
330.434265	2147.531538
330.827938	2127.366923
331.221547	2150.052115
331.615091	2238.272308
332.008571	2197.943077
332.401986	2152.572692
332.795338	2197.943077
333.188625	2197.943077
333.581847	2248.354615
333.975006	2268.519231
334.368100	2321.451346
334.761129	2278.601538
335.154095	2323.971923
335.546996	2298.766154
335.939833	2273.560385
336.332606	2384.465769
336.725315	2419.753846
337.117960	2381.945192
337.510540	2318.930769
337.903056	2437.397885
338.295508	2467.644808
338.687896	2384.465769
339.080220	2460.083077
339.472480	2364.301154
339.864676	2497.891731
340.256807	2467.644808
340.648875	2538.220962
341.040879	2530.659231
341.432818	2437.397885
341.824694	2366.821731
342.216506	2402.109808
342.608253	2457.562500
342.999937	2404.630385
343.391557	2497.891731
343.783113	2452.521346
344.174605	2495.371154
344.566033	2462.603654
344.957397	2518.056346
345.348697	2477.727115
345.739934	2490.330000
346.131106	2392.027500
346.522215	2500.412308
346.913260	2381.945192
347.304241	2502.932885
347.695159	2429.836154
348.086012	2455.041923
348.476802	2394.548077
348.867528	2439.918462
349.258191	2394.548077
349.648789	2470.165385
350.039324	2366.821731
350.429796	2417.233269
350.820203	2485.288846
351.210548	2427.315577
351.600828	2444.959615
351.991045	2321.451346
352.381198	2432.356731
352.771288	2457.562500
353.161314	2432.356731
353.551276	2371.862885
353.941175	2475.206538
354.331010	2505.453462
354.720782	2412.192115
355.110490	2349.177692
355.500135	2424.795000
355.889717	2568.467885
356.279235	2457.562500
356.668689	2510.494615
357.058080	2419.753846
357.447408	2417.233269
357.836672	2397.068654
358.225873	2351.698269
358.615010	2490.330000
359.004084	2414.712692
359.393095	2462.603654
359.782043	2457.562500
360.170927	2444.959615
360.559748	2419.753846
360.948505	2513.015192
361.337199	2424.795000
361.725830	2397.068654
362.114398	2386.986346
362.502903	2444.959615
362.891344	2429.836154
363.279722	2538.220962
363.668037	2442.439038
364.056289	2397.068654
364.444478	2492.850577
364.832603	2450.000769
365.220665	2502.932885
365.608665	2409.671538
365.996601	2447.480192
366.384474	2419.753846
366.772284	2455.041923
367.160031	2419.753846
367.547715	2485.288846
367.935336	2457.562500
368.322893	2379.424615
368.710388	2417.233269
369.097820	2495.371154
369.485189	2472.685962
369.872495	2376.904038
370.259738	2439.918462
370.646918	2472.685962
371.034035	2447.480192
371.421090	2560.906154
371.808081	2427.315577
372.195010	2329.013077
372.581875	2490.330000
372.968678	2472.685962
373.355418	2515.535769
373.742096	2462.603654
374.128710	2515.535769
374.515262	2379.424615
374.901751	2505.453462
375.288177	2462.603654
375.674540	2460.083077
376.060841	2432.356731
376.447079	2404.630385
376.833254	2457.562500
377.219367	2444.959615
377.605417	2475.206538
377.991404	2434.877308
378.377329	2386.986346
378.763191	2432.356731
379.148991	2407.150962
379.534727	2487.809423
379.920402	2447.480192
380.306013	2502.932885
380.691563	2500.412308
381.077049	2477.727115
381.462474	2412.192115
381.847835	2482.768269
382.233134	2555.865000
382.618371	2520.576923
383.003545	2422.274423
383.388657	2550.823846
383.773706	2429.836154
384.158693	2477.727115
384.543618	2450.000769
384.928480	2389.506923
385.313280	2520.576923
385.698017	2500.412308
386.082692	2427.315577
386.467305	2465.124231
386.851856	2344.136538
387.236344	2470.165385
387.620770	2485.288846
388.005133	2578.550192
388.389435	2462.603654
388.773674	2492.850577
389.157851	2419.753846
389.541965	2407.150962
389.926018	2497.891731
390.310008	2555.865000
390.693936	2515.535769
391.077802	2434.877308
391.461606	2487.809423
391.845348	2402.109808
392.229027	2457.562500
392.612645	2523.097500
392.996200	2518.056346
393.379694	2457.562500
393.763125	2399.589231
394.146494	2467.644808
394.529801	2429.836154
394.913047	2482.768269
395.296230	2422.274423
395.679351	2429.836154
396.062410	2457.562500
396.445408	2444.959615
396.828343	2455.041923
397.211217	2399.589231
397.594028	2470.165385
397.976778	2523.097500
398.359466	2412.192115
398.742092	2422.274423
399.124656	2515.535769
399.507158	2424.795000
399.889598	2434.877308
400.271977	2450.000769
400.654294	2455.041923
401.036549	2482.768269
401.418742	2492.850577
401.800874	2467.644808
402.182944	2505.453462
402.564952	2397.068654
402.946898	2510.494615
403.328783	2434.877308
403.710606	2482.768269
404.092367	2467.644808
404.474067	2492.850577
404.855705	2540.741538
405.237282	2392.027500
405.618797	2500.412308
406.000250	2462.603654
406.381642	2530.659231
406.762972	2535.700385
407.144240	2495.371154
407.525447	2490.330000
407.906593	2480.247692
408.287677	2439.918462
408.668700	2502.932885
409.049661	2397.068654
409.430560	2540.741538
409.811399	2545.782692
410.192176	2455.041923
410.572891	2510.494615
410.953545	2452.521346
411.334138	2450.000769
411.714669	2437.397885
412.095139	2492.850577
412.475547	2480.247692
412.855894	2490.330000
413.236180	2424.795000
413.616405	2492.850577
413.996568	2455.041923
414.376670	2545.782692
414.756711	2455.041923
415.136691	2523.097500
415.516609	2480.247692
415.896466	2497.891731
416.276262	2502.932885
416.655997	2482.768269
417.035670	2525.618077
417.415283	2470.165385
417.794834	2528.138654
418.174324	2480.247692
418.553753	2485.288846
418.933121	2538.220962
419.312428	2389.506923
419.691674	2462.603654
420.070859	2409.671538
420.449983	2548.303269
420.829045	2538.220962
421.208047	2480.247692
421.586988	2490.330000
421.965867	2394.548077
422.344686	2452.521346
422.723444	2528.138654
423.102141	2439.918462
423.480777	2480.247692
423.859352	2452.521346
424.237866	2444.959615
424.616319	2467.644808
424.994712	2495.371154
425.373044	2515.535769
425.751314	2475.206538
426.129524	2502.932885
426.507673	2442.439038
426.885762	2543.262115
427.263789	2477.727115
427.641756	2507.974038
428.019662	2450.000769
428.397508	2540.741538
428.775292	2399.589231
429.153016	2523.097500
429.530679	2427.315577
429.908282	2409.671538
430.285824	2495.371154
430.663305	2434.877308
431.040726	2500.412308
431.418086	2533.179808
431.795385	2515.535769
432.172624	2543.262115
432.549802	2452.521346
432.926920	2450.000769
433.303977	2450.000769
433.680974	2467.644808
434.057910	2444.959615
434.434786	2460.083077
434.811601	2429.836154
435.188355	2460.083077
435.565050	2422.274423
435.941683	2553.344423
436.318257	2475.206538
436.694770	2470.165385
437.071222	2439.918462
437.447614	2515.535769
437.823946	2611.317692
438.200218	2477.727115
438.576429	2520.576923
438.952580	2515.535769
439.328670	2397.068654
439.704700	2550.823846
440.080670	2447.480192
440.456580	2465.124231
440.832429	2518.056346
441.208218	2482.768269
441.583947	2505.453462
441.959616	2452.521346
442.335224	2381.945192
442.710773	2528.138654
443.086261	2409.671538
443.461689	2502.932885
443.837057	2505.453462
444.212365	2455.041923
444.587612	2492.850577
444.962800	2515.535769
445.337927	2505.453462
445.712995	2447.480192
446.088002	2467.644808
446.462949	2500.412308
446.837837	2502.932885
447.212664	2452.521346
447.587431	2457.562500
447.962139	2477.727115
448.336786	2505.453462
448.711374	2455.041923
449.085901	2510.494615
449.460369	2502.932885
449.834776	2548.303269
450.209124	2432.356731
450.583412	2477.727115
450.957640	2455.041923
451.331808	2505.453462
451.705917	2457.562500
452.079965	2515.535769
452.453954	2523.097500
452.827883	2528.138654
453.201752	2507.974038
453.575562	2507.974038
453.949311	2462.603654
454.323001	2545.782692
454.696632	2422.274423
455.070202	2502.932885
455.443713	2452.521346
455.817164	2450.000769
456.190556	2462.603654
456.563888	2520.576923
456.937160	2404.630385
457.310373	2500.412308
457.683526	2470.165385
458.056619	2495.371154
458.429653	2404.630385
458.802628	2513.015192
459.175542	2455.041923
459.548398	2409.671538
459.921194	2528.138654
460.293930	2447.480192
460.666607	2470.165385
461.039224	2427.315577
461.411782	2525.618077
461.784280	2472.685962
462.156719	2442.439038
462.529099	2444.959615
462.901419	2472.685962
463.273680	2477.727115
463.645882	2530.659231
464.018024	2455.041923
464.390106	2457.562500
464.762130	2545.782692
465.134094	2452.521346
465.505999	2555.865000
465.877845	2427.315577
466.249631	2477.727115
466.621358	2442.439038
466.993026	2465.124231
467.364634	2407.150962
467.736184	2462.603654
468.107674	2402.109808
468.479105	2535.700385
468.850477	2447.480192
469.221790	2467.644808
469.593043	2424.795000
469.964238	2515.535769
470.335373	2492.850577
470.706449	2558.385577
471.077467	2407.150962
471.448425	2523.097500
471.819324	2462.603654
472.190164	2480.247692
472.560945	2437.397885
472.931667	2482.768269
473.302330	2409.671538
473.672934	2495.371154
474.043479	2495.371154
474.413965	2432.356731
474.784393	2429.836154
475.154761	2535.700385
475.525070	2477.727115
475.895321	2558.385577
476.265513	2560.906154
476.635645	2515.535769
477.005719	2533.179808
477.375734	2523.097500
477.745691	2467.644808
478.115588	2465.124231
478.485427	2462.603654
478.855207	2465.124231
479.224928	2485.288846
479.594591	2397.068654
479.964194	2533.179808
480.333739	2540.741538
480.703226	2492.850577
481.072653	2507.974038
481.442022	2467.644808
481.811333	2555.865000
482.180584	2439.918462
482.549777	2515.535769
482.918912	2402.109808
483.287988	2457.562500
483.657005	2523.097500
484.025964	2500.412308
484.394864	2543.262115
484.763706	2505.453462
485.132489	2533.179808
485.501213	2525.618077
485.869879	2485.288846
486.238487	2480.247692
486.607036	2366.821731
486.975527	2515.535769
487.343959	2427.315577
487.712333	2553.344423
488.080648	2500.412308
488.448905	2603.755962
488.817104	2533.179808
489.185244	2402.109808
489.553326	2520.576923
489.921350	2409.671538
490.289315	2450.000769
490.657222	2505.453462
491.025070	2500.412308
491.392861	2540.741538
491.760593	2500.412308
492.128267	2535.700385
492.495883	2482.768269
492.863440	2540.741538
493.230939	2505.453462
493.598380	2480.247692
493.965763	2427.315577
494.333088	2565.947308
494.700354	2434.877308
495.067563	2528.138654
495.434713	2450.000769
495.801805	2482.768269
496.168839	2462.603654
496.535815	2533.179808
496.902733	2386.986346
497.269593	2525.618077
497.636395	2545.782692
498.003139	2485.288846
498.369825	2465.124231
498.736453	2392.027500
499.103023	2528.138654
499.469535	2528.138654
499.835989	2563.426731
500.202385	2472.685962
500.568723	2525.618077
500.935003	2407.150962
501.301226	2548.303269
501.667390	2525.618077
502.033497	2490.330000
502.399546	2467.644808
502.765537	2492.850577
503.131470	2477.727115
503.497345	2513.015192
503.863163	2409.671538
504.228923	2482.768269
504.594625	2485.288846
504.960269	2402.109808
505.325856	2480.247692
505.691385	2530.659231
506.056856	2485.288846
506.422270	2477.727115
506.787625	2470.165385
507.152924	2565.947308
507.518164	2444.959615
507.883347	2507.974038
508.248472	2513.015192
508.613540	2525.618077
508.978550	2432.356731
509.343503	2482.768269
509.708398	2467.644808
510.073236	2550.823846
510.438016	2447.480192
510.802738	2480.247692
511.167403	2490.330000
511.532010	2482.768269
511.896561	2444.959615
512.261053	2513.015192
512.625488	2399.589231
512.989866	2465.124231
513.354186	2525.618077
513.718449	2513.015192
514.082655	2480.247692
514.446803	2429.836154
514.810894	2548.303269
515.174927	2467.644808
515.538904	2455.041923
515.902822	2439.918462
516.266684	2520.576923
516.630488	2528.138654
516.994235	2432.356731
517.357925	2528.138654
517.721558	2525.618077
518.085133	2465.124231
518.448651	2462.603654
518.812112	2460.083077
519.175516	2487.809423
519.538863	2432.356731
519.902152	2543.262115
520.265385	2535.700385
520.628560	2424.795000
520.991678	2538.220962
521.354739	2530.659231
521.717743	2465.124231
522.080690	2482.768269
522.443580	2492.850577
522.806413	2523.097500
523.169189	2460.083077
523.531908	2502.932885
523.894569	2540.741538
524.257174	2530.659231
524.619722	2475.206538
524.982213	2505.453462
525.344647	2419.753846
525.707025	2384.465769
526.069345	2450.000769
526.431608	2452.521346
526.793815	2472.685962
527.155964	2414.712692
527.518057	2528.138654
527.880093	2475.206538
528.242072	2545.782692
528.603995	2570.988462
528.965860	2442.439038
529.327669	2523.097500
529.689421	2497.891731
530.051117	2523.097500
530.412755	2495.371154
530.774337	2490.330000
531.135862	2414.712692
531.497331	2528.138654
531.858743	2515.535769
532.220098	2487.809423
532.581396	2500.412308
532.942638	2513.015192
533.303824	2548.303269
533.664953	2467.644808
534.026025	2513.015192
534.387040	2424.795000
534.747999	2369.342308
535.108902	2442.439038
535.469748	2513.015192
535.830537	2500.412308
536.191270	2497.891731
536.551947	2500.412308
536.912567	2480.247692
537.273131	2500.412308
537.633638	2520.576923
537.994089	2538.220962
538.354483	2460.083077
538.714821	2490.330000
539.075103	2480.247692
539.435328	2515.535769
539.795497	2442.439038
540.155609	2475.206538
540.515665	2530.659231
540.875665	2490.330000
541.235609	2518.056346
541.595496	2429.836154
541.955328	2558.385577
542.315102	2475.206538
542.674821	2550.823846
543.034483	2507.974038
543.394090	2480.247692
543.753640	2548.303269
544.113134	2432.356731
544.472571	2515.535769
544.831953	2558.385577
545.191278	2470.165385
545.550548	2518.056346
545.909761	2470.165385
546.268918	2477.727115
546.628019	2497.891731
546.987064	2530.659231
547.346053	2472.685962
547.704986	2535.700385
548.063863	2523.097500
548.422684	2472.685962
548.781449	2485.288846
549.140158	2535.700385
549.498811	2518.056346
549.857408	2490.330000
550.215949	2495.371154
550.574434	2497.891731
550.932864	2538.220962
551.291237	2543.262115
551.649555	2500.412308
552.007817	2452.521346
552.366022	2513.015192
552.724173	2558.385577
553.082267	2495.371154
553.440305	2555.865000
553.798288	2429.836154
554.156215	2520.576923
554.514086	2558.385577
554.871902	2467.644808
555.229661	2523.097500
555.587365	2565.947308
555.945014	2444.959615
556.302606	2558.385577
556.660143	2639.044038
557.017625	2450.000769
557.375050	2502.932885
557.732421	2452.521346
558.089735	2457.562500
558.446994	2487.809423
558.804197	2470.165385
559.161345	2540.741538
559.518437	2439.918462
559.875474	2442.439038
560.232455	2457.562500
560.589381	2540.741538
560.946251	2470.165385
561.303065	2490.330000
561.659825	2510.494615
562.016528	2432.356731
562.373177	2545.782692
562.729770	2510.494615
563.086307	2495.371154
563.442789	2424.795000
563.799216	2576.029615
564.155587	2533.179808
564.511904	2414.712692
564.868164	2452.521346
565.224370	2402.109808
565.580520	2422.274423
565.936615	2500.412308
566.292654	2462.603654
566.648638	2545.782692
567.004567	2500.412308
567.360441	2581.070769
567.716260	2555.865000
568.072023	2510.494615
568.427732	2518.056346
568.783385	2475.206538
569.138982	2490.330000
569.494525	2376.904038
569.850013	2404.630385
570.205445	2502.932885
570.560823	2477.727115
570.916145	2490.330000
571.271412	2528.138654
571.626625	2563.426731
571.981782	2439.918462
572.336884	2427.315577
572.691931	2500.412308
573.046923	2467.644808
573.401860	2520.576923
573.756743	2525.618077
574.111570	2518.056346
574.466342	2480.247692
574.821059	2588.632500
575.175722	2535.700385
575.530330	2507.974038
575.884882	2437.397885
576.239380	2510.494615
576.593823	2407.150962
576.948211	2518.056346
577.302544	2608.797115
577.656823	2477.727115
578.011047	2505.453462
578.365216	2437.397885
578.719330	2472.685962
579.073389	2432.356731
579.427394	2482.768269
579.781344	2447.480192
580.135239	2386.986346
580.489080	2525.618077
580.842866	2439.918462
581.196597	2530.659231
581.550273	2533.179808
581.903895	2467.644808
582.257463	2487.809423
582.610975	2495.371154
582.964434	2444.959615
583.317837	2510.494615
583.671186	2548.303269
584.024481	2583.591346
584.377721	2477.727115
584.730906	2457.562500
585.084037	2570.988462
585.437113	2407.150962
585.790135	2545.782692
586.143103	2548.303269
586.496016	2553.344423
586.848874	2480.247692
587.201679	2553.344423
587.554428	2523.097500
587.907124	2502.932885
588.259765	2490.330000
588.612352	2601.235385
588.964884	2520.576923
589.317362	2439.918462
589.669786	2480.247692
590.022155	2641.564615
590.374470	2439.918462
590.726731	2565.947308
591.078937	2550.823846
591.431090	2444.959615
591.783188	2550.823846
592.135232	2480.247692
592.487222	2548.303269
592.839157	2465.124231
593.191038	2477.727115
593.542866	2465.124231
593.894639	2550.823846
594.246358	2603.755962
594.598022	2462.603654
594.949633	2492.850577
595.301190	2497.891731
595.652692	2465.124231
596.004141	2515.535769
596.355535	2404.630385
596.706876	2505.453462
597.058162	2548.303269
597.409395	2497.891731
597.760573	2548.303269
598.111698	2538.220962
598.462768	2472.685962
598.813785	2407.150962
599.164748	2523.097500
599.515657	2482.768269
599.866511	2528.138654
600.217312	2545.782692
600.568060	2492.850577
600.918753	2550.823846
601.269392	2434.877308
601.619978	2513.015192
601.970510	2502.932885
602.320988	2530.659231
602.671412	2465.124231
603.021783	2523.097500
603.372100	2510.494615
603.722363	2500.412308
604.072572	2505.453462
604.422728	2447.480192
604.772830	2535.700385
605.122878	2495.371154
605.472872	2455.041923
605.822813	2497.891731
606.172701	2452.521346
606.522534	2437.397885
606.872314	2533.179808
607.222041	2447.480192
607.571714	2507.974038
607.921333	2540.741538
608.270899	2437.397885
608.620411	2510.494615
608.969870	2457.562500
609.319276	2477.727115
609.668627	2475.206538
610.017926	2482.768269
610.367171	2510.494615
610.716362	2467.644808
611.065500	2477.727115
611.414585	2462.603654
611.763616	2450.000769
612.112594	2540.741538
612.461518	2402.109808
612.810389	2467.644808
613.159207	2424.795000
613.507971	2555.865000
613.856682	2520.576923
614.205340	2455.041923
614.553945	2462.603654
614.902496	2502.932885
615.250994	2427.315577
615.599439	2535.700385
615.947830	2477.727115
616.296169	2419.753846
616.644454	2560.906154
616.992686	2518.056346
617.340864	2523.097500
617.688990	2543.262115
618.037063	2500.412308
618.385082	2475.206538
618.733048	2452.521346
619.080961	2455.041923
619.428821	2530.659231
619.776628	2550.823846
620.124382	2467.644808
620.472083	2409.671538
620.819731	2523.097500
621.167326	2490.330000
621.514868	2550.823846
621.862357	2518.056346
622.209793	2500.412308
622.557176	2485.288846
622.904506	2424.795000
623.251783	2540.741538
623.599007	2412.192115
623.946179	2570.988462
624.293297	2502.932885
624.640363	2457.562500
624.987376	2495.371154
625.334336	2424.795000
625.681243	2500.412308
626.028097	2520.576923
626.374899	2528.138654
626.721647	2442.439038
627.068343	2492.850577
627.414987	2505.453462
627.761577	2475.206538
628.108115	2457.562500
628.454600	2394.548077
628.801032	2460.083077
629.147412	2507.974038
629.493739	2543.262115
629.840014	2427.315577
630.186236	2533.179808
630.532405	2475.206538
630.878521	2447.480192
631.224585	2570.988462
631.570597	2523.097500
631.916556	2535.700385
632.262462	2462.603654
632.608316	2492.850577
632.954117	2570.988462
633.299866	2500.412308
633.645562	2543.262115
633.991206	2505.453462
634.336797	2505.453462
634.682336	2455.041923
635.027823	2495.371154
635.373257	2550.823846
635.718639	2442.439038
636.063968	2437.397885
636.409245	2462.603654
636.754470	2558.385577
637.099642	2591.153077
637.444762	2500.412308
637.789829	2513.015192
638.134845	2429.836154
638.479808	2457.562500
638.824719	2485.288846
639.169577	2419.753846
639.514383	2485.288846
639.859137	2455.041923
640.203839	2538.220962
640.548489	2563.426731
640.893086	2576.029615
641.237632	2497.891731
641.582125	2462.603654
641.926566	2472.685962
642.270955	2540.741538
642.615292	2497.891731
642.959576	2523.097500
643.303809	2460.083077
643.647990	2535.700385
643.992118	2555.865000
644.336195	2462.603654
644.680219	2550.823846
645.024192	2465.124231
645.368112	2583.591346
645.711981	2507.974038
646.055797	2540.741538
646.399562	2439.918462
646.743274	2507.974038
647.086935	2485.288846
647.430544	2518.056346
647.774101	2419.753846
648.117606	2480.247692
648.461059	2467.644808
648.804460	2487.809423
649.147810	2457.562500
649.491108	2450.000769
649.834354	2490.330000
650.177548	2482.768269
650.520690	2548.303269
650.863781	2538.220962
651.206820	2555.865000
651.549807	2460.083077
651.892742	2444.959615
652.235626	2573.509038
652.578458	2497.891731
652.921238	2477.727115
653.263967	2520.576923
653.606644	2482.768269
653.949269	2465.124231
654.291843	2528.138654
654.634365	2502.932885
654.976836	2560.906154
655.319255	2419.753846
655.661622	2502.932885
656.003938	2477.727115
656.346203	2560.906154
656.688416	2429.836154
657.030577	2581.070769
657.372687	2520.576923
657.714746	2523.097500
658.056753	2460.083077
658.398708	2490.330000
658.740612	2399.589231
659.082465	2480.247692
659.424266	2475.206538
659.766016	2560.906154
660.107715	2470.165385
660.449362	2455.041923
660.790958	2485.288846
661.132503	2533.179808
661.473996	2495.371154
661.815438	2500.412308
662.156829	2568.467885
662.498168	2452.521346
662.839456	2500.412308
663.180693	2447.480192
663.521879	2540.741538
663.863013	2397.068654
664.204097	2444.959615
664.545129	2450.000769
664.886110	2497.891731
665.227040	2434.877308
665.567918	2538.220962
665.908746	2538.220962
666.249522	2434.877308
666.590248	2507.974038
666.930922	2452.521346
667.271545	2528.138654
667.612118	2538.220962
667.952639	2457.562500
668.293109	2543.262115
668.633528	2475.206538
668.973896	2518.056346
669.314213	2502.932885
669.654480	2573.509038
669.994695	2460.083077
670.334859	2548.303269
670.674973	2507.974038
671.015035	2414.712692
671.355047	2540.741538
671.695008	2465.124231
672.034918	2477.727115
672.374777	2417.233269
672.714585	2528.138654
673.054342	2409.671538
673.394049	2437.397885
673.733705	2507.974038
674.073310	2528.138654
674.412864	2472.685962
674.752368	2444.959615
675.091820	2518.056346
675.431223	2492.850577
675.770574	2482.768269
676.109875	2455.041923
676.449125	2528.138654
676.788324	2538.220962
677.127473	2480.247692
677.466571	2530.659231
677.805619	2543.262115
678.144616	2502.932885
678.483562	2523.097500
678.822458	2540.741538
679.161303	2555.865000
679.500098	2495.371154
679.838842	2550.823846
680.177535	2465.124231
680.516179	2450.000769
680.854771	2507.974038
681.193314	2518.056346
681.531805	2560.906154
681.870247	2472.685962
682.208638	2434.877308
682.546978	2518.056346
682.885268	2477.727115
683.223508	2490.330000
683.561697	2495.371154
683.899836	2553.344423
684.237925	2553.344423
684.575963	2523.097500
684.913951	2470.165385
685.251889	2553.344423
685.589776	2465.124231
685.927614	2565.947308
686.265401	2515.535769
686.603137	2510.494615
686.940824	2429.836154
687.278460	2578.550192
687.616046	2487.809423
687.953582	2533.179808
688.291068	2500.412308
688.628504	2424.795000
688.965889	2467.644808
689.303224	2452.521346
689.640510	2434.877308
689.977745	2540.741538
690.314930	2523.097500
690.652065	2502.932885
690.989150	2525.618077
691.326185	2502.932885
691.663170	2545.782692
692.000105	2490.330000
692.336990	2515.535769
692.673825	2437.397885
693.010610	2510.494615
693.347345	2432.356731
693.684030	2570.988462
694.020665	2462.603654
694.357251	2422.274423
694.693786	2555.865000
695.030272	2540.741538
695.366707	2455.041923
695.703093	2470.165385
696.039429	2444.959615
696.375716	2513.015192
696.711952	2525.618077
697.048139	2528.138654
697.384276	2591.153077
697.720363	2487.809423
698.056400	2490.330000
698.392388	2442.439038
698.728326	2447.480192
699.064214	2399.589231
699.400053	2502.932885
699.735842	2460.083077
700.071581	2505.453462
700.407270	2558.385577
700.742910	2530.659231
701.078501	2550.823846
701.414042	2444.959615
701.749533	2457.562500
702.084974	2432.356731
702.420366	2535.700385
702.755709	2550.823846
703.091002	2563.426731
703.426246	2432.356731
703.761440	2570.988462
704.096584	2513.015192
704.431679	2475.206538
704.766725	2475.206538
705.101721	2444.959615
705.436668	2500.412308
705.771565	2465.124231
706.106413	2518.056346
706.441212	2477.727115
706.775961	2487.809423
707.110661	2510.494615
707.445311	2593.673654
707.779913	2502.932885
708.114465	2518.056346
708.448967	2422.274423
708.783421	2505.453462
709.117825	2419.753846
709.452180	2545.782692
709.786485	2477.727115
710.120742	2520.576923
710.454949	2437.397885
710.789107	2510.494615
711.123216	2417.233269
711.457275	2477.727115
711.791286	2460.083077
712.125247	2553.344423
712.459159	2510.494615
712.793023	2513.015192
713.126837	2578.550192
713.460602	2545.782692
713.794318	2470.165385
714.127985	2424.795000
714.461602	2530.659231
714.795171	2513.015192
715.128691	2523.097500
715.462162	2490.330000
715.795584	2548.303269
716.128957	2429.836154
716.462281	2419.753846
716.795556	2500.412308
717.128782	2455.041923
717.461960	2477.727115
717.795088	2485.288846
718.128167	2470.165385
718.461198	2470.165385
718.794180	2558.385577
719.127113	2487.809423
719.459997	2513.015192
719.792833	2560.906154
720.125619	2535.700385
720.458357	2462.603654
720.791046	2533.179808
721.123686	2485.288846
721.456278	2535.700385
721.788821	2482.768269
722.121315	2414.712692
722.453761	2500.412308
722.786158	2447.480192
723.118506	2492.850577
723.450805	2505.453462
723.783056	2518.056346
724.115259	2520.576923
724.447412	2482.768269
724.779518	2520.576923
725.111574	2492.850577
725.443582	2472.685962
725.775542	2570.988462
726.107453	2505.453462
726.439315	2510.494615
726.771129	2515.535769
727.102895	2500.412308
727.434612	2475.206538
727.766281	2558.385577
728.097901	2475.206538
728.429473	2548.303269
728.760996	2460.083077
729.092471	2538.220962
729.423897	2467.644808
729.755276	2492.850577
730.086606	2412.192115
730.417887	2601.235385
730.749120	2573.509038
731.080305	2548.303269
731.411442	2485.288846
731.742530	2500.412308
732.073570	2520.576923
732.404562	2525.618077
732.735506	2477.727115
733.066401	2507.974038
733.397249	2450.000769
733.728048	2485.288846
734.058798	2462.603654
734.389501	2543.262115
734.720156	2492.850577
735.050762	2475.206538
735.381320	2523.097500
735.711831	2555.865000
736.042293	2560.906154
736.372707	2495.371154
736.703073	2507.974038
737.033391	2505.453462
737.363661	2513.015192
737.693883	2480.247692
738.024056	2568.467885
738.354182	2573.509038
738.684260	2563.426731
739.014290	2535.700385
739.344272	2611.317692
739.674207	2518.056346
740.004093	2550.823846
740.333931	2480.247692
740.663722	2482.768269
740.993464	2535.700385
741.323159	2432.356731
741.652806	2414.712692
741.982405	2490.330000
742.311956	2419.753846
742.641460	2538.220962
742.970915	2450.000769
743.300323	2492.850577
743.629683	2470.165385
743.958996	2455.041923
744.288260	2513.015192
744.617477	2450.000769
744.946647	2470.165385
745.275768	2455.041923
745.604842	2427.315577
745.933869	2424.795000
746.262847	2495.371154
746.591778	2444.959615
746.920662	2412.192115
747.249498	2482.768269
747.578286	2477.727115
747.907027	2472.685962
748.235720	2442.439038
748.564365	2515.535769
748.892963	2460.083077
749.221514	2472.685962
749.550017	2424.795000
749.878473	2495.371154
750.206881	2437.397885
750.535242	2535.700385
750.863555	2500.412308
751.191821	2371.862885
751.520039	2397.068654
751.848210	2518.056346
752.176334	2462.603654
752.504411	2480.247692
752.832440	2560.906154
753.160421	2502.932885
753.488356	2538.220962
753.816243	2505.453462
754.144082	2520.576923
754.471875	2450.000769
754.799620	2444.959615
755.127318	2447.480192
755.454969	2507.974038
755.782572	2525.618077
756.110129	2444.959615
756.437638	2467.644808
756.765100	2518.056346
757.092515	2513.015192
757.419882	2482.768269
757.747203	2578.550192
758.074477	2482.768269
758.401703	2553.344423
758.728882	2485.288846
759.056014	2409.671538
759.383099	2548.303269
759.710138	2530.659231
760.037129	2379.424615
760.364073	2487.809423
760.690970	2470.165385
761.017820	2462.603654
761.344623	2374.383462
761.671379	2439.918462
761.998088	2477.727115
762.324751	2510.494615
762.651366	2490.330000
762.977935	2507.974038
763.304456	2495.371154
763.630931	2447.480192
763.957359	2505.453462
764.283740	2570.988462
764.610074	2422.274423
764.936362	2487.809423
765.262602	2467.644808
765.588796	2477.727115
765.914943	2495.371154
766.241044	2555.865000
766.567097	2502.932885
766.893104	2472.685962
767.219064	2376.904038
767.544978	2487.809423
767.870845	2447.480192
768.196665	2515.535769
768.522438	2515.535769
768.848165	2507.974038
769.173846	2523.097500
769.499479	2472.685962
769.825066	2518.056346
770.150607	2467.644808
770.476101	2523.097500
770.801548	2510.494615
771.126949	2555.865000
771.452303	2553.344423
771.777611	2472.685962
772.102872	2576.029615
772.428087	2520.576923
772.753256	2442.439038
773.078378	2475.206538
773.403453	2455.041923
773.728482	2533.179808
774.053465	2540.741538
774.378401	2485.288846
774.703291	2412.192115
775.028135	2543.262115
775.352932	2475.206538
775.677683	2475.206538
776.002388	2356.739423
776.327046	2540.741538
776.651658	2460.083077
776.976224	2487.809423
777.300743	2583.591346
777.625216	2477.727115
777.949643	2490.330000
778.274024	2434.877308
778.598359	2457.562500
778.922647	2545.782692
779.246889	2457.562500
779.571086	2455.041923
779.895236	2507.974038
780.219339	2497.891731
780.543397	2482.768269
780.867409	2477.727115
781.191374	2492.850577
781.515294	2497.891731
781.839167	2497.891731
782.162995	2525.618077
782.486776	2467.644808
782.810511	2540.741538
783.134201	2513.015192
783.457844	2482.768269
783.781441	2412.192115
784.104993	2548.303269
784.428498	2455.041923
784.751958	2560.906154
785.075372	2591.153077
785.398739	2500.412308
785.722061	2477.727115
786.045337	2563.426731
786.368568	2424.795000
786.691752	2455.041923
787.014891	2444.959615
787.337983	2457.562500
787.661030	2510.494615
787.984031	2447.480192
788.306987	2523.097500
788.629897	2553.344423
788.952760	2528.138654
789.275579	2470.165385
789.598351	2477.727115
789.921078	2570.988462
790.243759	2480.247692
790.566395	2513.015192
790.888984	2586.111923
791.211529	2603.755962
791.534027	2560.906154
791.856480	2525.618077
792.178888	2460.083077
792.501249	2563.426731
792.823566	2480.247692
793.145836	2505.453462
793.468062	2523.097500
793.790241	2444.959615
794.112375	2510.494615
794.434464	2455.041923
794.756507	2553.344423
795.078505	2475.206538
795.400457	2492.850577
795.722364	2515.535769
796.044226	2437.397885
796.366042	2545.782692
796.687812	2472.685962
797.009538	2480.247692
797.331218	2528.138654
797.652852	2553.344423
797.974442	2513.015192
798.295986	2515.535769
798.617484	2455.041923
798.938938	2447.480192
799.260346	2414.712692
799.581709	2465.124231
799.903026	2523.097500
800.224299	2533.179808
800.545526	2548.303269
800.866708	2593.673654
801.187845	2452.521346
801.508936	2510.494615
801.829983	2439.918462
802.150984	2533.179808
802.471940	2520.576923
802.792851	2480.247692
803.113717	2424.795000
803.434538	2490.330000
803.755314	2540.741538
804.076045	2450.000769
804.396731	2505.453462
804.717372	2497.891731
805.037967	2505.453462
805.358518	2495.371154
805.679024	2460.083077
805.999485	2472.685962
806.319901	2457.562500
806.640272	2457.562500
806.960598	2472.685962
807.280879	2570.988462
807.601115	2505.453462
807.921306	2518.056346
808.241453	2497.891731
808.561554	2450.000769
808.881611	2455.041923
809.201623	2487.809423
809.521590	2457.562500
809.841513	2538.220962
810.161390	2439.918462
810.481223	2507.974038
810.801011	2447.480192
811.120755	2513.015192
811.440453	2513.015192
811.760107	2520.576923
812.079716	2452.521346
812.399281	2518.056346
812.718801	2470.165385
813.038276	2419.753846
813.357707	2465.124231
813.677093	2439.918462
813.996434	2467.644808
814.315731	2530.659231
814.634983	2505.453462
814.954191	2472.685962
815.273354	2540.741538
815.592473	2452.521346
815.911547	2485.288846
816.230577	2376.904038
816.549562	2530.659231
816.868502	2505.453462
817.187399	2480.247692
817.506250	2467.644808
817.825058	2518.056346
818.143821	2505.453462
818.462539	2482.768269
818.781213	2470.165385
819.099843	2427.315577
819.418429	2523.097500
819.736970	2457.562500
820.055466	2535.700385
820.373919	2555.865000
820.692327	2487.809423
821.010691	2500.412308
821.329011	2422.274423
821.647286	2513.015192
821.965517	2482.768269
822.283704	2477.727115
822.601847	2540.741538
822.919945	2490.330000
823.237999	2450.000769
823.556010	2555.865000
823.873976	2497.891731
824.191897	2470.165385
824.509775	2490.330000
824.827609	2455.041923
825.145398	2462.603654
825.463144	2472.685962
825.780845	2460.083077
826.098502	2485.288846
826.416116	2548.303269
826.733685	2510.494615
827.051210	2495.371154
827.368692	2500.412308
827.686129	2528.138654
828.003522	2492.850577
828.320872	2480.247692
828.638177	2502.932885
828.955439	2475.206538
829.272656	2432.356731
829.589830	2465.124231
829.906960	2495.371154
830.224046	2520.576923
830.541088	2523.097500
830.858086	2530.659231
831.175041	2548.303269
831.491952	2442.439038
831.808819	2545.782692
832.125642	2555.865000
832.442421	2465.124231
832.759157	2492.850577
833.075849	2439.918462
833.392497	2543.262115
833.709101	2397.068654
834.025662	2487.809423
834.342179	2470.165385
834.658653	2540.741538
834.975083	2520.576923
835.291469	2487.809423
835.607811	2472.685962
835.924110	2490.330000
836.240366	2545.782692
836.556578	2460.083077
836.872746	2528.138654
837.188871	2525.618077
837.504952	2460.083077
837.820990	2432.356731
838.136984	2460.083077
838.452935	2457.562500
838.768842	2543.262115
839.084706	2444.959615
839.400526	2480.247692
839.716303	2460.083077
840.032037	2482.768269
840.347727	2490.330000
840.663373	2412.192115
840.978977	2450.000769
841.294537	2475.206538
841.610054	2429.836154
841.925527	2460.083077
842.240957	2470.165385
842.556344	2424.795000
842.871687	2477.727115
843.186987	2525.618077
843.502244	2505.453462
843.817458	2470.165385
844.132629	2507.974038
844.447756	2548.303269
844.762840	2543.262115
845.077881	2442.439038
845.392879	2480.247692
845.707833	2518.056346
846.022745	2452.521346
846.337613	2480.247692
846.652438	2434.877308
846.967221	2429.836154
847.281960	2558.385577
847.596656	2455.041923
847.911309	2505.453462
848.225919	2482.768269
848.540485	2545.782692
848.855009	2437.397885
849.169490	2523.097500
849.483928	2472.685962
849.798323	2490.330000
850.112675	2462.603654
850.426984	2518.056346
850.741251	2450.000769
851.055474	2555.865000
851.369654	2525.618077
851.683792	2495.371154
851.997887	2502.932885
852.311938	2450.000769
852.625947	2492.850577
852.939914	2427.315577
853.253837	2497.891731
853.567718	2565.947308
853.881555	2485.288846
854.195350	2480.247692
854.509103	2397.068654
854.822812	2462.603654
855.136479	2442.439038
855.450103	2497.891731
855.763685	2475.206538
856.077224	2507.974038
856.390720	2450.000769
856.704173	2530.659231
857.017584	2427.315577
857.330953	2523.097500
857.644278	2548.303269
857.957561	2540.741538
858.270802	2475.206538
858.584000	2442.439038
858.897155	2429.836154
859.210268	2502.932885
859.523339	2450.000769
859.836367	2432.356731
860.149352	2510.494615
860.462295	2500.412308
860.775195	2414.712692
861.088054	2550.823846
861.400869	2565.947308
861.713642	2540.741538
862.026373	2505.453462
862.339062	2487.809423
862.651708	2480.247692
862.964312	2492.850577
863.276873	2470.165385
863.589392	2583.591346
863.901869	2578.550192
864.214303	2394.548077
864.526696	2490.330000
864.839045	2470.165385
865.151353	2510.494615
865.463619	2482.768269
865.775842	2507.974038
866.088023	2460.083077
866.400162	2475.206538
866.712258	2606.276538
867.024313	2555.865000
867.336325	2467.644808
867.648296	2530.659231
867.960224	2437.397885
868.272110	2502.932885
868.583954	2553.344423
868.895755	2492.850577
869.207515	2424.795000
869.519233	2507.974038
869.830909	2480.247692
870.142542	2429.836154
870.454134	2515.535769
870.765684	2452.521346
871.077191	2513.015192
871.388657	2434.877308
871.700081	2570.988462
872.011463	2442.439038
872.322803	2495.371154
872.634101	2480.247692
872.945357	2528.138654
873.256571	2439.918462
873.567744	2455.041923
873.878874	2452.521346
874.189963	2424.795000
874.501010	2533.179808
874.812015	2545.782692
875.122979	2502.932885
875.433900	2525.618077
875.744780	2513.015192
876.055618	2540.741538
876.366415	2472.685962
876.677169	2455.041923
876.987882	2482.768269
877.298554	2475.206538
877.609183	2495.371154
877.919771	2565.947308
878.230317	2477.727115
878.540822	2515.535769
878.851285	2437.397885
879.161707	2538.220962
879.472087	2588.632500
879.782425	2452.521346
880.092722	2513.015192
880.402977	2452.521346
880.713191	2543.262115
881.023363	2583.591346
881.333494	2570.988462
881.643583	2550.823846
881.953631	2520.576923
882.263637	2470.165385
882.573602	2540.741538
882.883526	2465.124231
883.193408	2480.247692
883.503248	2540.741538
883.813048	2455.041923
884.122806	2500.412308
884.432522	2558.385577
884.742197	2429.836154
885.051831	2525.618077
885.361424	2528.138654
885.670975	2404.630385
885.980485	2507.974038
886.289954	2444.959615
886.599382	2523.097500
886.908768	2502.932885
887.218113	2472.685962
887.527417	2447.480192
887.836680	2548.303269
888.145901	2565.947308
888.455082	2475.206538
888.764221	2465.124231
889.073319	2507.974038
889.382376	2518.056346
889.691392	2482.768269
890.000366	2507.974038
890.309300	2487.809423
890.618193	2467.644808
890.927044	2487.809423
891.235855	2379.424615
891.544625	2462.603654
891.853353	2563.426731
892.162041	2518.056346
892.470687	2492.850577
892.779293	2444.959615
893.087858	2455.041923
893.396381	2540.741538
893.704864	2462.603654
894.013306	2470.165385
894.321707	2523.097500
894.630068	2442.439038
894.938387	2530.659231
895.246665	2465.124231
895.554903	2475.206538
895.863100	2455.041923
896.171256	2606.276538
896.479371	2490.330000
896.787446	2487.809423
897.095480	2497.891731
897.403473	2492.850577
897.711425	2528.138654
898.019336	2490.330000
898.327207	2573.509038
898.635038	2442.439038
898.942827	2450.000769
899.250576	2457.562500
899.558284	2540.741538
899.865952	2374.383462
900.173579	2535.700385
900.481165	2470.165385
900.788711	2462.603654
901.096216	2495.371154
901.403681	2487.809423
901.711105	2487.809423
902.018489	2540.741538
902.325832	2520.576923
902.633135	2472.685962
902.940397	2437.397885
903.247619	2502.932885
903.554800	2535.700385
903.861941	2404.630385
904.169041	2505.453462
904.476101	2538.220962
904.783121	2470.165385
905.090100	2407.150962
905.397039	2533.179808
905.703938	2528.138654
906.010796	2593.673654
906.317614	2485.288846
906.624391	2472.685962
906.931129	2444.959615
907.237826	2558.385577
907.544483	2480.247692
907.851099	2507.974038
908.157675	2500.412308
908.464211	2502.932885
908.770707	2553.344423
909.077163	2510.494615
909.383578	2472.685962
909.689954	2500.412308
909.996289	2404.630385
910.302584	2520.576923
910.608839	2505.453462
910.915054	2450.000769
911.221229	2586.111923
911.527363	2502.932885
911.833458	2455.041923
912.139513	2492.850577
912.445527	2540.741538
912.751502	2472.685962
913.057436	2460.083077
913.363331	2492.850577
913.669186	2490.330000
913.975000	2525.618077
914.280775	2495.371154
914.586510	2515.535769
914.892205	2470.165385
915.197859	2505.453462
915.503475	2452.521346
915.809050	2477.727115
916.114585	2437.397885
916.420081	2505.453462
916.725536	2533.179808
917.030952	2465.124231
917.336328	2523.097500
917.641665	2502.932885
917.946961	2432.356731
918.252218	2490.330000
918.557435	2472.685962
918.862612	2550.823846
919.167750	2535.700385
919.472848	2540.741538
919.777906	2495.371154
920.082925	2576.029615
920.387904	2545.782692
920.692843	2502.932885
920.997743	2419.753846
921.302603	2513.015192
921.607423	2422.274423
921.912204	2437.397885
922.216946	2460.083077
922.521647	2540.741538
922.826310	2444.959615
923.130932	2450.000769
923.435516	2593.673654
923.740059	2495.371154
924.044564	2510.494615
924.349028	2528.138654
924.653454	2490.330000
924.957840	2505.453462
925.262186	2518.056346
925.566493	2434.877308
925.870761	2573.509038
926.174989	2545.782692
926.479178	2533.179808
926.783328	2507.974038
927.087438	2543.262115
927.391509	2510.494615
927.695541	2452.521346
927.999533	2490.330000
928.303486	2467.644808
928.607400	2520.576923
928.911275	2485.288846
929.215110	2495.371154
929.518906	2465.124231
929.822663	2568.467885
930.126381	2485.288846
930.430060	2528.138654
930.733699	2578.550192
931.037299	2412.192115
931.340861	2502.932885
931.644383	2553.344423
931.947866	2457.562500
932.251309	2482.768269
932.554714	2530.659231
932.858080	2515.535769
933.161407	2520.576923
933.464694	2553.344423
933.767943	2510.494615
934.071153	2565.947308
934.374323	2462.603654
934.677455	2596.194231
934.980548	2490.330000
935.283602	2465.124231
935.586617	2381.945192
935.889593	2545.782692
936.192530	2422.274423
936.495428	2414.712692
936.798287	2477.727115
937.101108	2525.618077
937.403890	2477.727115
937.706632	2429.836154
938.009336	2523.097500
938.312002	2482.768269
938.614628	2412.192115
938.917216	2518.056346
939.219765	2444.959615
939.522275	2444.959615
939.824747	2495.371154
940.127179	2505.453462
940.429573	2472.685962
940.731929	2523.097500
941.034246	2467.644808
941.336524	2462.603654
941.638763	2472.685962
941.940964	2520.576923
942.243126	2500.412308
942.545250	2523.097500
942.847335	2530.659231
943.149381	2530.659231
943.451389	2475.206538
943.753359	2439.918462
944.055290	2495.371154
944.357182	2419.753846
944.659036	2419.753846
944.960851	2523.097500
945.262628	2525.618077
945.564367	2472.685962
945.866067	2520.576923
946.167729	2490.330000
946.469352	2485.288846
946.770937	2447.480192
947.072484	2480.247692
947.373992	2540.741538
947.675462	2455.041923
947.976893	2558.385577
948.278286	2568.467885
948.579641	2419.753846
948.880958	2525.618077
949.182236	2507.974038
949.483476	2437.397885
949.784678	2497.891731
950.085841	2429.836154
950.386967	2457.562500
950.688054	2523.097500
950.989103	2492.850577
951.290114	2457.562500
951.591087	2480.247692
951.892021	2543.262115
952.192917	2576.029615
952.493776	2495.371154
952.794596	2482.768269
953.095378	2490.330000
953.396122	2480.247692
953.696828	2457.562500
953.997496	2523.097500
954.298126	2465.124231
954.598718	2470.165385
954.899272	2490.330000
955.199788	2492.850577
955.500266	2545.782692
955.800706	2467.644808
956.101108	2560.906154
956.401472	2374.383462
956.701798	2409.671538
957.002087	2457.562500
957.302337	2523.097500
957.602550	2485.288846
957.902724	2467.644808
958.202861	2424.795000
958.502960	2528.138654
958.803022	2374.383462
959.103045	2482.768269
959.403031	2407.150962
959.702979	2482.768269
960.002889	2502.932885
960.302762	2492.850577
960.602596	2515.535769
960.902393	2442.439038
961.202153	2510.494615
961.501875	2424.795000
961.801559	2460.083077
962.101205	2462.603654
962.400814	2450.000769
962.700385	2505.453462
962.999918	2497.891731
963.299414	2560.906154
963.598873	2480.247692
963.898293	2510.494615
964.197677	2563.426731
964.497022	2518.056346
964.796331	2520.576923
965.095601	2485.288846
965.394835	2455.041923
965.694030	2429.836154
965.993189	2437.397885
966.292309	2429.836154
966.591393	2507.974038
966.890439	2502.932885
967.189447	2520.576923
967.488419	2538.220962
967.787353	2515.535769
968.086249	2507.974038
968.385108	2404.630385
968.683930	2424.795000
968.982714	2462.603654
969.281462	2412.192115
969.580172	2462.603654
969.878844	2437.397885
970.177480	2482.768269
970.476078	2439.918462
970.774639	2434.877308
971.073162	2409.671538
971.371649	2497.891731
971.670098	2490.330000
971.968510	2434.877308
972.266885	2528.138654
972.565223	2414.712692
972.863524	2452.521346
973.161788	2520.576923
973.460014	2502.932885
973.758204	2407.150962
974.056356	2457.562500
974.354471	2510.494615
974.652550	2480.247692
974.950591	2455.041923
975.248595	2528.138654
975.546563	2392.027500
975.844493	2419.753846
976.142386	2550.823846
976.440243	2482.768269
976.738062	2477.727115
977.035845	2475.206538
977.333590	2505.453462
977.631299	2485.288846
977.928971	2429.836154
978.226606	2452.521346
978.524204	2583.591346
978.821765	2467.644808
979.119290	2432.356731
979.416777	2540.741538
979.714228	2480.247692
980.011642	2500.412308
980.309020	2392.027500
980.606360	2510.494615
980.903664	2495.371154
981.200931	2409.671538
981.498162	2414.712692
981.795356	2530.659231
982.092513	2545.782692
982.389633	2422.274423
982.686717	2379.424615
982.983764	2568.467885
983.280775	2530.659231
983.577749	2492.850577
983.874686	2470.165385
984.171587	2465.124231
984.468451	2502.932885
984.765279	2470.165385
985.062070	2480.247692
985.358824	2460.083077
985.655543	2507.974038
985.952224	2535.700385
986.248869	2500.412308
986.545478	2495.371154
986.842050	2555.865000
987.138586	2487.809423
987.435086	2482.768269
987.731549	2485.288846
988.027975	2543.262115
988.324366	2472.685962
988.620719	2553.344423
988.917037	2460.083077
989.213318	2518.056346
989.509563	2485.288846
989.805772	2495.371154
990.101944	2485.288846
990.398080	2591.153077
990.694180	2502.932885
990.990244	2437.397885
991.286271	2507.974038
991.582262	2502.932885
991.878217	2444.959615
992.174136	2490.330000
992.470019	2502.932885
992.765865	2467.644808
993.061676	2455.041923
993.357450	2528.138654
993.653188	2409.671538
993.948890	2500.412308
994.244556	2477.727115
994.540186	2563.426731
994.835780	2437.397885
995.131337	2510.494615
995.426859	2485.288846
995.722345	2381.945192
996.017795	2490.330000
996.313208	2492.850577
996.608586	2495.371154
996.903928	2523.097500
997.199234	2480.247692
997.494504	2424.795000
997.789738	2490.330000
998.084936	2457.562500
998.380099	2495.371154
998.675225	2530.659231
998.970316	2457.562500
999.265371	2495.371154
999.560390	2381.945192
999.855373	2573.509038
1000.150320	2450.000769
1000.445232	2563.426731
1000.740108	2477.727115
1001.034948	2505.453462
1001.329752	2490.330000
1001.624521	2540.741538
1001.919254	2389.506923
1002.213951	2513.015192
1002.508613	2497.891731
1002.803239	2439.918462
1003.097829	2500.412308
1003.392384	2485.288846
1003.686903	2475.206538
1003.981386	2507.974038
1004.275834	2485.288846
1004.570246	2470.165385
1004.864623	2477.727115
1005.158964	2518.056346
1005.453270	2397.068654
1005.747540	2588.632500
1006.041775	2414.712692
1006.335974	2523.097500
1006.630138	2492.850577
1006.924266	2518.056346
1007.218359	2381.945192
1007.512416	2513.015192
1007.806438	2414.712692
1008.100425	2460.083077
1008.394376	2452.521346
1008.688292	2455.041923
1008.982172	2429.836154
1009.276017	2538.220962
1009.569827	2525.618077
1009.863602	2444.959615
1010.157341	2502.932885
1010.451045	2439.918462
1010.744714	2487.809423
1011.038347	2452.521346
1011.331945	2538.220962
1011.625508	2505.453462
1011.919036	2470.165385
1012.212528	2528.138654
1012.505986	2414.712692
1012.799408	2422.274423
1013.092795	2392.027500
1013.386147	2495.371154
1013.679464	2507.974038
1013.972745	2507.974038
1014.265992	2424.795000
1014.559204	2465.124231
1014.852380	2528.138654
1015.145521	2528.138654
1015.438628	2477.727115
1015.731699	2412.192115
1016.024736	2447.480192
1016.317737	2472.685962
1016.610703	2523.097500
1016.903635	2492.850577
1017.196531	2505.453462
1017.489393	2507.974038
1017.782219	2530.659231
1018.075011	2455.041923
1018.367768	2515.535769
1018.660490	2427.315577
1018.953177	2427.315577
1019.245829	2427.315577
