Dividing Wavelength (nm)	Counts (n)	Blue Motor Position (mm): 3.300000	Red Motor Position (mm): 0.000000	
326.493990	2152.572692
326.888308	2152.572692
327.282561	2152.572692
327.676750	2102.161154
328.070874	2112.243462
328.464933	2074.434808
328.858929	2165.175577
329.252859	2114.764038
329.646726	2104.681731
330.040528	2160.134423
330.434265	2150.052115
330.827938	2104.681731
331.221547	2104.681731
331.615091	2170.216731
332.008571	2182.819615
332.401986	2192.901923
332.795338	2271.039808
333.188625	2190.381346
333.581847	2283.642692
333.975006	2276.080962
334.368100	2265.998654
334.761129	2293.725000
335.154095	2318.930769
335.546996	2331.533654
335.939833	2392.027500
336.332606	2417.233269
336.725315	2407.150962
337.117960	2455.041923
337.510540	2414.712692
337.903056	2394.548077
338.295508	2407.150962
338.687896	2442.439038
339.080220	2452.521346
339.472480	2467.644808
339.864676	2452.521346
340.256807	2447.480192
340.648875	2495.371154
341.040879	2434.877308
341.432818	2538.220962
341.824694	2530.659231
342.216506	2578.550192
342.608253	2452.521346
342.999937	2482.768269
343.391557	2467.644808
343.783113	2470.165385
344.174605	2492.850577
344.566033	2419.753846
344.957397	2419.753846
345.348697	2432.356731
345.739934	2429.836154
346.131106	2515.535769
346.522215	2505.453462
346.913260	2515.535769
347.304241	2480.247692
347.695159	2450.000769
348.086012	2336.574808
348.476802	2386.986346
348.867528	2472.685962
349.258191	2505.453462
349.648789	2439.918462
350.039324	2467.644808
350.429796	2422.274423
350.820203	2404.630385
351.210548	2392.027500
351.600828	2485.288846
351.991045	2376.904038
352.381198	2424.795000
352.771288	2457.562500
353.161314	2480.247692
353.551276	2407.150962
353.941175	2437.397885
354.331010	2437.397885
354.720782	2502.932885
355.110490	2429.836154
355.500135	2472.685962
355.889717	2513.015192
356.279235	2402.109808
356.668689	2495.371154
357.058080	2480.247692
357.447408	2485.288846
357.836672	2414.712692
358.225873	2419.753846
358.615010	2452.521346
359.004084	2530.659231
359.393095	2422.274423
359.782043	2371.862885
360.170927	2409.671538
360.559748	2394.548077
360.948505	2399.589231
361.337199	2394.548077
361.725830	2450.000769
362.114398	2444.959615
362.502903	2397.068654
362.891344	2419.753846
363.279722	2432.356731
363.668037	2490.330000
364.056289	2452.521346
364.444478	2507.974038
364.832603	2465.124231
365.220665	2439.918462
365.608665	2434.877308
365.996601	2470.165385
366.384474	2397.068654
366.772284	2487.809423
367.160031	2399.589231
367.547715	2502.932885
367.935336	2495.371154
368.322893	2447.480192
368.710388	2467.644808
369.097820	2439.918462
369.485189	2404.630385
369.872495	2381.945192
370.259738	2502.932885
370.646918	2502.932885
371.034035	2505.453462
371.421090	2477.727115
371.808081	2490.330000
372.195010	2460.083077
372.581875	2475.206538
372.968678	2462.603654
373.355418	2412.192115
373.742096	2444.959615
374.128710	2424.795000
374.515262	2472.685962
374.901751	2389.506923
375.288177	2394.548077
375.674540	2427.315577
376.060841	2482.768269
376.447079	2495.371154
376.833254	2349.177692
377.219367	2442.439038
377.605417	2381.945192
377.991404	2444.959615
378.377329	2462.603654
378.763191	2414.712692
379.148991	2500.412308
379.534727	2450.000769
379.920402	2482.768269
380.306013	2455.041923
380.691563	2472.685962
381.077049	2465.124231
381.462474	2444.959615
381.847835	2485.288846
382.233134	2507.974038
382.618371	2429.836154
383.003545	2316.410192
383.388657	2482.768269
383.773706	2417.233269
384.158693	2502.932885
384.543618	2465.124231
384.928480	2427.315577
385.313280	2429.836154
385.698017	2477.727115
386.082692	2500.412308
386.467305	2472.685962
386.851856	2467.644808
387.236344	2399.589231
387.620770	2442.439038
388.005133	2434.877308
388.389435	2419.753846
388.773674	2482.768269
389.157851	2455.041923
389.541965	2399.589231
389.926018	2487.809423
390.310008	2470.165385
390.693936	2565.947308
391.077802	2513.015192
391.461606	2424.795000
391.845348	2533.179808
392.229027	2460.083077
392.612645	2462.603654
392.996200	2500.412308
393.379694	2397.068654
393.763125	2505.453462
394.146494	2434.877308
394.529801	2500.412308
394.913047	2545.782692
395.296230	2427.315577
395.679351	2578.550192
396.062410	2447.480192
396.445408	2535.700385
396.828343	2407.150962
397.211217	2427.315577
397.594028	2447.480192
397.976778	2427.315577
398.359466	2523.097500
398.742092	2412.192115
399.124656	2462.603654
399.507158	2482.768269
399.889598	2442.439038
400.271977	2470.165385
400.654294	2434.877308
401.036549	2450.000769
401.418742	2485.288846
401.800874	2530.659231
402.182944	2560.906154
402.564952	2442.439038
402.946898	2480.247692
403.328783	2528.138654
403.710606	2465.124231
404.092367	2581.070769
404.474067	2505.453462
404.855705	2555.865000
405.237282	2497.891731
405.618797	2467.644808
406.000250	2495.371154
406.381642	2427.315577
406.762972	2502.932885
407.144240	2392.027500
407.525447	2553.344423
407.906593	2497.891731
408.287677	2548.303269
408.668700	2455.041923
409.049661	2470.165385
409.430560	2495.371154
409.811399	2381.945192
410.192176	2402.109808
410.572891	2366.821731
410.953545	2480.247692
411.334138	2427.315577
411.714669	2399.589231
412.095139	2540.741538
412.475547	2538.220962
412.855894	2525.618077
413.236180	2497.891731
413.616405	2520.576923
413.996568	2444.959615
414.376670	2447.480192
414.756711	2427.315577
415.136691	2462.603654
415.516609	2460.083077
415.896466	2482.768269
416.276262	2432.356731
416.655997	2402.109808
417.035670	2540.741538
417.415283	2490.330000
417.794834	2444.959615
418.174324	2510.494615
418.553753	2535.700385
418.933121	2465.124231
419.312428	2485.288846
419.691674	2492.850577
420.070859	2550.823846
420.449983	2467.644808
420.829045	2538.220962
421.208047	2502.932885
421.586988	2520.576923
421.965867	2439.918462
422.344686	2477.727115
422.723444	2467.644808
423.102141	2369.342308
423.480777	2480.247692
423.859352	2460.083077
424.237866	2523.097500
424.616319	2487.809423
424.994712	2535.700385
425.373044	2374.383462
425.751314	2424.795000
426.129524	2480.247692
426.507673	2528.138654
426.885762	2492.850577
427.263789	2376.904038
427.641756	2603.755962
428.019662	2460.083077
428.397508	2502.932885
428.775292	2444.959615
429.153016	2543.262115
429.530679	2455.041923
429.908282	2450.000769
430.285824	2450.000769
430.663305	2412.192115
431.040726	2530.659231
431.418086	2477.727115
431.795385	2530.659231
432.172624	2470.165385
432.549802	2586.111923
432.926920	2500.412308
433.303977	2533.179808
433.680974	2540.741538
434.057910	2444.959615
434.434786	2563.426731
434.811601	2444.959615
435.188355	2439.918462
435.565050	2520.576923
435.941683	2533.179808
436.318257	2475.206538
436.694770	2462.603654
437.071222	2480.247692
437.447614	2475.206538
437.823946	2611.317692
438.200218	2482.768269
438.576429	2414.712692
438.952580	2480.247692
439.328670	2487.809423
439.704700	2409.671538
440.080670	2495.371154
440.456580	2518.056346
440.832429	2465.124231
441.208218	2538.220962
441.583947	2455.041923
441.959616	2553.344423
442.335224	2422.274423
442.710773	2437.397885
443.086261	2412.192115
443.461689	2553.344423
443.837057	2586.111923
444.212365	2439.918462
444.587612	2412.192115
444.962800	2475.206538
445.337927	2455.041923
445.712995	2467.644808
446.088002	2475.206538
446.462949	2424.795000
446.837837	2487.809423
447.212664	2447.480192
447.587431	2462.603654
447.962139	2432.356731
448.336786	2402.109808
448.711374	2568.467885
449.085901	2523.097500
449.460369	2434.877308
449.834776	2495.371154
450.209124	2439.918462
450.583412	2513.015192
450.957640	2515.535769
451.331808	2538.220962
451.705917	2578.550192
452.079965	2505.453462
452.453954	2525.618077
452.827883	2447.480192
453.201752	2487.809423
453.575562	2442.439038
453.949311	2492.850577
454.323001	2628.961731
454.696632	2427.315577
455.070202	2487.809423
455.443713	2465.124231
455.817164	2510.494615
456.190556	2442.439038
456.563888	2462.603654
456.937160	2533.179808
457.310373	2487.809423
457.683526	2510.494615
458.056619	2545.782692
458.429653	2505.453462
458.802628	2520.576923
459.175542	2538.220962
459.548398	2490.330000
459.921194	2422.274423
460.293930	2417.233269
460.666607	2475.206538
461.039224	2507.974038
461.411782	2515.535769
461.784280	2450.000769
462.156719	2381.945192
462.529099	2538.220962
462.901419	2442.439038
463.273680	2422.274423
463.645882	2424.795000
464.018024	2510.494615
464.390106	2482.768269
464.762130	2490.330000
465.134094	2495.371154
465.505999	2462.603654
465.877845	2576.029615
466.249631	2450.000769
466.621358	2555.865000
466.993026	2477.727115
467.364634	2525.618077
467.736184	2553.344423
468.107674	2424.795000
468.479105	2397.068654
468.850477	2492.850577
469.221790	2432.356731
469.593043	2525.618077
469.964238	2482.768269
470.335373	2573.509038
470.706449	2515.535769
471.077467	2505.453462
471.448425	2528.138654
471.819324	2455.041923
472.190164	2505.453462
472.560945	2497.891731
472.931667	2553.344423
473.302330	2543.262115
473.672934	2447.480192
474.043479	2402.109808
474.413965	2452.521346
474.784393	2490.330000
475.154761	2515.535769
475.525070	2502.932885
475.895321	2520.576923
476.265513	2475.206538
476.635645	2505.453462
477.005719	2437.397885
477.375734	2439.918462
477.745691	2525.618077
478.115588	2487.809423
478.485427	2497.891731
478.855207	2528.138654
479.224928	2570.988462
479.594591	2472.685962
479.964194	2457.562500
480.333739	2497.891731
480.703226	2477.727115
481.072653	2530.659231
481.442022	2510.494615
481.811333	2507.974038
482.180584	2497.891731
482.549777	2507.974038
482.918912	2530.659231
483.287988	2450.000769
483.657005	2477.727115
484.025964	2487.809423
484.394864	2447.480192
484.763706	2530.659231
485.132489	2490.330000
485.501213	2412.192115
485.869879	2538.220962
486.238487	2497.891731
486.607036	2520.576923
486.975527	2545.782692
487.343959	2439.918462
487.712333	2553.344423
488.080648	2558.385577
488.448905	2550.823846
488.817104	2502.932885
489.185244	2470.165385
489.553326	2480.247692
489.921350	2548.303269
490.289315	2500.412308
490.657222	2500.412308
491.025070	2570.988462
491.392861	2450.000769
491.760593	2467.644808
492.128267	2510.494615
492.495883	2591.153077
492.863440	2500.412308
493.230939	2490.330000
493.598380	2462.603654
493.965763	2500.412308
494.333088	2510.494615
494.700354	2505.453462
495.067563	2485.288846
495.434713	2490.330000
495.801805	2475.206538
496.168839	2505.453462
496.535815	2477.727115
496.902733	2497.891731
497.269593	2409.671538
497.636395	2467.644808
498.003139	2482.768269
498.369825	2518.056346
498.736453	2467.644808
499.103023	2490.330000
499.469535	2507.974038
499.835989	2510.494615
500.202385	2487.809423
500.568723	2427.315577
500.935003	2490.330000
501.301226	2588.632500
501.667390	2525.618077
502.033497	2507.974038
502.399546	2538.220962
502.765537	2560.906154
503.131470	2392.027500
503.497345	2447.480192
503.863163	2528.138654
504.228923	2548.303269
504.594625	2399.589231
504.960269	2525.618077
505.325856	2422.274423
505.691385	2477.727115
506.056856	2533.179808
506.422270	2570.988462
506.787625	2528.138654
507.152924	2475.206538
507.518164	2467.644808
507.883347	2450.000769
508.248472	2591.153077
508.613540	2487.809423
508.978550	2507.974038
509.343503	2518.056346
509.708398	2565.947308
510.073236	2480.247692
510.438016	2447.480192
510.802738	2492.850577
511.167403	2543.262115
511.532010	2528.138654
511.896561	2540.741538
512.261053	2563.426731
512.625488	2460.083077
512.989866	2515.535769
513.354186	2422.274423
513.718449	2490.330000
514.082655	2591.153077
514.446803	2475.206538
514.810894	2578.550192
515.174927	2460.083077
515.538904	2510.494615
515.902822	2460.083077
516.266684	2543.262115
516.630488	2437.397885
516.994235	2500.412308
517.357925	2490.330000
517.721558	2485.288846
518.085133	2500.412308
518.448651	2487.809423
518.812112	2439.918462
519.175516	2495.371154
519.538863	2437.397885
519.902152	2515.535769
520.265385	2528.138654
520.628560	2470.165385
520.991678	2603.755962
521.354739	2578.550192
521.717743	2507.974038
522.080690	2482.768269
522.443580	2460.083077
522.806413	2480.247692
523.169189	2538.220962
523.531908	2492.850577
523.894569	2560.906154
524.257174	2505.453462
524.619722	2460.083077
524.982213	2457.562500
525.344647	2475.206538
525.707025	2465.124231
526.069345	2447.480192
526.431608	2500.412308
526.793815	2381.945192
527.155964	2472.685962
527.518057	2497.891731
527.880093	2543.262115
528.242072	2535.700385
528.603995	2510.494615
528.965860	2439.918462
529.327669	2487.809423
529.689421	2550.823846
530.051117	2487.809423
530.412755	2419.753846
530.774337	2470.165385
531.135862	2492.850577
531.497331	2505.453462
531.858743	2528.138654
532.220098	2475.206538
532.581396	2414.712692
532.942638	2450.000769
533.303824	2538.220962
533.664953	2553.344423
534.026025	2457.562500
534.387040	2462.603654
534.747999	2490.330000
535.108902	2502.932885
535.469748	2570.988462
535.830537	2477.727115
536.191270	2540.741538
536.551947	2500.412308
536.912567	2465.124231
537.273131	2515.535769
537.633638	2437.397885
537.994089	2540.741538
538.354483	2530.659231
538.714821	2487.809423
539.075103	2452.521346
539.435328	2462.603654
539.795497	2480.247692
540.155609	2480.247692
540.515665	2558.385577
540.875665	2480.247692
541.235609	2525.618077
541.595496	2419.753846
541.955328	2520.576923
542.315102	2462.603654
542.674821	2475.206538
543.034483	2543.262115
543.394090	2545.782692
543.753640	2520.576923
544.113134	2515.535769
544.472571	2467.644808
544.831953	2535.700385
545.191278	2442.439038
545.550548	2480.247692
545.909761	2482.768269
546.268918	2472.685962
546.628019	2467.644808
546.987064	2586.111923
547.346053	2596.194231
547.704986	2550.823846
548.063863	2505.453462
548.422684	2583.591346
548.781449	2578.550192
549.140158	2422.274423
549.498811	2560.906154
549.857408	2457.562500
550.215949	2540.741538
550.574434	2472.685962
550.932864	2424.795000
551.291237	2419.753846
551.649555	2482.768269
552.007817	2500.412308
552.366022	2434.877308
552.724173	2442.439038
553.082267	2560.906154
553.440305	2570.988462
553.798288	2530.659231
554.156215	2588.632500
554.514086	2550.823846
554.871902	2490.330000
555.229661	2530.659231
555.587365	2500.412308
555.945014	2427.315577
556.302606	2510.494615
556.660143	2470.165385
557.017625	2520.576923
557.375050	2465.124231
557.732421	2467.644808
558.089735	2535.700385
558.446994	2495.371154
558.804197	2535.700385
559.161345	2407.150962
559.518437	2477.727115
559.875474	2502.932885
560.232455	2462.603654
560.589381	2497.891731
560.946251	2487.809423
561.303065	2523.097500
561.659825	2475.206538
562.016528	2550.823846
562.373177	2477.727115
562.729770	2507.974038
563.086307	2460.083077
563.442789	2538.220962
563.799216	2510.494615
564.155587	2467.644808
564.511904	2538.220962
564.868164	2550.823846
565.224370	2513.015192
565.580520	2460.083077
565.936615	2492.850577
566.292654	2518.056346
566.648638	2424.795000
567.004567	2485.288846
567.360441	2455.041923
567.716260	2540.741538
568.072023	2523.097500
568.427732	2457.562500
568.783385	2452.521346
569.138982	2427.315577
569.494525	2545.782692
569.850013	2611.317692
570.205445	2492.850577
570.560823	2495.371154
570.916145	2487.809423
571.271412	2507.974038
571.626625	2530.659231
571.981782	2500.412308
572.336884	2437.397885
572.691931	2447.480192
573.046923	2523.097500
573.401860	2530.659231
573.756743	2535.700385
574.111570	2533.179808
574.466342	2523.097500
574.821059	2470.165385
575.175722	2384.465769
575.530330	2523.097500
575.884882	2560.906154
576.239380	2505.453462
576.593823	2535.700385
576.948211	2452.521346
577.302544	2515.535769
577.656823	2475.206538
578.011047	2442.439038
578.365216	2497.891731
578.719330	2480.247692
579.073389	2513.015192
579.427394	2502.932885
579.781344	2389.506923
580.135239	2528.138654
580.489080	2480.247692
580.842866	2525.618077
581.196597	2480.247692
581.550273	2515.535769
581.903895	2538.220962
582.257463	2495.371154
582.610975	2523.097500
582.964434	2510.494615
583.317837	2518.056346
583.671186	2538.220962
584.024481	2548.303269
584.377721	2460.083077
584.730906	2475.206538
585.084037	2417.233269
585.437113	2477.727115
585.790135	2477.727115
586.143103	2545.782692
586.496016	2442.439038
586.848874	2507.974038
587.201679	2533.179808
587.554428	2437.397885
587.907124	2583.591346
588.259765	2495.371154
588.612352	2462.603654
588.964884	2540.741538
589.317362	2472.685962
589.669786	2465.124231
590.022155	2482.768269
590.374470	2450.000769
590.726731	2530.659231
591.078937	2424.795000
591.431090	2412.192115
591.783188	2480.247692
592.135232	2460.083077
592.487222	2515.535769
592.839157	2487.809423
593.191038	2480.247692
593.542866	2525.618077
593.894639	2394.548077
594.246358	2482.768269
594.598022	2538.220962
594.949633	2490.330000
595.301190	2472.685962
595.652692	2502.932885
596.004141	2570.988462
596.355535	2452.521346
596.706876	2495.371154
597.058162	2530.659231
597.409395	2409.671538
597.760573	2525.618077
598.111698	2485.288846
598.462768	2563.426731
598.813785	2490.330000
599.164748	2374.383462
599.515657	2538.220962
599.866511	2533.179808
600.217312	2470.165385
600.568060	2450.000769
600.918753	2467.644808
601.269392	2417.233269
601.619978	2555.865000
601.970510	2455.041923
602.320988	2444.959615
602.671412	2462.603654
603.021783	2427.315577
603.372100	2533.179808
603.722363	2538.220962
604.072572	2457.562500
604.422728	2490.330000
604.772830	2467.644808
605.122878	2505.453462
605.472872	2487.809423
605.822813	2553.344423
606.172701	2565.947308
606.522534	2513.015192
606.872314	2407.150962
607.222041	2583.591346
607.571714	2424.795000
607.921333	2543.262115
608.270899	2389.506923
608.620411	2422.274423
608.969870	2439.918462
609.319276	2482.768269
609.668627	2525.618077
610.017926	2495.371154
610.367171	2490.330000
610.716362	2535.700385
611.065500	2570.988462
611.414585	2492.850577
611.763616	2497.891731
612.112594	2545.782692
612.461518	2497.891731
612.810389	2515.535769
613.159207	2460.083077
613.507971	2402.109808
613.856682	2528.138654
614.205340	2442.439038
614.553945	2563.426731
614.902496	2450.000769
615.250994	2470.165385
615.599439	2482.768269
615.947830	2535.700385
616.296169	2450.000769
616.644454	2495.371154
616.992686	2475.206538
617.340864	2510.494615
617.688990	2502.932885
618.037063	2515.535769
618.385082	2467.644808
618.733048	2563.426731
619.080961	2515.535769
619.428821	2535.700385
619.776628	2513.015192
620.124382	2422.274423
620.472083	2465.124231
620.819731	2543.262115
621.167326	2432.356731
621.514868	2535.700385
621.862357	2424.795000
622.209793	2477.727115
622.557176	2470.165385
622.904506	2465.124231
623.251783	2427.315577
623.599007	2523.097500
623.946179	2528.138654
624.293297	2520.576923
624.640363	2376.904038
624.987376	2578.550192
625.334336	2450.000769
625.681243	2457.562500
626.028097	2460.083077
626.374899	2467.644808
626.721647	2417.233269
627.068343	2505.453462
627.414987	2487.809423
627.761577	2480.247692
628.108115	2548.303269
628.454600	2548.303269
628.801032	2487.809423
629.147412	2548.303269
629.493739	2480.247692
629.840014	2482.768269
630.186236	2482.768269
630.532405	2467.644808
630.878521	2477.727115
631.224585	2404.630385
631.570597	2505.453462
631.916556	2570.988462
632.262462	2553.344423
632.608316	2558.385577
632.954117	2467.644808
633.299866	2518.056346
633.645562	2470.165385
633.991206	2520.576923
634.336797	2447.480192
634.682336	2492.850577
635.027823	2467.644808
635.373257	2540.741538
635.718639	2485.288846
636.063968	2497.891731
636.409245	2379.424615
636.754470	2507.974038
637.099642	2530.659231
637.444762	2422.274423
637.789829	2563.426731
638.134845	2490.330000
638.479808	2462.603654
638.824719	2439.918462
639.169577	2525.618077
639.514383	2450.000769
639.859137	2480.247692
640.203839	2495.371154
640.548489	2480.247692
640.893086	2442.439038
641.237632	2460.083077
641.582125	2470.165385
641.926566	2518.056346
642.270955	2505.453462
642.615292	2460.083077
642.959576	2480.247692
643.303809	2470.165385
643.647990	2548.303269
643.992118	2487.809423
644.336195	2515.535769
644.680219	2490.330000
645.024192	2404.630385
645.368112	2513.015192
645.711981	2467.644808
646.055797	2568.467885
646.399562	2555.865000
646.743274	2482.768269
647.086935	2424.795000
647.430544	2538.220962
647.774101	2507.974038
648.117606	2538.220962
648.461059	2455.041923
648.804460	2543.262115
649.147810	2538.220962
649.491108	2533.179808
649.834354	2583.591346
650.177548	2528.138654
650.520690	2510.494615
650.863781	2523.097500
651.206820	2480.247692
651.549807	2470.165385
651.892742	2452.521346
652.235626	2510.494615
652.578458	2606.276538
652.921238	2520.576923
653.263967	2470.165385
653.606644	2505.453462
653.949269	2439.918462
654.291843	2442.439038
654.634365	2465.124231
654.976836	2515.535769
655.319255	2442.439038
655.661622	2444.959615
656.003938	2525.618077
656.346203	2462.603654
656.688416	2528.138654
657.030577	2480.247692
657.372687	2487.809423
657.714746	2497.891731
658.056753	2495.371154
658.398708	2528.138654
658.740612	2490.330000
659.082465	2568.467885
659.424266	2497.891731
659.766016	2548.303269
660.107715	2472.685962
660.449362	2444.959615
660.790958	2538.220962
661.132503	2507.974038
661.473996	2507.974038
661.815438	2475.206538
662.156829	2497.891731
662.498168	2452.521346
662.839456	2568.467885
663.180693	2467.644808
663.521879	2518.056346
663.863013	2497.891731
664.204097	2475.206538
664.545129	2553.344423
664.886110	2583.591346
665.227040	2447.480192
665.567918	2553.344423
665.908746	2386.986346
666.249522	2510.494615
666.590248	2545.782692
666.930922	2487.809423
667.271545	2510.494615
667.612118	2553.344423
667.952639	2505.453462
668.293109	2608.797115
668.633528	2513.015192
668.973896	2606.276538
669.314213	2545.782692
669.654480	2518.056346
669.994695	2513.015192
670.334859	2485.288846
670.674973	2528.138654
671.015035	2482.768269
671.355047	2477.727115
671.695008	2555.865000
672.034918	2462.603654
672.374777	2543.262115
672.714585	2444.959615
673.054342	2538.220962
673.394049	2462.603654
673.733705	2450.000769
674.073310	2450.000769
674.412864	2447.480192
674.752368	2518.056346
675.091820	2520.576923
675.431223	2515.535769
675.770574	2480.247692
676.109875	2497.891731
676.449125	2538.220962
676.788324	2495.371154
677.127473	2533.179808
677.466571	2429.836154
677.805619	2487.809423
678.144616	2507.974038
678.483562	2447.480192
678.822458	2565.947308
679.161303	2444.959615
679.500098	2457.562500
679.838842	2452.521346
680.177535	2477.727115
680.516179	2442.439038
680.854771	2497.891731
681.193314	2452.521346
681.531805	2480.247692
681.870247	2513.015192
682.208638	2409.671538
682.546978	2568.467885
682.885268	2495.371154
683.223508	2500.412308
683.561697	2490.330000
683.899836	2505.453462
684.237925	2513.015192
684.575963	2462.603654
684.913951	2460.083077
685.251889	2525.618077
685.589776	2462.603654
685.927614	2480.247692
686.265401	2545.782692
686.603137	2505.453462
686.940824	2427.315577
687.278460	2490.330000
687.616046	2525.618077
687.953582	2523.097500
688.291068	2492.850577
688.628504	2442.439038
688.965889	2565.947308
689.303224	2452.521346
689.640510	2525.618077
689.977745	2480.247692
690.314930	2530.659231
690.652065	2477.727115
690.989150	2570.988462
691.326185	2528.138654
691.663170	2485.288846
692.000105	2444.959615
692.336990	2492.850577
692.673825	2379.424615
693.010610	2548.303269
693.347345	2548.303269
693.684030	2507.974038
694.020665	2550.823846
694.357251	2460.083077
694.693786	2482.768269
695.030272	2457.562500
695.366707	2573.509038
695.703093	2515.535769
696.039429	2550.823846
696.375716	2500.412308
696.711952	2528.138654
697.048139	2540.741538
697.384276	2442.439038
697.720363	2525.618077
698.056400	2586.111923
698.392388	2528.138654
698.728326	2439.918462
699.064214	2505.453462
699.400053	2543.262115
699.735842	2533.179808
700.071581	2573.509038
700.407270	2434.877308
700.742910	2482.768269
701.078501	2560.906154
701.414042	2540.741538
701.749533	2520.576923
702.084974	2482.768269
702.420366	2540.741538
702.755709	2465.124231
703.091002	2570.988462
703.426246	2450.000769
703.761440	2455.041923
704.096584	2555.865000
704.431679	2457.562500
704.766725	2525.618077
705.101721	2485.288846
705.436668	2482.768269
705.771565	2472.685962
706.106413	2543.262115
706.441212	2507.974038
706.775961	2563.426731
707.110661	2414.712692
707.445311	2429.836154
707.779913	2470.165385
708.114465	2417.233269
708.448967	2485.288846
708.783421	2523.097500
709.117825	2495.371154
709.452180	2535.700385
709.786485	2457.562500
710.120742	2492.850577
710.454949	2485.288846
710.789107	2518.056346
711.123216	2477.727115
711.457275	2452.521346
711.791286	2520.576923
712.125247	2507.974038
712.459159	2558.385577
712.793023	2533.179808
713.126837	2510.494615
713.460602	2530.659231
713.794318	2523.097500
714.127985	2437.397885
714.461602	2439.918462
714.795171	2480.247692
715.128691	2525.618077
715.462162	2525.618077
715.795584	2442.439038
716.128957	2505.453462
716.462281	2455.041923
716.795556	2447.480192
717.128782	2573.509038
717.461960	2520.576923
717.795088	2548.303269
718.128167	2477.727115
718.461198	2482.768269
718.794180	2450.000769
719.127113	2550.823846
719.459997	2497.891731
719.792833	2482.768269
720.125619	2485.288846
720.458357	2530.659231
720.791046	2460.083077
721.123686	2437.397885
721.456278	2480.247692
721.788821	2467.644808
722.121315	2475.206538
722.453761	2485.288846
722.786158	2462.603654
723.118506	2444.959615
723.450805	2538.220962
723.783056	2407.150962
724.115259	2502.932885
724.447412	2520.576923
724.779518	2563.426731
725.111574	2477.727115
725.443582	2502.932885
725.775542	2616.358846
726.107453	2470.165385
726.439315	2520.576923
726.771129	2523.097500
727.102895	2515.535769
727.434612	2452.521346
727.766281	2570.988462
728.097901	2515.535769
728.429473	2626.441154
728.760996	2518.056346
729.092471	2429.836154
729.423897	2586.111923
729.755276	2513.015192
730.086606	2523.097500
730.417887	2457.562500
730.749120	2465.124231
731.080305	2412.192115
731.411442	2540.741538
731.742530	2520.576923
732.073570	2482.768269
732.404562	2462.603654
732.735506	2455.041923
733.066401	2550.823846
733.397249	2500.412308
733.728048	2505.453462
734.058798	2419.753846
734.389501	2462.603654
734.720156	2505.453462
735.050762	2465.124231
735.381320	2437.397885
735.711831	2550.823846
736.042293	2470.165385
736.372707	2492.850577
736.703073	2528.138654
737.033391	2452.521346
737.363661	2505.453462
737.693883	2465.124231
738.024056	2460.083077
738.354182	2427.315577
738.684260	2510.494615
739.014290	2543.262115
739.344272	2558.385577
739.674207	2495.371154
740.004093	2533.179808
740.333931	2475.206538
740.663722	2525.618077
740.993464	2457.562500
741.323159	2518.056346
741.652806	2465.124231
741.982405	2447.480192
742.311956	2412.192115
742.641460	2502.932885
742.970915	2452.521346
743.300323	2543.262115
743.629683	2462.603654
743.958996	2490.330000
744.288260	2455.041923
744.617477	2490.330000
744.946647	2555.865000
745.275768	2545.782692
745.604842	2525.618077
745.933869	2502.932885
746.262847	2505.453462
746.591778	2518.056346
746.920662	2482.768269
747.249498	2437.397885
747.578286	2495.371154
747.907027	2518.056346
748.235720	2452.521346
748.564365	2495.371154
748.892963	2568.467885
749.221514	2497.891731
749.550017	2563.426731
749.878473	2540.741538
750.206881	2402.109808
750.535242	2497.891731
750.863555	2497.891731
751.191821	2525.618077
751.520039	2520.576923
751.848210	2495.371154
752.176334	2422.274423
752.504411	2518.056346
752.832440	2381.945192
753.160421	2480.247692
753.488356	2457.562500
753.816243	2485.288846
754.144082	2507.974038
754.471875	2475.206538
754.799620	2505.453462
755.127318	2472.685962
755.454969	2513.015192
755.782572	2457.562500
756.110129	2497.891731
756.437638	2502.932885
756.765100	2500.412308
757.092515	2500.412308
757.419882	2381.945192
757.747203	2583.591346
758.074477	2500.412308
758.401703	2530.659231
758.728882	2540.741538
759.056014	2444.959615
759.383099	2439.918462
759.710138	2470.165385
760.037129	2550.823846
760.364073	2586.111923
760.690970	2447.480192
761.017820	2510.494615
761.344623	2480.247692
761.671379	2505.453462
761.998088	2507.974038
762.324751	2472.685962
762.651366	2500.412308
762.977935	2455.041923
763.304456	2482.768269
763.630931	2548.303269
763.957359	2530.659231
764.283740	2550.823846
764.610074	2447.480192
764.936362	2515.535769
765.262602	2497.891731
765.588796	2475.206538
765.914943	2404.630385
766.241044	2523.097500
766.567097	2487.809423
766.893104	2467.644808
767.219064	2462.603654
767.544978	2492.850577
767.870845	2450.000769
768.196665	2497.891731
768.522438	2472.685962
768.848165	2525.618077
769.173846	2490.330000
769.499479	2515.535769
769.825066	2492.850577
770.150607	2475.206538
770.476101	2477.727115
770.801548	2500.412308
771.126949	2502.932885
771.452303	2515.535769
771.777611	2477.727115
772.102872	2553.344423
772.428087	2510.494615
772.753256	2495.371154
773.078378	2427.315577
773.403453	2482.768269
773.728482	2424.795000
774.053465	2545.782692
774.378401	2518.056346
774.703291	2523.097500
775.028135	2550.823846
775.352932	2472.685962
775.677683	2447.480192
776.002388	2593.673654
776.327046	2540.741538
776.651658	2460.083077
776.976224	2409.671538
777.300743	2502.932885
777.625216	2555.865000
777.949643	2444.959615
778.274024	2540.741538
778.598359	2505.453462
778.922647	2490.330000
779.246889	2548.303269
779.571086	2543.262115
779.895236	2475.206538
780.219339	2502.932885
780.543397	2475.206538
780.867409	2497.891731
781.191374	2535.700385
781.515294	2523.097500
781.839167	2450.000769
782.162995	2502.932885
782.486776	2422.274423
782.810511	2452.521346
783.134201	2505.453462
783.457844	2495.371154
783.781441	2530.659231
784.104993	2414.712692
784.428498	2565.947308
784.751958	2553.344423
785.075372	2452.521346
785.398739	2485.288846
785.722061	2487.809423
786.045337	2533.179808
786.368568	2439.918462
786.691752	2570.988462
787.014891	2462.603654
787.337983	2412.192115
787.661030	2540.741538
787.984031	2515.535769
788.306987	2540.741538
788.629897	2460.083077
788.952760	2450.000769
789.275579	2490.330000
789.598351	2417.233269
789.921078	2495.371154
790.243759	2530.659231
790.566395	2439.918462
790.888984	2555.865000
791.211529	2427.315577
791.534027	2457.562500
791.856480	2465.124231
792.178888	2500.412308
792.501249	2528.138654
792.823566	2482.768269
793.145836	2518.056346
793.468062	2422.274423
793.790241	2530.659231
794.112375	2558.385577
794.434464	2485.288846
794.756507	2538.220962
795.078505	2560.906154
795.400457	2505.453462
795.722364	2578.550192
796.044226	2462.603654
796.366042	2518.056346
796.687812	2500.412308
797.009538	2472.685962
797.331218	2477.727115
797.652852	2470.165385
797.974442	2558.385577
798.295986	2490.330000
798.617484	2470.165385
798.938938	2507.974038
799.260346	2480.247692
799.581709	2467.644808
799.903026	2480.247692
800.224299	2490.330000
800.545526	2452.521346
800.866708	2535.700385
801.187845	2397.068654
801.508936	2500.412308
801.829983	2470.165385
802.150984	2530.659231
802.471940	2538.220962
802.792851	2487.809423
803.113717	2555.865000
803.434538	2545.782692
803.755314	2510.494615
804.076045	2538.220962
804.396731	2457.562500
804.717372	2507.974038
805.037967	2513.015192
805.358518	2480.247692
805.679024	2558.385577
805.999485	2528.138654
806.319901	2487.809423
806.640272	2570.988462
806.960598	2490.330000
807.280879	2447.480192
807.601115	2523.097500
807.921306	2502.932885
808.241453	2389.506923
808.561554	2495.371154
808.881611	2472.685962
809.201623	2460.083077
809.521590	2480.247692
809.841513	2520.576923
810.161390	2432.356731
810.481223	2495.371154
810.801011	2450.000769
811.120755	2485.288846
811.440453	2485.288846
811.760107	2490.330000
812.079716	2492.850577
812.399281	2439.918462
812.718801	2497.891731
813.038276	2513.015192
813.357707	2490.330000
813.677093	2500.412308
813.996434	2500.412308
814.315731	2477.727115
814.634983	2596.194231
814.954191	2555.865000
815.273354	2429.836154
815.592473	2450.000769
815.911547	2487.809423
816.230577	2528.138654
816.549562	2492.850577
816.868502	2545.782692
817.187399	2434.877308
817.506250	2523.097500
817.825058	2487.809423
818.143821	2500.412308
818.462539	2507.974038
818.781213	2507.974038
819.099843	2490.330000
819.418429	2533.179808
819.736970	2429.836154
820.055466	2598.714808
820.373919	2538.220962
820.692327	2460.083077
821.010691	2505.453462
821.329011	2560.906154
821.647286	2452.521346
821.965517	2492.850577
822.283704	2490.330000
822.601847	2543.262115
822.919945	2545.782692
823.237999	2450.000769
823.556010	2505.453462
823.873976	2475.206538
824.191897	2495.371154
824.509775	2447.480192
824.827609	2404.630385
825.145398	2422.274423
825.463144	2523.097500
825.780845	2497.891731
826.098502	2507.974038
826.416116	2502.932885
826.733685	2490.330000
827.051210	2470.165385
827.368692	2462.603654
827.686129	2477.727115
828.003522	2455.041923
828.320872	2530.659231
828.638177	2485.288846
828.955439	2500.412308
829.272656	2578.550192
829.589830	2568.467885
829.906960	2591.153077
830.224046	2538.220962
830.541088	2439.918462
830.858086	2518.056346
831.175041	2492.850577
831.491952	2455.041923
831.808819	2457.562500
832.125642	2510.494615
832.442421	2482.768269
832.759157	2475.206538
833.075849	2402.109808
833.392497	2507.974038
833.709101	2429.836154
834.025662	2409.671538
834.342179	2457.562500
834.658653	2490.330000
834.975083	2502.932885
835.291469	2434.877308
835.607811	2535.700385
835.924110	2553.344423
836.240366	2530.659231
836.556578	2465.124231
836.872746	2437.397885
837.188871	2518.056346
837.504952	2470.165385
837.820990	2500.412308
838.136984	2543.262115
838.452935	2462.603654
838.768842	2417.233269
839.084706	2505.453462
839.400526	2510.494615
839.716303	2525.618077
840.032037	2465.124231
840.347727	2492.850577
840.663373	2523.097500
840.978977	2475.206538
841.294537	2457.562500
841.610054	2487.809423
841.925527	2505.453462
842.240957	2495.371154
842.556344	2543.262115
842.871687	2457.562500
843.186987	2472.685962
843.502244	2507.974038
843.817458	2482.768269
844.132629	2470.165385
844.447756	2502.932885
844.762840	2490.330000
845.077881	2533.179808
845.392879	2455.041923
845.707833	2439.918462
846.022745	2460.083077
846.337613	2485.288846
846.652438	2485.288846
846.967221	2447.480192
847.281960	2535.700385
847.596656	2601.235385
847.911309	2518.056346
848.225919	2492.850577
848.540485	2523.097500
848.855009	2467.644808
849.169490	2505.453462
849.483928	2492.850577
849.798323	2535.700385
850.112675	2490.330000
850.426984	2482.768269
850.741251	2422.274423
851.055474	2495.371154
851.369654	2452.521346
851.683792	2535.700385
851.997887	2565.947308
852.311938	2379.424615
852.625947	2487.809423
852.939914	2515.535769
853.253837	2548.303269
853.567718	2442.439038
853.881555	2480.247692
854.195350	2588.632500
854.509103	2422.274423
854.822812	2558.385577
855.136479	2500.412308
855.450103	2495.371154
855.763685	2518.056346
856.077224	2530.659231
856.390720	2558.385577
856.704173	2495.371154
857.017584	2533.179808
857.330953	2538.220962
857.644278	2540.741538
857.957561	2533.179808
858.270802	2497.891731
858.584000	2510.494615
858.897155	2477.727115
859.210268	2505.453462
859.523339	2576.029615
859.836367	2507.974038
860.149352	2510.494615
860.462295	2492.850577
860.775195	2482.768269
861.088054	2427.315577
861.400869	2548.303269
861.713642	2399.589231
862.026373	2500.412308
862.339062	2540.741538
862.651708	2477.727115
862.964312	2477.727115
863.276873	2495.371154
863.589392	2475.206538
863.901869	2485.288846
864.214303	2477.727115
864.526696	2492.850577
864.839045	2477.727115
865.151353	2487.809423
865.463619	2538.220962
865.775842	2513.015192
866.088023	2515.535769
866.400162	2462.603654
866.712258	2538.220962
867.024313	2543.262115
867.336325	2500.412308
867.648296	2472.685962
867.960224	2460.083077
868.272110	2513.015192
868.583954	2485.288846
868.895755	2510.494615
869.207515	2540.741538
869.519233	2510.494615
869.830909	2460.083077
870.142542	2533.179808
870.454134	2505.453462
870.765684	2455.041923
871.077191	2485.288846
871.388657	2480.247692
871.700081	2586.111923
872.011463	2528.138654
872.322803	2442.439038
872.634101	2432.356731
872.945357	2414.712692
873.256571	2543.262115
873.567744	2472.685962
873.878874	2570.988462
874.189963	2485.288846
874.501010	2533.179808
874.812015	2515.535769
875.122979	2434.877308
875.433900	2550.823846
875.744780	2477.727115
876.055618	2475.206538
876.366415	2492.850577
876.677169	2528.138654
876.987882	2434.877308
877.298554	2523.097500
877.609183	2432.356731
877.919771	2470.165385
878.230317	2502.932885
878.540822	2518.056346
878.851285	2465.124231
879.161707	2515.535769
879.472087	2510.494615
879.782425	2525.618077
880.092722	2538.220962
880.402977	2457.562500
880.713191	2462.603654
881.023363	2480.247692
881.333494	2528.138654
881.643583	2513.015192
881.953631	2578.550192
882.263637	2424.795000
882.573602	2515.535769
882.883526	2447.480192
883.193408	2525.618077
883.503248	2457.562500
883.813048	2447.480192
884.122806	2528.138654
884.432522	2452.521346
884.742197	2553.344423
885.051831	2528.138654
885.361424	2492.850577
885.670975	2482.768269
885.980485	2399.589231
886.289954	2530.659231
886.599382	2518.056346
886.908768	2495.371154
887.218113	2490.330000
887.527417	2530.659231
887.836680	2510.494615
888.145901	2477.727115
888.455082	2487.809423
888.764221	2570.988462
889.073319	2495.371154
889.382376	2419.753846
889.691392	2497.891731
890.000366	2538.220962
890.309300	2555.865000
890.618193	2397.068654
890.927044	2495.371154
891.235855	2422.274423
891.544625	2492.850577
891.853353	2518.056346
892.162041	2507.974038
892.470687	2558.385577
892.779293	2530.659231
893.087858	2444.959615
893.396381	2513.015192
893.704864	2492.850577
894.013306	2507.974038
894.321707	2439.918462
894.630068	2482.768269
894.938387	2480.247692
895.246665	2510.494615
895.554903	2568.467885
895.863100	2525.618077
896.171256	2581.070769
896.479371	2480.247692
896.787446	2535.700385
897.095480	2543.262115
897.403473	2497.891731
897.711425	2505.453462
898.019336	2611.317692
898.327207	2442.439038
898.635038	2535.700385
898.942827	2563.426731
899.250576	2543.262115
899.558284	2460.083077
899.865952	2495.371154
900.173579	2513.015192
900.481165	2465.124231
900.788711	2616.358846
901.096216	2485.288846
901.403681	2528.138654
901.711105	2530.659231
902.018489	2417.233269
902.325832	2553.344423
902.633135	2442.439038
902.940397	2518.056346
903.247619	2520.576923
903.554800	2538.220962
903.861941	2444.959615
904.169041	2450.000769
904.476101	2497.891731
904.783121	2455.041923
905.090100	2472.685962
905.397039	2437.397885
905.703938	2535.700385
906.010796	2477.727115
906.317614	2573.509038
906.624391	2439.918462
906.931129	2518.056346
907.237826	2442.439038
907.544483	2548.303269
907.851099	2510.494615
908.157675	2576.029615
908.464211	2422.274423
908.770707	2535.700385
909.077163	2513.015192
909.383578	2505.453462
909.689954	2558.385577
909.996289	2434.877308
910.302584	2472.685962
910.608839	2515.535769
910.915054	2457.562500
911.221229	2558.385577
911.527363	2548.303269
911.833458	2444.959615
912.139513	2538.220962
912.445527	2467.644808
912.751502	2422.274423
913.057436	2442.439038
913.363331	2402.109808
913.669186	2457.562500
913.975000	2497.891731
914.280775	2480.247692
914.586510	2570.988462
914.892205	2460.083077
915.197859	2543.262115
915.503475	2422.274423
915.809050	2510.494615
916.114585	2460.083077
916.420081	2505.453462
916.725536	2621.400000
917.030952	2490.330000
917.336328	2545.782692
917.641665	2525.618077
917.946961	2492.850577
918.252218	2565.947308
918.557435	2565.947308
918.862612	2487.809423
919.167750	2497.891731
919.472848	2460.083077
919.777906	2543.262115
920.082925	2543.262115
920.387904	2462.603654
920.692843	2573.509038
920.997743	2475.206538
921.302603	2520.576923
921.607423	2530.659231
921.912204	2465.124231
922.216946	2565.947308
922.521647	2598.714808
922.826310	2414.712692
923.130932	2550.823846
923.435516	2467.644808
923.740059	2538.220962
924.044564	2427.315577
924.349028	2482.768269
924.653454	2586.111923
924.957840	2467.644808
925.262186	2487.809423
925.566493	2472.685962
925.870761	2424.795000
926.174989	2523.097500
926.479178	2533.179808
926.783328	2482.768269
927.087438	2535.700385
927.391509	2437.397885
927.695541	2409.671538
927.999533	2525.618077
928.303486	2485.288846
928.607400	2487.809423
928.911275	2472.685962
929.215110	2450.000769
929.518906	2487.809423
929.822663	2422.274423
930.126381	2497.891731
930.430060	2404.630385
930.733699	2419.753846
931.037299	2553.344423
931.340861	2465.124231
931.644383	2507.974038
931.947866	2593.673654
932.251309	2470.165385
932.554714	2444.959615
932.858080	2533.179808
933.161407	2467.644808
933.464694	2510.494615
933.767943	2480.247692
934.071153	2583.591346
934.374323	2495.371154
934.677455	2437.397885
934.980548	2475.206538
935.283602	2450.000769
935.586617	2490.330000
935.889593	2523.097500
936.192530	2528.138654
936.495428	2457.562500
936.798287	2490.330000
937.101108	2455.041923
937.403890	2475.206538
937.706632	2452.521346
938.009336	2548.303269
938.312002	2480.247692
938.614628	2407.150962
938.917216	2442.439038
939.219765	2475.206538
939.522275	2467.644808
939.824747	2510.494615
940.127179	2452.521346
940.429573	2495.371154
940.731929	2492.850577
941.034246	2523.097500
941.336524	2439.918462
941.638763	2591.153077
941.940964	2422.274423
942.243126	2470.165385
942.545250	2500.412308
942.847335	2480.247692
943.149381	2419.753846
943.451389	2475.206538
943.753359	2535.700385
944.055290	2434.877308
944.357182	2505.453462
944.659036	2515.535769
944.960851	2502.932885
945.262628	2472.685962
945.564367	2492.850577
945.866067	2583.591346
946.167729	2528.138654
946.469352	2535.700385
946.770937	2460.083077
947.072484	2485.288846
947.373992	2495.371154
947.675462	2497.891731
947.976893	2462.603654
948.278286	2444.959615
948.579641	2477.727115
948.880958	2386.986346
949.182236	2457.562500
949.483476	2434.877308
949.784678	2507.974038
950.085841	2442.439038
950.386967	2513.015192
950.688054	2492.850577
950.989103	2457.562500
951.290114	2437.397885
951.591087	2530.659231
951.892021	2429.836154
952.192917	2570.988462
952.493776	2497.891731
952.794596	2533.179808
953.095378	2399.589231
953.396122	2475.206538
953.696828	2565.947308
953.997496	2497.891731
954.298126	2540.741538
954.598718	2540.741538
954.899272	2417.233269
955.199788	2386.986346
955.500266	2513.015192
955.800706	2485.288846
956.101108	2505.453462
956.401472	2507.974038
956.701798	2472.685962
957.002087	2540.741538
957.302337	2482.768269
957.602550	2482.768269
957.902724	2563.426731
958.202861	2515.535769
958.502960	2510.494615
958.803022	2450.000769
959.103045	2500.412308
959.403031	2485.288846
959.702979	2518.056346
960.002889	2515.535769
960.302762	2460.083077
960.602596	2450.000769
960.902393	2523.097500
961.202153	2553.344423
961.501875	2497.891731
961.801559	2560.906154
962.101205	2444.959615
962.400814	2455.041923
962.700385	2515.535769
962.999918	2462.603654
963.299414	2460.083077
963.598873	2533.179808
963.898293	2513.015192
964.197677	2467.644808
964.497022	2515.535769
964.796331	2470.165385
965.095601	2414.712692
965.394835	2495.371154
965.694030	2482.768269
965.993189	2472.685962
966.292309	2520.576923
966.591393	2442.439038
966.890439	2492.850577
967.189447	2429.836154
967.488419	2540.741538
967.787353	2596.194231
968.086249	2500.412308
968.385108	2555.865000
968.683930	2429.836154
968.982714	2444.959615
969.281462	2432.356731
969.580172	2470.165385
969.878844	2553.344423
970.177480	2460.083077
970.476078	2467.644808
970.774639	2510.494615
971.073162	2490.330000
971.371649	2505.453462
971.670098	2475.206538
971.968510	2548.303269
972.266885	2434.877308
972.565223	2480.247692
972.863524	2472.685962
973.161788	2507.974038
973.460014	2518.056346
973.758204	2437.397885
974.056356	2465.124231
974.354471	2450.000769
974.652550	2477.727115
974.950591	2533.179808
975.248595	2563.426731
975.546563	2442.439038
975.844493	2520.576923
976.142386	2518.056346
976.440243	2500.412308
976.738062	2555.865000
977.035845	2500.412308
977.333590	2434.877308
977.631299	2417.233269
977.928971	2495.371154
978.226606	2492.850577
978.524204	2510.494615
978.821765	2457.562500
979.119290	2513.015192
979.416777	2523.097500
979.714228	2515.535769
980.011642	2419.753846
980.309020	2623.920577
980.606360	2465.124231
980.903664	2530.659231
981.200931	2437.397885
981.498162	2480.247692
981.795356	2535.700385
982.092513	2563.426731
982.389633	2535.700385
982.686717	2502.932885
982.983764	2485.288846
983.280775	2533.179808
983.577749	2460.083077
983.874686	2432.356731
984.171587	2455.041923
984.468451	2492.850577
984.765279	2520.576923
985.062070	2530.659231
985.358824	2505.453462
985.655543	2477.727115
985.952224	2485.288846
986.248869	2465.124231
986.545478	2525.618077
986.842050	2477.727115
987.138586	2558.385577
987.435086	2427.315577
987.731549	2482.768269
988.027975	2472.685962
988.324366	2472.685962
988.620719	2492.850577
988.917037	2482.768269
989.213318	2500.412308
989.509563	2550.823846
989.805772	2470.165385
990.101944	2444.959615
990.398080	2389.506923
990.694180	2490.330000
990.990244	2455.041923
991.286271	2475.206538
991.582262	2452.521346
991.878217	2490.330000
992.174136	2490.330000
992.470019	2513.015192
992.765865	2487.809423
993.061676	2495.371154
993.357450	2444.959615
993.653188	2616.358846
993.948890	2495.371154
994.244556	2482.768269
994.540186	2583.591346
994.835780	2502.932885
995.131337	2497.891731
995.426859	2497.891731
995.722345	2505.453462
996.017795	2455.041923
996.313208	2465.124231
996.608586	2523.097500
996.903928	2487.809423
997.199234	2386.986346
997.494504	2477.727115
997.789738	2563.426731
998.084936	2545.782692
998.380099	2442.439038
998.675225	2462.603654
998.970316	2467.644808
999.265371	2470.165385
999.560390	2422.274423
999.855373	2470.165385
1000.150320	2374.383462
1000.445232	2528.138654
1000.740108	2510.494615
1001.034948	2490.330000
1001.329752	2480.247692
1001.624521	2492.850577
1001.919254	2452.521346
1002.213951	2530.659231
1002.508613	2525.618077
1002.803239	2545.782692
1003.097829	2530.659231
1003.392384	2424.795000
1003.686903	2475.206538
1003.981386	2462.603654
1004.275834	2321.451346
1004.570246	2505.453462
1004.864623	2472.685962
1005.158964	2427.315577
1005.453270	2434.877308
1005.747540	2525.618077
1006.041775	2487.809423
1006.335974	2490.330000
1006.630138	2573.509038
1006.924266	2442.439038
1007.218359	2497.891731
1007.512416	2442.439038
1007.806438	2560.906154
1008.100425	2545.782692
1008.394376	2565.947308
1008.688292	2497.891731
1008.982172	2490.330000
1009.276017	2470.165385
1009.569827	2528.138654
1009.863602	2518.056346
1010.157341	2467.644808
1010.451045	2515.535769
1010.744714	2470.165385
1011.038347	2457.562500
1011.331945	2457.562500
1011.625508	2553.344423
1011.919036	2487.809423
1012.212528	2550.823846
1012.505986	2477.727115
1012.799408	2593.673654
1013.092795	2530.659231
1013.386147	2492.850577
1013.679464	2389.506923
1013.972745	2487.809423
1014.265992	2465.124231
1014.559204	2475.206538
1014.852380	2450.000769
1015.145521	2439.918462
1015.438628	2543.262115
1015.731699	2462.603654
1016.024736	2447.480192
1016.317737	2460.083077
1016.610703	2450.000769
1016.903635	2424.795000
1017.196531	2510.494615
1017.489393	2467.644808
1017.782219	2485.288846
1018.075011	2535.700385
1018.367768	2528.138654
1018.660490	2470.165385
1018.953177	2470.165385
1019.245829	2470.165385
