Dividing Wavelength (nm)	Counts (n)	Blue Motor Position (mm): 8.400000	Red Motor Position (mm): 0.000000	
326.493990	2094.599423
326.888308	2094.599423
327.282561	2094.599423
327.676750	2049.229038
328.070874	2084.517115
328.464933	2079.475962
328.858929	2127.366923
329.252859	2157.613846
329.646726	2117.284615
330.040528	2094.599423
330.434265	2127.366923
330.827938	2152.572692
331.221547	2097.120000
331.615091	2218.107692
332.008571	2240.792885
332.401986	2177.778462
332.795338	2210.545962
333.188625	2278.601538
333.581847	2318.930769
333.975006	2278.601538
334.368100	2334.054231
334.761129	2303.807308
335.154095	2339.095385
335.546996	2308.848462
335.939833	2399.589231
336.332606	2371.862885
336.725315	2361.780577
337.117960	2404.630385
337.510540	2394.548077
337.903056	2409.671538
338.295508	2354.218846
338.687896	2409.671538
339.080220	2487.809423
339.472480	2462.603654
339.864676	2460.083077
340.256807	2457.562500
340.648875	2439.918462
341.040879	2386.986346
341.432818	2444.959615
341.824694	2565.947308
342.216506	2487.809423
342.608253	2485.288846
342.999937	2553.344423
343.391557	2593.673654
343.783113	2487.809423
344.174605	2553.344423
344.566033	2422.274423
344.957397	2455.041923
345.348697	2475.206538
345.739934	2482.768269
346.131106	2460.083077
346.522215	2495.371154
346.913260	2477.727115
347.304241	2452.521346
347.695159	2419.753846
348.086012	2439.918462
348.476802	2447.480192
348.867528	2346.657115
349.258191	2424.795000
349.648789	2429.836154
350.039324	2465.124231
350.429796	2442.439038
350.820203	2437.397885
351.210548	2447.480192
351.600828	2510.494615
351.991045	2482.768269
352.381198	2394.548077
352.771288	2477.727115
353.161314	2407.150962
353.551276	2465.124231
353.941175	2399.589231
354.331010	2386.986346
354.720782	2381.945192
355.110490	2427.315577
355.500135	2462.603654
355.889717	2424.795000
356.279235	2543.262115
356.668689	2470.165385
357.058080	2432.356731
357.447408	2450.000769
357.836672	2442.439038
358.225873	2389.506923
358.615010	2323.971923
359.004084	2369.342308
359.393095	2500.412308
359.782043	2434.877308
360.170927	2434.877308
360.559748	2422.274423
360.948505	2374.383462
361.337199	2510.494615
361.725830	2462.603654
362.114398	2417.233269
362.502903	2389.506923
362.891344	2407.150962
363.279722	2470.165385
363.668037	2369.342308
364.056289	2371.862885
364.444478	2530.659231
364.832603	2381.945192
365.220665	2465.124231
365.608665	2399.589231
365.996601	2444.959615
366.384474	2384.465769
366.772284	2475.206538
367.160031	2402.109808
367.547715	2475.206538
367.935336	2386.986346
368.322893	2467.644808
368.710388	2392.027500
369.097820	2374.383462
369.485189	2467.644808
369.872495	2472.685962
370.259738	2507.974038
370.646918	2505.453462
371.034035	2447.480192
371.421090	2513.015192
371.808081	2460.083077
372.195010	2548.303269
372.581875	2422.274423
372.968678	2366.821731
373.355418	2434.877308
373.742096	2419.753846
374.128710	2487.809423
374.515262	2460.083077
374.901751	2487.809423
375.288177	2412.192115
375.674540	2510.494615
376.060841	2386.986346
376.447079	2465.124231
376.833254	2472.685962
377.219367	2450.000769
377.605417	2465.124231
377.991404	2477.727115
378.377329	2467.644808
378.763191	2505.453462
379.148991	2444.959615
379.534727	2513.015192
379.920402	2492.850577
380.306013	2482.768269
380.691563	2518.056346
381.077049	2477.727115
381.462474	2550.823846
381.847835	2434.877308
382.233134	2414.712692
382.618371	2427.315577
383.003545	2543.262115
383.388657	2429.836154
383.773706	2523.097500
384.158693	2407.150962
384.543618	2507.974038
384.928480	2439.918462
385.313280	2475.206538
385.698017	2500.412308
386.082692	2427.315577
386.467305	2523.097500
386.851856	2460.083077
387.236344	2487.809423
387.620770	2424.795000
388.005133	2502.932885
388.389435	2409.671538
388.773674	2520.576923
389.157851	2472.685962
389.541965	2381.945192
389.926018	2495.371154
390.310008	2495.371154
390.693936	2455.041923
391.077802	2450.000769
391.461606	2379.424615
391.845348	2523.097500
392.229027	2472.685962
392.612645	2422.274423
392.996200	2480.247692
393.379694	2535.700385
393.763125	2444.959615
394.146494	2480.247692
394.529801	2480.247692
394.913047	2500.412308
395.296230	2397.068654
395.679351	2437.397885
396.062410	2460.083077
396.445408	2455.041923
396.828343	2450.000769
397.211217	2482.768269
397.594028	2477.727115
397.976778	2465.124231
398.359466	2502.932885
398.742092	2470.165385
399.124656	2419.753846
399.507158	2412.192115
399.889598	2472.685962
400.271977	2399.589231
400.654294	2444.959615
401.036549	2495.371154
401.418742	2535.700385
401.800874	2450.000769
402.182944	2439.918462
402.564952	2457.562500
402.946898	2452.521346
403.328783	2472.685962
403.710606	2470.165385
404.092367	2419.753846
404.474067	2447.480192
404.855705	2465.124231
405.237282	2470.165385
405.618797	2535.700385
406.000250	2475.206538
406.381642	2392.027500
406.762972	2467.644808
407.144240	2480.247692
407.525447	2502.932885
407.906593	2528.138654
408.287677	2485.288846
408.668700	2507.974038
409.049661	2520.576923
409.430560	2439.918462
409.811399	2492.850577
410.192176	2523.097500
410.572891	2502.932885
410.953545	2424.795000
411.334138	2525.618077
411.714669	2475.206538
412.095139	2480.247692
412.475547	2495.371154
412.855894	2502.932885
413.236180	2482.768269
413.616405	2477.727115
413.996568	2455.041923
414.376670	2497.891731
414.756711	2465.124231
415.136691	2485.288846
415.516609	2472.685962
415.896466	2487.809423
416.276262	2437.397885
416.655997	2513.015192
417.035670	2432.356731
417.415283	2500.412308
417.794834	2472.685962
418.174324	2513.015192
418.553753	2394.548077
418.933121	2455.041923
419.312428	2520.576923
419.691674	2470.165385
420.070859	2429.836154
420.449983	2502.932885
420.829045	2518.056346
421.208047	2460.083077
421.586988	2465.124231
421.965867	2495.371154
422.344686	2530.659231
422.723444	2422.274423
423.102141	2535.700385
423.480777	2477.727115
423.859352	2492.850577
424.237866	2606.276538
424.616319	2555.865000
424.994712	2427.315577
425.373044	2482.768269
425.751314	2450.000769
426.129524	2427.315577
426.507673	2427.315577
426.885762	2523.097500
427.263789	2470.165385
427.641756	2455.041923
428.019662	2381.945192
428.397508	2442.439038
428.775292	2394.548077
429.153016	2470.165385
429.530679	2477.727115
429.908282	2510.494615
430.285824	2505.453462
430.663305	2457.562500
431.040726	2530.659231
431.418086	2447.480192
431.795385	2439.918462
432.172624	2477.727115
432.549802	2467.644808
432.926920	2434.877308
433.303977	2533.179808
433.680974	2429.836154
434.057910	2533.179808
434.434786	2467.644808
434.811601	2482.768269
435.188355	2455.041923
435.565050	2439.918462
435.941683	2535.700385
436.318257	2437.397885
436.694770	2455.041923
437.071222	2346.657115
437.447614	2434.877308
437.823946	2502.932885
438.200218	2523.097500
438.576429	2513.015192
438.952580	2427.315577
439.328670	2578.550192
439.704700	2455.041923
440.080670	2540.741538
440.456580	2480.247692
440.832429	2467.644808
441.208218	2553.344423
441.583947	2492.850577
441.959616	2550.823846
442.335224	2450.000769
442.710773	2523.097500
443.086261	2535.700385
443.461689	2450.000769
443.837057	2470.165385
444.212365	2550.823846
444.587612	2545.782692
444.962800	2502.932885
445.337927	2444.959615
445.712995	2545.782692
446.088002	2510.494615
446.462949	2432.356731
446.837837	2490.330000
447.212664	2432.356731
447.587431	2442.439038
447.962139	2450.000769
448.336786	2550.823846
448.711374	2510.494615
449.085901	2515.535769
449.460369	2465.124231
449.834776	2515.535769
450.209124	2470.165385
450.583412	2455.041923
450.957640	2507.974038
451.331808	2452.521346
451.705917	2467.644808
452.079965	2565.947308
452.453954	2422.274423
452.827883	2502.932885
453.201752	2465.124231
453.575562	2573.509038
453.949311	2518.056346
454.323001	2545.782692
454.696632	2641.564615
455.070202	2472.685962
455.443713	2444.959615
455.817164	2487.809423
456.190556	2447.480192
456.563888	2515.535769
456.937160	2535.700385
457.310373	2502.932885
457.683526	2452.521346
458.056619	2392.027500
458.429653	2492.850577
458.802628	2497.891731
459.175542	2475.206538
459.548398	2475.206538
459.921194	2455.041923
460.293930	2505.453462
460.666607	2487.809423
461.039224	2432.356731
461.411782	2497.891731
461.784280	2507.974038
462.156719	2502.932885
462.529099	2507.974038
462.901419	2495.371154
463.273680	2432.356731
463.645882	2447.480192
464.018024	2490.330000
464.390106	2502.932885
464.762130	2487.809423
465.134094	2455.041923
465.505999	2482.768269
465.877845	2520.576923
466.249631	2510.494615
466.621358	2447.480192
466.993026	2462.603654
467.364634	2490.330000
467.736184	2480.247692
468.107674	2515.535769
468.479105	2487.809423
468.850477	2455.041923
469.221790	2439.918462
469.593043	2455.041923
469.964238	2497.891731
470.335373	2487.809423
470.706449	2528.138654
471.077467	2475.206538
471.448425	2558.385577
471.819324	2558.385577
472.190164	2482.768269
472.560945	2477.727115
472.931667	2528.138654
473.302330	2482.768269
473.672934	2518.056346
474.043479	2490.330000
474.413965	2533.179808
474.784393	2523.097500
475.154761	2545.782692
475.525070	2417.233269
475.895321	2520.576923
476.265513	2480.247692
476.635645	2540.741538
477.005719	2583.591346
477.375734	2492.850577
477.745691	2424.795000
478.115588	2545.782692
478.485427	2439.918462
478.855207	2475.206538
479.224928	2444.959615
479.594591	2467.644808
479.964194	2457.562500
480.333739	2510.494615
480.703226	2487.809423
481.072653	2447.480192
481.442022	2407.150962
481.811333	2467.644808
482.180584	2540.741538
482.549777	2528.138654
482.918912	2472.685962
483.287988	2523.097500
483.657005	2462.603654
484.025964	2475.206538
484.394864	2593.673654
484.763706	2490.330000
485.132489	2475.206538
485.501213	2505.453462
485.869879	2432.356731
486.238487	2409.671538
486.607036	2565.947308
486.975527	2568.467885
487.343959	2548.303269
487.712333	2480.247692
488.080648	2555.865000
488.448905	2472.685962
488.817104	2427.315577
489.185244	2467.644808
489.553326	2460.083077
489.921350	2507.974038
490.289315	2520.576923
490.657222	2467.644808
491.025070	2472.685962
491.392861	2455.041923
491.760593	2502.932885
492.128267	2450.000769
492.495883	2507.974038
492.863440	2525.618077
493.230939	2558.385577
493.598380	2520.576923
493.965763	2555.865000
494.333088	2492.850577
494.700354	2497.891731
495.067563	2513.015192
495.434713	2500.412308
495.801805	2543.262115
496.168839	2465.124231
496.535815	2392.027500
496.902733	2550.823846
497.269593	2394.548077
497.636395	2505.453462
498.003139	2497.891731
498.369825	2470.165385
498.736453	2450.000769
499.103023	2523.097500
499.469535	2543.262115
499.835989	2492.850577
500.202385	2455.041923
500.568723	2555.865000
500.935003	2540.741538
501.301226	2520.576923
501.667390	2510.494615
502.033497	2518.056346
502.399546	2472.685962
502.765537	2389.506923
503.131470	2460.083077
503.497345	2434.877308
503.863163	2402.109808
504.228923	2419.753846
504.594625	2475.206538
504.960269	2465.124231
505.325856	2437.397885
505.691385	2520.576923
506.056856	2409.671538
506.422270	2523.097500
506.787625	2452.521346
507.152924	2603.755962
507.518164	2394.548077
507.883347	2555.865000
508.248472	2520.576923
508.613540	2490.330000
508.978550	2505.453462
509.343503	2492.850577
509.708398	2523.097500
510.073236	2470.165385
510.438016	2525.618077
510.802738	2457.562500
511.167403	2439.918462
511.532010	2460.083077
511.896561	2505.453462
512.261053	2477.727115
512.625488	2427.315577
512.989866	2429.836154
513.354186	2581.070769
513.718449	2513.015192
514.082655	2513.015192
514.446803	2543.262115
514.810894	2515.535769
515.174927	2485.288846
515.538904	2510.494615
515.902822	2550.823846
516.266684	2515.535769
516.630488	2543.262115
516.994235	2507.974038
517.357925	2535.700385
517.721558	2444.959615
518.085133	2593.673654
518.448651	2520.576923
518.812112	2432.356731
519.175516	2538.220962
519.538863	2482.768269
519.902152	2444.959615
520.265385	2500.412308
520.628560	2480.247692
520.991678	2482.768269
521.354739	2550.823846
521.717743	2452.521346
522.080690	2565.947308
522.443580	2485.288846
522.806413	2500.412308
523.169189	2480.247692
523.531908	2475.206538
523.894569	2472.685962
524.257174	2497.891731
524.619722	2475.206538
524.982213	2560.906154
525.344647	2528.138654
525.707025	2480.247692
526.069345	2472.685962
526.431608	2482.768269
526.793815	2500.412308
527.155964	2492.850577
527.518057	2434.877308
527.880093	2500.412308
528.242072	2510.494615
528.603995	2545.782692
528.965860	2460.083077
529.327669	2447.480192
529.689421	2455.041923
530.051117	2550.823846
530.412755	2513.015192
530.774337	2596.194231
531.135862	2472.685962
531.497331	2507.974038
531.858743	2455.041923
532.220098	2490.330000
532.581396	2487.809423
532.942638	2455.041923
533.303824	2497.891731
533.664953	2472.685962
534.026025	2555.865000
534.387040	2533.179808
534.747999	2427.315577
535.108902	2558.385577
535.469748	2500.412308
535.830537	2578.550192
536.191270	2555.865000
536.551947	2497.891731
536.912567	2487.809423
537.273131	2560.906154
537.633638	2477.727115
537.994089	2518.056346
538.354483	2402.109808
538.714821	2477.727115
539.075103	2555.865000
539.435328	2442.439038
539.795497	2507.974038
540.155609	2444.959615
540.515665	2588.632500
540.875665	2457.562500
541.235609	2570.988462
541.595496	2523.097500
541.955328	2528.138654
542.315102	2482.768269
542.674821	2502.932885
543.034483	2515.535769
543.394090	2555.865000
543.753640	2528.138654
544.113134	2495.371154
544.472571	2470.165385
544.831953	2568.467885
545.191278	2442.439038
545.550548	2518.056346
545.909761	2528.138654
546.268918	2596.194231
546.628019	2437.397885
546.987064	2505.453462
547.346053	2497.891731
547.704986	2548.303269
548.063863	2477.727115
548.422684	2502.932885
548.781449	2558.385577
549.140158	2462.603654
549.498811	2543.262115
549.857408	2487.809423
550.215949	2455.041923
550.574434	2427.315577
550.932864	2515.535769
551.291237	2570.988462
551.649555	2482.768269
552.007817	2457.562500
552.366022	2422.274423
552.724173	2507.974038
553.082267	2460.083077
553.440305	2500.412308
553.798288	2477.727115
554.156215	2520.576923
554.514086	2467.644808
554.871902	2465.124231
555.229661	2485.288846
555.587365	2437.397885
555.945014	2495.371154
556.302606	2553.344423
556.660143	2477.727115
557.017625	2492.850577
557.375050	2528.138654
557.732421	2497.891731
558.089735	2490.330000
558.446994	2553.344423
558.804197	2485.288846
559.161345	2523.097500
559.518437	2502.932885
559.875474	2535.700385
560.232455	2475.206538
560.589381	2482.768269
560.946251	2520.576923
561.303065	2465.124231
561.659825	2548.303269
562.016528	2518.056346
562.373177	2581.070769
562.729770	2485.288846
563.086307	2533.179808
563.442789	2588.632500
563.799216	2497.891731
564.155587	2480.247692
564.511904	2507.974038
564.868164	2470.165385
565.224370	2502.932885
565.580520	2528.138654
565.936615	2495.371154
566.292654	2533.179808
566.648638	2455.041923
567.004567	2545.782692
567.360441	2477.727115
567.716260	2467.644808
568.072023	2540.741538
568.427732	2487.809423
568.783385	2482.768269
569.138982	2467.644808
569.494525	2502.932885
569.850013	2379.424615
570.205445	2412.192115
570.560823	2485.288846
570.916145	2523.097500
571.271412	2460.083077
571.626625	2364.301154
571.981782	2535.700385
572.336884	2417.233269
572.691931	2490.330000
573.046923	2465.124231
573.401860	2518.056346
573.756743	2452.521346
574.111570	2548.303269
574.466342	2394.548077
574.821059	2477.727115
575.175722	2472.685962
575.530330	2525.618077
575.884882	2452.521346
576.239380	2528.138654
576.593823	2502.932885
576.948211	2540.741538
577.302544	2432.356731
577.656823	2444.959615
578.011047	2513.015192
578.365216	2450.000769
578.719330	2475.206538
579.073389	2434.877308
579.427394	2558.385577
579.781344	2460.083077
580.135239	2560.906154
580.489080	2543.262115
580.842866	2497.891731
581.196597	2528.138654
581.550273	2414.712692
581.903895	2515.535769
582.257463	2495.371154
582.610975	2502.932885
582.964434	2502.932885
583.317837	2507.974038
583.671186	2533.179808
584.024481	2513.015192
584.377721	2450.000769
584.730906	2505.453462
585.084037	2442.439038
585.437113	2490.330000
585.790135	2505.453462
586.143103	2525.618077
586.496016	2548.303269
586.848874	2540.741538
587.201679	2560.906154
587.554428	2502.932885
587.907124	2533.179808
588.259765	2502.932885
588.612352	2470.165385
588.964884	2500.412308
589.317362	2520.576923
589.669786	2505.453462
590.022155	2525.618077
590.374470	2399.589231
590.726731	2560.906154
591.078937	2475.206538
591.431090	2437.397885
591.783188	2497.891731
592.135232	2429.836154
592.487222	2540.741538
592.839157	2507.974038
593.191038	2457.562500
593.542866	2568.467885
593.894639	2470.165385
594.246358	2560.906154
594.598022	2482.768269
594.949633	2422.274423
595.301190	2533.179808
595.652692	2485.288846
596.004141	2424.795000
596.355535	2565.947308
596.706876	2455.041923
597.058162	2535.700385
597.409395	2553.344423
597.760573	2623.920577
598.111698	2477.727115
598.462768	2543.262115
598.813785	2558.385577
599.164748	2520.576923
599.515657	2520.576923
599.866511	2563.426731
600.217312	2510.494615
600.568060	2558.385577
600.918753	2480.247692
601.269392	2510.494615
601.619978	2450.000769
601.970510	2490.330000
602.320988	2432.356731
602.671412	2475.206538
603.021783	2434.877308
603.372100	2540.741538
603.722363	2490.330000
604.072572	2520.576923
604.422728	2477.727115
604.772830	2487.809423
605.122878	2460.083077
605.472872	2510.494615
605.822813	2525.618077
606.172701	2548.303269
606.522534	2462.603654
606.872314	2500.412308
607.222041	2444.959615
607.571714	2502.932885
607.921333	2497.891731
608.270899	2460.083077
608.620411	2535.700385
608.969870	2548.303269
609.319276	2439.918462
609.668627	2477.727115
610.017926	2616.358846
610.367171	2392.027500
610.716362	2523.097500
611.065500	2485.288846
611.414585	2482.768269
611.763616	2553.344423
612.112594	2500.412308
612.461518	2429.836154
612.810389	2457.562500
613.159207	2550.823846
613.507971	2555.865000
613.856682	2550.823846
614.205340	2525.618077
614.553945	2523.097500
614.902496	2505.453462
615.250994	2477.727115
615.599439	2470.165385
615.947830	2492.850577
616.296169	2490.330000
616.644454	2467.644808
616.992686	2528.138654
617.340864	2465.124231
617.688990	2606.276538
618.037063	2545.782692
618.385082	2452.521346
618.733048	2548.303269
619.080961	2507.974038
619.428821	2548.303269
619.776628	2523.097500
620.124382	2505.453462
620.472083	2472.685962
620.819731	2578.550192
621.167326	2452.521346
621.514868	2470.165385
621.862357	2432.356731
622.209793	2379.424615
622.557176	2482.768269
622.904506	2475.206538
623.251783	2495.371154
623.599007	2450.000769
623.946179	2490.330000
624.293297	2500.412308
624.640363	2402.109808
624.987376	2573.509038
625.334336	2505.453462
625.681243	2555.865000
626.028097	2560.906154
626.374899	2465.124231
626.721647	2505.453462
627.068343	2523.097500
627.414987	2513.015192
627.761577	2465.124231
628.108115	2472.685962
628.454600	2523.097500
628.801032	2540.741538
629.147412	2465.124231
629.493739	2513.015192
629.840014	2485.288846
630.186236	2444.959615
630.532405	2540.741538
630.878521	2422.274423
631.224585	2475.206538
631.570597	2563.426731
631.916556	2513.015192
632.262462	2565.947308
632.608316	2434.877308
632.954117	2533.179808
633.299866	2530.659231
633.645562	2444.959615
633.991206	2558.385577
634.336797	2467.644808
634.682336	2465.124231
635.027823	2480.247692
635.373257	2538.220962
635.718639	2518.056346
636.063968	2538.220962
636.409245	2553.344423
636.754470	2470.165385
637.099642	2477.727115
637.444762	2543.262115
637.789829	2507.974038
638.134845	2465.124231
638.479808	2500.412308
638.824719	2477.727115
639.169577	2505.453462
639.514383	2457.562500
639.859137	2538.220962
640.203839	2450.000769
640.548489	2518.056346
640.893086	2442.439038
641.237632	2528.138654
641.582125	2533.179808
641.926566	2601.235385
642.270955	2487.809423
642.615292	2560.906154
642.959576	2558.385577
643.303809	2434.877308
643.647990	2480.247692
643.992118	2472.685962
644.336195	2490.330000
644.680219	2477.727115
645.024192	2497.891731
645.368112	2439.918462
645.711981	2525.618077
646.055797	2414.712692
646.399562	2407.150962
646.743274	2528.138654
647.086935	2460.083077
647.430544	2467.644808
647.774101	2533.179808
648.117606	2507.974038
648.461059	2523.097500
648.804460	2409.671538
649.147810	2492.850577
649.491108	2495.371154
649.834354	2376.904038
650.177548	2505.453462
650.520690	2500.412308
650.863781	2475.206538
651.206820	2538.220962
651.549807	2513.015192
651.892742	2603.755962
652.235626	2500.412308
652.578458	2583.591346
652.921238	2497.891731
653.263967	2565.947308
653.606644	2525.618077
653.949269	2480.247692
654.291843	2444.959615
654.634365	2502.932885
654.976836	2437.397885
655.319255	2533.179808
655.661622	2480.247692
656.003938	2523.097500
656.346203	2576.029615
656.688416	2502.932885
657.030577	2490.330000
657.372687	2510.494615
657.714746	2540.741538
658.056753	2533.179808
658.398708	2505.453462
658.740612	2525.618077
659.082465	2384.465769
659.424266	2510.494615
659.766016	2520.576923
660.107715	2538.220962
660.449362	2492.850577
660.790958	2513.015192
661.132503	2460.083077
661.473996	2490.330000
661.815438	2447.480192
662.156829	2429.836154
662.498168	2530.659231
662.839456	2530.659231
663.180693	2465.124231
663.521879	2523.097500
663.863013	2429.836154
664.204097	2455.041923
664.545129	2485.288846
664.886110	2432.356731
665.227040	2465.124231
665.567918	2465.124231
665.908746	2513.015192
666.249522	2573.509038
666.590248	2550.823846
666.930922	2462.603654
667.271545	2472.685962
667.612118	2545.782692
667.952639	2455.041923
668.293109	2465.124231
668.633528	2429.836154
668.973896	2475.206538
669.314213	2523.097500
669.654480	2518.056346
669.994695	2497.891731
670.334859	2450.000769
670.674973	2442.439038
671.015035	2535.700385
671.355047	2548.303269
671.695008	2467.644808
672.034918	2450.000769
672.374777	2404.630385
672.714585	2538.220962
673.054342	2477.727115
673.394049	2477.727115
673.733705	2470.165385
674.073310	2452.521346
674.412864	2518.056346
674.752368	2568.467885
675.091820	2462.603654
675.431223	2490.330000
675.770574	2480.247692
676.109875	2452.521346
676.449125	2457.562500
676.788324	2439.918462
677.127473	2480.247692
677.466571	2505.453462
677.805619	2525.618077
678.144616	2422.274423
678.483562	2525.618077
678.822458	2520.576923
679.161303	2412.192115
679.500098	2442.439038
679.838842	2505.453462
680.177535	2558.385577
680.516179	2480.247692
680.854771	2455.041923
681.193314	2450.000769
681.531805	2523.097500
681.870247	2518.056346
682.208638	2439.918462
682.546978	2487.809423
682.885268	2540.741538
683.223508	2460.083077
683.561697	2386.986346
683.899836	2439.918462
684.237925	2518.056346
684.575963	2565.947308
684.913951	2384.465769
685.251889	2381.945192
685.589776	2384.465769
685.927614	2487.809423
686.265401	2523.097500
686.603137	2518.056346
686.940824	2530.659231
687.278460	2492.850577
687.616046	2422.274423
687.953582	2515.535769
688.291068	2487.809423
688.628504	2550.823846
688.965889	2475.206538
689.303224	2505.453462
689.640510	2427.315577
689.977745	2502.932885
690.314930	2409.671538
690.652065	2548.303269
690.989150	2507.974038
691.326185	2437.397885
691.663170	2480.247692
692.000105	2515.535769
692.336990	2472.685962
692.673825	2553.344423
693.010610	2467.644808
693.347345	2525.618077
693.684030	2457.562500
694.020665	2505.453462
694.357251	2540.741538
694.693786	2457.562500
695.030272	2502.932885
695.366707	2472.685962
695.703093	2523.097500
696.039429	2495.371154
696.375716	2518.056346
696.711952	2455.041923
697.048139	2460.083077
697.384276	2550.823846
697.720363	2432.356731
698.056400	2457.562500
698.392388	2502.932885
698.728326	2570.988462
699.064214	2490.330000
699.400053	2475.206538
699.735842	2442.439038
700.071581	2505.453462
700.407270	2465.124231
700.742910	2530.659231
701.078501	2492.850577
701.414042	2535.700385
701.749533	2502.932885
702.084974	2518.056346
702.420366	2530.659231
702.755709	2586.111923
703.091002	2563.426731
703.426246	2439.918462
703.761440	2472.685962
704.096584	2490.330000
704.431679	2543.262115
704.766725	2510.494615
705.101721	2490.330000
705.436668	2530.659231
705.771565	2505.453462
706.106413	2475.206538
706.441212	2540.741538
706.775961	2510.494615
707.110661	2495.371154
707.445311	2472.685962
707.779913	2497.891731
708.114465	2374.383462
708.448967	2470.165385
708.783421	2467.644808
709.117825	2535.700385
709.452180	2482.768269
709.786485	2492.850577
710.120742	2480.247692
710.454949	2472.685962
710.789107	2487.809423
711.123216	2379.424615
711.457275	2555.865000
711.791286	2465.124231
712.125247	2545.782692
712.459159	2467.644808
712.793023	2495.371154
713.126837	2472.685962
713.460602	2533.179808
713.794318	2477.727115
714.127985	2482.768269
714.461602	2457.562500
714.795171	2485.288846
715.128691	2530.659231
715.462162	2518.056346
715.795584	2535.700385
716.128957	2487.809423
716.462281	2507.974038
716.795556	2424.795000
717.128782	2492.850577
717.461960	2472.685962
717.795088	2507.974038
718.128167	2543.262115
718.461198	2477.727115
718.794180	2540.741538
719.127113	2515.535769
719.459997	2533.179808
719.792833	2455.041923
720.125619	2467.644808
720.458357	2520.576923
720.791046	2422.274423
721.123686	2465.124231
721.456278	2457.562500
721.788821	2553.344423
722.121315	2424.795000
722.453761	2565.947308
722.786158	2437.397885
723.118506	2477.727115
723.450805	2439.918462
723.783056	2507.974038
724.115259	2447.480192
724.447412	2502.932885
724.779518	2543.262115
725.111574	2525.618077
725.443582	2558.385577
725.775542	2492.850577
726.107453	2460.083077
726.439315	2460.083077
726.771129	2502.932885
727.102895	2502.932885
727.434612	2565.947308
727.766281	2545.782692
728.097901	2490.330000
728.429473	2424.795000
728.760996	2500.412308
729.092471	2548.303269
729.423897	2437.397885
729.755276	2565.947308
730.086606	2513.015192
730.417887	2444.959615
730.749120	2513.015192
731.080305	2497.891731
731.411442	2558.385577
731.742530	2505.453462
732.073570	2492.850577
732.404562	2414.712692
732.735506	2523.097500
733.066401	2437.397885
733.397249	2492.850577
733.728048	2460.083077
734.058798	2528.138654
734.389501	2505.453462
734.720156	2492.850577
735.050762	2409.671538
735.381320	2465.124231
735.711831	2528.138654
736.042293	2462.603654
736.372707	2490.330000
736.703073	2535.700385
737.033391	2502.932885
737.363661	2472.685962
737.693883	2505.453462
738.024056	2460.083077
738.354182	2472.685962
738.684260	2424.795000
739.014290	2450.000769
739.344272	2482.768269
739.674207	2545.782692
740.004093	2480.247692
740.333931	2533.179808
740.663722	2601.235385
740.993464	2444.959615
741.323159	2487.809423
741.652806	2540.741538
741.982405	2465.124231
742.311956	2480.247692
742.641460	2457.562500
742.970915	2523.097500
743.300323	2565.947308
743.629683	2543.262115
743.958996	2424.795000
744.288260	2497.891731
744.617477	2495.371154
744.946647	2558.385577
745.275768	2505.453462
745.604842	2457.562500
745.933869	2457.562500
746.262847	2417.233269
746.591778	2457.562500
746.920662	2518.056346
747.249498	2497.891731
747.578286	2477.727115
747.907027	2563.426731
748.235720	2513.015192
748.564365	2573.509038
748.892963	2457.562500
749.221514	2447.480192
749.550017	2480.247692
749.878473	2540.741538
750.206881	2450.000769
750.535242	2523.097500
750.863555	2452.521346
751.191821	2550.823846
751.520039	2465.124231
751.848210	2500.412308
752.176334	2434.877308
752.504411	2505.453462
752.832440	2485.288846
753.160421	2528.138654
753.488356	2525.618077
753.816243	2487.809423
754.144082	2507.974038
754.471875	2417.233269
754.799620	2457.562500
755.127318	2402.109808
755.454969	2442.439038
755.782572	2412.192115
756.110129	2482.768269
756.437638	2392.027500
756.765100	2475.206538
757.092515	2651.646923
757.419882	2480.247692
757.747203	2535.700385
758.074477	2555.865000
758.401703	2497.891731
758.728882	2500.412308
759.056014	2576.029615
759.383099	2533.179808
759.710138	2487.809423
760.037129	2553.344423
760.364073	2495.371154
760.690970	2467.644808
761.017820	2525.618077
761.344623	2487.809423
761.671379	2495.371154
761.998088	2487.809423
762.324751	2482.768269
762.651366	2482.768269
762.977935	2472.685962
763.304456	2507.974038
763.630931	2427.315577
763.957359	2439.918462
764.283740	2545.782692
764.610074	2515.535769
764.936362	2568.467885
765.262602	2533.179808
765.588796	2510.494615
765.914943	2482.768269
766.241044	2366.821731
766.567097	2513.015192
766.893104	2500.412308
767.219064	2500.412308
767.544978	2560.906154
767.870845	2457.562500
768.196665	2530.659231
768.522438	2495.371154
768.848165	2555.865000
769.173846	2485.288846
769.499479	2482.768269
769.825066	2490.330000
770.150607	2492.850577
770.476101	2422.274423
770.801548	2502.932885
771.126949	2515.535769
771.452303	2434.877308
771.777611	2525.618077
772.102872	2439.918462
772.428087	2520.576923
772.753256	2432.356731
773.078378	2392.027500
773.403453	2482.768269
773.728482	2535.700385
774.053465	2505.453462
774.378401	2480.247692
774.703291	2515.535769
775.028135	2601.235385
775.352932	2487.809423
775.677683	2553.344423
776.002388	2576.029615
776.327046	2492.850577
776.651658	2570.988462
776.976224	2482.768269
777.300743	2540.741538
777.625216	2528.138654
777.949643	2525.618077
778.274024	2500.412308
778.598359	2510.494615
778.922647	2470.165385
779.246889	2513.015192
779.571086	2482.768269
779.895236	2490.330000
780.219339	2475.206538
780.543397	2505.453462
780.867409	2419.753846
781.191374	2510.494615
781.515294	2485.288846
781.839167	2538.220962
782.162995	2482.768269
782.486776	2550.823846
782.810511	2550.823846
783.134201	2452.521346
783.457844	2442.439038
783.781441	2535.700385
784.104993	2490.330000
784.428498	2525.618077
784.751958	2439.918462
785.075372	2480.247692
785.398739	2447.480192
785.722061	2409.671538
786.045337	2533.179808
786.368568	2434.877308
786.691752	2565.947308
787.014891	2507.974038
787.337983	2530.659231
787.661030	2490.330000
787.984031	2518.056346
788.306987	2482.768269
788.629897	2507.974038
788.952760	2490.330000
789.275579	2535.700385
789.598351	2492.850577
789.921078	2480.247692
790.243759	2568.467885
790.566395	2495.371154
790.888984	2513.015192
791.211529	2545.782692
791.534027	2470.165385
791.856480	2533.179808
792.178888	2518.056346
792.501249	2576.029615
792.823566	2447.480192
793.145836	2576.029615
793.468062	2434.877308
793.790241	2523.097500
794.112375	2472.685962
794.434464	2533.179808
794.756507	2573.509038
795.078505	2548.303269
795.400457	2434.877308
795.722364	2550.823846
796.044226	2490.330000
796.366042	2500.412308
796.687812	2523.097500
797.009538	2487.809423
797.331218	2475.206538
797.652852	2520.576923
797.974442	2535.700385
798.295986	2606.276538
798.617484	2583.591346
798.938938	2467.644808
799.260346	2475.206538
799.581709	2472.685962
799.903026	2402.109808
800.224299	2465.124231
800.545526	2467.644808
800.866708	2412.192115
801.187845	2520.576923
801.508936	2591.153077
801.829983	2497.891731
802.150984	2553.344423
802.471940	2470.165385
802.792851	2535.700385
803.113717	2480.247692
803.434538	2432.356731
803.755314	2505.453462
804.076045	2470.165385
804.396731	2432.356731
804.717372	2455.041923
805.037967	2444.959615
805.358518	2447.480192
805.679024	2505.453462
805.999485	2515.535769
806.319901	2507.974038
806.640272	2538.220962
806.960598	2502.932885
807.280879	2477.727115
807.601115	2482.768269
807.921306	2437.397885
808.241453	2533.179808
808.561554	2570.988462
808.881611	2472.685962
809.201623	2444.959615
809.521590	2407.150962
809.841513	2434.877308
810.161390	2525.618077
810.481223	2495.371154
810.801011	2507.974038
811.120755	2467.644808
811.440453	2548.303269
811.760107	2507.974038
812.079716	2513.015192
812.399281	2543.262115
812.718801	2467.644808
813.038276	2497.891731
813.357707	2497.891731
813.677093	2465.124231
813.996434	2379.424615
814.315731	2497.891731
814.634983	2482.768269
814.954191	2462.603654
815.273354	2472.685962
815.592473	2414.712692
815.911547	2482.768269
816.230577	2510.494615
816.549562	2450.000769
816.868502	2450.000769
817.187399	2507.974038
817.506250	2495.371154
817.825058	2505.453462
818.143821	2565.947308
818.462539	2495.371154
818.781213	2487.809423
819.099843	2553.344423
819.418429	2543.262115
819.736970	2457.562500
820.055466	2502.932885
820.373919	2492.850577
820.692327	2485.288846
821.010691	2490.330000
821.329011	2497.891731
821.647286	2530.659231
821.965517	2535.700385
822.283704	2442.439038
822.601847	2450.000769
822.919945	2628.961731
823.237999	2465.124231
823.556010	2523.097500
823.873976	2434.877308
824.191897	2540.741538
824.509775	2533.179808
824.827609	2583.591346
825.145398	2596.194231
825.463144	2538.220962
825.780845	2475.206538
826.098502	2490.330000
826.416116	2470.165385
826.733685	2528.138654
827.051210	2447.480192
827.368692	2538.220962
827.686129	2576.029615
828.003522	2455.041923
828.320872	2482.768269
828.638177	2573.509038
828.955439	2513.015192
829.272656	2492.850577
829.589830	2427.315577
829.906960	2525.618077
830.224046	2470.165385
830.541088	2414.712692
830.858086	2565.947308
831.175041	2563.426731
831.491952	2417.233269
831.808819	2460.083077
832.125642	2412.192115
832.442421	2462.603654
832.759157	2419.753846
833.075849	2462.603654
833.392497	2470.165385
833.709101	2485.288846
834.025662	2399.589231
834.342179	2490.330000
834.658653	2465.124231
834.975083	2424.795000
835.291469	2482.768269
835.607811	2419.753846
835.924110	2510.494615
836.240366	2477.727115
836.556578	2492.850577
836.872746	2460.083077
837.188871	2555.865000
837.504952	2515.535769
837.820990	2467.644808
838.136984	2495.371154
838.452935	2495.371154
838.768842	2523.097500
839.084706	2497.891731
839.400526	2472.685962
839.716303	2467.644808
840.032037	2507.974038
840.347727	2565.947308
840.663373	2452.521346
840.978977	2515.535769
841.294537	2497.891731
841.610054	2487.809423
841.925527	2573.509038
842.240957	2434.877308
842.556344	2502.932885
842.871687	2563.426731
843.186987	2452.521346
843.502244	2505.453462
843.817458	2578.550192
844.132629	2434.877308
844.447756	2419.753846
844.762840	2500.412308
845.077881	2437.397885
845.392879	2548.303269
845.707833	2482.768269
846.022745	2434.877308
846.337613	2510.494615
846.652438	2502.932885
846.967221	2477.727115
847.281960	2460.083077
847.596656	2513.015192
847.911309	2485.288846
848.225919	2545.782692
848.540485	2452.521346
848.855009	2530.659231
849.169490	2455.041923
849.483928	2513.015192
849.798323	2457.562500
850.112675	2429.836154
850.426984	2439.918462
850.741251	2533.179808
851.055474	2550.823846
851.369654	2462.603654
851.683792	2439.918462
851.997887	2404.630385
852.311938	2530.659231
852.625947	2515.535769
852.939914	2455.041923
853.253837	2560.906154
853.567718	2518.056346
853.881555	2495.371154
854.195350	2467.644808
854.509103	2507.974038
854.822812	2424.795000
855.136479	2492.850577
855.450103	2477.727115
855.763685	2513.015192
856.077224	2568.467885
856.390720	2376.904038
856.704173	2419.753846
857.017584	2533.179808
857.330953	2465.124231
857.644278	2543.262115
857.957561	2598.714808
858.270802	2444.959615
858.584000	2495.371154
858.897155	2452.521346
859.210268	2505.453462
859.523339	2553.344423
859.836367	2618.879423
860.149352	2487.809423
860.462295	2616.358846
860.775195	2528.138654
861.088054	2520.576923
861.400869	2447.480192
861.713642	2518.056346
862.026373	2502.932885
862.339062	2568.467885
862.651708	2500.412308
862.964312	2523.097500
863.276873	2427.315577
863.589392	2505.453462
863.901869	2492.850577
864.214303	2545.782692
864.526696	2434.877308
864.839045	2533.179808
865.151353	2467.644808
865.463619	2510.494615
865.775842	2482.768269
866.088023	2528.138654
866.400162	2500.412308
866.712258	2523.097500
867.024313	2505.453462
867.336325	2611.317692
867.648296	2518.056346
867.960224	2460.083077
868.272110	2505.453462
868.583954	2518.056346
868.895755	2515.535769
869.207515	2457.562500
869.519233	2379.424615
869.830909	2487.809423
870.142542	2437.397885
870.454134	2482.768269
870.765684	2457.562500
871.077191	2515.535769
871.388657	2437.397885
871.700081	2437.397885
872.011463	2515.535769
872.322803	2412.192115
872.634101	2437.397885
872.945357	2538.220962
873.256571	2578.550192
873.567744	2538.220962
873.878874	2424.795000
874.189963	2477.727115
874.501010	2452.521346
874.812015	2472.685962
875.122979	2492.850577
875.433900	2507.974038
875.744780	2462.603654
876.055618	2515.535769
876.366415	2470.165385
876.677169	2465.124231
876.987882	2487.809423
877.298554	2505.453462
877.609183	2407.150962
877.919771	2525.618077
878.230317	2502.932885
878.540822	2457.562500
878.851285	2457.562500
879.161707	2462.603654
879.472087	2507.974038
879.782425	2525.618077
880.092722	2472.685962
880.402977	2568.467885
880.713191	2525.618077
881.023363	2507.974038
881.333494	2563.426731
881.643583	2520.576923
881.953631	2462.603654
882.263637	2523.097500
882.573602	2477.727115
882.883526	2520.576923
883.193408	2450.000769
883.503248	2500.412308
883.813048	2475.206538
884.122806	2492.850577
884.432522	2465.124231
884.742197	2535.700385
885.051831	2540.741538
885.361424	2507.974038
885.670975	2515.535769
885.980485	2487.809423
886.289954	2407.150962
886.599382	2444.959615
886.908768	2528.138654
887.218113	2558.385577
887.527417	2447.480192
887.836680	2492.850577
888.145901	2412.192115
888.455082	2482.768269
888.764221	2583.591346
889.073319	2487.809423
889.382376	2500.412308
889.691392	2555.865000
890.000366	2525.618077
890.309300	2419.753846
890.618193	2432.356731
890.927044	2565.947308
891.235855	2482.768269
891.544625	2507.974038
891.853353	2424.795000
892.162041	2505.453462
892.470687	2528.138654
892.779293	2560.906154
893.087858	2437.397885
893.396381	2407.150962
893.704864	2487.809423
894.013306	2427.315577
894.321707	2525.618077
894.630068	2502.932885
894.938387	2482.768269
895.246665	2502.932885
895.554903	2588.632500
895.863100	2482.768269
896.171256	2535.700385
896.479371	2450.000769
896.787446	2465.124231
897.095480	2477.727115
897.403473	2500.412308
897.711425	2467.644808
898.019336	2505.453462
898.327207	2502.932885
898.635038	2497.891731
898.942827	2540.741538
899.250576	2497.891731
899.558284	2553.344423
899.865952	2515.535769
900.173579	2507.974038
900.481165	2490.330000
900.788711	2457.562500
901.096216	2565.947308
901.403681	2513.015192
901.711105	2523.097500
902.018489	2510.494615
902.325832	2412.192115
902.633135	2457.562500
902.940397	2540.741538
903.247619	2470.165385
903.554800	2419.753846
903.861941	2475.206538
904.169041	2437.397885
904.476101	2495.371154
904.783121	2424.795000
905.090100	2475.206538
905.397039	2427.315577
905.703938	2513.015192
906.010796	2533.179808
906.317614	2492.850577
906.624391	2513.015192
906.931129	2457.562500
907.237826	2485.288846
907.544483	2515.535769
907.851099	2485.288846
908.157675	2414.712692
908.464211	2523.097500
908.770707	2442.439038
909.077163	2427.315577
909.383578	2452.521346
909.689954	2558.385577
909.996289	2596.194231
910.302584	2460.083077
910.608839	2492.850577
910.915054	2500.412308
911.221229	2502.932885
911.527363	2497.891731
911.833458	2455.041923
912.139513	2414.712692
912.445527	2550.823846
912.751502	2470.165385
913.057436	2482.768269
913.363331	2507.974038
913.669186	2442.439038
913.975000	2480.247692
914.280775	2439.918462
914.586510	2535.700385
914.892205	2447.480192
915.197859	2429.836154
915.503475	2480.247692
915.809050	2525.618077
916.114585	2518.056346
916.420081	2442.439038
916.725536	2354.218846
917.030952	2576.029615
917.336328	2502.932885
917.641665	2482.768269
917.946961	2515.535769
918.252218	2573.509038
918.557435	2523.097500
918.862612	2460.083077
919.167750	2510.494615
919.472848	2442.439038
919.777906	2500.412308
920.082925	2470.165385
920.387904	2515.535769
920.692843	2444.959615
920.997743	2490.330000
921.302603	2510.494615
921.607423	2450.000769
921.912204	2477.727115
922.216946	2502.932885
922.521647	2485.288846
922.826310	2550.823846
923.130932	2444.959615
923.435516	2457.562500
923.740059	2515.535769
924.044564	2528.138654
924.349028	2409.671538
924.653454	2477.727115
924.957840	2518.056346
925.262186	2497.891731
925.566493	2482.768269
925.870761	2515.535769
926.174989	2467.644808
926.479178	2497.891731
926.783328	2467.644808
927.087438	2540.741538
927.391509	2553.344423
927.695541	2507.974038
927.999533	2523.097500
928.303486	2472.685962
928.607400	2429.836154
928.911275	2525.618077
929.215110	2502.932885
929.518906	2520.576923
929.822663	2439.918462
930.126381	2505.453462
930.430060	2402.109808
930.733699	2475.206538
931.037299	2510.494615
931.340861	2475.206538
931.644383	2497.891731
931.947866	2439.918462
932.251309	2492.850577
932.554714	2455.041923
932.858080	2528.138654
933.161407	2502.932885
933.464694	2465.124231
933.767943	2450.000769
934.071153	2553.344423
934.374323	2457.562500
934.677455	2455.041923
934.980548	2437.397885
935.283602	2490.330000
935.586617	2470.165385
935.889593	2558.385577
936.192530	2487.809423
936.495428	2583.591346
936.798287	2450.000769
937.101108	2495.371154
937.403890	2442.439038
937.706632	2502.932885
938.009336	2480.247692
938.312002	2444.959615
938.614628	2507.974038
938.917216	2439.918462
939.219765	2545.782692
939.522275	2460.083077
939.824747	2497.891731
940.127179	2467.644808
940.429573	2480.247692
940.731929	2487.809423
941.034246	2495.371154
941.336524	2482.768269
941.638763	2573.509038
941.940964	2500.412308
942.243126	2502.932885
942.545250	2427.315577
942.847335	2520.576923
943.149381	2525.618077
943.451389	2520.576923
943.753359	2535.700385
944.055290	2497.891731
944.357182	2424.795000
944.659036	2452.521346
944.960851	2530.659231
945.262628	2452.521346
945.564367	2558.385577
945.866067	2558.385577
946.167729	2500.412308
946.469352	2409.671538
946.770937	2465.124231
947.072484	2417.233269
947.373992	2467.644808
947.675462	2434.877308
947.976893	2414.712692
948.278286	2573.509038
948.579641	2462.603654
948.880958	2407.150962
949.182236	2502.932885
949.483476	2467.644808
949.784678	2540.741538
950.085841	2419.753846
950.386967	2543.262115
950.688054	2485.288846
950.989103	2513.015192
951.290114	2470.165385
951.591087	2419.753846
951.892021	2591.153077
952.192917	2412.192115
952.493776	2530.659231
952.794596	2444.959615
953.095378	2530.659231
953.396122	2424.795000
953.696828	2460.083077
953.997496	2490.330000
954.298126	2507.974038
954.598718	2545.782692
954.899272	2563.426731
955.199788	2490.330000
955.500266	2535.700385
955.800706	2467.644808
956.101108	2593.673654
956.401472	2419.753846
956.701798	2485.288846
957.002087	2583.591346
957.302337	2533.179808
957.602550	2495.371154
957.902724	2555.865000
958.202861	2502.932885
958.502960	2444.959615
958.803022	2505.453462
959.103045	2427.315577
959.403031	2543.262115
959.702979	2485.288846
960.002889	2452.521346
960.302762	2553.344423
960.602596	2437.397885
960.902393	2495.371154
961.202153	2472.685962
961.501875	2404.630385
961.801559	2470.165385
962.101205	2467.644808
962.400814	2502.932885
962.700385	2444.959615
962.999918	2462.603654
963.299414	2495.371154
963.598873	2417.233269
963.898293	2525.618077
964.197677	2376.904038
964.497022	2560.906154
964.796331	2487.809423
965.095601	2507.974038
965.394835	2518.056346
965.694030	2482.768269
965.993189	2409.671538
966.292309	2507.974038
966.591393	2442.439038
966.890439	2588.632500
967.189447	2444.959615
967.488419	2399.589231
967.787353	2497.891731
968.086249	2465.124231
968.385108	2442.439038
968.683930	2533.179808
968.982714	2530.659231
969.281462	2442.439038
969.580172	2603.755962
969.878844	2419.753846
970.177480	2535.700385
970.476078	2419.753846
970.774639	2455.041923
971.073162	2510.494615
971.371649	2545.782692
971.670098	2447.480192
971.968510	2490.330000
972.266885	2412.192115
972.565223	2439.918462
972.863524	2447.480192
973.161788	2538.220962
973.460014	2460.083077
973.758204	2424.795000
974.056356	2485.288846
974.354471	2366.821731
974.652550	2457.562500
974.950591	2555.865000
975.248595	2462.603654
975.546563	2482.768269
975.844493	2447.480192
976.142386	2467.644808
976.440243	2447.480192
976.738062	2480.247692
977.035845	2515.535769
977.333590	2452.521346
977.631299	2492.850577
977.928971	2472.685962
978.226606	2485.288846
978.524204	2417.233269
978.821765	2470.165385
979.119290	2500.412308
979.416777	2540.741538
979.714228	2452.521346
980.011642	2518.056346
980.309020	2565.947308
980.606360	2555.865000
980.903664	2530.659231
981.200931	2485.288846
981.498162	2548.303269
981.795356	2533.179808
982.092513	2462.603654
982.389633	2465.124231
982.686717	2482.768269
982.983764	2502.932885
983.280775	2530.659231
983.577749	2505.453462
983.874686	2472.685962
984.171587	2444.959615
984.468451	2490.330000
984.765279	2419.753846
985.062070	2402.109808
985.358824	2465.124231
985.655543	2563.426731
985.952224	2460.083077
986.248869	2525.618077
986.545478	2439.918462
986.842050	2502.932885
987.138586	2429.836154
987.435086	2450.000769
987.731549	2427.315577
988.027975	2495.371154
988.324366	2555.865000
988.620719	2520.576923
988.917037	2505.453462
989.213318	2417.233269
989.509563	2497.891731
989.805772	2452.521346
990.101944	2480.247692
990.398080	2477.727115
990.694180	2543.262115
990.990244	2462.603654
991.286271	2485.288846
991.582262	2480.247692
991.878217	2472.685962
992.174136	2455.041923
992.470019	2475.206538
992.765865	2487.809423
993.061676	2535.700385
993.357450	2485.288846
993.653188	2422.274423
993.948890	2528.138654
994.244556	2533.179808
994.540186	2563.426731
994.835780	2422.274423
995.131337	2510.494615
995.426859	2568.467885
995.722345	2485.288846
996.017795	2520.576923
996.313208	2460.083077
996.608586	2530.659231
996.903928	2437.397885
997.199234	2457.562500
997.494504	2485.288846
997.789738	2475.206538
998.084936	2434.877308
998.380099	2477.727115
998.675225	2457.562500
998.970316	2472.685962
999.265371	2442.439038
999.560390	2487.809423
999.855373	2417.233269
1000.150320	2553.344423
1000.445232	2576.029615
1000.740108	2450.000769
1001.034948	2437.397885
1001.329752	2462.603654
1001.624521	2576.029615
1001.919254	2452.521346
1002.213951	2409.671538
1002.508613	2518.056346
1002.803239	2460.083077
1003.097829	2462.603654
1003.392384	2530.659231
1003.686903	2550.823846
1003.981386	2472.685962
1004.275834	2475.206538
1004.570246	2495.371154
1004.864623	2525.618077
1005.158964	2414.712692
1005.453270	2500.412308
1005.747540	2513.015192
1006.041775	2497.891731
1006.335974	2502.932885
1006.630138	2437.397885
1006.924266	2394.548077
1007.218359	2419.753846
1007.512416	2472.685962
1007.806438	2480.247692
1008.100425	2442.439038
1008.394376	2472.685962
1008.688292	2535.700385
1008.982172	2495.371154
1009.276017	2465.124231
1009.569827	2384.465769
1009.863602	2530.659231
1010.157341	2548.303269
1010.451045	2457.562500
1010.744714	2523.097500
1011.038347	2472.685962
1011.331945	2439.918462
1011.625508	2497.891731
1011.919036	2462.603654
1012.212528	2460.083077
1012.505986	2455.041923
1012.799408	2444.959615
1013.092795	2573.509038
1013.386147	2465.124231
1013.679464	2444.959615
1013.972745	2462.603654
1014.265992	2482.768269
1014.559204	2465.124231
1014.852380	2497.891731
1015.145521	2513.015192
1015.438628	2470.165385
1015.731699	2460.083077
1016.024736	2487.809423
1016.317737	2432.356731
1016.610703	2495.371154
1016.903635	2475.206538
1017.196531	2515.535769
1017.489393	2502.932885
1017.782219	2470.165385
1018.075011	2502.932885
1018.367768	2326.492500
1018.660490	2457.562500
1018.953177	2457.562500
1019.245829	2457.562500
