Dividing Wavelength (nm)	Counts (n)	Blue Motor Position (mm): 4.500000	Red Motor Position (mm): 0.000000	
326.493990	2064.352500
326.888308	2064.352500
327.282561	2064.352500
327.676750	2046.708462
328.070874	1978.652885
328.464933	2129.887500
328.858929	2071.914231
329.252859	2059.311346
329.646726	2066.873077
330.040528	2102.161154
330.434265	2127.366923
330.827938	2185.340192
331.221547	2127.366923
331.615091	2097.120000
332.008571	2185.340192
332.401986	2177.778462
332.795338	2245.834038
333.188625	2223.148846
333.581847	2243.313462
333.975006	2225.669423
334.368100	2208.025385
334.761129	2376.904038
335.154095	2215.587115
335.546996	2306.327885
335.939833	2346.657115
336.332606	2339.095385
336.725315	2356.739423
337.117960	2371.862885
337.510540	2442.439038
337.903056	2346.657115
338.295508	2384.465769
338.687896	2437.397885
339.080220	2475.206538
339.472480	2419.753846
339.864676	2573.509038
340.256807	2397.068654
340.648875	2507.974038
341.040879	2518.056346
341.432818	2490.330000
341.824694	2455.041923
342.216506	2492.850577
342.608253	2518.056346
342.999937	2502.932885
343.391557	2434.877308
343.783113	2538.220962
344.174605	2429.836154
344.566033	2427.315577
344.957397	2460.083077
345.348697	2477.727115
345.739934	2482.768269
346.131106	2485.288846
346.522215	2447.480192
346.913260	2399.589231
347.304241	2452.521346
347.695159	2465.124231
348.086012	2513.015192
348.476802	2553.344423
348.867528	2455.041923
349.258191	2470.165385
349.648789	2422.274423
350.039324	2399.589231
350.429796	2404.630385
350.820203	2462.603654
351.210548	2439.918462
351.600828	2439.918462
351.991045	2419.753846
352.381198	2437.397885
352.771288	2495.371154
353.161314	2414.712692
353.551276	2369.342308
353.941175	2460.083077
354.331010	2442.439038
354.720782	2452.521346
355.110490	2467.644808
355.500135	2465.124231
355.889717	2419.753846
356.279235	2465.124231
356.668689	2404.630385
357.058080	2487.809423
357.447408	2417.233269
357.836672	2394.548077
358.225873	2397.068654
358.615010	2361.780577
359.004084	2422.274423
359.393095	2477.727115
359.782043	2457.562500
360.170927	2492.850577
360.559748	2475.206538
360.948505	2560.906154
361.337199	2381.945192
361.725830	2462.603654
362.114398	2500.412308
362.502903	2371.862885
362.891344	2540.741538
363.279722	2545.782692
363.668037	2450.000769
364.056289	2409.671538
364.444478	2475.206538
364.832603	2424.795000
365.220665	2477.727115
365.608665	2439.918462
365.996601	2404.630385
366.384474	2467.644808
366.772284	2447.480192
367.160031	2482.768269
367.547715	2460.083077
367.935336	2427.315577
368.322893	2422.274423
368.710388	2467.644808
369.097820	2414.712692
369.485189	2520.576923
369.872495	2417.233269
370.259738	2419.753846
370.646918	2397.068654
371.034035	2457.562500
371.421090	2414.712692
371.808081	2462.603654
372.195010	2414.712692
372.581875	2427.315577
372.968678	2457.562500
373.355418	2402.109808
373.742096	2409.671538
374.128710	2492.850577
374.515262	2366.821731
374.901751	2487.809423
375.288177	2359.260000
375.674540	2550.823846
376.060841	2439.918462
376.447079	2528.138654
376.833254	2467.644808
377.219367	2470.165385
377.605417	2465.124231
377.991404	2434.877308
378.377329	2457.562500
378.763191	2422.274423
379.148991	2460.083077
379.534727	2447.480192
379.920402	2432.356731
380.306013	2523.097500
380.691563	2485.288846
381.077049	2414.712692
381.462474	2482.768269
381.847835	2490.330000
382.233134	2470.165385
382.618371	2482.768269
383.003545	2432.356731
383.388657	2540.741538
383.773706	2424.795000
384.158693	2379.424615
384.543618	2409.671538
384.928480	2470.165385
385.313280	2439.918462
385.698017	2467.644808
386.082692	2495.371154
386.467305	2485.288846
386.851856	2530.659231
387.236344	2480.247692
387.620770	2492.850577
388.005133	2487.809423
388.389435	2386.986346
388.773674	2444.959615
389.157851	2384.465769
389.541965	2500.412308
389.926018	2518.056346
390.310008	2492.850577
390.693936	2513.015192
391.077802	2437.397885
391.461606	2515.535769
391.845348	2397.068654
392.229027	2460.083077
392.612645	2444.959615
392.996200	2568.467885
393.379694	2502.932885
393.763125	2447.480192
394.146494	2480.247692
394.529801	2442.439038
394.913047	2513.015192
395.296230	2429.836154
395.679351	2513.015192
396.062410	2389.506923
396.445408	2540.741538
396.828343	2520.576923
397.211217	2510.494615
397.594028	2444.959615
397.976778	2419.753846
398.359466	2465.124231
398.742092	2389.506923
399.124656	2525.618077
399.507158	2487.809423
399.889598	2409.671538
400.271977	2482.768269
400.654294	2450.000769
401.036549	2457.562500
401.418742	2487.809423
401.800874	2485.288846
402.182944	2414.712692
402.564952	2480.247692
402.946898	2397.068654
403.328783	2412.192115
403.710606	2477.727115
404.092367	2467.644808
404.474067	2545.782692
404.855705	2528.138654
405.237282	2495.371154
405.618797	2477.727115
406.000250	2412.192115
406.381642	2497.891731
406.762972	2452.521346
407.144240	2563.426731
407.525447	2523.097500
407.906593	2535.700385
408.287677	2538.220962
408.668700	2460.083077
409.049661	2540.741538
409.430560	2439.918462
409.811399	2492.850577
410.192176	2381.945192
410.572891	2505.453462
410.953545	2460.083077
411.334138	2525.618077
411.714669	2399.589231
412.095139	2510.494615
412.475547	2487.809423
412.855894	2490.330000
413.236180	2407.150962
413.616405	2364.301154
413.996568	2485.288846
414.376670	2462.603654
414.756711	2535.700385
415.136691	2402.109808
415.516609	2497.891731
415.896466	2422.274423
416.276262	2470.165385
416.655997	2482.768269
417.035670	2455.041923
417.415283	2402.109808
417.794834	2419.753846
418.174324	2475.206538
418.553753	2424.795000
418.933121	2533.179808
419.312428	2465.124231
419.691674	2460.083077
420.070859	2432.356731
420.449983	2538.220962
420.829045	2525.618077
421.208047	2487.809423
421.586988	2570.988462
421.965867	2434.877308
422.344686	2523.097500
422.723444	2492.850577
423.102141	2447.480192
423.480777	2540.741538
423.859352	2513.015192
424.237866	2470.165385
424.616319	2465.124231
424.994712	2523.097500
425.373044	2480.247692
425.751314	2465.124231
426.129524	2555.865000
426.507673	2477.727115
426.885762	2369.342308
427.263789	2505.453462
427.641756	2518.056346
428.019662	2462.603654
428.397508	2477.727115
428.775292	2545.782692
429.153016	2462.603654
429.530679	2502.932885
429.908282	2460.083077
430.285824	2487.809423
430.663305	2482.768269
431.040726	2475.206538
431.418086	2576.029615
431.795385	2505.453462
432.172624	2558.385577
432.549802	2460.083077
432.926920	2462.603654
433.303977	2507.974038
433.680974	2528.138654
434.057910	2447.480192
434.434786	2530.659231
434.811601	2470.165385
435.188355	2502.932885
435.565050	2507.974038
435.941683	2528.138654
436.318257	2495.371154
436.694770	2465.124231
437.071222	2444.959615
437.447614	2518.056346
437.823946	2482.768269
438.200218	2492.850577
438.576429	2472.685962
438.952580	2548.303269
439.328670	2472.685962
439.704700	2495.371154
440.080670	2439.918462
440.456580	2515.535769
440.832429	2583.591346
441.208218	2480.247692
441.583947	2437.397885
441.959616	2510.494615
442.335224	2452.521346
442.710773	2490.330000
443.086261	2450.000769
443.461689	2482.768269
443.837057	2369.342308
444.212365	2490.330000
444.587612	2480.247692
444.962800	2535.700385
445.337927	2485.288846
445.712995	2576.029615
446.088002	2429.836154
446.462949	2500.412308
446.837837	2462.603654
447.212664	2502.932885
447.587431	2507.974038
447.962139	2540.741538
448.336786	2409.671538
448.711374	2550.823846
449.085901	2520.576923
449.460369	2528.138654
449.834776	2424.795000
450.209124	2515.535769
450.583412	2555.865000
450.957640	2419.753846
451.331808	2507.974038
451.705917	2427.315577
452.079965	2457.562500
452.453954	2538.220962
452.827883	2505.453462
453.201752	2523.097500
453.575562	2543.262115
453.949311	2502.932885
454.323001	2452.521346
454.696632	2442.439038
455.070202	2550.823846
455.443713	2515.535769
455.817164	2581.070769
456.190556	2394.548077
456.563888	2495.371154
456.937160	2460.083077
457.310373	2427.315577
457.683526	2470.165385
458.056619	2573.509038
458.429653	2472.685962
458.802628	2586.111923
459.175542	2482.768269
459.548398	2555.865000
459.921194	2444.959615
460.293930	2450.000769
460.666607	2528.138654
461.039224	2495.371154
461.411782	2442.439038
461.784280	2502.932885
462.156719	2480.247692
462.529099	2538.220962
462.901419	2507.974038
463.273680	2424.795000
463.645882	2500.412308
464.018024	2515.535769
464.390106	2502.932885
464.762130	2507.974038
465.134094	2477.727115
465.505999	2495.371154
465.877845	2502.932885
466.249631	2404.630385
466.621358	2533.179808
466.993026	2462.603654
467.364634	2457.562500
467.736184	2490.330000
468.107674	2497.891731
468.479105	2444.959615
468.850477	2475.206538
469.221790	2538.220962
469.593043	2475.206538
469.964238	2472.685962
470.335373	2492.850577
470.706449	2573.509038
471.077467	2482.768269
471.448425	2452.521346
471.819324	2480.247692
472.190164	2535.700385
472.560945	2550.823846
472.931667	2439.918462
473.302330	2576.029615
473.672934	2540.741538
474.043479	2603.755962
474.413965	2495.371154
474.784393	2500.412308
475.154761	2467.644808
475.525070	2444.959615
475.895321	2525.618077
476.265513	2452.521346
476.635645	2475.206538
477.005719	2472.685962
477.375734	2558.385577
477.745691	2558.385577
478.115588	2550.823846
478.485427	2563.426731
478.855207	2510.494615
479.224928	2538.220962
479.594591	2518.056346
479.964194	2485.288846
480.333739	2530.659231
480.703226	2465.124231
481.072653	2507.974038
481.442022	2447.480192
481.811333	2528.138654
482.180584	2545.782692
482.549777	2477.727115
482.918912	2528.138654
483.287988	2543.262115
483.657005	2538.220962
484.025964	2553.344423
484.394864	2472.685962
484.763706	2568.467885
485.132489	2419.753846
485.501213	2462.603654
485.869879	2525.618077
486.238487	2515.535769
486.607036	2452.521346
486.975527	2500.412308
487.343959	2490.330000
487.712333	2513.015192
488.080648	2492.850577
488.448905	2510.494615
488.817104	2485.288846
489.185244	2565.947308
489.553326	2470.165385
489.921350	2545.782692
490.289315	2465.124231
490.657222	2457.562500
491.025070	2467.644808
491.392861	2540.741538
491.760593	2417.233269
492.128267	2502.932885
492.495883	2437.397885
492.863440	2558.385577
493.230939	2475.206538
493.598380	2497.891731
493.965763	2424.795000
494.333088	2502.932885
494.700354	2437.397885
495.067563	2412.192115
495.434713	2543.262115
495.801805	2437.397885
496.168839	2374.383462
496.535815	2447.480192
496.902733	2550.823846
497.269593	2520.576923
497.636395	2507.974038
498.003139	2507.974038
498.369825	2528.138654
498.736453	2500.412308
499.103023	2444.959615
499.469535	2513.015192
499.835989	2528.138654
500.202385	2482.768269
500.568723	2470.165385
500.935003	2467.644808
501.301226	2429.836154
501.667390	2528.138654
502.033497	2455.041923
502.399546	2500.412308
502.765537	2447.480192
503.131470	2419.753846
503.497345	2497.891731
503.863163	2487.809423
504.228923	2480.247692
504.594625	2502.932885
504.960269	2510.494615
505.325856	2513.015192
505.691385	2507.974038
506.056856	2460.083077
506.422270	2510.494615
506.787625	2439.918462
507.152924	2475.206538
507.518164	2603.755962
507.883347	2480.247692
508.248472	2540.741538
508.613540	2444.959615
508.978550	2477.727115
509.343503	2495.371154
509.708398	2560.906154
510.073236	2505.453462
510.438016	2588.632500
510.802738	2457.562500
511.167403	2553.344423
511.532010	2550.823846
511.896561	2457.562500
512.261053	2497.891731
512.625488	2492.850577
512.989866	2510.494615
513.354186	2515.535769
513.718449	2422.274423
514.082655	2548.303269
514.446803	2475.206538
514.810894	2490.330000
515.174927	2523.097500
515.538904	2535.700385
515.902822	2477.727115
516.266684	2513.015192
516.630488	2500.412308
516.994235	2530.659231
517.357925	2513.015192
517.721558	2502.932885
518.085133	2545.782692
518.448651	2455.041923
518.812112	2490.330000
519.175516	2490.330000
519.538863	2480.247692
519.902152	2578.550192
520.265385	2502.932885
520.628560	2535.700385
520.991678	2480.247692
521.354739	2475.206538
521.717743	2417.233269
522.080690	2480.247692
522.443580	2487.809423
522.806413	2485.288846
523.169189	2392.027500
523.531908	2518.056346
523.894569	2490.330000
524.257174	2568.467885
524.619722	2492.850577
524.982213	2520.576923
525.344647	2507.974038
525.707025	2596.194231
526.069345	2492.850577
526.431608	2359.260000
526.793815	2535.700385
527.155964	2523.097500
527.518057	2432.356731
527.880093	2570.988462
528.242072	2475.206538
528.603995	2472.685962
528.965860	2550.823846
529.327669	2490.330000
529.689421	2505.453462
530.051117	2487.809423
530.412755	2455.041923
530.774337	2626.441154
531.135862	2545.782692
531.497331	2447.480192
531.858743	2563.426731
532.220098	2533.179808
532.581396	2603.755962
532.942638	2447.480192
533.303824	2588.632500
533.664953	2500.412308
534.026025	2475.206538
534.387040	2409.671538
534.747999	2528.138654
535.108902	2457.562500
535.469748	2495.371154
535.830537	2502.932885
536.191270	2460.083077
536.551947	2497.891731
536.912567	2507.974038
537.273131	2482.768269
537.633638	2550.823846
537.994089	2490.330000
538.354483	2523.097500
538.714821	2518.056346
539.075103	2434.877308
539.435328	2495.371154
539.795497	2419.753846
540.155609	2520.576923
540.515665	2472.685962
540.875665	2513.015192
541.235609	2563.426731
541.595496	2505.453462
541.955328	2465.124231
542.315102	2480.247692
542.674821	2510.494615
543.034483	2434.877308
543.394090	2523.097500
543.753640	2523.097500
544.113134	2500.412308
544.472571	2455.041923
544.831953	2543.262115
545.191278	2596.194231
545.550548	2439.918462
545.909761	2570.988462
546.268918	2477.727115
546.628019	2460.083077
546.987064	2442.439038
547.346053	2530.659231
547.704986	2570.988462
548.063863	2533.179808
548.422684	2480.247692
548.781449	2404.630385
549.140158	2414.712692
549.498811	2581.070769
549.857408	2500.412308
550.215949	2485.288846
550.574434	2523.097500
550.932864	2598.714808
551.291237	2475.206538
551.649555	2525.618077
552.007817	2482.768269
552.366022	2510.494615
552.724173	2407.150962
553.082267	2573.509038
553.440305	2583.591346
553.798288	2465.124231
554.156215	2525.618077
554.514086	2457.562500
554.871902	2535.700385
555.229661	2480.247692
555.587365	2487.809423
555.945014	2467.644808
556.302606	2518.056346
556.660143	2533.179808
557.017625	2480.247692
557.375050	2447.480192
557.732421	2482.768269
558.089735	2467.644808
558.446994	2505.453462
558.804197	2480.247692
559.161345	2457.562500
559.518437	2460.083077
559.875474	2563.426731
560.232455	2442.439038
560.589381	2465.124231
560.946251	2558.385577
561.303065	2505.453462
561.659825	2545.782692
562.016528	2480.247692
562.373177	2492.850577
562.729770	2497.891731
563.086307	2533.179808
563.442789	2427.315577
563.799216	2515.535769
564.155587	2460.083077
564.511904	2432.356731
564.868164	2520.576923
565.224370	2487.809423
565.580520	2467.644808
565.936615	2470.165385
566.292654	2475.206538
566.648638	2576.029615
567.004567	2477.727115
567.360441	2533.179808
567.716260	2505.453462
568.072023	2472.685962
568.427732	2472.685962
568.783385	2422.274423
569.138982	2530.659231
569.494525	2518.056346
569.850013	2500.412308
570.205445	2560.906154
570.560823	2515.535769
570.916145	2485.288846
571.271412	2513.015192
571.626625	2545.782692
571.981782	2475.206538
572.336884	2513.015192
572.691931	2472.685962
573.046923	2500.412308
573.401860	2452.521346
573.756743	2487.809423
574.111570	2424.795000
574.466342	2505.453462
574.821059	2500.412308
575.175722	2439.918462
575.530330	2497.891731
575.884882	2492.850577
576.239380	2558.385577
576.593823	2419.753846
576.948211	2485.288846
577.302544	2402.109808
577.656823	2495.371154
578.011047	2518.056346
578.365216	2576.029615
578.719330	2472.685962
579.073389	2596.194231
579.427394	2528.138654
579.781344	2518.056346
580.135239	2467.644808
580.489080	2611.317692
580.842866	2432.356731
581.196597	2548.303269
581.550273	2472.685962
581.903895	2462.603654
582.257463	2560.906154
582.610975	2460.083077
582.964434	2533.179808
583.317837	2455.041923
583.671186	2485.288846
584.024481	2530.659231
584.377721	2490.330000
584.730906	2520.576923
585.084037	2533.179808
585.437113	2442.439038
585.790135	2455.041923
586.143103	2460.083077
586.496016	2470.165385
586.848874	2525.618077
587.201679	2505.453462
587.554428	2472.685962
587.907124	2515.535769
588.259765	2460.083077
588.612352	2452.521346
588.964884	2497.891731
589.317362	2515.535769
589.669786	2487.809423
590.022155	2530.659231
590.374470	2535.700385
590.726731	2528.138654
591.078937	2553.344423
591.431090	2402.109808
591.783188	2525.618077
592.135232	2502.932885
592.487222	2442.439038
592.839157	2545.782692
593.191038	2475.206538
593.542866	2482.768269
593.894639	2465.124231
594.246358	2515.535769
594.598022	2548.303269
594.949633	2513.015192
595.301190	2465.124231
595.652692	2477.727115
596.004141	2452.521346
596.355535	2477.727115
596.706876	2535.700385
597.058162	2523.097500
597.409395	2462.603654
597.760573	2520.576923
598.111698	2568.467885
598.462768	2487.809423
598.813785	2485.288846
599.164748	2460.083077
599.515657	2535.700385
599.866511	2497.891731
600.217312	2477.727115
600.568060	2477.727115
600.918753	2510.494615
601.269392	2507.974038
601.619978	2437.397885
601.970510	2447.480192
602.320988	2422.274423
602.671412	2480.247692
603.021783	2477.727115
603.372100	2427.315577
603.722363	2507.974038
604.072572	2495.371154
604.422728	2525.618077
604.772830	2447.480192
605.122878	2513.015192
605.472872	2472.685962
605.822813	2492.850577
606.172701	2523.097500
606.522534	2392.027500
606.872314	2510.494615
607.222041	2515.535769
607.571714	2455.041923
607.921333	2399.589231
608.270899	2515.535769
608.620411	2500.412308
608.969870	2447.480192
609.319276	2437.397885
609.668627	2480.247692
610.017926	2462.603654
610.367171	2520.576923
610.716362	2487.809423
611.065500	2462.603654
611.414585	2520.576923
611.763616	2475.206538
612.112594	2485.288846
612.461518	2417.233269
612.810389	2520.576923
613.159207	2500.412308
613.507971	2502.932885
613.856682	2487.809423
614.205340	2447.480192
614.553945	2465.124231
614.902496	2530.659231
615.250994	2510.494615
615.599439	2518.056346
615.947830	2457.562500
616.296169	2513.015192
616.644454	2419.753846
616.992686	2465.124231
617.340864	2457.562500
617.688990	2462.603654
618.037063	2500.412308
618.385082	2480.247692
618.733048	2507.974038
619.080961	2497.891731
619.428821	2465.124231
619.776628	2490.330000
620.124382	2530.659231
620.472083	2523.097500
620.819731	2523.097500
621.167326	2523.097500
621.514868	2450.000769
621.862357	2510.494615
622.209793	2500.412308
622.557176	2490.330000
622.904506	2439.918462
623.251783	2515.535769
623.599007	2520.576923
623.946179	2525.618077
624.293297	2450.000769
624.640363	2555.865000
624.987376	2543.262115
625.334336	2495.371154
625.681243	2513.015192
626.028097	2570.988462
626.374899	2513.015192
626.721647	2520.576923
627.068343	2412.192115
627.414987	2530.659231
627.761577	2460.083077
628.108115	2520.576923
628.454600	2505.453462
628.801032	2505.453462
629.147412	2485.288846
629.493739	2465.124231
629.840014	2576.029615
630.186236	2407.150962
630.532405	2558.385577
630.878521	2543.262115
631.224585	2447.480192
631.570597	2452.521346
631.916556	2452.521346
632.262462	2502.932885
632.608316	2530.659231
632.954117	2452.521346
633.299866	2500.412308
633.645562	2414.712692
633.991206	2450.000769
634.336797	2434.877308
634.682336	2515.535769
635.027823	2414.712692
635.373257	2467.644808
635.718639	2596.194231
636.063968	2502.932885
636.409245	2472.685962
636.754470	2422.274423
637.099642	2548.303269
637.444762	2507.974038
637.789829	2505.453462
638.134845	2576.029615
638.479808	2450.000769
638.824719	2518.056346
639.169577	2482.768269
639.514383	2507.974038
639.859137	2442.439038
640.203839	2555.865000
640.548489	2588.632500
640.893086	2495.371154
641.237632	2523.097500
641.582125	2455.041923
641.926566	2513.015192
642.270955	2528.138654
642.615292	2482.768269
642.959576	2465.124231
643.303809	2538.220962
643.647990	2560.906154
643.992118	2452.521346
644.336195	2470.165385
644.680219	2432.356731
645.024192	2523.097500
645.368112	2520.576923
645.711981	2586.111923
646.055797	2439.918462
646.399562	2465.124231
646.743274	2460.083077
647.086935	2460.083077
647.430544	2563.426731
647.774101	2419.753846
648.117606	2447.480192
648.461059	2480.247692
648.804460	2550.823846
649.147810	2475.206538
649.491108	2490.330000
649.834354	2432.356731
650.177548	2389.506923
650.520690	2510.494615
650.863781	2618.879423
651.206820	2515.535769
651.549807	2460.083077
651.892742	2439.918462
652.235626	2434.877308
652.578458	2538.220962
652.921238	2447.480192
653.263967	2530.659231
653.606644	2515.535769
653.949269	2523.097500
654.291843	2452.521346
654.634365	2467.644808
654.976836	2500.412308
655.319255	2548.303269
655.661622	2530.659231
656.003938	2495.371154
656.346203	2558.385577
656.688416	2444.959615
657.030577	2518.056346
657.372687	2455.041923
657.714746	2482.768269
658.056753	2447.480192
658.398708	2513.015192
658.740612	2482.768269
659.082465	2487.809423
659.424266	2470.165385
659.766016	2477.727115
660.107715	2450.000769
660.449362	2520.576923
660.790958	2442.439038
661.132503	2485.288846
661.473996	2472.685962
661.815438	2475.206538
662.156829	2414.712692
662.498168	2586.111923
662.839456	2472.685962
663.180693	2460.083077
663.521879	2482.768269
663.863013	2447.480192
664.204097	2563.426731
664.545129	2455.041923
664.886110	2525.618077
665.227040	2500.412308
665.567918	2578.550192
665.908746	2470.165385
666.249522	2497.891731
666.590248	2507.974038
666.930922	2465.124231
667.271545	2472.685962
667.612118	2550.823846
667.952639	2447.480192
668.293109	2482.768269
668.633528	2513.015192
668.973896	2505.453462
669.314213	2419.753846
669.654480	2487.809423
669.994695	2550.823846
670.334859	2490.330000
670.674973	2523.097500
671.015035	2470.165385
671.355047	2492.850577
671.695008	2495.371154
672.034918	2470.165385
672.374777	2475.206538
672.714585	2444.959615
673.054342	2475.206538
673.394049	2462.603654
673.733705	2490.330000
674.073310	2518.056346
674.412864	2492.850577
674.752368	2523.097500
675.091820	2460.083077
675.431223	2465.124231
675.770574	2487.809423
676.109875	2495.371154
676.449125	2465.124231
676.788324	2485.288846
677.127473	2442.439038
677.466571	2553.344423
677.805619	2588.632500
678.144616	2492.850577
678.483562	2538.220962
678.822458	2465.124231
679.161303	2540.741538
679.500098	2497.891731
679.838842	2520.576923
680.177535	2477.727115
680.516179	2513.015192
680.854771	2419.753846
681.193314	2543.262115
681.531805	2505.453462
681.870247	2578.550192
682.208638	2485.288846
682.546978	2470.165385
682.885268	2500.412308
683.223508	2513.015192
683.561697	2462.603654
683.899836	2447.480192
684.237925	2505.453462
684.575963	2460.083077
684.913951	2540.741538
685.251889	2495.371154
685.589776	2477.727115
685.927614	2452.521346
686.265401	2505.453462
686.603137	2505.453462
686.940824	2548.303269
687.278460	2472.685962
687.616046	2480.247692
687.953582	2543.262115
688.291068	2538.220962
688.628504	2482.768269
688.965889	2500.412308
689.303224	2530.659231
689.640510	2480.247692
689.977745	2543.262115
690.314930	2460.083077
690.652065	2470.165385
690.989150	2465.124231
691.326185	2510.494615
691.663170	2510.494615
692.000105	2535.700385
692.336990	2439.918462
692.673825	2497.891731
693.010610	2480.247692
693.347345	2525.618077
693.684030	2518.056346
694.020665	2515.535769
694.357251	2472.685962
694.693786	2570.988462
695.030272	2442.439038
695.366707	2513.015192
695.703093	2462.603654
696.039429	2586.111923
696.375716	2535.700385
696.711952	2490.330000
697.048139	2596.194231
697.384276	2565.947308
697.720363	2497.891731
698.056400	2518.056346
698.392388	2550.823846
698.728326	2467.644808
699.064214	2437.397885
699.400053	2427.315577
699.735842	2477.727115
700.071581	2480.247692
700.407270	2502.932885
700.742910	2563.426731
701.078501	2457.562500
701.414042	2523.097500
701.749533	2490.330000
702.084974	2520.576923
702.420366	2480.247692
702.755709	2457.562500
703.091002	2455.041923
703.426246	2581.070769
703.761440	2570.988462
704.096584	2485.288846
704.431679	2447.480192
704.766725	2538.220962
705.101721	2530.659231
705.436668	2565.947308
705.771565	2513.015192
706.106413	2356.739423
706.441212	2447.480192
706.775961	2520.576923
707.110661	2558.385577
707.445311	2490.330000
707.779913	2583.591346
708.114465	2492.850577
708.448967	2530.659231
708.783421	2467.644808
709.117825	2475.206538
709.452180	2409.671538
709.786485	2475.206538
710.120742	2601.235385
710.454949	2452.521346
710.789107	2497.891731
711.123216	2450.000769
711.457275	2558.385577
711.791286	2520.576923
712.125247	2500.412308
712.459159	2492.850577
712.793023	2455.041923
713.126837	2523.097500
713.460602	2419.753846
713.794318	2414.712692
714.127985	2414.712692
714.461602	2427.315577
714.795171	2399.589231
715.128691	2424.795000
715.462162	2563.426731
715.795584	2507.974038
716.128957	2513.015192
716.462281	2470.165385
716.795556	2497.891731
717.128782	2485.288846
717.461960	2553.344423
717.795088	2475.206538
718.128167	2555.865000
718.461198	2487.809423
718.794180	2502.932885
719.127113	2520.576923
719.459997	2528.138654
719.792833	2462.603654
720.125619	2533.179808
720.458357	2434.877308
720.791046	2495.371154
721.123686	2518.056346
721.456278	2510.494615
721.788821	2540.741538
722.121315	2482.768269
722.453761	2467.644808
722.786158	2442.439038
723.118506	2429.836154
723.450805	2560.906154
723.783056	2485.288846
724.115259	2497.891731
724.447412	2470.165385
724.779518	2515.535769
725.111574	2495.371154
725.443582	2507.974038
725.775542	2432.356731
726.107453	2450.000769
726.439315	2452.521346
726.771129	2518.056346
727.102895	2518.056346
727.434612	2475.206538
727.766281	2545.782692
728.097901	2470.165385
728.429473	2472.685962
728.760996	2492.850577
729.092471	2513.015192
729.423897	2492.850577
729.755276	2510.494615
730.086606	2424.795000
730.417887	2475.206538
730.749120	2510.494615
731.080305	2470.165385
731.411442	2500.412308
731.742530	2427.315577
732.073570	2497.891731
732.404562	2434.877308
732.735506	2530.659231
733.066401	2429.836154
733.397249	2462.603654
733.728048	2422.274423
734.058798	2523.097500
734.389501	2520.576923
734.720156	2490.330000
735.050762	2485.288846
735.381320	2480.247692
735.711831	2500.412308
736.042293	2439.918462
736.372707	2555.865000
736.703073	2447.480192
737.033391	2475.206538
737.363661	2480.247692
737.693883	2550.823846
738.024056	2548.303269
738.354182	2442.439038
738.684260	2432.356731
739.014290	2560.906154
739.344272	2510.494615
739.674207	2482.768269
740.004093	2510.494615
740.333931	2560.906154
740.663722	2439.918462
740.993464	2535.700385
741.323159	2475.206538
741.652806	2515.535769
741.982405	2505.453462
742.311956	2520.576923
742.641460	2487.809423
742.970915	2497.891731
743.300323	2452.521346
743.629683	2502.932885
743.958996	2460.083077
744.288260	2452.521346
744.617477	2533.179808
744.946647	2470.165385
745.275768	2565.947308
745.604842	2444.959615
745.933869	2495.371154
746.262847	2480.247692
746.591778	2495.371154
746.920662	2397.068654
747.249498	2487.809423
747.578286	2558.385577
747.907027	2404.630385
748.235720	2422.274423
748.564365	2392.027500
748.892963	2482.768269
749.221514	2518.056346
749.550017	2472.685962
749.878473	2465.124231
750.206881	2434.877308
750.535242	2495.371154
750.863555	2533.179808
751.191821	2520.576923
751.520039	2568.467885
751.848210	2477.727115
752.176334	2487.809423
752.504411	2460.083077
752.832440	2550.823846
753.160421	2583.591346
753.488356	2523.097500
753.816243	2497.891731
754.144082	2555.865000
754.471875	2560.906154
754.799620	2465.124231
755.127318	2475.206538
755.454969	2462.603654
755.782572	2452.521346
756.110129	2480.247692
756.437638	2513.015192
756.765100	2558.385577
757.092515	2540.741538
757.419882	2525.618077
757.747203	2500.412308
758.074477	2490.330000
758.401703	2432.356731
758.728882	2535.700385
759.056014	2472.685962
759.383099	2439.918462
759.710138	2530.659231
760.037129	2510.494615
760.364073	2513.015192
760.690970	2505.453462
761.017820	2460.083077
761.344623	2540.741538
761.671379	2465.124231
761.998088	2535.700385
762.324751	2538.220962
762.651366	2475.206538
762.977935	2480.247692
763.304456	2502.932885
763.630931	2437.397885
763.957359	2553.344423
764.283740	2518.056346
764.610074	2500.412308
764.936362	2550.823846
765.262602	2487.809423
765.588796	2480.247692
765.914943	2523.097500
766.241044	2465.124231
766.567097	2485.288846
766.893104	2502.932885
767.219064	2465.124231
767.544978	2505.453462
767.870845	2371.862885
768.196665	2518.056346
768.522438	2485.288846
768.848165	2588.632500
769.173846	2422.274423
769.499479	2520.576923
769.825066	2437.397885
770.150607	2513.015192
770.476101	2533.179808
770.801548	2505.453462
771.126949	2444.959615
771.452303	2502.932885
771.777611	2550.823846
772.102872	2424.795000
772.428087	2558.385577
772.753256	2538.220962
773.078378	2555.865000
773.403453	2586.111923
773.728482	2513.015192
774.053465	2457.562500
774.378401	2507.974038
774.703291	2528.138654
775.028135	2457.562500
775.352932	2414.712692
775.677683	2457.562500
776.002388	2442.439038
776.327046	2543.262115
776.651658	2462.603654
776.976224	2497.891731
777.300743	2518.056346
777.625216	2535.700385
777.949643	2424.795000
778.274024	2540.741538
778.598359	2427.315577
778.922647	2502.932885
779.246889	2447.480192
779.571086	2432.356731
779.895236	2470.165385
780.219339	2487.809423
780.543397	2455.041923
780.867409	2462.603654
781.191374	2475.206538
781.515294	2465.124231
781.839167	2523.097500
782.162995	2477.727115
782.486776	2444.959615
782.810511	2507.974038
783.134201	2583.591346
783.457844	2530.659231
783.781441	2442.439038
784.104993	2472.685962
784.428498	2573.509038
784.751958	2480.247692
785.075372	2434.877308
785.398739	2510.494615
785.722061	2485.288846
786.045337	2560.906154
786.368568	2429.836154
786.691752	2502.932885
787.014891	2465.124231
787.337983	2457.562500
787.661030	2419.753846
787.984031	2535.700385
788.306987	2444.959615
788.629897	2538.220962
788.952760	2548.303269
789.275579	2565.947308
789.598351	2538.220962
789.921078	2583.591346
790.243759	2563.426731
790.566395	2563.426731
790.888984	2513.015192
791.211529	2447.480192
791.534027	2565.947308
791.856480	2565.947308
792.178888	2429.836154
792.501249	2515.535769
792.823566	2422.274423
793.145836	2472.685962
793.468062	2518.056346
793.790241	2550.823846
794.112375	2513.015192
794.434464	2570.988462
794.756507	2495.371154
795.078505	2528.138654
795.400457	2545.782692
795.722364	2540.741538
796.044226	2444.959615
796.366042	2407.150962
796.687812	2477.727115
797.009538	2442.439038
797.331218	2480.247692
797.652852	2472.685962
797.974442	2487.809423
798.295986	2502.932885
798.617484	2500.412308
798.938938	2450.000769
799.260346	2480.247692
799.581709	2568.467885
799.903026	2419.753846
800.224299	2505.453462
800.545526	2465.124231
800.866708	2485.288846
801.187845	2507.974038
801.508936	2419.753846
801.829983	2523.097500
802.150984	2351.698269
802.471940	2533.179808
802.792851	2482.768269
803.113717	2555.865000
803.434538	2535.700385
803.755314	2560.906154
804.076045	2520.576923
804.396731	2460.083077
804.717372	2502.932885
805.037967	2553.344423
805.358518	2455.041923
805.679024	2545.782692
805.999485	2530.659231
806.319901	2505.453462
806.640272	2540.741538
806.960598	2487.809423
807.280879	2573.509038
807.601115	2495.371154
807.921306	2472.685962
808.241453	2525.618077
808.561554	2432.356731
808.881611	2450.000769
809.201623	2442.439038
809.521590	2495.371154
809.841513	2477.727115
810.161390	2470.165385
810.481223	2510.494615
810.801011	2525.618077
811.120755	2462.603654
811.440453	2553.344423
811.760107	2495.371154
812.079716	2455.041923
812.399281	2482.768269
812.718801	2470.165385
813.038276	2444.959615
813.357707	2437.397885
813.677093	2472.685962
813.996434	2419.753846
814.315731	2530.659231
814.634983	2492.850577
814.954191	2523.097500
815.273354	2510.494615
815.592473	2490.330000
815.911547	2525.618077
816.230577	2460.083077
816.549562	2409.671538
816.868502	2480.247692
817.187399	2444.959615
817.506250	2553.344423
817.825058	2545.782692
818.143821	2434.877308
818.462539	2505.453462
818.781213	2578.550192
819.099843	2429.836154
819.418429	2538.220962
819.736970	2502.932885
820.055466	2437.397885
820.373919	2543.262115
820.692327	2505.453462
821.010691	2533.179808
821.329011	2429.836154
821.647286	2457.562500
821.965517	2515.535769
822.283704	2427.315577
822.601847	2475.206538
822.919945	2550.823846
823.237999	2487.809423
823.556010	2437.397885
823.873976	2452.521346
824.191897	2452.521346
824.509775	2545.782692
824.827609	2523.097500
825.145398	2427.315577
825.463144	2460.083077
825.780845	2444.959615
826.098502	2502.932885
826.416116	2465.124231
826.733685	2502.932885
827.051210	2470.165385
827.368692	2533.179808
827.686129	2530.659231
828.003522	2502.932885
828.320872	2495.371154
828.638177	2555.865000
828.955439	2550.823846
829.272656	2490.330000
829.589830	2525.618077
829.906960	2502.932885
830.224046	2548.303269
830.541088	2576.029615
830.858086	2515.535769
831.175041	2462.603654
831.491952	2475.206538
831.808819	2528.138654
832.125642	2492.850577
832.442421	2513.015192
832.759157	2510.494615
833.075849	2452.521346
833.392497	2523.097500
833.709101	2490.330000
834.025662	2505.453462
834.342179	2591.153077
834.658653	2465.124231
834.975083	2525.618077
835.291469	2429.836154
835.607811	2472.685962
835.924110	2444.959615
836.240366	2533.179808
836.556578	2467.644808
836.872746	2565.947308
837.188871	2460.083077
837.504952	2437.397885
837.820990	2419.753846
838.136984	2452.521346
838.452935	2497.891731
838.768842	2475.206538
839.084706	2467.644808
839.400526	2520.576923
839.716303	2460.083077
840.032037	2507.974038
840.347727	2447.480192
840.663373	2427.315577
840.978977	2490.330000
841.294537	2535.700385
841.610054	2462.603654
841.925527	2578.550192
842.240957	2417.233269
842.556344	2450.000769
842.871687	2528.138654
843.186987	2555.865000
843.502244	2513.015192
843.817458	2437.397885
844.132629	2475.206538
844.447756	2497.891731
844.762840	2502.932885
845.077881	2495.371154
845.392879	2487.809423
845.707833	2613.838269
846.022745	2472.685962
846.337613	2450.000769
846.652438	2422.274423
846.967221	2437.397885
847.281960	2460.083077
847.596656	2460.083077
847.911309	2480.247692
848.225919	2505.453462
848.540485	2482.768269
848.855009	2470.165385
849.169490	2414.712692
849.483928	2475.206538
849.798323	2528.138654
850.112675	2565.947308
850.426984	2475.206538
850.741251	2497.891731
851.055474	2497.891731
851.369654	2533.179808
851.683792	2513.015192
851.997887	2497.891731
852.311938	2427.315577
852.625947	2578.550192
852.939914	2641.564615
853.253837	2550.823846
853.567718	2477.727115
853.881555	2502.932885
854.195350	2487.809423
854.509103	2465.124231
854.822812	2359.260000
855.136479	2492.850577
855.450103	2535.700385
855.763685	2427.315577
856.077224	2447.480192
856.390720	2500.412308
856.704173	2359.260000
857.017584	2528.138654
857.330953	2467.644808
857.644278	2417.233269
857.957561	2475.206538
858.270802	2500.412308
858.584000	2492.850577
858.897155	2497.891731
859.210268	2482.768269
859.523339	2553.344423
859.836367	2450.000769
860.149352	2429.836154
860.462295	2427.315577
860.775195	2444.959615
861.088054	2490.330000
861.400869	2424.795000
861.713642	2455.041923
862.026373	2502.932885
862.339062	2467.644808
862.651708	2490.330000
862.964312	2513.015192
863.276873	2472.685962
863.589392	2520.576923
863.901869	2467.644808
864.214303	2560.906154
864.526696	2460.083077
864.839045	2495.371154
865.151353	2419.753846
865.463619	2533.179808
865.775842	2515.535769
866.088023	2495.371154
866.400162	2558.385577
866.712258	2510.494615
867.024313	2444.959615
867.336325	2533.179808
867.648296	2533.179808
867.960224	2528.138654
868.272110	2475.206538
868.583954	2437.397885
868.895755	2465.124231
869.207515	2384.465769
869.519233	2573.509038
869.830909	2457.562500
870.142542	2432.356731
870.454134	2467.644808
870.765684	2442.439038
871.077191	2485.288846
871.388657	2487.809423
871.700081	2515.535769
872.011463	2457.562500
872.322803	2475.206538
872.634101	2528.138654
872.945357	2432.356731
873.256571	2462.603654
873.567744	2492.850577
873.878874	2518.056346
874.189963	2553.344423
874.501010	2475.206538
874.812015	2455.041923
875.122979	2500.412308
875.433900	2412.192115
875.744780	2485.288846
876.055618	2467.644808
876.366415	2523.097500
876.677169	2434.877308
876.987882	2510.494615
877.298554	2482.768269
877.609183	2513.015192
877.919771	2601.235385
878.230317	2487.809423
878.540822	2510.494615
878.851285	2424.795000
879.161707	2455.041923
879.472087	2495.371154
879.782425	2482.768269
880.092722	2439.918462
880.402977	2573.509038
880.713191	2492.850577
881.023363	2507.974038
881.333494	2490.330000
881.643583	2515.535769
881.953631	2545.782692
882.263637	2540.741538
882.573602	2437.397885
882.883526	2460.083077
883.193408	2538.220962
883.503248	2518.056346
883.813048	2480.247692
884.122806	2497.891731
884.432522	2490.330000
884.742197	2518.056346
885.051831	2533.179808
885.361424	2495.371154
885.670975	2533.179808
885.980485	2424.795000
886.289954	2573.509038
886.599382	2429.836154
886.908768	2523.097500
887.218113	2530.659231
887.527417	2477.727115
887.836680	2480.247692
888.145901	2545.782692
888.455082	2550.823846
888.764221	2475.206538
889.073319	2518.056346
889.382376	2455.041923
889.691392	2533.179808
890.000366	2520.576923
890.309300	2477.727115
890.618193	2497.891731
890.927044	2548.303269
891.235855	2460.083077
891.544625	2510.494615
891.853353	2442.439038
892.162041	2422.274423
892.470687	2482.768269
892.779293	2480.247692
893.087858	2460.083077
893.396381	2465.124231
893.704864	2409.671538
894.013306	2515.535769
894.321707	2520.576923
894.630068	2485.288846
894.938387	2603.755962
895.246665	2520.576923
895.554903	2502.932885
895.863100	2545.782692
896.171256	2472.685962
896.479371	2510.494615
896.787446	2480.247692
897.095480	2495.371154
897.403473	2513.015192
897.711425	2500.412308
898.019336	2419.753846
898.327207	2439.918462
898.635038	2442.439038
898.942827	2465.124231
899.250576	2505.453462
899.558284	2505.453462
899.865952	2465.124231
900.173579	2520.576923
900.481165	2467.644808
900.788711	2482.768269
901.096216	2533.179808
901.403681	2432.356731
901.711105	2490.330000
902.018489	2447.480192
902.325832	2490.330000
902.633135	2510.494615
902.940397	2596.194231
903.247619	2424.795000
903.554800	2462.603654
903.861941	2439.918462
904.169041	2434.877308
904.476101	2447.480192
904.783121	2583.591346
905.090100	2515.535769
905.397039	2475.206538
905.703938	2502.932885
906.010796	2533.179808
906.317614	2480.247692
906.624391	2477.727115
906.931129	2462.603654
907.237826	2515.535769
907.544483	2460.083077
907.851099	2515.535769
908.157675	2543.262115
908.464211	2586.111923
908.770707	2432.356731
909.077163	2555.865000
909.383578	2457.562500
909.689954	2485.288846
909.996289	2472.685962
910.302584	2525.618077
910.608839	2462.603654
910.915054	2477.727115
911.221229	2422.274423
911.527363	2414.712692
911.833458	2558.385577
912.139513	2535.700385
912.445527	2437.397885
912.751502	2540.741538
913.057436	2482.768269
913.363331	2523.097500
913.669186	2507.974038
913.975000	2492.850577
914.280775	2550.823846
914.586510	2480.247692
914.892205	2490.330000
915.197859	2482.768269
915.503475	2550.823846
915.809050	2450.000769
916.114585	2475.206538
916.420081	2490.330000
916.725536	2470.165385
917.030952	2485.288846
917.336328	2581.070769
917.641665	2452.521346
917.946961	2530.659231
918.252218	2500.412308
918.557435	2538.220962
918.862612	2429.836154
919.167750	2465.124231
919.472848	2450.000769
919.777906	2550.823846
920.082925	2533.179808
920.387904	2439.918462
920.692843	2467.644808
920.997743	2444.959615
921.302603	2490.330000
921.607423	2515.535769
921.912204	2424.795000
922.216946	2497.891731
922.521647	2487.809423
922.826310	2540.741538
923.130932	2427.315577
923.435516	2558.385577
923.740059	2507.974038
924.044564	2487.809423
924.349028	2525.618077
924.653454	2502.932885
924.957840	2376.904038
925.262186	2533.179808
925.566493	2548.303269
925.870761	2523.097500
926.174989	2419.753846
926.479178	2507.974038
926.783328	2429.836154
927.087438	2487.809423
927.391509	2399.589231
927.695541	2429.836154
927.999533	2548.303269
928.303486	2424.795000
928.607400	2497.891731
928.911275	2530.659231
929.215110	2495.371154
929.518906	2513.015192
929.822663	2528.138654
930.126381	2507.974038
930.430060	2540.741538
930.733699	2507.974038
931.037299	2545.782692
931.340861	2452.521346
931.644383	2518.056346
931.947866	2500.412308
932.251309	2482.768269
932.554714	2533.179808
932.858080	2455.041923
933.161407	2386.986346
933.464694	2465.124231
933.767943	2450.000769
934.071153	2409.671538
934.374323	2467.644808
934.677455	2477.727115
934.980548	2513.015192
935.283602	2409.671538
935.586617	2480.247692
935.889593	2487.809423
936.192530	2523.097500
936.495428	2510.494615
936.798287	2414.712692
937.101108	2515.535769
937.403890	2518.056346
937.706632	2465.124231
938.009336	2495.371154
938.312002	2507.974038
938.614628	2513.015192
938.917216	2548.303269
939.219765	2543.262115
939.522275	2472.685962
939.824747	2472.685962
940.127179	2520.576923
940.429573	2402.109808
940.731929	2540.741538
941.034246	2545.782692
941.336524	2450.000769
941.638763	2485.288846
941.940964	2500.412308
942.243126	2490.330000
942.545250	2553.344423
942.847335	2444.959615
943.149381	2618.879423
943.451389	2465.124231
943.753359	2530.659231
944.055290	2550.823846
944.357182	2417.233269
944.659036	2538.220962
944.960851	2477.727115
945.262628	2510.494615
945.564367	2475.206538
945.866067	2482.768269
946.167729	2588.632500
946.469352	2472.685962
946.770937	2505.453462
947.072484	2548.303269
947.373992	2475.206538
947.675462	2502.932885
947.976893	2485.288846
948.278286	2482.768269
948.579641	2513.015192
948.880958	2538.220962
949.182236	2500.412308
949.483476	2432.356731
949.784678	2419.753846
950.085841	2560.906154
950.386967	2472.685962
950.688054	2460.083077
950.989103	2515.535769
951.290114	2470.165385
951.591087	2490.330000
951.892021	2429.836154
952.192917	2455.041923
952.493776	2482.768269
952.794596	2389.506923
953.095378	2480.247692
953.396122	2500.412308
953.696828	2467.644808
953.997496	2510.494615
954.298126	2500.412308
954.598718	2434.877308
954.899272	2480.247692
955.199788	2487.809423
955.500266	2525.618077
955.800706	2505.453462
956.101108	2477.727115
956.401472	2490.330000
956.701798	2447.480192
957.002087	2467.644808
957.302337	2487.809423
957.602550	2492.850577
957.902724	2465.124231
958.202861	2518.056346
958.502960	2472.685962
958.803022	2422.274423
959.103045	2465.124231
959.403031	2497.891731
959.702979	2452.521346
960.002889	2485.288846
960.302762	2570.988462
960.602596	2528.138654
960.902393	2437.397885
961.202153	2535.700385
961.501875	2528.138654
961.801559	2450.000769
962.101205	2518.056346
962.400814	2442.439038
962.700385	2427.315577
962.999918	2462.603654
963.299414	2485.288846
963.598873	2518.056346
963.898293	2510.494615
964.197677	2462.603654
964.497022	2485.288846
964.796331	2447.480192
965.095601	2417.233269
965.394835	2439.918462
965.694030	2475.206538
965.993189	2603.755962
966.292309	2538.220962
966.591393	2538.220962
966.890439	2460.083077
967.189447	2462.603654
967.488419	2485.288846
967.787353	2412.192115
968.086249	2477.727115
968.385108	2480.247692
968.683930	2364.301154
968.982714	2492.850577
969.281462	2510.494615
969.580172	2452.521346
969.878844	2439.918462
970.177480	2467.644808
970.476078	2434.877308
970.774639	2470.165385
971.073162	2525.618077
971.371649	2480.247692
971.670098	2452.521346
971.968510	2492.850577
972.266885	2525.618077
972.565223	2482.768269
972.863524	2570.988462
973.161788	2505.453462
973.460014	2495.371154
973.758204	2452.521346
974.056356	2505.453462
974.354471	2455.041923
974.652550	2392.027500
974.950591	2513.015192
975.248595	2339.095385
975.546563	2523.097500
975.844493	2477.727115
976.142386	2520.576923
976.440243	2444.959615
976.738062	2500.412308
977.035845	2550.823846
977.333590	2457.562500
977.631299	2465.124231
977.928971	2533.179808
978.226606	2545.782692
978.524204	2490.330000
978.821765	2472.685962
979.119290	2518.056346
979.416777	2515.535769
979.714228	2548.303269
980.011642	2520.576923
980.309020	2545.782692
980.606360	2598.714808
980.903664	2568.467885
981.200931	2548.303269
981.498162	2500.412308
981.795356	2543.262115
982.092513	2497.891731
982.389633	2472.685962
982.686717	2507.974038
982.983764	2520.576923
983.280775	2470.165385
983.577749	2427.315577
983.874686	2465.124231
984.171587	2422.274423
984.468451	2515.535769
984.765279	2374.383462
985.062070	2442.439038
985.358824	2447.480192
985.655543	2455.041923
985.952224	2422.274423
986.248869	2472.685962
986.545478	2450.000769
986.842050	2477.727115
987.138586	2427.315577
987.435086	2510.494615
987.731549	2444.959615
988.027975	2470.165385
988.324366	2432.356731
988.620719	2497.891731
988.917037	2465.124231
989.213318	2513.015192
989.509563	2470.165385
989.805772	2465.124231
990.101944	2497.891731
990.398080	2492.850577
990.694180	2444.959615
990.990244	2495.371154
991.286271	2528.138654
991.582262	2467.644808
991.878217	2465.124231
992.174136	2538.220962
992.470019	2457.562500
992.765865	2442.439038
993.061676	2482.768269
993.357450	2492.850577
993.653188	2533.179808
993.948890	2477.727115
994.244556	2515.535769
994.540186	2530.659231
994.835780	2455.041923
995.131337	2455.041923
995.426859	2452.521346
995.722345	2608.797115
996.017795	2490.330000
996.313208	2477.727115
996.608586	2573.509038
996.903928	2545.782692
997.199234	2538.220962
997.494504	2545.782692
997.789738	2513.015192
998.084936	2485.288846
998.380099	2397.068654
998.675225	2568.467885
998.970316	2457.562500
999.265371	2500.412308
999.560390	2492.850577
999.855373	2533.179808
1000.150320	2447.480192
1000.445232	2543.262115
1000.740108	2520.576923
1001.034948	2384.465769
1001.329752	2555.865000
1001.624521	2507.974038
1001.919254	2485.288846
1002.213951	2475.206538
1002.508613	2462.603654
1002.803239	2513.015192
1003.097829	2492.850577
1003.392384	2492.850577
1003.686903	2487.809423
1003.981386	2460.083077
1004.275834	2540.741538
1004.570246	2465.124231
1004.864623	2414.712692
1005.158964	2573.509038
1005.453270	2424.795000
1005.747540	2480.247692
1006.041775	2432.356731
1006.335974	2502.932885
1006.630138	2480.247692
1006.924266	2558.385577
1007.218359	2404.630385
1007.512416	2444.959615
1007.806438	2490.330000
1008.100425	2450.000769
1008.394376	2538.220962
1008.688292	2497.891731
1008.982172	2381.945192
1009.276017	2490.330000
1009.569827	2450.000769
1009.863602	2467.644808
1010.157341	2482.768269
1010.451045	2424.795000
1010.744714	2525.618077
1011.038347	2475.206538
1011.331945	2502.932885
1011.625508	2545.782692
1011.919036	2457.562500
1012.212528	2472.685962
1012.505986	2487.809423
1012.799408	2399.589231
1013.092795	2558.385577
1013.386147	2442.439038
1013.679464	2490.330000
1013.972745	2533.179808
1014.265992	2409.671538
1014.559204	2462.603654
1014.852380	2434.877308
1015.145521	2480.247692
1015.438628	2434.877308
1015.731699	2490.330000
1016.024736	2490.330000
1016.317737	2442.439038
1016.610703	2485.288846
1016.903635	2553.344423
1017.196531	2485.288846
1017.489393	2450.000769
1017.782219	2450.000769
1018.075011	2467.644808
1018.367768	2465.124231
1018.660490	2497.891731
1018.953177	2497.891731
1019.245829	2497.891731
