Dividing Wavelength (nm)	Counts (n)	Blue Motor Position (mm): 5.000000	Red Motor Position (mm): 0.000000	
326.493990	2150.052115
326.888308	2150.052115
327.282561	2150.052115
327.676750	2170.216731
328.070874	2099.640577
328.464933	2172.737308
328.858929	2129.887500
329.252859	2177.778462
329.646726	2147.531538
330.040528	2238.272308
330.434265	2195.422500
330.827938	2233.231154
331.221547	2339.095385
331.615091	2238.272308
332.008571	2248.354615
332.401986	2260.957500
332.795338	2341.615962
333.188625	2344.136538
333.581847	2399.589231
333.975006	2318.930769
334.368100	2334.054231
334.761129	2384.465769
335.154095	2492.850577
335.546996	2424.795000
335.939833	2500.412308
336.332606	2417.233269
336.725315	2533.179808
337.117960	2550.823846
337.510540	2497.891731
337.903056	2475.206538
338.295508	2533.179808
338.687896	2485.288846
339.080220	2520.576923
339.472480	2563.426731
339.864676	2528.138654
340.256807	2591.153077
340.648875	2533.179808
341.040879	2545.782692
341.432818	2576.029615
341.824694	2634.002885
342.216506	2626.441154
342.608253	2586.111923
342.999937	2639.044038
343.391557	2593.673654
343.783113	2586.111923
344.174605	2659.208654
344.566033	2583.591346
344.957397	2593.673654
345.348697	2581.070769
345.739934	2558.385577
346.131106	2528.138654
346.522215	2591.153077
346.913260	2586.111923
347.304241	2545.782692
347.695159	2583.591346
348.086012	2608.797115
348.476802	2565.947308
348.867528	2588.632500
349.258191	2588.632500
349.648789	2525.618077
350.039324	2623.920577
350.429796	2548.303269
350.820203	2487.809423
351.210548	2507.974038
351.600828	2583.591346
351.991045	2490.330000
352.381198	2548.303269
352.771288	2528.138654
353.161314	2548.303269
353.551276	2581.070769
353.941175	2560.906154
354.331010	2533.179808
354.720782	2583.591346
355.110490	2608.797115
355.500135	2555.865000
355.889717	2535.700385
356.279235	2586.111923
356.668689	2525.618077
357.058080	2598.714808
357.447408	2533.179808
357.836672	2588.632500
358.225873	2528.138654
358.615010	2482.768269
359.004084	2558.385577
359.393095	2525.618077
359.782043	2654.167500
360.170927	2513.015192
360.559748	2480.247692
360.948505	2568.467885
361.337199	2502.932885
361.725830	2581.070769
362.114398	2591.153077
362.502903	2530.659231
362.891344	2513.015192
363.279722	2596.194231
363.668037	2540.741538
364.056289	2540.741538
364.444478	2550.823846
364.832603	2535.700385
365.220665	2548.303269
365.608665	2535.700385
365.996601	2591.153077
366.384474	2586.111923
366.772284	2507.974038
367.160031	2568.467885
367.547715	2578.550192
367.935336	2606.276538
368.322893	2598.714808
368.710388	2593.673654
369.097820	2634.002885
369.485189	2523.097500
369.872495	2598.714808
370.259738	2578.550192
370.646918	2591.153077
371.034035	2576.029615
371.421090	2525.618077
371.808081	2533.179808
372.195010	2558.385577
372.581875	2565.947308
372.968678	2583.591346
373.355418	2523.097500
373.742096	2641.564615
374.128710	2543.262115
374.515262	2523.097500
374.901751	2626.441154
375.288177	2545.782692
375.674540	2520.576923
376.060841	2656.688077
376.447079	2576.029615
376.833254	2578.550192
377.219367	2533.179808
377.605417	2570.988462
377.991404	2603.755962
378.377329	2573.509038
378.763191	2583.591346
379.148991	2596.194231
379.534727	2576.029615
379.920402	2616.358846
380.306013	2545.782692
380.691563	2586.111923
381.077049	2618.879423
381.462474	2518.056346
381.847835	2583.591346
382.233134	2573.509038
382.618371	2598.714808
383.003545	2548.303269
383.388657	2603.755962
383.773706	2601.235385
384.158693	2565.947308
384.543618	2538.220962
384.928480	2467.644808
385.313280	2490.330000
385.698017	2520.576923
386.082692	2502.932885
386.467305	2623.920577
386.851856	2548.303269
387.236344	2505.453462
387.620770	2621.400000
388.005133	2550.823846
388.389435	2581.070769
388.773674	2669.290962
389.157851	2628.961731
389.541965	2666.770385
389.926018	2565.947308
390.310008	2570.988462
390.693936	2543.262115
391.077802	2598.714808
391.461606	2563.426731
391.845348	2598.714808
392.229027	2560.906154
392.612645	2586.111923
392.996200	2654.167500
393.379694	2621.400000
393.763125	2634.002885
394.146494	2631.482308
394.529801	2583.591346
394.913047	2616.358846
395.296230	2591.153077
395.679351	2530.659231
396.062410	2626.441154
396.445408	2500.412308
396.828343	2603.755962
397.211217	2601.235385
397.594028	2611.317692
397.976778	2644.085192
398.359466	2596.194231
398.742092	2641.564615
399.124656	2591.153077
399.507158	2606.276538
399.889598	2576.029615
400.271977	2583.591346
400.654294	2591.153077
401.036549	2651.646923
401.418742	2644.085192
401.800874	2618.879423
402.182944	2490.330000
402.564952	2586.111923
402.946898	2576.029615
403.328783	2601.235385
403.710606	2608.797115
404.092367	2565.947308
404.474067	2578.550192
404.855705	2608.797115
405.237282	2555.865000
405.618797	2603.755962
406.000250	2608.797115
406.381642	2457.562500
406.762972	2502.932885
407.144240	2578.550192
407.525447	2606.276538
407.906593	2477.727115
408.287677	2543.262115
408.668700	2535.700385
409.049661	2553.344423
409.430560	2613.838269
409.811399	2538.220962
410.192176	2560.906154
410.572891	2558.385577
410.953545	2591.153077
411.334138	2666.770385
411.714669	2588.632500
412.095139	2555.865000
412.475547	2618.879423
412.855894	2570.988462
413.236180	2608.797115
413.616405	2518.056346
413.996568	2613.838269
414.376670	2639.044038
414.756711	2535.700385
415.136691	2568.467885
415.516609	2699.537885
415.896466	2616.358846
416.276262	2603.755962
416.655997	2613.838269
417.035670	2659.208654
417.415283	2583.591346
417.794834	2568.467885
418.174324	2636.523462
418.553753	2586.111923
418.933121	2583.591346
419.312428	2611.317692
419.691674	2634.002885
420.070859	2649.126346
420.449983	2573.509038
420.829045	2626.441154
421.208047	2500.412308
421.586988	2545.782692
421.965867	2588.632500
422.344686	2535.700385
422.723444	2608.797115
423.102141	2576.029615
423.480777	2613.838269
423.859352	2659.208654
424.237866	2548.303269
424.616319	2664.249808
424.994712	2664.249808
425.373044	2555.865000
425.751314	2588.632500
426.129524	2593.673654
426.507673	2535.700385
426.885762	2570.988462
427.263789	2482.768269
427.641756	2482.768269
428.019662	2611.317692
428.397508	2593.673654
428.775292	2606.276538
429.153016	2550.823846
429.530679	2611.317692
429.908282	2621.400000
430.285824	2555.865000
430.663305	2634.002885
431.040726	2606.276538
431.418086	2686.935000
431.795385	2540.741538
432.172624	2568.467885
432.549802	2606.276538
432.926920	2598.714808
433.303977	2644.085192
433.680974	2707.099615
434.057910	2623.920577
434.434786	2548.303269
434.811601	2558.385577
435.188355	2611.317692
435.565050	2598.714808
435.941683	2651.646923
436.318257	2528.138654
436.694770	2659.208654
437.071222	2732.305385
437.447614	2689.455577
437.823946	2555.865000
438.200218	2623.920577
438.576429	2674.332115
438.952580	2656.688077
439.328670	2654.167500
439.704700	2669.290962
440.080670	2646.605769
440.456580	2707.099615
440.832429	2729.784808
441.208218	2691.976154
441.583947	2644.085192
441.959616	2810.443269
442.335224	2734.825962
442.710773	2724.743654
443.086261	2787.758077
443.461689	2767.593462
443.837057	2911.266346
444.212365	2843.210769
444.587612	2903.704615
444.962800	2901.184038
445.337927	2981.842500
445.712995	2891.101731
446.088002	2979.321923
446.462949	3019.651154
446.837837	3027.212885
447.212664	3032.254038
447.587431	3133.077115
447.962139	3269.188269
448.336786	3475.875577
448.711374	3488.478462
449.085901	3485.957885
449.460369	3440.587500
449.834776	3448.149231
450.209124	3617.027885
450.583412	3846.400385
450.957640	3959.826346
451.331808	3896.811923
451.705917	3891.770769
452.079965	3753.139038
452.453954	4035.443654
452.827883	4216.925192
453.201752	4121.143269
453.575562	4244.651538
453.949311	4476.544615
454.323001	4542.079615
454.696632	4693.314231
455.070202	4811.781346
455.443713	4985.701154
455.817164	5147.018077
456.190556	5310.855577
456.563888	5552.830962
456.937160	5636.010000
457.310373	5809.929808
457.683526	5799.847500
458.056619	5835.135577
458.429653	6077.110962
458.802628	6009.055385
459.175542	6089.713846
459.548398	6760.187308
459.921194	7171.041346
460.293930	7251.699808
460.666607	8015.434615
461.039224	8645.578846
461.411782	8925.362885
461.784280	9028.706538
462.156719	9038.788846
462.529099	9119.447308
462.901419	9006.021346
463.273680	9048.871154
463.645882	9061.474038
464.018024	9394.190192
464.390106	9570.630577
464.762130	10208.336538
465.134094	10881.330577
465.505999	12575.158269
465.877845	14924.335962
466.249631	16464.408462
466.621358	16214.871346
466.993026	15844.346538
467.364634	15567.083077
467.736184	15108.338077
468.107674	14694.963462
468.479105	14957.103462
468.850477	14621.866731
469.221790	14760.498462
469.593043	14596.660962
469.964238	14279.068269
470.335373	13971.557885
470.706449	14992.391538
471.077467	15294.860769
471.448425	17449.954038
471.819324	20814.924231
472.190164	21568.576731
472.560945	18218.730000
472.931667	17134.881923
473.302330	16870.221346
473.672934	16925.674038
474.043479	17059.264615
474.413965	17155.046538
474.784393	16905.509423
475.154761	17845.684615
475.525070	17822.999423
475.895321	17684.367692
476.265513	18286.785577
476.635645	19330.304423
477.005719	18884.162308
477.375734	19330.304423
477.745691	19998.257308
478.115588	20525.057885
478.485427	21162.763846
478.855207	22675.110000
479.224928	24464.719615
479.594591	26332.467115
479.964194	25914.051346
480.333739	26340.028846
480.703226	26143.423846
481.072653	25959.421731
481.442022	27330.615577
481.811333	27948.156923
482.180584	27194.504423
482.549777	26818.938462
482.918912	26473.619423
483.287988	26665.183269
483.657005	26057.724231
484.025964	26486.222308
484.394864	25871.201538
484.763706	25188.125192
485.132489	25162.919423
485.501213	24865.491346
485.869879	25104.946154
486.238487	24883.135385
486.607036	24676.448077
486.975527	24563.022115
487.343959	24797.435769
487.712333	24368.937692
488.080648	24222.744231
488.448905	24668.886346
488.817104	24187.456154
489.185244	24835.244423
489.553326	24686.530385
489.921350	25717.446346
490.289315	27718.784423
490.657222	28835.400000
491.025070	28976.552308
491.392861	28293.475962
491.760593	27597.796731
492.128267	26153.506154
492.495883	25286.427692
492.863440	24419.349231
493.230939	23441.365385
493.598380	23164.101923
493.965763	22528.916538
494.333088	21737.455385
494.700354	21838.278462
495.067563	21056.899615
495.434713	20651.086731
495.801805	20721.662885
496.168839	20457.002308
496.535815	20068.833462
496.902733	19910.037115
497.269593	19479.018462
497.636395	19554.635769
498.003139	19186.631538
498.369825	18740.489423
498.736453	18906.847500
499.103023	18652.269231
499.469535	18296.867885
499.835989	17840.643462
500.202385	17530.612500
500.568723	17175.211154
500.935003	17255.869615
501.301226	16693.780962
501.667390	17172.690577
502.033497	16910.550577
502.399546	16471.970192
502.765537	15680.509038
503.131470	15554.480192
503.497345	15854.428846
503.863163	15219.243462
504.228923	14984.829808
504.594625	14810.910000
504.960269	14662.195962
505.325856	14526.084808
505.691385	13900.981731
506.056856	14064.819231
506.422270	13782.514615
506.787625	13217.905385
507.152924	13175.055577
507.518164	13154.890962
507.883347	12653.296154
508.248472	12290.333077
508.613540	12244.962692
508.978550	11985.343269
509.343503	11803.861731
509.708398	11554.324615
510.073236	11413.172308
510.438016	11077.935577
510.802738	10694.807885
511.167403	10931.742115
511.532010	10450.311923
511.896561	10556.176154
512.261053	10236.062885
512.625488	10024.334423
512.989866	9759.673846
513.354186	9560.548269
513.718449	9255.558462
514.082655	9270.681923
514.446803	9074.076923
514.810894	8842.183846
515.174927	8569.961538
515.538904	8307.821538
515.902822	8315.383269
516.266684	8086.010769
516.630488	7869.241154
516.994235	7591.977692
517.357925	7813.788462
517.721558	7624.745192
518.085133	7299.590769
518.448651	7236.576346
518.812112	7097.944615
519.175516	7002.162692
519.538863	6850.928077
519.902152	6694.652308
520.265385	6480.403269
520.628560	6361.936154
520.991678	6137.604808
521.354739	6167.851731
521.717743	6054.425769
522.080690	5900.670577
522.443580	5681.380385
522.806413	5593.160192
523.169189	5628.448269
523.531908	5512.501731
523.894569	5313.376154
524.257174	5250.361731
524.619722	5144.497500
524.982213	5061.318462
525.344647	4867.234038
525.707025	4859.672308
526.069345	4715.999423
526.431608	4688.273077
526.793815	4521.915000
527.155964	4448.818269
527.518057	4380.762692
527.880093	4302.624808
528.242072	4269.857308
528.603995	4186.678269
528.965860	4143.828462
529.327669	4010.237885
529.689421	4015.279038
530.051117	3954.785192
530.412755	3856.482692
530.774337	3715.330385
531.135862	3667.439423
531.497331	3745.577308
531.858743	3669.960000
532.220098	3652.315962
532.581396	3581.739808
532.942638	3556.534038
533.303824	3496.040192
533.664953	3412.861154
534.026025	3417.902308
534.387040	3387.655385
534.747999	3329.682115
535.108902	3339.764423
535.469748	3228.859038
535.830537	3332.202692
536.191270	3256.585385
536.551947	3317.079231
536.912567	3125.515385
537.273131	3049.898077
537.633638	3092.747885
537.994089	3201.132692
538.354483	3070.062692
538.714821	3095.268462
539.075103	3007.048269
539.435328	2981.842500
539.795497	2956.636731
540.155609	3007.048269
540.515665	2893.622308
540.875665	2984.363077
541.235609	2976.801346
541.595496	2903.704615
541.955328	2944.033846
542.315102	2823.046154
542.674821	2782.716923
543.034483	2868.416538
543.394090	2828.087308
543.753640	2823.046154
544.113134	2767.593462
544.472571	2858.334231
544.831953	2865.895962
545.191278	2795.319808
545.550548	2812.963846
545.909761	2765.072885
546.268918	2729.784808
546.628019	2802.881538
546.987064	2772.634615
547.346053	2767.593462
547.704986	2737.346538
548.063863	2800.360962
548.422684	2732.305385
548.781449	2727.264231
549.140158	2790.278654
549.498811	2709.620192
549.857408	2719.702500
550.215949	2727.264231
550.574434	2749.949423
550.932864	2623.920577
551.291237	2664.249808
551.649555	2719.702500
552.007817	2719.702500
552.366022	2649.126346
552.724173	2697.017308
553.082267	2651.646923
553.440305	2694.496731
553.798288	2689.455577
554.156215	2704.579038
554.514086	2669.290962
554.871902	2616.358846
555.229661	2656.688077
555.587365	2704.579038
555.945014	2691.976154
556.302606	2613.838269
556.660143	2649.126346
557.017625	2679.373269
557.375050	2772.634615
557.732421	2697.017308
558.089735	2626.441154
558.446994	2598.714808
558.804197	2664.249808
559.161345	2722.223077
559.518437	2739.867115
559.875474	2734.825962
560.232455	2674.332115
560.589381	2616.358846
560.946251	2671.811538
561.303065	2674.332115
561.659825	2656.688077
562.016528	2686.935000
562.373177	2674.332115
562.729770	2686.935000
563.086307	2631.482308
563.442789	2654.167500
563.799216	2634.002885
564.155587	2671.811538
564.511904	2674.332115
564.868164	2712.140769
565.224370	2646.605769
565.580520	2646.605769
565.936615	2626.441154
566.292654	2661.729231
566.648638	2712.140769
567.004567	2613.838269
567.360441	2588.632500
567.716260	2679.373269
568.072023	2606.276538
568.427732	2686.935000
568.783385	2636.523462
569.138982	2669.290962
569.494525	2669.290962
569.850013	2583.591346
570.205445	2649.126346
570.560823	2628.961731
570.916145	2664.249808
571.271412	2608.797115
571.626625	2621.400000
571.981782	2659.208654
572.336884	2628.961731
572.691931	2697.017308
573.046923	2623.920577
573.401860	2691.976154
573.756743	2593.673654
574.111570	2583.591346
574.466342	2644.085192
574.821059	2661.729231
575.175722	2712.140769
575.530330	2601.235385
575.884882	2651.646923
576.239380	2616.358846
576.593823	2666.770385
576.948211	2586.111923
577.302544	2697.017308
577.656823	2581.070769
578.011047	2689.455577
578.365216	2588.632500
578.719330	2649.126346
579.073389	2679.373269
579.427394	2671.811538
579.781344	2644.085192
580.135239	2608.797115
580.489080	2623.920577
580.842866	2704.579038
581.196597	2631.482308
581.550273	2691.976154
581.903895	2659.208654
582.257463	2626.441154
582.610975	2586.111923
582.964434	2626.441154
583.317837	2656.688077
583.671186	2628.961731
584.024481	2583.591346
584.377721	2644.085192
584.730906	2654.167500
585.084037	2679.373269
585.437113	2634.002885
585.790135	2676.852692
586.143103	2636.523462
586.496016	2691.976154
586.848874	2618.879423
587.201679	2631.482308
587.554428	2593.673654
587.907124	2649.126346
588.259765	2697.017308
588.612352	2639.044038
588.964884	2661.729231
589.317362	2636.523462
589.669786	2623.920577
590.022155	2623.920577
590.374470	2583.591346
590.726731	2676.852692
591.078937	2598.714808
591.431090	2656.688077
591.783188	2601.235385
592.135232	2621.400000
592.487222	2623.920577
592.839157	2684.414423
593.191038	2588.632500
593.542866	2631.482308
593.894639	2717.181923
594.246358	2636.523462
594.598022	2616.358846
594.949633	2623.920577
595.301190	2626.441154
595.652692	2729.784808
596.004141	2644.085192
596.355535	2623.920577
596.706876	2661.729231
597.058162	2618.879423
597.409395	2563.426731
597.760573	2586.111923
598.111698	2611.317692
598.462768	2621.400000
598.813785	2644.085192
599.164748	2560.906154
599.515657	2644.085192
599.866511	2581.070769
600.217312	2681.893846
600.568060	2636.523462
600.918753	2581.070769
601.269392	2656.688077
601.619978	2671.811538
601.970510	2576.029615
602.320988	2603.755962
602.671412	2691.976154
603.021783	2659.208654
603.372100	2686.935000
603.722363	2628.961731
604.072572	2631.482308
604.422728	2681.893846
604.772830	2634.002885
605.122878	2699.537885
605.472872	2634.002885
605.822813	2681.893846
606.172701	2646.605769
606.522534	2601.235385
606.872314	2649.126346
607.222041	2686.935000
607.571714	2686.935000
607.921333	2618.879423
608.270899	2681.893846
608.620411	2659.208654
608.969870	2583.591346
609.319276	2623.920577
609.668627	2573.509038
610.017926	2641.564615
610.367171	2679.373269
610.716362	2616.358846
611.065500	2681.893846
611.414585	2581.070769
611.763616	2611.317692
612.112594	2513.015192
612.461518	2644.085192
612.810389	2581.070769
613.159207	2636.523462
613.507971	2656.688077
613.856682	2626.441154
614.205340	2646.605769
614.553945	2621.400000
614.902496	2719.702500
615.250994	2593.673654
615.599439	2538.220962
615.947830	2623.920577
616.296169	2636.523462
616.644454	2533.179808
616.992686	2636.523462
617.340864	2563.426731
617.688990	2686.935000
618.037063	2684.414423
618.385082	2581.070769
618.733048	2649.126346
619.080961	2570.988462
619.428821	2634.002885
619.776628	2616.358846
620.124382	2656.688077
620.472083	2669.290962
620.819731	2550.823846
621.167326	2581.070769
621.514868	2482.768269
621.862357	2618.879423
622.209793	2674.332115
622.557176	2586.111923
622.904506	2691.976154
623.251783	2530.659231
623.599007	2674.332115
623.946179	2651.646923
624.293297	2644.085192
624.640363	2591.153077
624.987376	2581.070769
625.334336	2681.893846
625.681243	2611.317692
626.028097	2626.441154
626.374899	2616.358846
626.721647	2626.441154
627.068343	2586.111923
627.414987	2676.852692
627.761577	2634.002885
628.108115	2634.002885
628.454600	2623.920577
628.801032	2674.332115
629.147412	2613.838269
629.493739	2631.482308
629.840014	2626.441154
630.186236	2611.317692
630.532405	2621.400000
630.878521	2626.441154
631.224585	2601.235385
631.570597	2649.126346
631.916556	2606.276538
632.262462	2596.194231
632.608316	2598.714808
632.954117	2596.194231
633.299866	2689.455577
633.645562	2654.167500
633.991206	2664.249808
634.336797	2634.002885
634.682336	2598.714808
635.027823	2649.126346
635.373257	2691.976154
635.718639	2651.646923
636.063968	2661.729231
636.409245	2679.373269
636.754470	2628.961731
637.099642	2596.194231
637.444762	2601.235385
637.789829	2626.441154
638.134845	2669.290962
638.479808	2628.961731
638.824719	2669.290962
639.169577	2641.564615
639.514383	2598.714808
639.859137	2563.426731
640.203839	2628.961731
640.548489	2659.208654
640.893086	2676.852692
641.237632	2583.591346
641.582125	2671.811538
641.926566	2634.002885
642.270955	2603.755962
642.615292	2563.426731
642.959576	2646.605769
643.303809	2581.070769
643.647990	2681.893846
643.992118	2611.317692
644.336195	2621.400000
644.680219	2613.838269
645.024192	2581.070769
645.368112	2616.358846
645.711981	2626.441154
646.055797	2591.153077
646.399562	2636.523462
646.743274	2631.482308
647.086935	2598.714808
647.430544	2603.755962
647.774101	2661.729231
648.117606	2639.044038
648.461059	2742.387692
648.804460	2644.085192
649.147810	2621.400000
649.491108	2601.235385
649.834354	2649.126346
650.177548	2555.865000
650.520690	2631.482308
650.863781	2636.523462
651.206820	2636.523462
651.549807	2644.085192
651.892742	2639.044038
652.235626	2616.358846
652.578458	2588.632500
652.921238	2533.179808
653.263967	2601.235385
653.606644	2568.467885
653.949269	2679.373269
654.291843	2623.920577
654.634365	2560.906154
654.976836	2631.482308
655.319255	2618.879423
655.661622	2649.126346
656.003938	2576.029615
656.346203	2606.276538
656.688416	2661.729231
657.030577	2628.961731
657.372687	2664.249808
657.714746	2543.262115
658.056753	2558.385577
658.398708	2626.441154
658.740612	2628.961731
659.082465	2646.605769
659.424266	2576.029615
659.766016	2689.455577
660.107715	2583.591346
660.449362	2613.838269
660.790958	2613.838269
661.132503	2649.126346
661.473996	2694.496731
661.815438	2686.935000
662.156829	2570.988462
662.498168	2540.741538
662.839456	2644.085192
663.180693	2651.646923
663.521879	2583.591346
663.863013	2596.194231
664.204097	2631.482308
664.545129	2666.770385
664.886110	2681.893846
665.227040	2596.194231
665.567918	2628.961731
665.908746	2631.482308
666.249522	2634.002885
666.590248	2636.523462
666.930922	2618.879423
667.271545	2588.632500
667.612118	2732.305385
667.952639	2691.976154
668.293109	2714.661346
668.633528	2613.838269
668.973896	2639.044038
669.314213	2691.976154
669.654480	2722.223077
669.994695	2616.358846
670.334859	2591.153077
670.674973	2608.797115
671.015035	2656.688077
671.355047	2621.400000
671.695008	2588.632500
672.034918	2601.235385
672.374777	2593.673654
672.714585	2684.414423
673.054342	2666.770385
673.394049	2558.385577
673.733705	2631.482308
674.073310	2666.770385
674.412864	2601.235385
674.752368	2543.262115
675.091820	2644.085192
675.431223	2601.235385
675.770574	2644.085192
676.109875	2697.017308
676.449125	2591.153077
676.788324	2606.276538
677.127473	2656.688077
677.466571	2606.276538
677.805619	2518.056346
678.144616	2621.400000
678.483562	2659.208654
678.822458	2558.385577
679.161303	2568.467885
679.500098	2634.002885
679.838842	2676.852692
680.177535	2674.332115
680.516179	2573.509038
680.854771	2623.920577
681.193314	2606.276538
681.531805	2679.373269
681.870247	2631.482308
682.208638	2656.688077
682.546978	2581.070769
682.885268	2669.290962
683.223508	2669.290962
683.561697	2641.564615
683.899836	2618.879423
684.237925	2651.646923
684.575963	2598.714808
684.913951	2654.167500
685.251889	2676.852692
685.589776	2613.838269
685.927614	2606.276538
686.265401	2729.784808
686.603137	2661.729231
686.940824	2654.167500
687.278460	2576.029615
687.616046	2613.838269
687.953582	2709.620192
688.291068	2661.729231
688.628504	2631.482308
688.965889	2634.002885
689.303224	2646.605769
689.640510	2649.126346
689.977745	2591.153077
690.314930	2641.564615
690.652065	2616.358846
690.989150	2618.879423
691.326185	2578.550192
691.663170	2581.070769
692.000105	2712.140769
692.336990	2634.002885
692.673825	2603.755962
693.010610	2664.249808
693.347345	2651.646923
693.684030	2596.194231
694.020665	2626.441154
694.357251	2591.153077
694.693786	2616.358846
695.030272	2666.770385
695.366707	2593.673654
695.703093	2533.179808
696.039429	2626.441154
696.375716	2644.085192
696.711952	2603.755962
697.048139	2560.906154
697.384276	2656.688077
697.720363	2593.673654
698.056400	2626.441154
698.392388	2560.906154
698.728326	2651.646923
699.064214	2603.755962
699.400053	2550.823846
699.735842	2694.496731
700.071581	2636.523462
700.407270	2576.029615
700.742910	2596.194231
701.078501	2581.070769
701.414042	2621.400000
701.749533	2588.632500
702.084974	2628.961731
702.420366	2639.044038
702.755709	2535.700385
703.091002	2601.235385
703.426246	2618.879423
703.761440	2588.632500
704.096584	2649.126346
704.431679	2613.838269
704.766725	2641.564615
705.101721	2598.714808
705.436668	2553.344423
705.771565	2523.097500
706.106413	2626.441154
706.441212	2621.400000
706.775961	2649.126346
707.110661	2707.099615
707.445311	2591.153077
707.779913	2704.579038
708.114465	2651.646923
708.448967	2523.097500
708.783421	2613.838269
709.117825	2626.441154
709.452180	2631.482308
709.786485	2581.070769
710.120742	2656.688077
710.454949	2560.906154
710.789107	2618.879423
711.123216	2646.605769
711.457275	2641.564615
711.791286	2634.002885
712.125247	2651.646923
712.459159	2649.126346
712.793023	2699.537885
713.126837	2636.523462
713.460602	2626.441154
713.794318	2606.276538
714.127985	2654.167500
714.461602	2538.220962
714.795171	2608.797115
715.128691	2573.509038
715.462162	2654.167500
715.795584	2666.770385
716.128957	2639.044038
716.462281	2583.591346
716.795556	2596.194231
717.128782	2586.111923
717.461960	2608.797115
717.795088	2588.632500
718.128167	2641.564615
718.461198	2578.550192
718.794180	2608.797115
719.127113	2523.097500
719.459997	2593.673654
719.792833	2581.070769
720.125619	2603.755962
720.458357	2664.249808
720.791046	2656.688077
721.123686	2646.605769
721.456278	2591.153077
721.788821	2636.523462
722.121315	2606.276538
722.453761	2649.126346
722.786158	2593.673654
723.118506	2565.947308
723.450805	2623.920577
723.783056	2618.879423
724.115259	2669.290962
724.447412	2676.852692
724.779518	2704.579038
725.111574	2656.688077
725.443582	2583.591346
725.775542	2598.714808
726.107453	2639.044038
726.439315	2616.358846
726.771129	2634.002885
727.102895	2601.235385
727.434612	2558.385577
727.766281	2608.797115
728.097901	2603.755962
728.429473	2601.235385
728.760996	2636.523462
729.092471	2578.550192
729.423897	2598.714808
729.755276	2611.317692
730.086606	2671.811538
730.417887	2558.385577
730.749120	2603.755962
731.080305	2603.755962
731.411442	2586.111923
731.742530	2722.223077
732.073570	2654.167500
732.404562	2626.441154
732.735506	2641.564615
733.066401	2583.591346
733.397249	2646.605769
733.728048	2641.564615
734.058798	2533.179808
734.389501	2591.153077
734.720156	2586.111923
735.050762	2603.755962
735.381320	2606.276538
735.711831	2591.153077
736.042293	2656.688077
736.372707	2593.673654
736.703073	2500.412308
737.033391	2573.509038
737.363661	2651.646923
737.693883	2568.467885
738.024056	2606.276538
738.354182	2676.852692
738.684260	2626.441154
739.014290	2586.111923
739.344272	2618.879423
739.674207	2598.714808
740.004093	2578.550192
740.333931	2608.797115
740.663722	2608.797115
740.993464	2578.550192
741.323159	2659.208654
741.652806	2684.414423
741.982405	2644.085192
742.311956	2649.126346
742.641460	2664.249808
742.970915	2613.838269
743.300323	2611.317692
743.629683	2681.893846
743.958996	2659.208654
744.288260	2540.741538
744.617477	2576.029615
744.946647	2631.482308
745.275768	2621.400000
745.604842	2613.838269
745.933869	2646.605769
746.262847	2649.126346
746.591778	2606.276538
746.920662	2616.358846
747.249498	2626.441154
747.578286	2649.126346
747.907027	2598.714808
748.235720	2679.373269
748.564365	2548.303269
748.892963	2654.167500
749.221514	2623.920577
749.550017	2608.797115
749.878473	2548.303269
750.206881	2659.208654
750.535242	2480.247692
750.863555	2666.770385
751.191821	2593.673654
751.520039	2588.632500
751.848210	2664.249808
752.176334	2671.811538
752.504411	2578.550192
752.832440	2661.729231
753.160421	2684.414423
753.488356	2591.153077
753.816243	2550.823846
754.144082	2649.126346
754.471875	2626.441154
754.799620	2535.700385
755.127318	2545.782692
755.454969	2646.605769
755.782572	2598.714808
756.110129	2563.426731
756.437638	2644.085192
756.765100	2588.632500
757.092515	2644.085192
757.419882	2573.509038
757.747203	2702.058462
758.074477	2656.688077
758.401703	2613.838269
758.728882	2661.729231
759.056014	2490.330000
759.383099	2666.770385
759.710138	2639.044038
760.037129	2616.358846
760.364073	2646.605769
760.690970	2611.317692
761.017820	2639.044038
761.344623	2583.591346
761.671379	2664.249808
761.998088	2613.838269
762.324751	2636.523462
762.651366	2528.138654
762.977935	2626.441154
763.304456	2621.400000
763.630931	2601.235385
763.957359	2659.208654
764.283740	2608.797115
764.610074	2659.208654
764.936362	2601.235385
765.262602	2681.893846
765.588796	2578.550192
765.914943	2568.467885
766.241044	2593.673654
766.567097	2581.070769
766.893104	2591.153077
767.219064	2593.673654
767.544978	2639.044038
767.870845	2540.741538
768.196665	2686.935000
768.522438	2621.400000
768.848165	2525.618077
769.173846	2664.249808
769.499479	2550.823846
769.825066	2613.838269
770.150607	2611.317692
770.476101	2613.838269
770.801548	2611.317692
771.126949	2515.535769
771.452303	2550.823846
771.777611	2581.070769
772.102872	2611.317692
772.428087	2520.576923
772.753256	2618.879423
773.078378	2550.823846
773.403453	2565.947308
773.728482	2611.317692
774.053465	2661.729231
774.378401	2598.714808
774.703291	2550.823846
775.028135	2588.632500
775.352932	2641.564615
775.677683	2570.988462
776.002388	2563.426731
776.327046	2611.317692
776.651658	2659.208654
776.976224	2671.811538
777.300743	2666.770385
777.625216	2515.535769
777.949643	2586.111923
778.274024	2563.426731
778.598359	2616.358846
778.922647	2639.044038
779.246889	2724.743654
779.571086	2598.714808
779.895236	2641.564615
780.219339	2578.550192
780.543397	2634.002885
780.867409	2661.729231
781.191374	2659.208654
781.515294	2616.358846
781.839167	2649.126346
782.162995	2631.482308
782.486776	2621.400000
782.810511	2487.809423
783.134201	2573.509038
783.457844	2639.044038
783.781441	2570.988462
784.104993	2606.276538
784.428498	2613.838269
784.751958	2656.688077
785.075372	2553.344423
785.398739	2611.317692
785.722061	2568.467885
786.045337	2495.371154
786.368568	2588.632500
786.691752	2636.523462
787.014891	2651.646923
787.337983	2644.085192
787.661030	2623.920577
787.984031	2588.632500
788.306987	2588.632500
788.629897	2550.823846
788.952760	2661.729231
789.275579	2691.976154
789.598351	2603.755962
789.921078	2558.385577
790.243759	2596.194231
790.566395	2591.153077
790.888984	2581.070769
791.211529	2591.153077
791.534027	2623.920577
791.856480	2573.509038
792.178888	2601.235385
792.501249	2555.865000
792.823566	2525.618077
793.145836	2651.646923
793.468062	2621.400000
793.790241	2606.276538
794.112375	2634.002885
794.434464	2644.085192
794.756507	2621.400000
795.078505	2591.153077
795.400457	2583.591346
795.722364	2586.111923
796.044226	2651.646923
796.366042	2671.811538
796.687812	2676.852692
797.009538	2691.976154
797.331218	2533.179808
797.652852	2576.029615
797.974442	2601.235385
798.295986	2634.002885
798.617484	2586.111923
798.938938	2656.688077
799.260346	2588.632500
799.581709	2621.400000
799.903026	2560.906154
800.224299	2578.550192
800.545526	2583.591346
800.866708	2608.797115
801.187845	2586.111923
801.508936	2565.947308
801.829983	2613.838269
802.150984	2616.358846
802.471940	2628.961731
802.792851	2623.920577
803.113717	2639.044038
803.434538	2565.947308
803.755314	2518.056346
804.076045	2558.385577
804.396731	2626.441154
804.717372	2618.879423
805.037967	2628.961731
805.358518	2588.632500
805.679024	2649.126346
805.999485	2603.755962
806.319901	2674.332115
806.640272	2634.002885
806.960598	2674.332115
807.280879	2477.727115
807.601115	2616.358846
807.921306	2591.153077
808.241453	2576.029615
808.561554	2631.482308
808.881611	2613.838269
809.201623	2639.044038
809.521590	2616.358846
809.841513	2528.138654
810.161390	2596.194231
810.481223	2555.865000
810.801011	2573.509038
811.120755	2578.550192
811.440453	2659.208654
811.760107	2628.961731
812.079716	2618.879423
812.399281	2656.688077
812.718801	2618.879423
813.038276	2684.414423
813.357707	2533.179808
813.677093	2623.920577
813.996434	2578.550192
814.315731	2623.920577
814.634983	2560.906154
814.954191	2656.688077
815.273354	2646.605769
815.592473	2502.932885
815.911547	2555.865000
816.230577	2576.029615
816.549562	2634.002885
816.868502	2563.426731
817.187399	2676.852692
817.506250	2618.879423
817.825058	2553.344423
818.143821	2576.029615
818.462539	2636.523462
818.781213	2563.426731
819.099843	2669.290962
819.418429	2555.865000
819.736970	2598.714808
820.055466	2654.167500
820.373919	2641.564615
820.692327	2593.673654
821.010691	2613.838269
821.329011	2679.373269
821.647286	2646.605769
821.965517	2626.441154
822.283704	2712.140769
822.601847	2656.688077
822.919945	2729.784808
823.237999	2699.537885
823.556010	2649.126346
823.873976	2641.564615
824.191897	2598.714808
824.509775	2644.085192
824.827609	2588.632500
825.145398	2618.879423
825.463144	2626.441154
825.780845	2639.044038
826.098502	2646.605769
826.416116	2739.867115
826.733685	2654.167500
827.051210	2623.920577
827.368692	2654.167500
827.686129	2674.332115
828.003522	2689.455577
828.320872	2641.564615
828.638177	2651.646923
828.955439	2581.070769
829.272656	2651.646923
829.589830	2608.797115
829.906960	2616.358846
830.224046	2691.976154
830.541088	2676.852692
830.858086	2601.235385
831.175041	2608.797115
831.491952	2603.755962
831.808819	2540.741538
832.125642	2548.303269
832.442421	2560.906154
832.759157	2608.797115
833.075849	2636.523462
833.392497	2686.935000
833.709101	2623.920577
834.025662	2651.646923
834.342179	2593.673654
834.658653	2477.727115
834.975083	2613.838269
835.291469	2606.276538
835.607811	2636.523462
835.924110	2631.482308
836.240366	2679.373269
836.556578	2570.988462
836.872746	2603.755962
837.188871	2578.550192
837.504952	2586.111923
837.820990	2603.755962
838.136984	2621.400000
838.452935	2621.400000
838.768842	2558.385577
839.084706	2578.550192
839.400526	2586.111923
839.716303	2611.317692
840.032037	2545.782692
840.347727	2634.002885
840.663373	2543.262115
840.978977	2553.344423
841.294537	2631.482308
841.610054	2613.838269
841.925527	2707.099615
842.240957	2641.564615
842.556344	2666.770385
842.871687	2555.865000
843.186987	2606.276538
843.502244	2623.920577
843.817458	2545.782692
844.132629	2639.044038
844.447756	2523.097500
844.762840	2649.126346
845.077881	2581.070769
845.392879	2573.509038
845.707833	2654.167500
846.022745	2671.811538
846.337613	2573.509038
846.652438	2540.741538
846.967221	2626.441154
847.281960	2631.482308
847.596656	2606.276538
847.911309	2611.317692
848.225919	2697.017308
848.540485	2659.208654
848.855009	2581.070769
849.169490	2588.632500
849.483928	2591.153077
849.798323	2578.550192
850.112675	2583.591346
850.426984	2550.823846
850.741251	2649.126346
851.055474	2576.029615
851.369654	2618.879423
851.683792	2596.194231
851.997887	2631.482308
852.311938	2548.303269
852.625947	2573.509038
852.939914	2588.632500
853.253837	2578.550192
853.567718	2555.865000
853.881555	2664.249808
854.195350	2586.111923
854.509103	2623.920577
854.822812	2583.591346
855.136479	2583.591346
855.450103	2586.111923
855.763685	2588.632500
856.077224	2656.688077
856.390720	2570.988462
856.704173	2631.482308
857.017584	2583.591346
857.330953	2518.056346
857.644278	2608.797115
857.957561	2641.564615
858.270802	2540.741538
858.584000	2727.264231
858.897155	2613.838269
859.210268	2558.385577
859.523339	2611.317692
859.836367	2530.659231
860.149352	2598.714808
860.462295	2651.646923
860.775195	2634.002885
861.088054	2616.358846
861.400869	2591.153077
861.713642	2578.550192
862.026373	2560.906154
862.339062	2591.153077
862.651708	2613.838269
862.964312	2500.412308
863.276873	2644.085192
863.589392	2581.070769
863.901869	2621.400000
864.214303	2631.482308
864.526696	2591.153077
864.839045	2666.770385
865.151353	2591.153077
865.463619	2676.852692
865.775842	2555.865000
866.088023	2601.235385
866.400162	2583.591346
866.712258	2596.194231
867.024313	2578.550192
867.336325	2487.809423
867.648296	2576.029615
867.960224	2646.605769
868.272110	2588.632500
868.583954	2644.085192
868.895755	2644.085192
869.207515	2628.961731
869.519233	2623.920577
869.830909	2598.714808
870.142542	2606.276538
870.454134	2676.852692
870.765684	2518.056346
871.077191	2555.865000
871.388657	2598.714808
871.700081	2472.685962
872.011463	2608.797115
872.322803	2563.426731
872.634101	2628.961731
872.945357	2649.126346
873.256571	2591.153077
873.567744	2639.044038
873.878874	2661.729231
874.189963	2593.673654
874.501010	2538.220962
874.812015	2626.441154
875.122979	2628.961731
875.433900	2641.564615
875.744780	2591.153077
876.055618	2628.961731
876.366415	2588.632500
876.677169	2623.920577
876.987882	2646.605769
877.298554	2611.317692
877.609183	2639.044038
877.919771	2618.879423
878.230317	2616.358846
878.540822	2593.673654
878.851285	2586.111923
879.161707	2533.179808
879.472087	2634.002885
879.782425	2628.961731
880.092722	2565.947308
880.402977	2669.290962
880.713191	2581.070769
881.023363	2646.605769
881.333494	2598.714808
881.643583	2644.085192
881.953631	2634.002885
882.263637	2621.400000
882.573602	2553.344423
882.883526	2578.550192
883.193408	2681.893846
883.503248	2545.782692
883.813048	2565.947308
884.122806	2611.317692
884.432522	2644.085192
884.742197	2646.605769
885.051831	2593.673654
885.361424	2623.920577
885.670975	2636.523462
885.980485	2631.482308
886.289954	2649.126346
886.599382	2606.276538
886.908768	2570.988462
887.218113	2603.755962
887.527417	2651.646923
887.836680	2588.632500
888.145901	2598.714808
888.455082	2515.535769
888.764221	2581.070769
889.073319	2591.153077
889.382376	2679.373269
889.691392	2573.509038
890.000366	2598.714808
890.309300	2611.317692
890.618193	2616.358846
890.927044	2628.961731
891.235855	2691.976154
891.544625	2568.467885
891.853353	2646.605769
892.162041	2568.467885
892.470687	2608.797115
892.779293	2535.700385
893.087858	2563.426731
893.396381	2608.797115
893.704864	2598.714808
894.013306	2654.167500
894.321707	2623.920577
894.630068	2631.482308
894.938387	2664.249808
895.246665	2583.591346
895.554903	2601.235385
895.863100	2591.153077
896.171256	2596.194231
896.479371	2606.276538
896.787446	2581.070769
897.095480	2581.070769
897.403473	2641.564615
897.711425	2689.455577
898.019336	2598.714808
898.327207	2656.688077
898.635038	2606.276538
898.942827	2591.153077
899.250576	2487.809423
899.558284	2538.220962
899.865952	2644.085192
900.173579	2578.550192
900.481165	2606.276538
900.788711	2538.220962
901.096216	2563.426731
901.403681	2540.741538
901.711105	2639.044038
902.018489	2487.809423
902.325832	2649.126346
902.633135	2606.276538
902.940397	2530.659231
903.247619	2563.426731
903.554800	2608.797115
903.861941	2553.344423
904.169041	2644.085192
904.476101	2460.083077
904.783121	2651.646923
905.090100	2603.755962
905.397039	2576.029615
905.703938	2621.400000
906.010796	2545.782692
906.317614	2576.029615
906.624391	2515.535769
906.931129	2618.879423
907.237826	2626.441154
907.544483	2613.838269
907.851099	2553.344423
908.157675	2593.673654
908.464211	2588.632500
908.770707	2644.085192
909.077163	2560.906154
909.383578	2545.782692
909.689954	2651.646923
909.996289	2613.838269
910.302584	2586.111923
910.608839	2576.029615
910.915054	2588.632500
911.221229	2591.153077
911.527363	2485.288846
911.833458	2649.126346
912.139513	2593.673654
912.445527	2608.797115
912.751502	2631.482308
913.057436	2608.797115
913.363331	2684.414423
913.669186	2616.358846
913.975000	2659.208654
914.280775	2480.247692
914.586510	2623.920577
914.892205	2671.811538
915.197859	2623.920577
915.503475	2628.961731
915.809050	2626.441154
916.114585	2586.111923
916.420081	2626.441154
916.725536	2606.276538
917.030952	2659.208654
917.336328	2593.673654
917.641665	2634.002885
917.946961	2583.591346
918.252218	2618.879423
918.557435	2558.385577
918.862612	2616.358846
919.167750	2636.523462
919.472848	2591.153077
919.777906	2613.838269
920.082925	2583.591346
920.387904	2583.591346
920.692843	2598.714808
920.997743	2576.029615
921.302603	2581.070769
921.607423	2631.482308
921.912204	2666.770385
922.216946	2623.920577
922.521647	2563.426731
922.826310	2570.988462
923.130932	2626.441154
923.435516	2639.044038
923.740059	2565.947308
924.044564	2591.153077
924.349028	2581.070769
924.653454	2644.085192
924.957840	2613.838269
925.262186	2623.920577
925.566493	2631.482308
925.870761	2646.605769
926.174989	2631.482308
926.479178	2601.235385
926.783328	2651.646923
927.087438	2626.441154
927.391509	2623.920577
927.695541	2570.988462
927.999533	2606.276538
928.303486	2621.400000
928.607400	2618.879423
928.911275	2485.288846
929.215110	2596.194231
929.518906	2513.015192
929.822663	2550.823846
930.126381	2613.838269
930.430060	2513.015192
930.733699	2593.673654
931.037299	2560.906154
931.340861	2581.070769
931.644383	2555.865000
931.947866	2535.700385
932.251309	2515.535769
932.554714	2591.153077
932.858080	2606.276538
933.161407	2578.550192
933.464694	2563.426731
933.767943	2513.015192
934.071153	2656.688077
934.374323	2518.056346
934.677455	2568.467885
934.980548	2515.535769
935.283602	2601.235385
935.586617	2639.044038
935.889593	2583.591346
936.192530	2623.920577
936.495428	2523.097500
936.798287	2581.070769
937.101108	2608.797115
937.403890	2495.371154
937.706632	2606.276538
938.009336	2616.358846
938.312002	2530.659231
938.614628	2634.002885
938.917216	2603.755962
939.219765	2593.673654
939.522275	2507.974038
939.824747	2565.947308
940.127179	2606.276538
940.429573	2500.412308
940.731929	2636.523462
941.034246	2593.673654
941.336524	2613.838269
941.638763	2528.138654
941.940964	2581.070769
942.243126	2618.879423
942.545250	2651.646923
942.847335	2565.947308
943.149381	2724.743654
943.451389	2606.276538
943.753359	2563.426731
944.055290	2611.317692
944.357182	2583.591346
944.659036	2596.194231
944.960851	2654.167500
945.262628	2641.564615
945.564367	2601.235385
945.866067	2586.111923
946.167729	2563.426731
946.469352	2661.729231
946.770937	2621.400000
947.072484	2631.482308
947.373992	2608.797115
947.675462	2540.741538
947.976893	2555.865000
948.278286	2646.605769
948.579641	2545.782692
948.880958	2513.015192
949.182236	2570.988462
949.483476	2644.085192
949.784678	2603.755962
950.085841	2502.932885
950.386967	2581.070769
950.688054	2656.688077
950.989103	2611.317692
951.290114	2601.235385
951.591087	2576.029615
951.892021	2545.782692
952.192917	2563.426731
952.493776	2601.235385
952.794596	2565.947308
953.095378	2598.714808
953.396122	2593.673654
953.696828	2495.371154
953.997496	2530.659231
954.298126	2588.632500
954.598718	2502.932885
954.899272	2576.029615
955.199788	2603.755962
955.500266	2570.988462
955.800706	2613.838269
956.101108	2641.564615
956.401472	2588.632500
956.701798	2596.194231
957.002087	2606.276538
957.302337	2611.317692
957.602550	2545.782692
957.902724	2689.455577
958.202861	2639.044038
958.502960	2543.262115
958.803022	2565.947308
959.103045	2573.509038
959.403031	2608.797115
959.702979	2573.509038
960.002889	2545.782692
960.302762	2588.632500
960.602596	2631.482308
960.902393	2553.344423
961.202153	2581.070769
961.501875	2593.673654
961.801559	2583.591346
962.101205	2525.618077
962.400814	2621.400000
962.700385	2555.865000
962.999918	2671.811538
963.299414	2601.235385
963.598873	2533.179808
963.898293	2641.564615
964.197677	2548.303269
964.497022	2565.947308
964.796331	2570.988462
965.095601	2500.412308
965.394835	2596.194231
965.694030	2684.414423
965.993189	2634.002885
966.292309	2601.235385
966.591393	2570.988462
966.890439	2608.797115
967.189447	2555.865000
967.488419	2732.305385
967.787353	2611.317692
968.086249	2606.276538
968.385108	2588.632500
968.683930	2563.426731
968.982714	2565.947308
969.281462	2570.988462
969.580172	2634.002885
969.878844	2598.714808
970.177480	2540.741538
970.476078	2639.044038
970.774639	2591.153077
971.073162	2601.235385
971.371649	2578.550192
971.670098	2611.317692
971.968510	2578.550192
972.266885	2525.618077
972.565223	2596.194231
972.863524	2583.591346
973.161788	2586.111923
973.460014	2533.179808
973.758204	2523.097500
974.056356	2467.644808
974.354471	2601.235385
974.652550	2578.550192
974.950591	2540.741538
975.248595	2525.618077
975.546563	2548.303269
975.844493	2591.153077
976.142386	2618.879423
976.440243	2666.770385
976.738062	2598.714808
977.035845	2654.167500
977.333590	2581.070769
977.631299	2578.550192
977.928971	2598.714808
978.226606	2558.385577
978.524204	2601.235385
978.821765	2626.441154
979.119290	2533.179808
979.416777	2634.002885
979.714228	2558.385577
980.011642	2540.741538
980.309020	2558.385577
980.606360	2626.441154
980.903664	2565.947308
981.200931	2543.262115
981.498162	2601.235385
981.795356	2583.591346
982.092513	2558.385577
982.389633	2568.467885
982.686717	2565.947308
982.983764	2565.947308
983.280775	2591.153077
983.577749	2583.591346
983.874686	2654.167500
984.171587	2568.467885
984.468451	2573.509038
984.765279	2570.988462
985.062070	2621.400000
985.358824	2576.029615
985.655543	2603.755962
985.952224	2525.618077
986.248869	2697.017308
986.545478	2646.605769
986.842050	2603.755962
987.138586	2586.111923
987.435086	2613.838269
987.731549	2492.850577
988.027975	2613.838269
988.324366	2490.330000
988.620719	2583.591346
988.917037	2550.823846
989.213318	2520.576923
989.509563	2656.688077
989.805772	2530.659231
990.101944	2540.741538
990.398080	2631.482308
990.694180	2550.823846
990.990244	2578.550192
991.286271	2636.523462
991.582262	2560.906154
991.878217	2540.741538
992.174136	2596.194231
992.470019	2684.414423
992.765865	2578.550192
993.061676	2661.729231
993.357450	2651.646923
993.653188	2689.455577
993.948890	2591.153077
994.244556	2639.044038
994.540186	2550.823846
994.835780	2565.947308
995.131337	2548.303269
995.426859	2576.029615
995.722345	2669.290962
996.017795	2550.823846
996.313208	2568.467885
996.608586	2598.714808
996.903928	2634.002885
997.199234	2578.550192
997.494504	2570.988462
997.789738	2543.262115
998.084936	2659.208654
998.380099	2540.741538
998.675225	2598.714808
998.970316	2646.605769
999.265371	2570.988462
999.560390	2664.249808
999.855373	2565.947308
1000.150320	2659.208654
1000.445232	2578.550192
1000.740108	2661.729231
1001.034948	2520.576923
1001.329752	2613.838269
1001.624521	2639.044038
1001.919254	2613.838269
1002.213951	2636.523462
1002.508613	2641.564615
1002.803239	2495.371154
1003.097829	2568.467885
1003.392384	2545.782692
1003.686903	2608.797115
1003.981386	2601.235385
1004.275834	2578.550192
1004.570246	2538.220962
1004.864623	2618.879423
1005.158964	2583.591346
1005.453270	2576.029615
1005.747540	2538.220962
1006.041775	2593.673654
1006.335974	2578.550192
1006.630138	2601.235385
1006.924266	2613.838269
1007.218359	2664.249808
1007.512416	2500.412308
1007.806438	2573.509038
1008.100425	2520.576923
1008.394376	2505.453462
1008.688292	2651.646923
1008.982172	2671.811538
1009.276017	2661.729231
1009.569827	2555.865000
1009.863602	2573.509038
1010.157341	2586.111923
1010.451045	2651.646923
1010.744714	2636.523462
1011.038347	2548.303269
1011.331945	2591.153077
1011.625508	2583.591346
1011.919036	2596.194231
1012.212528	2639.044038
1012.505986	2558.385577
1012.799408	2616.358846
1013.092795	2560.906154
1013.386147	2578.550192
1013.679464	2704.579038
1013.972745	2628.961731
1014.265992	2608.797115
1014.559204	2525.618077
1014.852380	2613.838269
1015.145521	2576.029615
1015.438628	2598.714808
1015.731699	2603.755962
1016.024736	2634.002885
1016.317737	2555.865000
1016.610703	2553.344423
1016.903635	2553.344423
1017.196531	2560.906154
1017.489393	2545.782692
1017.782219	2649.126346
1018.075011	2570.988462
1018.367768	2626.441154
1018.660490	2581.070769
1018.953177	2581.070769
1019.245829	2581.070769
