Dividing Wavelength (nm)	Counts (n)	Blue Motor Position (mm): 0.900000	Red Motor Position (mm): 0.000000	
326.493990	2114.764038
326.888308	2114.764038
327.282561	2114.764038
327.676750	2049.229038
328.070874	2084.517115
328.464933	1983.694038
328.858929	2102.161154
329.252859	2107.202308
329.646726	2122.325769
330.040528	2074.434808
330.434265	2155.093269
330.827938	2155.093269
331.221547	2152.572692
331.615091	2160.134423
332.008571	2240.792885
332.401986	2185.340192
332.795338	2170.216731
333.188625	2195.422500
333.581847	2243.313462
333.975006	2268.519231
334.368100	2316.410192
334.761129	2344.136538
335.154095	2291.204423
335.546996	2321.451346
335.939833	2369.342308
336.332606	2331.533654
336.725315	2392.027500
337.117960	2379.424615
337.510540	2409.671538
337.903056	2379.424615
338.295508	2475.206538
338.687896	2434.877308
339.080220	2520.576923
339.472480	2384.465769
339.864676	2495.371154
340.256807	2432.356731
340.648875	2422.274423
341.040879	2404.630385
341.432818	2477.727115
341.824694	2462.603654
342.216506	2495.371154
342.608253	2455.041923
342.999937	2457.562500
343.391557	2417.233269
343.783113	2455.041923
344.174605	2442.439038
344.566033	2523.097500
344.957397	2417.233269
345.348697	2528.138654
345.739934	2447.480192
346.131106	2475.206538
346.522215	2444.959615
346.913260	2513.015192
347.304241	2412.192115
347.695159	2477.727115
348.086012	2397.068654
348.476802	2437.397885
348.867528	2394.548077
349.258191	2460.083077
349.648789	2528.138654
350.039324	2442.439038
350.429796	2487.809423
350.820203	2467.644808
351.210548	2394.548077
351.600828	2523.097500
351.991045	2444.959615
352.381198	2467.644808
352.771288	2412.192115
353.161314	2371.862885
353.551276	2475.206538
353.941175	2472.685962
354.331010	2492.850577
354.720782	2434.877308
355.110490	2404.630385
355.500135	2412.192115
355.889717	2470.165385
356.279235	2475.206538
356.668689	2402.109808
357.058080	2412.192115
357.447408	2455.041923
357.836672	2399.589231
358.225873	2518.056346
358.615010	2389.506923
359.004084	2399.589231
359.393095	2538.220962
359.782043	2520.576923
360.170927	2452.521346
360.559748	2455.041923
360.948505	2404.630385
361.337199	2487.809423
361.725830	2389.506923
362.114398	2444.959615
362.502903	2376.904038
362.891344	2477.727115
363.279722	2397.068654
363.668037	2359.260000
364.056289	2336.574808
364.444478	2502.932885
364.832603	2477.727115
365.220665	2397.068654
365.608665	2455.041923
365.996601	2427.315577
366.384474	2434.877308
366.772284	2472.685962
367.160031	2331.533654
367.547715	2507.974038
367.935336	2467.644808
368.322893	2518.056346
368.710388	2434.877308
369.097820	2414.712692
369.485189	2432.356731
369.872495	2492.850577
370.259738	2392.027500
370.646918	2397.068654
371.034035	2407.150962
371.421090	2399.589231
371.808081	2444.959615
372.195010	2470.165385
372.581875	2447.480192
372.968678	2553.344423
373.355418	2460.083077
373.742096	2548.303269
374.128710	2470.165385
374.515262	2437.397885
374.901751	2505.453462
375.288177	2470.165385
375.674540	2462.603654
376.060841	2414.712692
376.447079	2442.439038
376.833254	2381.945192
377.219367	2465.124231
377.605417	2475.206538
377.991404	2432.356731
378.377329	2419.753846
378.763191	2450.000769
379.148991	2513.015192
379.534727	2361.780577
379.920402	2434.877308
380.306013	2404.630385
380.691563	2500.412308
381.077049	2480.247692
381.462474	2450.000769
381.847835	2437.397885
382.233134	2518.056346
382.618371	2434.877308
383.003545	2510.494615
383.388657	2374.383462
383.773706	2437.397885
384.158693	2432.356731
384.543618	2467.644808
384.928480	2404.630385
385.313280	2417.233269
385.698017	2487.809423
386.082692	2460.083077
386.467305	2366.821731
386.851856	2502.932885
387.236344	2392.027500
387.620770	2477.727115
388.005133	2434.877308
388.389435	2482.768269
388.773674	2429.836154
389.157851	2455.041923
389.541965	2462.603654
389.926018	2472.685962
390.310008	2439.918462
390.693936	2389.506923
391.077802	2543.262115
391.461606	2439.918462
391.845348	2545.782692
392.229027	2434.877308
392.612645	2475.206538
392.996200	2465.124231
393.379694	2455.041923
393.763125	2462.603654
394.146494	2477.727115
394.529801	2513.015192
394.913047	2477.727115
395.296230	2513.015192
395.679351	2414.712692
396.062410	2487.809423
396.445408	2470.165385
396.828343	2447.480192
397.211217	2429.836154
397.594028	2447.480192
397.976778	2427.315577
398.359466	2505.453462
398.742092	2361.780577
399.124656	2515.535769
399.507158	2487.809423
399.889598	2427.315577
400.271977	2513.015192
400.654294	2520.576923
401.036549	2523.097500
401.418742	2386.986346
401.800874	2477.727115
402.182944	2530.659231
402.564952	2444.959615
402.946898	2379.424615
403.328783	2412.192115
403.710606	2472.685962
404.092367	2520.576923
404.474067	2518.056346
404.855705	2475.206538
405.237282	2586.111923
405.618797	2480.247692
406.000250	2450.000769
406.381642	2528.138654
406.762972	2442.439038
407.144240	2422.274423
407.525447	2515.535769
407.906593	2515.535769
408.287677	2472.685962
408.668700	2419.753846
409.049661	2500.412308
409.430560	2533.179808
409.811399	2492.850577
410.192176	2419.753846
410.572891	2535.700385
410.953545	2455.041923
411.334138	2510.494615
411.714669	2455.041923
412.095139	2540.741538
412.475547	2386.986346
412.855894	2492.850577
413.236180	2470.165385
413.616405	2482.768269
413.996568	2409.671538
414.376670	2462.603654
414.756711	2535.700385
415.136691	2434.877308
415.516609	2455.041923
415.896466	2505.453462
416.276262	2570.988462
416.655997	2447.480192
417.035670	2412.192115
417.415283	2442.439038
417.794834	2528.138654
418.174324	2475.206538
418.553753	2518.056346
418.933121	2450.000769
419.312428	2439.918462
419.691674	2487.809423
420.070859	2487.809423
420.449983	2472.685962
420.829045	2409.671538
421.208047	2530.659231
421.586988	2518.056346
421.965867	2513.015192
422.344686	2465.124231
422.723444	2495.371154
423.102141	2439.918462
423.480777	2472.685962
423.859352	2490.330000
424.237866	2467.644808
424.616319	2492.850577
424.994712	2444.959615
425.373044	2389.506923
425.751314	2515.535769
426.129524	2467.644808
426.507673	2611.317692
426.885762	2462.603654
427.263789	2500.412308
427.641756	2533.179808
428.019662	2497.891731
428.397508	2409.671538
428.775292	2485.288846
429.153016	2550.823846
429.530679	2439.918462
429.908282	2452.521346
430.285824	2485.288846
430.663305	2563.426731
431.040726	2495.371154
431.418086	2545.782692
431.795385	2591.153077
432.172624	2472.685962
432.549802	2500.412308
432.926920	2417.233269
433.303977	2553.344423
433.680974	2470.165385
434.057910	2480.247692
434.434786	2414.712692
434.811601	2507.974038
435.188355	2460.083077
435.565050	2550.823846
435.941683	2535.700385
436.318257	2392.027500
436.694770	2427.315577
437.071222	2419.753846
437.447614	2520.576923
437.823946	2487.809423
438.200218	2490.330000
438.576429	2492.850577
438.952580	2414.712692
439.328670	2500.412308
439.704700	2477.727115
440.080670	2444.959615
440.456580	2470.165385
440.832429	2462.603654
441.208218	2490.330000
441.583947	2487.809423
441.959616	2437.397885
442.335224	2500.412308
442.710773	2530.659231
443.086261	2429.836154
443.461689	2447.480192
443.837057	2533.179808
444.212365	2535.700385
444.587612	2434.877308
444.962800	2419.753846
445.337927	2492.850577
445.712995	2545.782692
446.088002	2507.974038
446.462949	2558.385577
446.837837	2465.124231
447.212664	2505.453462
447.587431	2518.056346
447.962139	2543.262115
448.336786	2528.138654
448.711374	2518.056346
449.085901	2573.509038
449.460369	2412.192115
449.834776	2540.741538
450.209124	2492.850577
450.583412	2407.150962
450.957640	2470.165385
451.331808	2399.589231
451.705917	2480.247692
452.079965	2505.453462
452.453954	2482.768269
452.827883	2495.371154
453.201752	2495.371154
453.575562	2490.330000
453.949311	2437.397885
454.323001	2550.823846
454.696632	2523.097500
455.070202	2497.891731
455.443713	2485.288846
455.817164	2548.303269
456.190556	2359.260000
456.563888	2455.041923
456.937160	2628.961731
457.310373	2427.315577
457.683526	2513.015192
458.056619	2550.823846
458.429653	2437.397885
458.802628	2502.932885
459.175542	2447.480192
459.548398	2424.795000
459.921194	2510.494615
460.293930	2432.356731
460.666607	2434.877308
461.039224	2472.685962
461.411782	2437.397885
461.784280	2465.124231
462.156719	2475.206538
462.529099	2381.945192
462.901419	2475.206538
463.273680	2558.385577
463.645882	2523.097500
464.018024	2513.015192
464.390106	2470.165385
464.762130	2518.056346
465.134094	2437.397885
465.505999	2520.576923
465.877845	2460.083077
466.249631	2409.671538
466.621358	2568.467885
466.993026	2507.974038
467.364634	2490.330000
467.736184	2455.041923
468.107674	2565.947308
468.479105	2402.109808
468.850477	2497.891731
469.221790	2444.959615
469.593043	2452.521346
469.964238	2568.467885
470.335373	2450.000769
470.706449	2502.932885
471.077467	2487.809423
471.448425	2505.453462
471.819324	2487.809423
472.190164	2510.494615
472.560945	2490.330000
472.931667	2452.521346
473.302330	2502.932885
473.672934	2427.315577
474.043479	2450.000769
474.413965	2470.165385
474.784393	2480.247692
475.154761	2520.576923
475.525070	2457.562500
475.895321	2455.041923
476.265513	2444.959615
476.635645	2444.959615
477.005719	2485.288846
477.375734	2487.809423
477.745691	2518.056346
478.115588	2538.220962
478.485427	2523.097500
478.855207	2528.138654
479.224928	2497.891731
479.594591	2502.932885
479.964194	2351.698269
480.333739	2510.494615
480.703226	2513.015192
481.072653	2482.768269
481.442022	2485.288846
481.811333	2570.988462
482.180584	2555.865000
482.549777	2545.782692
482.918912	2520.576923
483.287988	2467.644808
483.657005	2490.330000
484.025964	2543.262115
484.394864	2502.932885
484.763706	2545.782692
485.132489	2507.974038
485.501213	2465.124231
485.869879	2586.111923
486.238487	2535.700385
486.607036	2472.685962
486.975527	2447.480192
487.343959	2487.809423
487.712333	2427.315577
488.080648	2533.179808
488.448905	2480.247692
488.817104	2477.727115
489.185244	2487.809423
489.553326	2543.262115
489.921350	2535.700385
490.289315	2429.836154
490.657222	2518.056346
491.025070	2467.644808
491.392861	2515.535769
491.760593	2523.097500
492.128267	2465.124231
492.495883	2432.356731
492.863440	2523.097500
493.230939	2442.439038
493.598380	2530.659231
493.965763	2457.562500
494.333088	2495.371154
494.700354	2470.165385
495.067563	2455.041923
495.434713	2515.535769
495.801805	2523.097500
496.168839	2492.850577
496.535815	2409.671538
496.902733	2518.056346
497.269593	2452.521346
497.636395	2545.782692
498.003139	2485.288846
498.369825	2450.000769
498.736453	2523.097500
499.103023	2555.865000
499.469535	2533.179808
499.835989	2533.179808
500.202385	2455.041923
500.568723	2520.576923
500.935003	2497.891731
501.301226	2530.659231
501.667390	2515.535769
502.033497	2523.097500
502.399546	2550.823846
502.765537	2528.138654
503.131470	2475.206538
503.497345	2507.974038
503.863163	2475.206538
504.228923	2439.918462
504.594625	2523.097500
504.960269	2523.097500
505.325856	2356.739423
505.691385	2472.685962
506.056856	2515.535769
506.422270	2465.124231
506.787625	2530.659231
507.152924	2538.220962
507.518164	2475.206538
507.883347	2397.068654
508.248472	2618.879423
508.613540	2455.041923
508.978550	2482.768269
509.343503	2492.850577
509.708398	2492.850577
510.073236	2472.685962
510.438016	2447.480192
510.802738	2434.877308
511.167403	2510.494615
511.532010	2429.836154
511.896561	2465.124231
512.261053	2553.344423
512.625488	2432.356731
512.989866	2500.412308
513.354186	2550.823846
513.718449	2417.233269
514.082655	2450.000769
514.446803	2404.630385
514.810894	2515.535769
515.174927	2515.535769
515.538904	2578.550192
515.902822	2490.330000
516.266684	2548.303269
516.630488	2538.220962
516.994235	2563.426731
517.357925	2452.521346
517.721558	2500.412308
518.085133	2457.562500
518.448651	2462.603654
518.812112	2500.412308
519.175516	2555.865000
519.538863	2409.671538
519.902152	2497.891731
520.265385	2545.782692
520.628560	2525.618077
520.991678	2472.685962
521.354739	2465.124231
521.717743	2482.768269
522.080690	2548.303269
522.443580	2482.768269
522.806413	2465.124231
523.169189	2492.850577
523.531908	2525.618077
523.894569	2482.768269
524.257174	2475.206538
524.619722	2538.220962
524.982213	2434.877308
525.344647	2573.509038
525.707025	2419.753846
526.069345	2432.356731
526.431608	2477.727115
526.793815	2447.480192
527.155964	2555.865000
527.518057	2495.371154
527.880093	2520.576923
528.242072	2407.150962
528.603995	2492.850577
528.965860	2482.768269
529.327669	2467.644808
529.689421	2560.906154
530.051117	2513.015192
530.412755	2429.836154
530.774337	2490.330000
531.135862	2563.426731
531.497331	2500.412308
531.858743	2520.576923
532.220098	2490.330000
532.581396	2455.041923
532.942638	2550.823846
533.303824	2500.412308
533.664953	2570.988462
534.026025	2480.247692
534.387040	2462.603654
534.747999	2460.083077
535.108902	2460.083077
535.469748	2565.947308
535.830537	2490.330000
536.191270	2535.700385
536.551947	2439.918462
536.912567	2465.124231
537.273131	2497.891731
537.633638	2545.782692
537.994089	2477.727115
538.354483	2419.753846
538.714821	2568.467885
539.075103	2497.891731
539.435328	2568.467885
539.795497	2497.891731
540.155609	2535.700385
540.515665	2553.344423
540.875665	2447.480192
541.235609	2437.397885
541.595496	2553.344423
541.955328	2487.809423
542.315102	2535.700385
542.674821	2558.385577
543.034483	2427.315577
543.394090	2500.412308
543.753640	2447.480192
544.113134	2563.426731
544.472571	2553.344423
544.831953	2482.768269
545.191278	2475.206538
545.550548	2392.027500
545.909761	2545.782692
546.268918	2570.988462
546.628019	2455.041923
546.987064	2447.480192
547.346053	2389.506923
547.704986	2447.480192
548.063863	2414.712692
548.422684	2502.932885
548.781449	2457.562500
549.140158	2505.453462
549.498811	2568.467885
549.857408	2437.397885
550.215949	2505.453462
550.574434	2533.179808
550.932864	2487.809423
551.291237	2482.768269
551.649555	2497.891731
552.007817	2482.768269
552.366022	2515.535769
552.724173	2573.509038
553.082267	2500.412308
553.440305	2467.644808
553.798288	2520.576923
554.156215	2482.768269
554.514086	2500.412308
554.871902	2455.041923
555.229661	2548.303269
555.587365	2455.041923
555.945014	2475.206538
556.302606	2485.288846
556.660143	2568.467885
557.017625	2487.809423
557.375050	2502.932885
557.732421	2457.562500
558.089735	2417.233269
558.446994	2472.685962
558.804197	2518.056346
559.161345	2460.083077
559.518437	2533.179808
559.875474	2422.274423
560.232455	2520.576923
560.589381	2412.192115
560.946251	2606.276538
561.303065	2505.453462
561.659825	2505.453462
562.016528	2414.712692
562.373177	2540.741538
562.729770	2432.356731
563.086307	2412.192115
563.442789	2462.603654
563.799216	2467.644808
564.155587	2565.947308
564.511904	2545.782692
564.868164	2535.700385
565.224370	2439.918462
565.580520	2548.303269
565.936615	2568.467885
566.292654	2528.138654
566.648638	2477.727115
567.004567	2591.153077
567.360441	2518.056346
567.716260	2462.603654
568.072023	2487.809423
568.427732	2427.315577
568.783385	2490.330000
569.138982	2492.850577
569.494525	2560.906154
569.850013	2477.727115
570.205445	2523.097500
570.560823	2550.823846
570.916145	2570.988462
571.271412	2404.630385
571.626625	2533.179808
571.981782	2570.988462
572.336884	2500.412308
572.691931	2424.795000
573.046923	2513.015192
573.401860	2434.877308
573.756743	2475.206538
574.111570	2480.247692
574.466342	2518.056346
574.821059	2500.412308
575.175722	2568.467885
575.530330	2513.015192
575.884882	2480.247692
576.239380	2467.644808
576.593823	2505.453462
576.948211	2412.192115
577.302544	2510.494615
577.656823	2460.083077
578.011047	2437.397885
578.365216	2477.727115
578.719330	2500.412308
579.073389	2570.988462
579.427394	2475.206538
579.781344	2558.385577
580.135239	2553.344423
580.489080	2480.247692
580.842866	2525.618077
581.196597	2432.356731
581.550273	2487.809423
581.903895	2455.041923
582.257463	2525.618077
582.610975	2583.591346
582.964434	2540.741538
583.317837	2402.109808
583.671186	2568.467885
584.024481	2407.150962
584.377721	2510.494615
584.730906	2535.700385
585.084037	2560.906154
585.437113	2452.521346
585.790135	2452.521346
586.143103	2510.494615
586.496016	2497.891731
586.848874	2560.906154
587.201679	2545.782692
587.554428	2500.412308
587.907124	2485.288846
588.259765	2492.850577
588.612352	2465.124231
588.964884	2538.220962
589.317362	2510.494615
589.669786	2467.644808
590.022155	2369.342308
590.374470	2472.685962
590.726731	2543.262115
591.078937	2419.753846
591.431090	2543.262115
591.783188	2450.000769
592.135232	2515.535769
592.487222	2394.548077
592.839157	2429.836154
593.191038	2455.041923
593.542866	2540.741538
593.894639	2487.809423
594.246358	2432.356731
594.598022	2434.877308
594.949633	2492.850577
595.301190	2450.000769
595.652692	2513.015192
596.004141	2439.918462
596.355535	2492.850577
596.706876	2565.947308
597.058162	2485.288846
597.409395	2515.535769
597.760573	2460.083077
598.111698	2515.535769
598.462768	2513.015192
598.813785	2497.891731
599.164748	2477.727115
599.515657	2384.465769
599.866511	2502.932885
600.217312	2550.823846
600.568060	2447.480192
600.918753	2548.303269
601.269392	2563.426731
601.619978	2460.083077
601.970510	2450.000769
602.320988	2442.439038
602.671412	2543.262115
603.021783	2424.795000
603.372100	2530.659231
603.722363	2465.124231
604.072572	2495.371154
604.422728	2470.165385
604.772830	2573.509038
605.122878	2560.906154
605.472872	2462.603654
605.822813	2558.385577
606.172701	2510.494615
606.522534	2550.823846
606.872314	2485.288846
607.222041	2460.083077
607.571714	2482.768269
607.921333	2530.659231
608.270899	2545.782692
608.620411	2623.920577
608.969870	2465.124231
609.319276	2510.494615
609.668627	2450.000769
610.017926	2538.220962
610.367171	2495.371154
610.716362	2553.344423
611.065500	2465.124231
611.414585	2520.576923
611.763616	2477.727115
612.112594	2487.809423
612.461518	2450.000769
612.810389	2482.768269
613.159207	2485.288846
613.507971	2492.850577
613.856682	2497.891731
614.205340	2475.206538
614.553945	2485.288846
614.902496	2558.385577
615.250994	2525.618077
615.599439	2513.015192
615.947830	2502.932885
616.296169	2447.480192
616.644454	2492.850577
616.992686	2513.015192
617.340864	2576.029615
617.688990	2465.124231
618.037063	2513.015192
618.385082	2515.535769
618.733048	2444.959615
619.080961	2432.356731
619.428821	2472.685962
619.776628	2576.029615
620.124382	2487.809423
620.472083	2543.262115
620.819731	2596.194231
621.167326	2465.124231
621.514868	2482.768269
621.862357	2507.974038
622.209793	2429.836154
622.557176	2497.891731
622.904506	2548.303269
623.251783	2480.247692
623.599007	2492.850577
623.946179	2424.795000
624.293297	2487.809423
624.640363	2497.891731
624.987376	2485.288846
625.334336	2490.330000
625.681243	2497.891731
626.028097	2477.727115
626.374899	2497.891731
626.721647	2518.056346
627.068343	2500.412308
627.414987	2528.138654
627.761577	2502.932885
628.108115	2548.303269
628.454600	2427.315577
628.801032	2424.795000
629.147412	2528.138654
629.493739	2535.700385
629.840014	2553.344423
630.186236	2583.591346
630.532405	2518.056346
630.878521	2507.974038
631.224585	2513.015192
631.570597	2596.194231
631.916556	2399.589231
632.262462	2482.768269
632.608316	2528.138654
632.954117	2460.083077
633.299866	2548.303269
633.645562	2444.959615
633.991206	2530.659231
634.336797	2437.397885
634.682336	2460.083077
635.027823	2457.562500
635.373257	2502.932885
635.718639	2540.741538
636.063968	2497.891731
636.409245	2510.494615
636.754470	2457.562500
637.099642	2555.865000
637.444762	2439.918462
637.789829	2563.426731
638.134845	2475.206538
638.479808	2422.274423
638.824719	2477.727115
639.169577	2444.959615
639.514383	2490.330000
639.859137	2467.644808
640.203839	2515.535769
640.548489	2588.632500
640.893086	2563.426731
641.237632	2525.618077
641.582125	2558.385577
641.926566	2538.220962
642.270955	2533.179808
642.615292	2530.659231
642.959576	2492.850577
643.303809	2477.727115
643.647990	2538.220962
643.992118	2505.453462
644.336195	2480.247692
644.680219	2495.371154
645.024192	2487.809423
645.368112	2492.850577
645.711981	2507.974038
646.055797	2535.700385
646.399562	2472.685962
646.743274	2558.385577
647.086935	2555.865000
647.430544	2518.056346
647.774101	2528.138654
648.117606	2570.988462
648.461059	2523.097500
648.804460	2558.385577
649.147810	2447.480192
649.491108	2482.768269
649.834354	2500.412308
650.177548	2570.988462
650.520690	2482.768269
650.863781	2543.262115
651.206820	2520.576923
651.549807	2540.741538
651.892742	2450.000769
652.235626	2535.700385
652.578458	2485.288846
652.921238	2586.111923
653.263967	2505.453462
653.606644	2515.535769
653.949269	2457.562500
654.291843	2497.891731
654.634365	2437.397885
654.976836	2543.262115
655.319255	2497.891731
655.661622	2452.521346
656.003938	2492.850577
656.346203	2528.138654
656.688416	2470.165385
657.030577	2528.138654
657.372687	2450.000769
657.714746	2530.659231
658.056753	2538.220962
658.398708	2455.041923
658.740612	2487.809423
659.082465	2535.700385
659.424266	2414.712692
659.766016	2502.932885
660.107715	2472.685962
660.449362	2492.850577
660.790958	2386.986346
661.132503	2548.303269
661.473996	2495.371154
661.815438	2586.111923
662.156829	2444.959615
662.498168	2543.262115
662.839456	2487.809423
663.180693	2482.768269
663.521879	2487.809423
663.863013	2487.809423
664.204097	2515.535769
664.545129	2432.356731
664.886110	2510.494615
665.227040	2528.138654
665.567918	2548.303269
665.908746	2472.685962
666.249522	2570.988462
666.590248	2505.453462
666.930922	2477.727115
667.271545	2482.768269
667.612118	2480.247692
667.952639	2490.330000
668.293109	2492.850577
668.633528	2442.439038
668.973896	2550.823846
669.314213	2565.947308
669.654480	2495.371154
669.994695	2470.165385
670.334859	2475.206538
670.674973	2500.412308
671.015035	2523.097500
671.355047	2477.727115
671.695008	2480.247692
672.034918	2482.768269
672.374777	2560.906154
672.714585	2465.124231
673.054342	2482.768269
673.394049	2515.535769
673.733705	2429.836154
674.073310	2424.795000
674.412864	2563.426731
674.752368	2485.288846
675.091820	2422.274423
675.431223	2480.247692
675.770574	2467.644808
676.109875	2485.288846
676.449125	2467.644808
676.788324	2450.000769
677.127473	2439.918462
677.466571	2518.056346
677.805619	2528.138654
678.144616	2462.603654
678.483562	2505.453462
678.822458	2495.371154
679.161303	2447.480192
679.500098	2447.480192
679.838842	2520.576923
680.177535	2553.344423
680.516179	2417.233269
680.854771	2482.768269
681.193314	2462.603654
681.531805	2530.659231
681.870247	2601.235385
682.208638	2533.179808
682.546978	2570.988462
682.885268	2545.782692
683.223508	2495.371154
683.561697	2520.576923
683.899836	2460.083077
684.237925	2540.741538
684.575963	2482.768269
684.913951	2578.550192
685.251889	2560.906154
685.589776	2434.877308
685.927614	2495.371154
686.265401	2495.371154
686.603137	2543.262115
686.940824	2455.041923
687.278460	2492.850577
687.616046	2513.015192
687.953582	2507.974038
688.291068	2515.535769
688.628504	2538.220962
688.965889	2550.823846
689.303224	2455.041923
689.640510	2578.550192
689.977745	2417.233269
690.314930	2533.179808
690.652065	2450.000769
690.989150	2507.974038
691.326185	2462.603654
691.663170	2502.932885
692.000105	2515.535769
692.336990	2419.753846
692.673825	2467.644808
693.010610	2520.576923
693.347345	2485.288846
693.684030	2533.179808
694.020665	2480.247692
694.357251	2457.562500
694.693786	2429.836154
695.030272	2477.727115
695.366707	2485.288846
695.703093	2540.741538
696.039429	2513.015192
696.375716	2560.906154
696.711952	2528.138654
697.048139	2477.727115
697.384276	2490.330000
697.720363	2510.494615
698.056400	2490.330000
698.392388	2558.385577
698.728326	2568.467885
699.064214	2505.453462
699.400053	2555.865000
699.735842	2525.618077
700.071581	2583.591346
700.407270	2462.603654
700.742910	2583.591346
701.078501	2543.262115
701.414042	2487.809423
701.749533	2535.700385
702.084974	2465.124231
702.420366	2480.247692
702.755709	2485.288846
703.091002	2528.138654
703.426246	2502.932885
703.761440	2452.521346
704.096584	2560.906154
704.431679	2553.344423
704.766725	2507.974038
705.101721	2540.741538
705.436668	2480.247692
705.771565	2409.671538
706.106413	2601.235385
706.441212	2462.603654
706.775961	2465.124231
707.110661	2565.947308
707.445311	2500.412308
707.779913	2540.741538
708.114465	2520.576923
708.448967	2588.632500
708.783421	2533.179808
709.117825	2419.753846
709.452180	2500.412308
709.786485	2480.247692
710.120742	2497.891731
710.454949	2505.453462
710.789107	2495.371154
711.123216	2470.165385
711.457275	2490.330000
711.791286	2447.480192
712.125247	2432.356731
712.459159	2518.056346
712.793023	2596.194231
713.126837	2530.659231
713.460602	2538.220962
713.794318	2444.959615
714.127985	2533.179808
714.461602	2543.262115
714.795171	2455.041923
715.128691	2502.932885
715.462162	2482.768269
715.795584	2520.576923
716.128957	2495.371154
716.462281	2457.562500
716.795556	2460.083077
717.128782	2485.288846
717.461960	2460.083077
717.795088	2402.109808
718.128167	2583.591346
718.461198	2470.165385
718.794180	2472.685962
719.127113	2505.453462
719.459997	2545.782692
719.792833	2490.330000
720.125619	2586.111923
720.458357	2434.877308
720.791046	2487.809423
721.123686	2457.562500
721.456278	2515.535769
721.788821	2422.274423
722.121315	2457.562500
722.453761	2538.220962
722.786158	2477.727115
723.118506	2573.509038
723.450805	2540.741538
723.783056	2492.850577
724.115259	2477.727115
724.447412	2518.056346
724.779518	2570.988462
725.111574	2515.535769
725.443582	2450.000769
725.775542	2538.220962
726.107453	2588.632500
726.439315	2550.823846
726.771129	2452.521346
727.102895	2515.535769
727.434612	2507.974038
727.766281	2487.809423
728.097901	2530.659231
728.429473	2465.124231
728.760996	2568.467885
729.092471	2492.850577
729.423897	2507.974038
729.755276	2485.288846
730.086606	2502.932885
730.417887	2452.521346
730.749120	2591.153077
731.080305	2502.932885
731.411442	2482.768269
731.742530	2510.494615
732.073570	2565.947308
732.404562	2495.371154
732.735506	2439.918462
733.066401	2480.247692
733.397249	2505.453462
733.728048	2457.562500
734.058798	2513.015192
734.389501	2515.535769
734.720156	2480.247692
735.050762	2472.685962
735.381320	2492.850577
735.711831	2515.535769
736.042293	2507.974038
736.372707	2485.288846
736.703073	2505.453462
737.033391	2444.959615
737.363661	2518.056346
737.693883	2482.768269
738.024056	2432.356731
738.354182	2497.891731
738.684260	2487.809423
739.014290	2518.056346
739.344272	2500.412308
739.674207	2439.918462
740.004093	2487.809423
740.333931	2492.850577
740.663722	2457.562500
740.993464	2439.918462
741.323159	2475.206538
741.652806	2528.138654
741.982405	2480.247692
742.311956	2467.644808
742.641460	2530.659231
742.970915	2553.344423
743.300323	2442.439038
743.629683	2480.247692
743.958996	2477.727115
744.288260	2545.782692
744.617477	2424.795000
744.946647	2490.330000
745.275768	2490.330000
745.604842	2487.809423
745.933869	2513.015192
746.262847	2452.521346
746.591778	2500.412308
746.920662	2550.823846
747.249498	2487.809423
747.578286	2444.959615
747.907027	2460.083077
748.235720	2530.659231
748.564365	2399.589231
748.892963	2487.809423
749.221514	2538.220962
749.550017	2525.618077
749.878473	2500.412308
750.206881	2465.124231
750.535242	2563.426731
750.863555	2467.644808
751.191821	2412.192115
751.520039	2409.671538
751.848210	2502.932885
752.176334	2591.153077
752.504411	2482.768269
752.832440	2495.371154
753.160421	2475.206538
753.488356	2455.041923
753.816243	2560.906154
754.144082	2414.712692
754.471875	2533.179808
754.799620	2442.439038
755.127318	2477.727115
755.454969	2560.906154
755.782572	2452.521346
756.110129	2480.247692
756.437638	2520.576923
756.765100	2432.356731
757.092515	2429.836154
757.419882	2515.535769
757.747203	2460.083077
758.074477	2470.165385
758.401703	2520.576923
758.728882	2525.618077
759.056014	2593.673654
759.383099	2465.124231
759.710138	2475.206538
760.037129	2480.247692
760.364073	2513.015192
760.690970	2450.000769
761.017820	2402.109808
761.344623	2477.727115
761.671379	2540.741538
761.998088	2475.206538
762.324751	2465.124231
762.651366	2505.453462
762.977935	2507.974038
763.304456	2470.165385
763.630931	2487.809423
763.957359	2528.138654
764.283740	2447.480192
764.610074	2482.768269
764.936362	2485.288846
765.262602	2487.809423
765.588796	2472.685962
765.914943	2513.015192
766.241044	2434.877308
766.567097	2432.356731
766.893104	2608.797115
767.219064	2495.371154
767.544978	2560.906154
767.870845	2462.603654
768.196665	2565.947308
768.522438	2513.015192
768.848165	2477.727115
769.173846	2450.000769
769.499479	2545.782692
769.825066	2402.109808
770.150607	2515.535769
770.476101	2543.262115
770.801548	2495.371154
771.126949	2427.315577
771.452303	2510.494615
771.777611	2553.344423
772.102872	2505.453462
772.428087	2518.056346
772.753256	2588.632500
773.078378	2530.659231
773.403453	2455.041923
773.728482	2518.056346
774.053465	2563.426731
774.378401	2427.315577
774.703291	2535.700385
775.028135	2523.097500
775.352932	2507.974038
775.677683	2394.548077
776.002388	2543.262115
776.327046	2543.262115
776.651658	2470.165385
776.976224	2533.179808
777.300743	2492.850577
777.625216	2490.330000
777.949643	2591.153077
778.274024	2515.535769
778.598359	2475.206538
778.922647	2450.000769
779.246889	2555.865000
779.571086	2450.000769
779.895236	2492.850577
780.219339	2502.932885
780.543397	2515.535769
780.867409	2447.480192
781.191374	2465.124231
781.515294	2394.548077
781.839167	2596.194231
782.162995	2528.138654
782.486776	2497.891731
782.810511	2457.562500
783.134201	2477.727115
783.457844	2533.179808
783.781441	2462.603654
784.104993	2548.303269
784.428498	2487.809423
784.751958	2548.303269
785.075372	2455.041923
785.398739	2470.165385
785.722061	2442.439038
786.045337	2457.562500
786.368568	2427.315577
786.691752	2593.673654
787.014891	2515.535769
787.337983	2450.000769
787.661030	2573.509038
787.984031	2513.015192
788.306987	2591.153077
788.629897	2437.397885
788.952760	2404.630385
789.275579	2444.959615
789.598351	2475.206538
789.921078	2404.630385
790.243759	2518.056346
790.566395	2452.521346
790.888984	2472.685962
791.211529	2507.974038
791.534027	2422.274423
791.856480	2482.768269
792.178888	2535.700385
792.501249	2500.412308
792.823566	2482.768269
793.145836	2434.877308
793.468062	2510.494615
793.790241	2457.562500
794.112375	2535.700385
794.434464	2500.412308
794.756507	2477.727115
795.078505	2500.412308
795.400457	2568.467885
795.722364	2442.439038
796.044226	2510.494615
796.366042	2502.932885
796.687812	2475.206538
797.009538	2518.056346
797.331218	2434.877308
797.652852	2429.836154
797.974442	2520.576923
798.295986	2477.727115
798.617484	2518.056346
798.938938	2518.056346
799.260346	2475.206538
799.581709	2495.371154
799.903026	2497.891731
800.224299	2518.056346
800.545526	2507.974038
800.866708	2492.850577
801.187845	2528.138654
801.508936	2467.644808
801.829983	2457.562500
802.150984	2523.097500
802.471940	2530.659231
802.792851	2402.109808
803.113717	2518.056346
803.434538	2462.603654
803.755314	2550.823846
804.076045	2450.000769
804.396731	2530.659231
804.717372	2492.850577
805.037967	2450.000769
805.358518	2404.630385
805.679024	2570.988462
805.999485	2510.494615
806.319901	2555.865000
806.640272	2586.111923
806.960598	2487.809423
807.280879	2505.453462
807.601115	2565.947308
807.921306	2462.603654
808.241453	2578.550192
808.561554	2518.056346
808.881611	2533.179808
809.201623	2502.932885
809.521590	2520.576923
809.841513	2442.439038
810.161390	2472.685962
810.481223	2444.959615
810.801011	2475.206538
811.120755	2460.083077
811.440453	2495.371154
811.760107	2455.041923
812.079716	2376.904038
812.399281	2462.603654
812.718801	2475.206538
813.038276	2487.809423
813.357707	2558.385577
813.677093	2432.356731
813.996434	2399.589231
814.315731	2447.480192
814.634983	2477.727115
814.954191	2452.521346
815.273354	2485.288846
815.592473	2455.041923
815.911547	2437.397885
816.230577	2502.932885
816.549562	2439.918462
816.868502	2497.891731
817.187399	2497.891731
817.506250	2502.932885
817.825058	2550.823846
818.143821	2525.618077
818.462539	2437.397885
818.781213	2497.891731
819.099843	2409.671538
819.418429	2520.576923
819.736970	2467.644808
820.055466	2518.056346
820.373919	2492.850577
820.692327	2409.671538
821.010691	2520.576923
821.329011	2487.809423
821.647286	2533.179808
821.965517	2465.124231
822.283704	2455.041923
822.601847	2444.959615
822.919945	2462.603654
823.237999	2460.083077
823.556010	2392.027500
823.873976	2528.138654
824.191897	2492.850577
824.509775	2465.124231
824.827609	2419.753846
825.145398	2545.782692
825.463144	2422.274423
825.780845	2520.576923
826.098502	2442.439038
826.416116	2470.165385
826.733685	2467.644808
827.051210	2540.741538
827.368692	2475.206538
827.686129	2510.494615
828.003522	2550.823846
828.320872	2523.097500
828.638177	2515.535769
828.955439	2482.768269
829.272656	2475.206538
829.589830	2510.494615
829.906960	2510.494615
830.224046	2523.097500
830.541088	2540.741538
830.858086	2502.932885
831.175041	2535.700385
831.491952	2480.247692
831.808819	2500.412308
832.125642	2460.083077
832.442421	2470.165385
832.759157	2538.220962
833.075849	2520.576923
833.392497	2444.959615
833.709101	2520.576923
834.025662	2455.041923
834.342179	2523.097500
834.658653	2560.906154
834.975083	2447.480192
835.291469	2490.330000
835.607811	2482.768269
835.924110	2374.383462
836.240366	2500.412308
836.556578	2492.850577
836.872746	2515.535769
837.188871	2490.330000
837.504952	2497.891731
837.820990	2465.124231
838.136984	2520.576923
838.452935	2467.644808
838.768842	2515.535769
839.084706	2412.192115
839.400526	2427.315577
839.716303	2470.165385
840.032037	2548.303269
840.347727	2492.850577
840.663373	2439.918462
840.978977	2472.685962
841.294537	2510.494615
841.610054	2457.562500
841.925527	2515.535769
842.240957	2576.029615
842.556344	2475.206538
842.871687	2465.124231
843.186987	2437.397885
843.502244	2477.727115
843.817458	2518.056346
844.132629	2507.974038
844.447756	2452.521346
844.762840	2457.562500
845.077881	2588.632500
845.392879	2447.480192
845.707833	2507.974038
846.022745	2475.206538
846.337613	2528.138654
846.652438	2462.603654
846.967221	2523.097500
847.281960	2482.768269
847.596656	2518.056346
847.911309	2442.439038
848.225919	2495.371154
848.540485	2450.000769
848.855009	2450.000769
849.169490	2553.344423
849.483928	2525.618077
849.798323	2467.644808
850.112675	2515.535769
850.426984	2424.795000
850.741251	2515.535769
851.055474	2477.727115
851.369654	2442.439038
851.683792	2518.056346
851.997887	2417.233269
852.311938	2482.768269
852.625947	2447.480192
852.939914	2485.288846
853.253837	2487.809423
853.567718	2452.521346
853.881555	2460.083077
854.195350	2432.356731
854.509103	2523.097500
854.822812	2437.397885
855.136479	2460.083077
855.450103	2450.000769
855.763685	2515.535769
856.077224	2500.412308
856.390720	2462.603654
856.704173	2450.000769
857.017584	2540.741538
857.330953	2487.809423
857.644278	2545.782692
857.957561	2475.206538
858.270802	2460.083077
858.584000	2485.288846
858.897155	2497.891731
859.210268	2497.891731
859.523339	2487.809423
859.836367	2505.453462
860.149352	2412.192115
860.462295	2442.439038
860.775195	2462.603654
861.088054	2432.356731
861.400869	2397.068654
861.713642	2510.494615
862.026373	2455.041923
862.339062	2515.535769
862.651708	2576.029615
862.964312	2528.138654
863.276873	2424.795000
863.589392	2482.768269
863.901869	2477.727115
864.214303	2492.850577
864.526696	2472.685962
864.839045	2553.344423
865.151353	2450.000769
865.463619	2427.315577
865.775842	2525.618077
866.088023	2490.330000
866.400162	2525.618077
866.712258	2495.371154
867.024313	2573.509038
867.336325	2472.685962
867.648296	2439.918462
867.960224	2487.809423
868.272110	2452.521346
868.583954	2565.947308
868.895755	2500.412308
869.207515	2505.453462
869.519233	2452.521346
869.830909	2465.124231
870.142542	2417.233269
870.454134	2520.576923
870.765684	2457.562500
871.077191	2621.400000
871.388657	2538.220962
871.700081	2452.521346
872.011463	2465.124231
872.322803	2492.850577
872.634101	2429.836154
872.945357	2457.562500
873.256571	2495.371154
873.567744	2538.220962
873.878874	2495.371154
874.189963	2490.330000
874.501010	2412.192115
874.812015	2472.685962
875.122979	2487.809423
875.433900	2593.673654
875.744780	2460.083077
876.055618	2450.000769
876.366415	2450.000769
876.677169	2543.262115
876.987882	2424.795000
877.298554	2525.618077
877.609183	2475.206538
877.919771	2510.494615
878.230317	2550.823846
878.540822	2452.521346
878.851285	2452.521346
879.161707	2573.509038
879.472087	2505.453462
879.782425	2545.782692
880.092722	2480.247692
880.402977	2510.494615
880.713191	2455.041923
881.023363	2432.356731
881.333494	2452.521346
881.643583	2520.576923
881.953631	2429.836154
882.263637	2558.385577
882.573602	2505.453462
882.883526	2490.330000
883.193408	2444.959615
883.503248	2485.288846
883.813048	2442.439038
884.122806	2492.850577
884.432522	2470.165385
884.742197	2482.768269
885.051831	2523.097500
885.361424	2530.659231
885.670975	2485.288846
885.980485	2525.618077
886.289954	2540.741538
886.599382	2480.247692
886.908768	2485.288846
887.218113	2563.426731
887.527417	2477.727115
887.836680	2414.712692
888.145901	2475.206538
888.455082	2513.015192
888.764221	2475.206538
889.073319	2492.850577
889.382376	2482.768269
889.691392	2487.809423
890.000366	2465.124231
890.309300	2447.480192
890.618193	2475.206538
890.927044	2439.918462
891.235855	2563.426731
891.544625	2447.480192
891.853353	2477.727115
892.162041	2507.974038
892.470687	2480.247692
892.779293	2470.165385
893.087858	2457.562500
893.396381	2432.356731
893.704864	2507.974038
894.013306	2465.124231
894.321707	2439.918462
894.630068	2467.644808
894.938387	2409.671538
895.246665	2492.850577
895.554903	2507.974038
895.863100	2510.494615
896.171256	2477.727115
896.479371	2414.712692
896.787446	2500.412308
897.095480	2462.603654
897.403473	2515.535769
897.711425	2422.274423
898.019336	2573.509038
898.327207	2434.877308
898.635038	2510.494615
898.942827	2533.179808
899.250576	2500.412308
899.558284	2540.741538
899.865952	2457.562500
900.173579	2535.700385
900.481165	2450.000769
900.788711	2515.535769
901.096216	2424.795000
901.403681	2457.562500
901.711105	2381.945192
902.018489	2485.288846
902.325832	2457.562500
902.633135	2477.727115
902.940397	2432.356731
903.247619	2475.206538
903.554800	2487.809423
903.861941	2543.262115
904.169041	2417.233269
904.476101	2455.041923
904.783121	2507.974038
905.090100	2528.138654
905.397039	2505.453462
905.703938	2518.056346
906.010796	2533.179808
906.317614	2528.138654
906.624391	2482.768269
906.931129	2533.179808
907.237826	2467.644808
907.544483	2455.041923
907.851099	2497.891731
908.157675	2530.659231
908.464211	2470.165385
908.770707	2497.891731
909.077163	2467.644808
909.383578	2533.179808
909.689954	2490.330000
909.996289	2515.535769
910.302584	2538.220962
910.608839	2457.562500
910.915054	2505.453462
911.221229	2485.288846
911.527363	2573.509038
911.833458	2427.315577
912.139513	2487.809423
912.445527	2386.986346
912.751502	2482.768269
913.057436	2414.712692
913.363331	2482.768269
913.669186	2467.644808
913.975000	2457.562500
914.280775	2480.247692
914.586510	2492.850577
914.892205	2470.165385
915.197859	2533.179808
915.503475	2518.056346
915.809050	2439.918462
916.114585	2596.194231
916.420081	2570.988462
916.725536	2525.618077
917.030952	2523.097500
917.336328	2480.247692
917.641665	2497.891731
917.946961	2495.371154
918.252218	2513.015192
918.557435	2475.206538
918.862612	2485.288846
919.167750	2462.603654
919.472848	2472.685962
919.777906	2535.700385
920.082925	2502.932885
920.387904	2563.426731
920.692843	2455.041923
920.997743	2505.453462
921.302603	2462.603654
921.607423	2500.412308
921.912204	2505.453462
922.216946	2533.179808
922.521647	2477.727115
922.826310	2520.576923
923.130932	2490.330000
923.435516	2422.274423
923.740059	2510.494615
924.044564	2497.891731
924.349028	2404.630385
924.653454	2429.836154
924.957840	2475.206538
925.262186	2505.453462
925.566493	2487.809423
925.870761	2457.562500
926.174989	2490.330000
926.479178	2507.974038
926.783328	2507.974038
927.087438	2507.974038
927.391509	2437.397885
927.695541	2560.906154
927.999533	2618.879423
928.303486	2553.344423
928.607400	2528.138654
928.911275	2487.809423
929.215110	2409.671538
929.518906	2523.097500
929.822663	2414.712692
930.126381	2543.262115
930.430060	2487.809423
930.733699	2460.083077
931.037299	2540.741538
931.340861	2497.891731
931.644383	2444.959615
931.947866	2467.644808
932.251309	2550.823846
932.554714	2444.959615
932.858080	2452.521346
933.161407	2487.809423
933.464694	2518.056346
933.767943	2480.247692
934.071153	2447.480192
934.374323	2480.247692
934.677455	2477.727115
934.980548	2523.097500
935.283602	2490.330000
935.586617	2417.233269
935.889593	2485.288846
936.192530	2523.097500
936.495428	2515.535769
936.798287	2535.700385
937.101108	2472.685962
937.403890	2462.603654
937.706632	2525.618077
938.009336	2427.315577
938.312002	2533.179808
938.614628	2439.918462
938.917216	2490.330000
939.219765	2437.397885
939.522275	2543.262115
939.824747	2419.753846
940.127179	2545.782692
940.429573	2535.700385
940.731929	2467.644808
941.034246	2419.753846
941.336524	2500.412308
941.638763	2452.521346
941.940964	2538.220962
942.243126	2467.644808
942.545250	2460.083077
942.847335	2535.700385
943.149381	2555.865000
943.451389	2578.550192
943.753359	2568.467885
944.055290	2601.235385
944.357182	2518.056346
944.659036	2543.262115
944.960851	2467.644808
945.262628	2472.685962
945.564367	2520.576923
945.866067	2472.685962
946.167729	2434.877308
946.469352	2407.150962
946.770937	2535.700385
947.072484	2480.247692
947.373992	2510.494615
947.675462	2442.439038
947.976893	2492.850577
948.278286	2492.850577
948.579641	2520.576923
948.880958	2460.083077
949.182236	2455.041923
949.483476	2505.453462
949.784678	2414.712692
950.085841	2460.083077
950.386967	2555.865000
950.688054	2563.426731
950.989103	2397.068654
951.290114	2452.521346
951.591087	2510.494615
951.892021	2563.426731
952.192917	2485.288846
952.493776	2492.850577
952.794596	2419.753846
953.095378	2510.494615
953.396122	2530.659231
953.696828	2523.097500
953.997496	2450.000769
954.298126	2429.836154
954.598718	2444.959615
954.899272	2414.712692
955.199788	2525.618077
955.500266	2515.535769
955.800706	2520.576923
956.101108	2543.262115
956.401472	2482.768269
956.701798	2472.685962
957.002087	2447.480192
957.302337	2510.494615
957.602550	2500.412308
957.902724	2460.083077
958.202861	2555.865000
958.502960	2543.262115
958.803022	2470.165385
959.103045	2495.371154
959.403031	2495.371154
959.702979	2422.274423
960.002889	2576.029615
960.302762	2485.288846
960.602596	2538.220962
960.902393	2457.562500
961.202153	2520.576923
961.501875	2482.768269
961.801559	2553.344423
962.101205	2507.974038
962.400814	2563.426731
962.700385	2470.165385
962.999918	2530.659231
963.299414	2545.782692
963.598873	2502.932885
963.898293	2465.124231
964.197677	2485.288846
964.497022	2520.576923
964.796331	2502.932885
965.095601	2485.288846
965.394835	2447.480192
965.694030	2507.974038
965.993189	2480.247692
966.292309	2475.206538
966.591393	2548.303269
966.890439	2457.562500
967.189447	2513.015192
967.488419	2596.194231
967.787353	2492.850577
968.086249	2482.768269
968.385108	2502.932885
968.683930	2510.494615
968.982714	2497.891731
969.281462	2485.288846
969.580172	2480.247692
969.878844	2510.494615
970.177480	2505.453462
970.476078	2462.603654
970.774639	2548.303269
971.073162	2535.700385
971.371649	2550.823846
971.670098	2467.644808
971.968510	2510.494615
972.266885	2502.932885
972.565223	2462.603654
972.863524	2465.124231
973.161788	2538.220962
973.460014	2560.906154
973.758204	2470.165385
974.056356	2565.947308
974.354471	2442.439038
974.652550	2437.397885
974.950591	2510.494615
975.248595	2565.947308
975.546563	2472.685962
975.844493	2530.659231
976.142386	2497.891731
976.440243	2540.741538
976.738062	2507.974038
977.035845	2505.453462
977.333590	2520.576923
977.631299	2487.809423
977.928971	2545.782692
978.226606	2457.562500
978.524204	2452.521346
978.821765	2414.712692
979.119290	2523.097500
979.416777	2402.109808
979.714228	2563.426731
980.011642	2515.535769
980.309020	2523.097500
980.606360	2465.124231
980.903664	2525.618077
981.200931	2460.083077
981.498162	2351.698269
981.795356	2460.083077
982.092513	2583.591346
982.389633	2497.891731
982.686717	2495.371154
982.983764	2414.712692
983.280775	2460.083077
983.577749	2485.288846
983.874686	2447.480192
984.171587	2427.315577
984.468451	2568.467885
984.765279	2450.000769
985.062070	2492.850577
985.358824	2447.480192
985.655543	2422.274423
985.952224	2477.727115
986.248869	2500.412308
986.545478	2540.741538
986.842050	2487.809423
987.138586	2530.659231
987.435086	2477.727115
987.731549	2475.206538
988.027975	2530.659231
988.324366	2462.603654
988.620719	2505.453462
988.917037	2462.603654
989.213318	2462.603654
989.509563	2409.671538
989.805772	2581.070769
990.101944	2538.220962
990.398080	2455.041923
990.694180	2450.000769
990.990244	2495.371154
991.286271	2510.494615
991.582262	2502.932885
991.878217	2568.467885
992.174136	2424.795000
992.470019	2452.521346
992.765865	2480.247692
993.061676	2455.041923
993.357450	2467.644808
993.653188	2578.550192
993.948890	2409.671538
994.244556	2465.124231
994.540186	2417.233269
994.835780	2502.932885
995.131337	2507.974038
995.426859	2515.535769
995.722345	2467.644808
996.017795	2492.850577
996.313208	2485.288846
996.608586	2472.685962
996.903928	2442.439038
997.199234	2487.809423
997.494504	2515.535769
997.789738	2462.603654
998.084936	2505.453462
998.380099	2434.877308
998.675225	2523.097500
998.970316	2417.233269
999.265371	2439.918462
999.560390	2417.233269
999.855373	2513.015192
1000.150320	2530.659231
1000.445232	2563.426731
1000.740108	2434.877308
1001.034948	2467.644808
1001.329752	2525.618077
1001.624521	2485.288846
1001.919254	2414.712692
1002.213951	2462.603654
1002.508613	2533.179808
1002.803239	2447.480192
1003.097829	2502.932885
1003.392384	2467.644808
1003.686903	2414.712692
1003.981386	2510.494615
1004.275834	2477.727115
1004.570246	2515.535769
1004.864623	2467.644808
1005.158964	2507.974038
1005.453270	2444.959615
1005.747540	2492.850577
1006.041775	2452.521346
1006.335974	2472.685962
1006.630138	2457.562500
1006.924266	2462.603654
1007.218359	2480.247692
1007.512416	2460.083077
1007.806438	2550.823846
1008.100425	2477.727115
1008.394376	2535.700385
1008.688292	2550.823846
1008.982172	2520.576923
1009.276017	2475.206538
1009.569827	2497.891731
1009.863602	2533.179808
1010.157341	2495.371154
1010.451045	2495.371154
1010.744714	2507.974038
1011.038347	2467.644808
1011.331945	2460.083077
1011.625508	2528.138654
1011.919036	2548.303269
1012.212528	2462.603654
1012.505986	2452.521346
1012.799408	2460.083077
1013.092795	2482.768269
1013.386147	2507.974038
1013.679464	2455.041923
1013.972745	2450.000769
1014.265992	2555.865000
1014.559204	2470.165385
1014.852380	2482.768269
1015.145521	2427.315577
1015.438628	2591.153077
1015.731699	2467.644808
1016.024736	2429.836154
1016.317737	2485.288846
1016.610703	2457.562500
1016.903635	2465.124231
1017.196531	2422.274423
1017.489393	2424.795000
1017.782219	2442.439038
1018.075011	2497.891731
1018.367768	2427.315577
1018.660490	2555.865000
1018.953177	2555.865000
1019.245829	2555.865000
