Dividing Wavelength (nm)	Counts (n)	Blue Motor Position (mm): 6.600000	Red Motor Position (mm): 0.000000	
326.493990	2142.490385
326.888308	2142.490385
327.282561	2142.490385
327.676750	2092.078846
328.070874	2049.229038
328.464933	2084.517115
328.858929	2026.543846
329.252859	2069.393654
329.646726	2119.805192
330.040528	2107.202308
330.434265	2170.216731
330.827938	2102.161154
331.221547	2137.449231
331.615091	2147.531538
332.008571	2167.696154
332.401986	2218.107692
332.795338	2225.669423
333.188625	2202.984231
333.581847	2308.848462
333.975006	2238.272308
334.368100	2344.136538
334.761129	2331.533654
335.154095	2336.574808
335.546996	2334.054231
335.939833	2313.889615
336.332606	2386.986346
336.725315	2313.889615
337.117960	2366.821731
337.510540	2371.862885
337.903056	2397.068654
338.295508	2432.356731
338.687896	2477.727115
339.080220	2487.809423
339.472480	2429.836154
339.864676	2497.891731
340.256807	2465.124231
340.648875	2452.521346
341.040879	2467.644808
341.432818	2520.576923
341.824694	2432.356731
342.216506	2538.220962
342.608253	2450.000769
342.999937	2417.233269
343.391557	2455.041923
343.783113	2540.741538
344.174605	2497.891731
344.566033	2500.412308
344.957397	2457.562500
345.348697	2427.315577
345.739934	2505.453462
346.131106	2523.097500
346.522215	2404.630385
346.913260	2452.521346
347.304241	2412.192115
347.695159	2477.727115
348.086012	2414.712692
348.476802	2417.233269
348.867528	2444.959615
349.258191	2505.453462
349.648789	2447.480192
350.039324	2543.262115
350.429796	2437.397885
350.820203	2487.809423
351.210548	2397.068654
351.600828	2513.015192
351.991045	2444.959615
352.381198	2518.056346
352.771288	2417.233269
353.161314	2422.274423
353.551276	2460.083077
353.941175	2427.315577
354.331010	2402.109808
354.720782	2462.603654
355.110490	2424.795000
355.500135	2439.918462
355.889717	2457.562500
356.279235	2495.371154
356.668689	2389.506923
357.058080	2482.768269
357.447408	2344.136538
357.836672	2427.315577
358.225873	2457.562500
358.615010	2419.753846
359.004084	2525.618077
359.393095	2447.480192
359.782043	2482.768269
360.170927	2361.780577
360.559748	2424.795000
360.948505	2477.727115
361.337199	2502.932885
361.725830	2439.918462
362.114398	2308.848462
362.502903	2386.986346
362.891344	2386.986346
363.279722	2404.630385
363.668037	2515.535769
364.056289	2444.959615
364.444478	2502.932885
364.832603	2467.644808
365.220665	2467.644808
365.608665	2502.932885
365.996601	2497.891731
366.384474	2429.836154
366.772284	2432.356731
367.160031	2442.439038
367.547715	2434.877308
367.935336	2467.644808
368.322893	2475.206538
368.710388	2439.918462
369.097820	2465.124231
369.485189	2472.685962
369.872495	2427.315577
370.259738	2442.439038
370.646918	2510.494615
371.034035	2422.274423
371.421090	2419.753846
371.808081	2472.685962
372.195010	2545.782692
372.581875	2475.206538
372.968678	2399.589231
373.355418	2495.371154
373.742096	2444.959615
374.128710	2528.138654
374.515262	2457.562500
374.901751	2480.247692
375.288177	2477.727115
375.674540	2412.192115
376.060841	2482.768269
376.447079	2432.356731
376.833254	2419.753846
377.219367	2442.439038
377.605417	2404.630385
377.991404	2520.576923
378.377329	2520.576923
378.763191	2409.671538
379.148991	2485.288846
379.534727	2472.685962
379.920402	2495.371154
380.306013	2485.288846
380.691563	2450.000769
381.077049	2482.768269
381.462474	2465.124231
381.847835	2427.315577
382.233134	2467.644808
382.618371	2399.589231
383.003545	2444.959615
383.388657	2371.862885
383.773706	2346.657115
384.158693	2452.521346
384.543618	2414.712692
384.928480	2422.274423
385.313280	2434.877308
385.698017	2467.644808
386.082692	2399.589231
386.467305	2457.562500
386.851856	2525.618077
387.236344	2472.685962
387.620770	2502.932885
388.005133	2525.618077
388.389435	2452.521346
388.773674	2558.385577
389.157851	2475.206538
389.541965	2500.412308
389.926018	2447.480192
390.310008	2439.918462
390.693936	2472.685962
391.077802	2482.768269
391.461606	2414.712692
391.845348	2502.932885
392.229027	2379.424615
392.612645	2480.247692
392.996200	2510.494615
393.379694	2412.192115
393.763125	2460.083077
394.146494	2525.618077
394.529801	2424.795000
394.913047	2455.041923
395.296230	2495.371154
395.679351	2434.877308
396.062410	2502.932885
396.445408	2497.891731
396.828343	2528.138654
397.211217	2412.192115
397.594028	2417.233269
397.976778	2394.548077
398.359466	2558.385577
398.742092	2553.344423
399.124656	2485.288846
399.507158	2442.439038
399.889598	2482.768269
400.271977	2457.562500
400.654294	2455.041923
401.036549	2543.262115
401.418742	2485.288846
401.800874	2475.206538
402.182944	2457.562500
402.564952	2482.768269
402.946898	2500.412308
403.328783	2492.850577
403.710606	2437.397885
404.092367	2487.809423
404.474067	2520.576923
404.855705	2505.453462
405.237282	2555.865000
405.618797	2538.220962
406.000250	2457.562500
406.381642	2475.206538
406.762972	2472.685962
407.144240	2482.768269
407.525447	2397.068654
407.906593	2533.179808
408.287677	2437.397885
408.668700	2475.206538
409.049661	2399.589231
409.430560	2518.056346
409.811399	2455.041923
410.192176	2467.644808
410.572891	2442.439038
410.953545	2460.083077
411.334138	2492.850577
411.714669	2452.521346
412.095139	2553.344423
412.475547	2450.000769
412.855894	2485.288846
413.236180	2455.041923
413.616405	2374.383462
413.996568	2359.260000
414.376670	2505.453462
414.756711	2497.891731
415.136691	2482.768269
415.516609	2502.932885
415.896466	2525.618077
416.276262	2518.056346
416.655997	2432.356731
417.035670	2515.535769
417.415283	2455.041923
417.794834	2477.727115
418.174324	2437.397885
418.553753	2530.659231
418.933121	2482.768269
419.312428	2523.097500
419.691674	2513.015192
420.070859	2467.644808
420.449983	2434.877308
420.829045	2485.288846
421.208047	2480.247692
421.586988	2480.247692
421.965867	2513.015192
422.344686	2422.274423
422.723444	2467.644808
423.102141	2475.206538
423.480777	2515.535769
423.859352	2500.412308
424.237866	2465.124231
424.616319	2482.768269
424.994712	2477.727115
425.373044	2518.056346
425.751314	2485.288846
426.129524	2412.192115
426.507673	2515.535769
426.885762	2371.862885
427.263789	2462.603654
427.641756	2462.603654
428.019662	2465.124231
428.397508	2492.850577
428.775292	2450.000769
429.153016	2429.836154
429.530679	2530.659231
429.908282	2502.932885
430.285824	2490.330000
430.663305	2555.865000
431.040726	2460.083077
431.418086	2490.330000
431.795385	2530.659231
432.172624	2429.836154
432.549802	2558.385577
432.926920	2450.000769
433.303977	2439.918462
433.680974	2545.782692
434.057910	2429.836154
434.434786	2513.015192
434.811601	2434.877308
435.188355	2480.247692
435.565050	2518.056346
435.941683	2500.412308
436.318257	2470.165385
436.694770	2578.550192
437.071222	2475.206538
437.447614	2422.274423
437.823946	2465.124231
438.200218	2465.124231
438.576429	2507.974038
438.952580	2523.097500
439.328670	2555.865000
439.704700	2497.891731
440.080670	2492.850577
440.456580	2518.056346
440.832429	2500.412308
441.208218	2427.315577
441.583947	2568.467885
441.959616	2565.947308
442.335224	2538.220962
442.710773	2455.041923
443.086261	2588.632500
443.461689	2497.891731
443.837057	2533.179808
444.212365	2502.932885
444.587612	2447.480192
444.962800	2538.220962
445.337927	2472.685962
445.712995	2586.111923
446.088002	2505.453462
446.462949	2457.562500
446.837837	2502.932885
447.212664	2520.576923
447.587431	2487.809423
447.962139	2538.220962
448.336786	2447.480192
448.711374	2455.041923
449.085901	2470.165385
449.460369	2452.521346
449.834776	2497.891731
450.209124	2523.097500
450.583412	2518.056346
450.957640	2455.041923
451.331808	2465.124231
451.705917	2417.233269
452.079965	2550.823846
452.453954	2523.097500
452.827883	2427.315577
453.201752	2563.426731
453.575562	2487.809423
453.949311	2515.535769
454.323001	2444.959615
454.696632	2472.685962
455.070202	2450.000769
455.443713	2482.768269
455.817164	2467.644808
456.190556	2412.192115
456.563888	2480.247692
456.937160	2434.877308
457.310373	2470.165385
457.683526	2422.274423
458.056619	2525.618077
458.429653	2485.288846
458.802628	2442.439038
459.175542	2495.371154
459.548398	2540.741538
459.921194	2518.056346
460.293930	2533.179808
460.666607	2419.753846
461.039224	2477.727115
461.411782	2444.959615
461.784280	2482.768269
462.156719	2485.288846
462.529099	2450.000769
462.901419	2553.344423
463.273680	2533.179808
463.645882	2470.165385
464.018024	2502.932885
464.390106	2515.535769
464.762130	2465.124231
465.134094	2576.029615
465.505999	2475.206538
465.877845	2424.795000
466.249631	2497.891731
466.621358	2442.439038
466.993026	2518.056346
467.364634	2477.727115
467.736184	2452.521346
468.107674	2402.109808
468.479105	2581.070769
468.850477	2477.727115
469.221790	2487.809423
469.593043	2530.659231
469.964238	2586.111923
470.335373	2495.371154
470.706449	2523.097500
471.077467	2467.644808
471.448425	2460.083077
471.819324	2447.480192
472.190164	2507.974038
472.560945	2439.918462
472.931667	2482.768269
473.302330	2480.247692
473.672934	2407.150962
474.043479	2558.385577
474.413965	2515.535769
474.784393	2429.836154
475.154761	2404.630385
475.525070	2467.644808
475.895321	2548.303269
476.265513	2492.850577
476.635645	2450.000769
477.005719	2523.097500
477.375734	2553.344423
477.745691	2497.891731
478.115588	2505.453462
478.485427	2485.288846
478.855207	2424.795000
479.224928	2475.206538
479.594591	2472.685962
479.964194	2513.015192
480.333739	2467.644808
480.703226	2487.809423
481.072653	2543.262115
481.442022	2540.741538
481.811333	2460.083077
482.180584	2523.097500
482.549777	2452.521346
482.918912	2520.576923
483.287988	2545.782692
483.657005	2495.371154
484.025964	2550.823846
484.394864	2601.235385
484.763706	2439.918462
485.132489	2513.015192
485.501213	2467.644808
485.869879	2500.412308
486.238487	2490.330000
486.607036	2490.330000
486.975527	2495.371154
487.343959	2487.809423
487.712333	2480.247692
488.080648	2480.247692
488.448905	2545.782692
488.817104	2513.015192
489.185244	2507.974038
489.553326	2429.836154
489.921350	2510.494615
490.289315	2558.385577
490.657222	2485.288846
491.025070	2518.056346
491.392861	2470.165385
491.760593	2560.906154
492.128267	2528.138654
492.495883	2533.179808
492.863440	2442.439038
493.230939	2576.029615
493.598380	2460.083077
493.965763	2538.220962
494.333088	2364.301154
494.700354	2510.494615
495.067563	2422.274423
495.434713	2460.083077
495.801805	2487.809423
496.168839	2462.603654
496.535815	2505.453462
496.902733	2525.618077
497.269593	2540.741538
497.636395	2442.439038
498.003139	2535.700385
498.369825	2507.974038
498.736453	2543.262115
499.103023	2429.836154
499.469535	2510.494615
499.835989	2462.603654
500.202385	2477.727115
500.568723	2414.712692
500.935003	2555.865000
501.301226	2475.206538
501.667390	2525.618077
502.033497	2492.850577
502.399546	2457.562500
502.765537	2457.562500
503.131470	2513.015192
503.497345	2513.015192
503.863163	2540.741538
504.228923	2417.233269
504.594625	2462.603654
504.960269	2515.535769
505.325856	2596.194231
505.691385	2530.659231
506.056856	2467.644808
506.422270	2480.247692
506.787625	2538.220962
507.152924	2553.344423
507.518164	2550.823846
507.883347	2507.974038
508.248472	2520.576923
508.613540	2452.521346
508.978550	2500.412308
509.343503	2525.618077
509.708398	2548.303269
510.073236	2520.576923
510.438016	2485.288846
510.802738	2555.865000
511.167403	2497.891731
511.532010	2392.027500
511.896561	2520.576923
512.261053	2462.603654
512.625488	2538.220962
512.989866	2573.509038
513.354186	2515.535769
513.718449	2596.194231
514.082655	2444.959615
514.446803	2492.850577
514.810894	2439.918462
515.174927	2482.768269
515.538904	2568.467885
515.902822	2386.986346
516.266684	2505.453462
516.630488	2515.535769
516.994235	2490.330000
517.357925	2492.850577
517.721558	2502.932885
518.085133	2457.562500
518.448651	2538.220962
518.812112	2505.453462
519.175516	2560.906154
519.538863	2450.000769
519.902152	2472.685962
520.265385	2523.097500
520.628560	2392.027500
520.991678	2495.371154
521.354739	2450.000769
521.717743	2545.782692
522.080690	2480.247692
522.443580	2530.659231
522.806413	2402.109808
523.169189	2439.918462
523.531908	2513.015192
523.894569	2570.988462
524.257174	2490.330000
524.619722	2555.865000
524.982213	2570.988462
525.344647	2560.906154
525.707025	2520.576923
526.069345	2439.918462
526.431608	2442.439038
526.793815	2490.330000
527.155964	2510.494615
527.518057	2470.165385
527.880093	2470.165385
528.242072	2555.865000
528.603995	2495.371154
528.965860	2490.330000
529.327669	2455.041923
529.689421	2460.083077
530.051117	2492.850577
530.412755	2538.220962
530.774337	2480.247692
531.135862	2518.056346
531.497331	2545.782692
531.858743	2404.630385
532.220098	2528.138654
532.581396	2460.083077
532.942638	2497.891731
533.303824	2477.727115
533.664953	2513.015192
534.026025	2487.809423
534.387040	2525.618077
534.747999	2477.727115
535.108902	2487.809423
535.469748	2515.535769
535.830537	2487.809423
536.191270	2502.932885
536.551947	2502.932885
536.912567	2558.385577
537.273131	2437.397885
537.633638	2462.603654
537.994089	2565.947308
538.354483	2485.288846
538.714821	2507.974038
539.075103	2482.768269
539.435328	2495.371154
539.795497	2533.179808
540.155609	2437.397885
540.515665	2553.344423
540.875665	2485.288846
541.235609	2477.727115
541.595496	2505.453462
541.955328	2507.974038
542.315102	2535.700385
542.674821	2492.850577
543.034483	2467.644808
543.394090	2538.220962
543.753640	2487.809423
544.113134	2462.603654
544.472571	2429.836154
544.831953	2497.891731
545.191278	2452.521346
545.550548	2528.138654
545.909761	2535.700385
546.268918	2444.959615
546.628019	2523.097500
546.987064	2520.576923
547.346053	2518.056346
547.704986	2472.685962
548.063863	2553.344423
548.422684	2570.988462
548.781449	2480.247692
549.140158	2427.315577
549.498811	2480.247692
549.857408	2576.029615
550.215949	2465.124231
550.574434	2490.330000
550.932864	2457.562500
551.291237	2555.865000
551.649555	2502.932885
552.007817	2533.179808
552.366022	2500.412308
552.724173	2507.974038
553.082267	2538.220962
553.440305	2480.247692
553.798288	2505.453462
554.156215	2439.918462
554.514086	2502.932885
554.871902	2341.615962
555.229661	2434.877308
555.587365	2487.809423
555.945014	2444.959615
556.302606	2470.165385
556.660143	2515.535769
557.017625	2553.344423
557.375050	2407.150962
557.732421	2472.685962
558.089735	2485.288846
558.446994	2507.974038
558.804197	2465.124231
559.161345	2457.562500
559.518437	2596.194231
559.875474	2472.685962
560.232455	2482.768269
560.589381	2492.850577
560.946251	2492.850577
561.303065	2507.974038
561.659825	2465.124231
562.016528	2480.247692
562.373177	2485.288846
562.729770	2490.330000
563.086307	2402.109808
563.442789	2502.932885
563.799216	2429.836154
564.155587	2502.932885
564.511904	2485.288846
564.868164	2419.753846
565.224370	2490.330000
565.580520	2530.659231
565.936615	2540.741538
566.292654	2538.220962
566.648638	2490.330000
567.004567	2414.712692
567.360441	2455.041923
567.716260	2560.906154
568.072023	2563.426731
568.427732	2419.753846
568.783385	2437.397885
569.138982	2553.344423
569.494525	2490.330000
569.850013	2525.618077
570.205445	2495.371154
570.560823	2482.768269
570.916145	2475.206538
571.271412	2480.247692
571.626625	2457.562500
571.981782	2487.809423
572.336884	2460.083077
572.691931	2447.480192
573.046923	2434.877308
573.401860	2492.850577
573.756743	2558.385577
574.111570	2439.918462
574.466342	2487.809423
574.821059	2502.932885
575.175722	2475.206538
575.530330	2457.562500
575.884882	2480.247692
576.239380	2513.015192
576.593823	2480.247692
576.948211	2487.809423
577.302544	2518.056346
577.656823	2434.877308
578.011047	2450.000769
578.365216	2434.877308
578.719330	2538.220962
579.073389	2513.015192
579.427394	2513.015192
579.781344	2505.453462
580.135239	2568.467885
580.489080	2497.891731
580.842866	2505.453462
581.196597	2465.124231
581.550273	2437.397885
581.903895	2432.356731
582.257463	2492.850577
582.610975	2533.179808
582.964434	2462.603654
583.317837	2467.644808
583.671186	2465.124231
584.024481	2500.412308
584.377721	2470.165385
584.730906	2389.506923
585.084037	2613.838269
585.437113	2452.521346
585.790135	2490.330000
586.143103	2515.535769
586.496016	2414.712692
586.848874	2475.206538
587.201679	2570.988462
587.554428	2535.700385
587.907124	2492.850577
588.259765	2482.768269
588.612352	2497.891731
588.964884	2424.795000
589.317362	2437.397885
589.669786	2480.247692
590.022155	2520.576923
590.374470	2452.521346
590.726731	2497.891731
591.078937	2513.015192
591.431090	2520.576923
591.783188	2495.371154
592.135232	2601.235385
592.487222	2492.850577
592.839157	2505.453462
593.191038	2495.371154
593.542866	2528.138654
593.894639	2470.165385
594.246358	2550.823846
594.598022	2563.426731
594.949633	2442.439038
595.301190	2528.138654
595.652692	2500.412308
596.004141	2475.206538
596.355535	2485.288846
596.706876	2530.659231
597.058162	2593.673654
597.409395	2480.247692
597.760573	2472.685962
598.111698	2513.015192
598.462768	2500.412308
598.813785	2414.712692
599.164748	2475.206538
599.515657	2485.288846
599.866511	2565.947308
600.217312	2525.618077
600.568060	2507.974038
600.918753	2381.945192
601.269392	2543.262115
601.619978	2462.603654
601.970510	2613.838269
602.320988	2402.109808
602.671412	2465.124231
603.021783	2520.576923
603.372100	2485.288846
603.722363	2621.400000
604.072572	2434.877308
604.422728	2487.809423
604.772830	2460.083077
605.122878	2482.768269
605.472872	2565.947308
605.822813	2538.220962
606.172701	2518.056346
606.522534	2510.494615
606.872314	2500.412308
607.222041	2513.015192
607.571714	2497.891731
607.921333	2507.974038
608.270899	2485.288846
608.620411	2530.659231
608.969870	2470.165385
609.319276	2583.591346
609.668627	2538.220962
610.017926	2487.809423
610.367171	2490.330000
610.716362	2475.206538
611.065500	2540.741538
611.414585	2553.344423
611.763616	2563.426731
612.112594	2485.288846
612.461518	2477.727115
612.810389	2520.576923
613.159207	2495.371154
613.507971	2460.083077
613.856682	2442.439038
614.205340	2533.179808
614.553945	2540.741538
614.902496	2432.356731
615.250994	2439.918462
615.599439	2510.494615
615.947830	2581.070769
616.296169	2480.247692
616.644454	2530.659231
616.992686	2540.741538
617.340864	2450.000769
617.688990	2470.165385
618.037063	2485.288846
618.385082	2505.453462
618.733048	2500.412308
619.080961	2535.700385
619.428821	2530.659231
619.776628	2422.274423
620.124382	2543.262115
620.472083	2475.206538
620.819731	2497.891731
621.167326	2490.330000
621.514868	2535.700385
621.862357	2530.659231
622.209793	2568.467885
622.557176	2548.303269
622.904506	2606.276538
623.251783	2548.303269
623.599007	2515.535769
623.946179	2397.068654
624.293297	2477.727115
624.640363	2507.974038
624.987376	2487.809423
625.334336	2548.303269
625.681243	2472.685962
626.028097	2482.768269
626.374899	2568.467885
626.721647	2477.727115
627.068343	2533.179808
627.414987	2505.453462
627.761577	2520.576923
628.108115	2513.015192
628.454600	2523.097500
628.801032	2485.288846
629.147412	2578.550192
629.493739	2540.741538
629.840014	2480.247692
630.186236	2545.782692
630.532405	2502.932885
630.878521	2548.303269
631.224585	2475.206538
631.570597	2495.371154
631.916556	2487.809423
632.262462	2555.865000
632.608316	2477.727115
632.954117	2487.809423
633.299866	2492.850577
633.645562	2452.521346
633.991206	2467.644808
634.336797	2442.439038
634.682336	2507.974038
635.027823	2444.959615
635.373257	2470.165385
635.718639	2437.397885
636.063968	2419.753846
636.409245	2472.685962
636.754470	2442.439038
637.099642	2404.630385
637.444762	2523.097500
637.789829	2485.288846
638.134845	2485.288846
638.479808	2560.906154
638.824719	2528.138654
639.169577	2570.988462
639.514383	2528.138654
639.859137	2538.220962
640.203839	2475.206538
640.548489	2487.809423
640.893086	2399.589231
641.237632	2492.850577
641.582125	2548.303269
641.926566	2507.974038
642.270955	2452.521346
642.615292	2475.206538
642.959576	2434.877308
643.303809	2497.891731
643.647990	2563.426731
643.992118	2485.288846
644.336195	2553.344423
644.680219	2432.356731
645.024192	2578.550192
645.368112	2530.659231
645.711981	2487.809423
646.055797	2525.618077
646.399562	2535.700385
646.743274	2533.179808
647.086935	2409.671538
647.430544	2528.138654
647.774101	2563.426731
648.117606	2497.891731
648.461059	2570.988462
648.804460	2560.906154
649.147810	2507.974038
649.491108	2560.906154
649.834354	2447.480192
650.177548	2555.865000
650.520690	2586.111923
650.863781	2563.426731
651.206820	2530.659231
651.549807	2538.220962
651.892742	2482.768269
652.235626	2477.727115
652.578458	2485.288846
652.921238	2444.959615
653.263967	2563.426731
653.606644	2455.041923
653.949269	2513.015192
654.291843	2553.344423
654.634365	2563.426731
654.976836	2525.618077
655.319255	2497.891731
655.661622	2450.000769
656.003938	2591.153077
656.346203	2434.877308
656.688416	2568.467885
657.030577	2487.809423
657.372687	2480.247692
657.714746	2495.371154
658.056753	2502.932885
658.398708	2563.426731
658.740612	2422.274423
659.082465	2505.453462
659.424266	2427.315577
659.766016	2570.988462
660.107715	2475.206538
660.449362	2419.753846
660.790958	2583.591346
661.132503	2487.809423
661.473996	2570.988462
661.815438	2447.480192
662.156829	2550.823846
662.498168	2500.412308
662.839456	2492.850577
663.180693	2455.041923
663.521879	2543.262115
663.863013	2465.124231
664.204097	2490.330000
664.545129	2500.412308
664.886110	2583.591346
665.227040	2444.959615
665.567918	2462.603654
665.908746	2515.535769
666.249522	2530.659231
666.590248	2490.330000
666.930922	2492.850577
667.271545	2555.865000
667.612118	2528.138654
667.952639	2460.083077
668.293109	2555.865000
668.633528	2495.371154
668.973896	2507.974038
669.314213	2553.344423
669.654480	2480.247692
669.994695	2497.891731
670.334859	2533.179808
670.674973	2513.015192
671.015035	2434.877308
671.355047	2570.988462
671.695008	2462.603654
672.034918	2555.865000
672.374777	2520.576923
672.714585	2472.685962
673.054342	2455.041923
673.394049	2480.247692
673.733705	2452.521346
674.073310	2596.194231
674.412864	2470.165385
674.752368	2593.673654
675.091820	2510.494615
675.431223	2525.618077
675.770574	2467.644808
676.109875	2485.288846
676.449125	2540.741538
676.788324	2570.988462
677.127473	2482.768269
677.466571	2548.303269
677.805619	2467.644808
678.144616	2515.535769
678.483562	2515.535769
678.822458	2525.618077
679.161303	2407.150962
679.500098	2518.056346
679.838842	2497.891731
680.177535	2497.891731
680.516179	2427.315577
680.854771	2558.385577
681.193314	2568.467885
681.531805	2437.397885
681.870247	2518.056346
682.208638	2578.550192
682.546978	2553.344423
682.885268	2442.439038
683.223508	2513.015192
683.561697	2543.262115
683.899836	2573.509038
684.237925	2480.247692
684.575963	2470.165385
684.913951	2480.247692
685.251889	2510.494615
685.589776	2460.083077
685.927614	2515.535769
686.265401	2505.453462
686.603137	2576.029615
686.940824	2555.865000
687.278460	2495.371154
687.616046	2538.220962
687.953582	2538.220962
688.291068	2507.974038
688.628504	2397.068654
688.965889	2457.562500
689.303224	2507.974038
689.640510	2507.974038
689.977745	2462.603654
690.314930	2472.685962
690.652065	2502.932885
690.989150	2538.220962
691.326185	2558.385577
691.663170	2475.206538
692.000105	2475.206538
692.336990	2535.700385
692.673825	2407.150962
693.010610	2507.974038
693.347345	2472.685962
693.684030	2462.603654
694.020665	2603.755962
694.357251	2497.891731
694.693786	2518.056346
695.030272	2424.795000
695.366707	2495.371154
695.703093	2555.865000
696.039429	2507.974038
696.375716	2497.891731
696.711952	2477.727115
697.048139	2477.727115
697.384276	2432.356731
697.720363	2462.603654
698.056400	2502.932885
698.392388	2583.591346
698.728326	2452.521346
699.064214	2550.823846
699.400053	2545.782692
699.735842	2465.124231
700.071581	2525.618077
700.407270	2495.371154
700.742910	2570.988462
701.078501	2472.685962
701.414042	2392.027500
701.749533	2543.262115
702.084974	2533.179808
702.420366	2439.918462
702.755709	2455.041923
703.091002	2444.959615
703.426246	2465.124231
703.761440	2505.453462
704.096584	2576.029615
704.431679	2518.056346
704.766725	2472.685962
705.101721	2533.179808
705.436668	2563.426731
705.771565	2548.303269
706.106413	2477.727115
706.441212	2495.371154
706.775961	2470.165385
707.110661	2490.330000
707.445311	2523.097500
707.779913	2467.644808
708.114465	2573.509038
708.448967	2439.918462
708.783421	2581.070769
709.117825	2606.276538
709.452180	2518.056346
709.786485	2465.124231
710.120742	2460.083077
710.454949	2439.918462
710.789107	2513.015192
711.123216	2397.068654
711.457275	2538.220962
711.791286	2424.795000
712.125247	2510.494615
712.459159	2450.000769
712.793023	2543.262115
713.126837	2432.356731
713.460602	2502.932885
713.794318	2470.165385
714.127985	2570.988462
714.461602	2480.247692
714.795171	2520.576923
715.128691	2480.247692
715.462162	2465.124231
715.795584	2535.700385
716.128957	2409.671538
716.462281	2460.083077
716.795556	2460.083077
717.128782	2513.015192
717.461960	2462.603654
717.795088	2490.330000
718.128167	2500.412308
718.461198	2429.836154
718.794180	2550.823846
719.127113	2439.918462
719.459997	2450.000769
719.792833	2560.906154
720.125619	2510.494615
720.458357	2555.865000
720.791046	2424.795000
721.123686	2414.712692
721.456278	2475.206538
721.788821	2545.782692
722.121315	2457.562500
722.453761	2507.974038
722.786158	2492.850577
723.118506	2452.521346
723.450805	2427.315577
723.783056	2553.344423
724.115259	2432.356731
724.447412	2505.453462
724.779518	2565.947308
725.111574	2558.385577
725.443582	2404.630385
725.775542	2465.124231
726.107453	2507.974038
726.439315	2518.056346
726.771129	2518.056346
727.102895	2538.220962
727.434612	2497.891731
727.766281	2523.097500
728.097901	2482.768269
728.429473	2523.097500
728.760996	2477.727115
729.092471	2518.056346
729.423897	2475.206538
729.755276	2495.371154
730.086606	2520.576923
730.417887	2543.262115
730.749120	2386.986346
731.080305	2528.138654
731.411442	2548.303269
731.742530	2485.288846
732.073570	2540.741538
732.404562	2482.768269
732.735506	2487.809423
733.066401	2427.315577
733.397249	2507.974038
733.728048	2485.288846
734.058798	2525.618077
734.389501	2427.315577
734.720156	2578.550192
735.050762	2502.932885
735.381320	2482.768269
735.711831	2563.426731
736.042293	2492.850577
736.372707	2482.768269
736.703073	2470.165385
737.033391	2545.782692
737.363661	2470.165385
737.693883	2510.494615
738.024056	2535.700385
738.354182	2450.000769
738.684260	2482.768269
739.014290	2455.041923
739.344272	2570.988462
739.674207	2462.603654
740.004093	2434.877308
740.333931	2490.330000
740.663722	2553.344423
740.993464	2394.548077
741.323159	2475.206538
741.652806	2507.974038
741.982405	2505.453462
742.311956	2490.330000
742.641460	2472.685962
742.970915	2462.603654
743.300323	2487.809423
743.629683	2437.397885
743.958996	2535.700385
744.288260	2450.000769
744.617477	2515.535769
744.946647	2548.303269
745.275768	2477.727115
745.604842	2477.727115
745.933869	2505.453462
746.262847	2477.727115
746.591778	2477.727115
746.920662	2477.727115
747.249498	2528.138654
747.578286	2487.809423
747.907027	2467.644808
748.235720	2538.220962
748.564365	2502.932885
748.892963	2553.344423
749.221514	2507.974038
749.550017	2422.274423
749.878473	2502.932885
750.206881	2470.165385
750.535242	2520.576923
750.863555	2472.685962
751.191821	2550.823846
751.520039	2500.412308
751.848210	2545.782692
752.176334	2444.959615
752.504411	2570.988462
752.832440	2495.371154
753.160421	2414.712692
753.488356	2487.809423
753.816243	2548.303269
754.144082	2444.959615
754.471875	2477.727115
754.799620	2427.315577
755.127318	2507.974038
755.454969	2477.727115
755.782572	2553.344423
756.110129	2563.426731
756.437638	2608.797115
756.765100	2447.480192
757.092515	2558.385577
757.419882	2550.823846
757.747203	2424.795000
758.074477	2487.809423
758.401703	2447.480192
758.728882	2397.068654
759.056014	2540.741538
759.383099	2402.109808
759.710138	2528.138654
760.037129	2518.056346
760.364073	2497.891731
760.690970	2399.589231
761.017820	2485.288846
761.344623	2487.809423
761.671379	2386.986346
761.998088	2457.562500
762.324751	2555.865000
762.651366	2538.220962
762.977935	2502.932885
763.304456	2482.768269
763.630931	2518.056346
763.957359	2533.179808
764.283740	2432.356731
764.610074	2510.494615
764.936362	2495.371154
765.262602	2538.220962
765.588796	2570.988462
765.914943	2485.288846
766.241044	2540.741538
766.567097	2543.262115
766.893104	2568.467885
767.219064	2450.000769
767.544978	2502.932885
767.870845	2460.083077
768.196665	2455.041923
768.522438	2548.303269
768.848165	2500.412308
769.173846	2475.206538
769.499479	2485.288846
769.825066	2477.727115
770.150607	2502.932885
770.476101	2480.247692
770.801548	2568.467885
771.126949	2437.397885
771.452303	2447.480192
771.777611	2490.330000
772.102872	2439.918462
772.428087	2573.509038
772.753256	2417.233269
773.078378	2578.550192
773.403453	2550.823846
773.728482	2515.535769
774.053465	2535.700385
774.378401	2538.220962
774.703291	2558.385577
775.028135	2530.659231
775.352932	2523.097500
775.677683	2472.685962
776.002388	2528.138654
776.327046	2548.303269
776.651658	2455.041923
776.976224	2470.165385
777.300743	2460.083077
777.625216	2412.192115
777.949643	2538.220962
778.274024	2533.179808
778.598359	2480.247692
778.922647	2530.659231
779.246889	2490.330000
779.571086	2492.850577
779.895236	2520.576923
780.219339	2510.494615
780.543397	2485.288846
780.867409	2434.877308
781.191374	2434.877308
781.515294	2550.823846
781.839167	2475.206538
782.162995	2502.932885
782.486776	2442.439038
782.810511	2583.591346
783.134201	2490.330000
783.457844	2513.015192
783.781441	2480.247692
784.104993	2540.741538
784.428498	2429.836154
784.751958	2611.317692
785.075372	2560.906154
785.398739	2455.041923
785.722061	2525.618077
786.045337	2560.906154
786.368568	2465.124231
786.691752	2505.453462
787.014891	2467.644808
787.337983	2477.727115
787.661030	2570.988462
787.984031	2482.768269
788.306987	2482.768269
788.629897	2452.521346
788.952760	2548.303269
789.275579	2470.165385
789.598351	2586.111923
789.921078	2460.083077
790.243759	2545.782692
790.566395	2417.233269
790.888984	2555.865000
791.211529	2497.891731
791.534027	2475.206538
791.856480	2528.138654
792.178888	2558.385577
792.501249	2543.262115
792.823566	2482.768269
793.145836	2558.385577
793.468062	2467.644808
793.790241	2538.220962
794.112375	2490.330000
794.434464	2555.865000
794.756507	2422.274423
795.078505	2462.603654
795.400457	2502.932885
795.722364	2495.371154
796.044226	2573.509038
796.366042	2465.124231
796.687812	2480.247692
797.009538	2510.494615
797.331218	2462.603654
797.652852	2505.453462
797.974442	2432.356731
798.295986	2414.712692
798.617484	2555.865000
798.938938	2555.865000
799.260346	2467.644808
799.581709	2500.412308
799.903026	2553.344423
800.224299	2477.727115
800.545526	2482.768269
800.866708	2513.015192
801.187845	2500.412308
801.508936	2475.206538
801.829983	2492.850577
802.150984	2555.865000
802.471940	2460.083077
802.792851	2500.412308
803.113717	2376.904038
803.434538	2419.753846
803.755314	2553.344423
804.076045	2485.288846
804.396731	2460.083077
804.717372	2482.768269
805.037967	2434.877308
805.358518	2470.165385
805.679024	2588.632500
805.999485	2520.576923
806.319901	2555.865000
806.640272	2523.097500
806.960598	2540.741538
807.280879	2487.809423
807.601115	2505.453462
807.921306	2447.480192
808.241453	2520.576923
808.561554	2450.000769
808.881611	2467.644808
809.201623	2422.274423
809.521590	2492.850577
809.841513	2485.288846
810.161390	2505.453462
810.481223	2518.056346
810.801011	2475.206538
811.120755	2485.288846
811.440453	2427.315577
811.760107	2437.397885
812.079716	2427.315577
812.399281	2477.727115
812.718801	2462.603654
813.038276	2513.015192
813.357707	2462.603654
813.677093	2492.850577
813.996434	2538.220962
814.315731	2495.371154
814.634983	2490.330000
814.954191	2460.083077
815.273354	2399.589231
815.592473	2523.097500
815.911547	2447.480192
816.230577	2444.959615
816.549562	2505.453462
816.868502	2434.877308
817.187399	2439.918462
817.506250	2472.685962
817.825058	2417.233269
818.143821	2497.891731
818.462539	2548.303269
818.781213	2485.288846
819.099843	2475.206538
819.418429	2598.714808
819.736970	2422.274423
820.055466	2492.850577
820.373919	2502.932885
820.692327	2507.974038
821.010691	2442.439038
821.329011	2419.753846
821.647286	2465.124231
821.965517	2510.494615
822.283704	2412.192115
822.601847	2485.288846
822.919945	2520.576923
823.237999	2472.685962
823.556010	2520.576923
823.873976	2565.947308
824.191897	2462.603654
824.509775	2530.659231
824.827609	2475.206538
825.145398	2621.400000
825.463144	2482.768269
825.780845	2505.453462
826.098502	2495.371154
826.416116	2507.974038
826.733685	2409.671538
827.051210	2500.412308
827.368692	2553.344423
827.686129	2472.685962
828.003522	2497.891731
828.320872	2475.206538
828.638177	2535.700385
828.955439	2465.124231
829.272656	2596.194231
829.589830	2507.974038
829.906960	2507.974038
830.224046	2497.891731
830.541088	2392.027500
830.858086	2563.426731
831.175041	2427.315577
831.491952	2518.056346
831.808819	2528.138654
832.125642	2505.453462
832.442421	2465.124231
832.759157	2447.480192
833.075849	2412.192115
833.392497	2513.015192
833.709101	2502.932885
834.025662	2412.192115
834.342179	2452.521346
834.658653	2455.041923
834.975083	2470.165385
835.291469	2490.330000
835.607811	2429.836154
835.924110	2535.700385
836.240366	2457.562500
836.556578	2596.194231
836.872746	2505.453462
837.188871	2475.206538
837.504952	2472.685962
837.820990	2492.850577
838.136984	2518.056346
838.452935	2533.179808
838.768842	2583.591346
839.084706	2545.782692
839.400526	2535.700385
839.716303	2467.644808
840.032037	2490.330000
840.347727	2480.247692
840.663373	2392.027500
840.978977	2497.891731
841.294537	2407.150962
841.610054	2490.330000
841.925527	2444.959615
842.240957	2495.371154
842.556344	2412.192115
842.871687	2513.015192
843.186987	2540.741538
843.502244	2492.850577
843.817458	2518.056346
844.132629	2444.959615
844.447756	2540.741538
844.762840	2500.412308
845.077881	2455.041923
845.392879	2507.974038
845.707833	2548.303269
846.022745	2515.535769
846.337613	2429.836154
846.652438	2472.685962
846.967221	2402.109808
847.281960	2482.768269
847.596656	2472.685962
847.911309	2369.342308
848.225919	2429.836154
848.540485	2515.535769
848.855009	2576.029615
849.169490	2495.371154
849.483928	2414.712692
849.798323	2500.412308
850.112675	2523.097500
850.426984	2518.056346
850.741251	2422.274423
851.055474	2513.015192
851.369654	2434.877308
851.683792	2520.576923
851.997887	2558.385577
852.311938	2500.412308
852.625947	2480.247692
852.939914	2538.220962
853.253837	2429.836154
853.567718	2452.521346
853.881555	2510.494615
854.195350	2424.795000
854.509103	2518.056346
854.822812	2545.782692
855.136479	2465.124231
855.450103	2530.659231
855.763685	2472.685962
856.077224	2543.262115
856.390720	2447.480192
856.704173	2432.356731
857.017584	2450.000769
857.330953	2495.371154
857.644278	2565.947308
857.957561	2518.056346
858.270802	2505.453462
858.584000	2455.041923
858.897155	2462.603654
859.210268	2543.262115
859.523339	2507.974038
859.836367	2578.550192
860.149352	2447.480192
860.462295	2475.206538
860.775195	2429.836154
861.088054	2523.097500
861.400869	2502.932885
861.713642	2523.097500
862.026373	2487.809423
862.339062	2490.330000
862.651708	2399.589231
862.964312	2490.330000
863.276873	2409.671538
863.589392	2497.891731
863.901869	2414.712692
864.214303	2455.041923
864.526696	2601.235385
864.839045	2500.412308
865.151353	2437.397885
865.463619	2477.727115
865.775842	2523.097500
866.088023	2450.000769
866.400162	2394.548077
866.712258	2603.755962
867.024313	2573.509038
867.336325	2505.453462
867.648296	2510.494615
867.960224	2502.932885
868.272110	2510.494615
868.583954	2444.959615
868.895755	2492.850577
869.207515	2434.877308
869.519233	2495.371154
869.830909	2550.823846
870.142542	2447.480192
870.454134	2510.494615
870.765684	2432.356731
871.077191	2472.685962
871.388657	2500.412308
871.700081	2472.685962
872.011463	2535.700385
872.322803	2429.836154
872.634101	2545.782692
872.945357	2470.165385
873.256571	2475.206538
873.567744	2467.644808
873.878874	2505.453462
874.189963	2507.974038
874.501010	2545.782692
874.812015	2487.809423
875.122979	2492.850577
875.433900	2472.685962
875.744780	2518.056346
876.055618	2392.027500
876.366415	2518.056346
876.677169	2444.959615
876.987882	2434.877308
877.298554	2472.685962
877.609183	2535.700385
877.919771	2513.015192
878.230317	2477.727115
878.540822	2497.891731
878.851285	2439.918462
879.161707	2528.138654
879.472087	2460.083077
879.782425	2462.603654
880.092722	2452.521346
880.402977	2455.041923
880.713191	2472.685962
881.023363	2424.795000
881.333494	2485.288846
881.643583	2475.206538
881.953631	2422.274423
882.263637	2480.247692
882.573602	2507.974038
882.883526	2487.809423
883.193408	2543.262115
883.503248	2495.371154
883.813048	2490.330000
884.122806	2412.192115
884.432522	2568.467885
884.742197	2399.589231
885.051831	2482.768269
885.361424	2505.453462
885.670975	2545.782692
885.980485	2487.809423
886.289954	2460.083077
886.599382	2545.782692
886.908768	2523.097500
887.218113	2513.015192
887.527417	2507.974038
887.836680	2510.494615
888.145901	2548.303269
888.455082	2490.330000
888.764221	2480.247692
889.073319	2553.344423
889.382376	2485.288846
889.691392	2402.109808
890.000366	2515.535769
890.309300	2455.041923
890.618193	2490.330000
890.927044	2518.056346
891.235855	2576.029615
891.544625	2467.644808
891.853353	2497.891731
892.162041	2434.877308
892.470687	2462.603654
892.779293	2502.932885
893.087858	2543.262115
893.396381	2497.891731
893.704864	2462.603654
894.013306	2545.782692
894.321707	2505.453462
894.630068	2495.371154
894.938387	2452.521346
895.246665	2500.412308
895.554903	2467.644808
895.863100	2502.932885
896.171256	2482.768269
896.479371	2374.383462
896.787446	2520.576923
897.095480	2467.644808
897.403473	2515.535769
897.711425	2515.535769
898.019336	2518.056346
898.327207	2490.330000
898.635038	2507.974038
898.942827	2457.562500
899.250576	2402.109808
899.558284	2543.262115
899.865952	2460.083077
900.173579	2543.262115
900.481165	2538.220962
900.788711	2500.412308
901.096216	2535.700385
901.403681	2429.836154
901.711105	2470.165385
902.018489	2513.015192
902.325832	2495.371154
902.633135	2427.315577
902.940397	2444.959615
903.247619	2515.535769
903.554800	2475.206538
903.861941	2533.179808
904.169041	2487.809423
904.476101	2462.603654
904.783121	2528.138654
905.090100	2553.344423
905.397039	2515.535769
905.703938	2568.467885
906.010796	2505.453462
906.317614	2452.521346
906.624391	2480.247692
906.931129	2558.385577
907.237826	2462.603654
907.544483	2598.714808
907.851099	2560.906154
908.157675	2500.412308
908.464211	2467.644808
908.770707	2560.906154
909.077163	2472.685962
909.383578	2419.753846
909.689954	2470.165385
909.996289	2507.974038
910.302584	2424.795000
910.608839	2530.659231
910.915054	2485.288846
911.221229	2500.412308
911.527363	2553.344423
911.833458	2513.015192
912.139513	2480.247692
912.445527	2507.974038
912.751502	2611.317692
913.057436	2530.659231
913.363331	2540.741538
913.669186	2455.041923
913.975000	2397.068654
914.280775	2409.671538
914.586510	2409.671538
914.892205	2465.124231
915.197859	2497.891731
915.503475	2437.397885
915.809050	2414.712692
916.114585	2560.906154
916.420081	2497.891731
916.725536	2462.603654
917.030952	2452.521346
917.336328	2548.303269
917.641665	2475.206538
917.946961	2543.262115
918.252218	2444.959615
918.557435	2490.330000
918.862612	2497.891731
919.167750	2523.097500
919.472848	2475.206538
919.777906	2417.233269
920.082925	2490.330000
920.387904	2402.109808
920.692843	2480.247692
920.997743	2467.644808
921.302603	2513.015192
921.607423	2465.124231
921.912204	2500.412308
922.216946	2500.412308
922.521647	2457.562500
922.826310	2470.165385
923.130932	2497.891731
923.435516	2450.000769
923.740059	2485.288846
924.044564	2608.797115
924.349028	2500.412308
924.653454	2568.467885
924.957840	2465.124231
925.262186	2513.015192
925.566493	2573.509038
925.870761	2490.330000
926.174989	2462.603654
926.479178	2407.150962
926.783328	2525.618077
927.087438	2480.247692
927.391509	2399.589231
927.695541	2379.424615
927.999533	2477.727115
928.303486	2523.097500
928.607400	2460.083077
928.911275	2485.288846
929.215110	2495.371154
929.518906	2497.891731
929.822663	2480.247692
930.126381	2500.412308
930.430060	2482.768269
930.733699	2507.974038
931.037299	2528.138654
931.340861	2576.029615
931.644383	2495.371154
931.947866	2545.782692
932.251309	2432.356731
932.554714	2502.932885
932.858080	2528.138654
933.161407	2472.685962
933.464694	2442.439038
933.767943	2535.700385
934.071153	2480.247692
934.374323	2462.603654
934.677455	2399.589231
934.980548	2424.795000
935.283602	2518.056346
935.586617	2414.712692
935.889593	2530.659231
936.192530	2429.836154
936.495428	2543.262115
936.798287	2502.932885
937.101108	2432.356731
937.403890	2530.659231
937.706632	2439.918462
938.009336	2510.494615
938.312002	2475.206538
938.614628	2525.618077
938.917216	2500.412308
939.219765	2540.741538
939.522275	2485.288846
939.824747	2457.562500
940.127179	2407.150962
940.429573	2505.453462
940.731929	2394.548077
941.034246	2447.480192
941.336524	2482.768269
941.638763	2422.274423
941.940964	2462.603654
942.243126	2402.109808
942.545250	2543.262115
942.847335	2450.000769
943.149381	2470.165385
943.451389	2535.700385
943.753359	2485.288846
944.055290	2545.782692
944.357182	2374.383462
944.659036	2505.453462
944.960851	2462.603654
945.262628	2442.439038
945.564367	2548.303269
945.866067	2502.932885
946.167729	2507.974038
946.469352	2429.836154
946.770937	2570.988462
947.072484	2477.727115
947.373992	2515.535769
947.675462	2497.891731
947.976893	2490.330000
948.278286	2510.494615
948.579641	2462.603654
948.880958	2507.974038
949.182236	2588.632500
949.483476	2576.029615
949.784678	2444.959615
950.085841	2510.494615
950.386967	2502.932885
950.688054	2482.768269
950.989103	2467.644808
951.290114	2548.303269
951.591087	2470.165385
951.892021	2500.412308
952.192917	2465.124231
952.493776	2528.138654
952.794596	2422.274423
953.095378	2460.083077
953.396122	2424.795000
953.696828	2467.644808
953.997496	2543.262115
954.298126	2490.330000
954.598718	2520.576923
954.899272	2412.192115
955.199788	2513.015192
955.500266	2460.083077
955.800706	2550.823846
956.101108	2460.083077
956.401472	2545.782692
956.701798	2439.918462
957.002087	2490.330000
957.302337	2450.000769
957.602550	2399.589231
957.902724	2381.945192
958.202861	2525.618077
958.502960	2389.506923
958.803022	2424.795000
959.103045	2510.494615
959.403031	2434.877308
959.702979	2502.932885
960.002889	2465.124231
960.302762	2523.097500
960.602596	2424.795000
960.902393	2462.603654
961.202153	2429.836154
961.501875	2507.974038
961.801559	2535.700385
962.101205	2457.562500
962.400814	2485.288846
962.700385	2475.206538
962.999918	2533.179808
963.299414	2407.150962
963.598873	2457.562500
963.898293	2462.603654
964.197677	2518.056346
964.497022	2434.877308
964.796331	2472.685962
965.095601	2518.056346
965.394835	2429.836154
965.694030	2513.015192
965.993189	2462.603654
966.292309	2460.083077
966.591393	2563.426731
966.890439	2460.083077
967.189447	2429.836154
967.488419	2460.083077
967.787353	2505.453462
968.086249	2505.453462
968.385108	2389.506923
968.683930	2510.494615
968.982714	2465.124231
969.281462	2497.891731
969.580172	2502.932885
969.878844	2475.206538
970.177480	2545.782692
970.476078	2548.303269
970.774639	2518.056346
971.073162	2495.371154
971.371649	2487.809423
971.670098	2507.974038
971.968510	2462.603654
972.266885	2427.315577
972.565223	2482.768269
972.863524	2457.562500
973.161788	2497.891731
973.460014	2465.124231
973.758204	2618.879423
974.056356	2465.124231
974.354471	2523.097500
974.652550	2452.521346
974.950591	2397.068654
975.248595	2422.274423
975.546563	2477.727115
975.844493	2540.741538
976.142386	2515.535769
976.440243	2497.891731
976.738062	2525.618077
977.035845	2442.439038
977.333590	2545.782692
977.631299	2457.562500
977.928971	2518.056346
978.226606	2397.068654
978.524204	2480.247692
978.821765	2538.220962
979.119290	2462.603654
979.416777	2412.192115
979.714228	2497.891731
980.011642	2510.494615
980.309020	2497.891731
980.606360	2404.630385
980.903664	2470.165385
981.200931	2392.027500
981.498162	2424.795000
981.795356	2417.233269
982.092513	2492.850577
982.389633	2490.330000
982.686717	2490.330000
982.983764	2487.809423
983.280775	2462.603654
983.577749	2470.165385
983.874686	2465.124231
984.171587	2475.206538
984.468451	2422.274423
984.765279	2455.041923
985.062070	2560.906154
985.358824	2447.480192
985.655543	2462.603654
985.952224	2475.206538
986.248869	2487.809423
986.545478	2434.877308
986.842050	2452.521346
987.138586	2444.959615
987.435086	2447.480192
987.731549	2472.685962
988.027975	2467.644808
988.324366	2409.671538
988.620719	2397.068654
988.917037	2533.179808
989.213318	2429.836154
989.509563	2422.274423
989.805772	2414.712692
990.101944	2477.727115
990.398080	2444.959615
990.694180	2490.330000
990.990244	2455.041923
991.286271	2497.891731
991.582262	2482.768269
991.878217	2412.192115
992.174136	2409.671538
992.470019	2543.262115
992.765865	2417.233269
993.061676	2530.659231
993.357450	2500.412308
993.653188	2495.371154
993.948890	2465.124231
994.244556	2507.974038
994.540186	2455.041923
994.835780	2450.000769
995.131337	2482.768269
995.426859	2573.509038
995.722345	2447.480192
996.017795	2573.509038
996.313208	2450.000769
996.608586	2490.330000
996.903928	2490.330000
997.199234	2543.262115
997.494504	2475.206538
997.789738	2475.206538
998.084936	2455.041923
998.380099	2520.576923
998.675225	2429.836154
998.970316	2528.138654
999.265371	2533.179808
999.560390	2507.974038
999.855373	2505.453462
1000.150320	2565.947308
1000.445232	2462.603654
1000.740108	2369.342308
1001.034948	2548.303269
1001.329752	2452.521346
1001.624521	2442.439038
1001.919254	2520.576923
1002.213951	2470.165385
1002.508613	2467.644808
1002.803239	2465.124231
1003.097829	2470.165385
1003.392384	2394.548077
1003.686903	2485.288846
1003.981386	2462.603654
1004.275834	2523.097500
1004.570246	2480.247692
1004.864623	2452.521346
1005.158964	2523.097500
1005.453270	2475.206538
1005.747540	2545.782692
1006.041775	2460.083077
1006.335974	2475.206538
1006.630138	2500.412308
1006.924266	2402.109808
1007.218359	2513.015192
1007.512416	2535.700385
1007.806438	2548.303269
1008.100425	2475.206538
1008.394376	2480.247692
1008.688292	2596.194231
1008.982172	2462.603654
1009.276017	2442.439038
1009.569827	2467.644808
1009.863602	2475.206538
1010.157341	2427.315577
1010.451045	2475.206538
1010.744714	2550.823846
1011.038347	2482.768269
1011.331945	2417.233269
1011.625508	2467.644808
1011.919036	2442.439038
1012.212528	2510.494615
1012.505986	2465.124231
1012.799408	2518.056346
1013.092795	2432.356731
1013.386147	2545.782692
1013.679464	2490.330000
1013.972745	2462.603654
1014.265992	2442.439038
1014.559204	2409.671538
1014.852380	2422.274423
1015.145521	2444.959615
1015.438628	2490.330000
1015.731699	2414.712692
1016.024736	2495.371154
1016.317737	2470.165385
1016.610703	2402.109808
1016.903635	2505.453462
1017.196531	2422.274423
1017.489393	2432.356731
1017.782219	2505.453462
1018.075011	2480.247692
1018.367768	2538.220962
1018.660490	2470.165385
1018.953177	2470.165385
1019.245829	2470.165385
