Dividing Wavelength (nm)	Counts (n)	Blue Motor Position (mm): 3.000000	Red Motor Position (mm): 0.000000	
326.493990	2132.408077
326.888308	2132.408077
327.282561	2132.408077
327.676750	2066.873077
328.070874	2089.558269
328.464933	1988.735192
328.858929	2003.858654
329.252859	2071.914231
329.646726	2036.626154
330.040528	2087.037692
330.434265	2122.325769
330.827938	2094.599423
331.221547	2180.299038
331.615091	2142.490385
332.008571	2187.860769
332.401986	2220.628269
332.795338	2175.257885
333.188625	2253.395769
333.581847	2220.628269
333.975006	2208.025385
334.368100	2323.971923
334.761129	2311.369038
335.154095	2371.862885
335.546996	2409.671538
335.939833	2369.342308
336.332606	2361.780577
336.725315	2399.589231
337.117960	2424.795000
337.510540	2359.260000
337.903056	2369.342308
338.295508	2384.465769
338.687896	2450.000769
339.080220	2447.480192
339.472480	2399.589231
339.864676	2515.535769
340.256807	2447.480192
340.648875	2500.412308
341.040879	2497.891731
341.432818	2515.535769
341.824694	2472.685962
342.216506	2507.974038
342.608253	2470.165385
342.999937	2417.233269
343.391557	2437.397885
343.783113	2465.124231
344.174605	2462.603654
344.566033	2535.700385
344.957397	2467.644808
345.348697	2558.385577
345.739934	2442.439038
346.131106	2465.124231
346.522215	2386.986346
346.913260	2457.562500
347.304241	2407.150962
347.695159	2409.671538
348.086012	2472.685962
348.476802	2412.192115
348.867528	2417.233269
349.258191	2376.904038
349.648789	2475.206538
350.039324	2414.712692
350.429796	2495.371154
350.820203	2427.315577
351.210548	2452.521346
351.600828	2462.603654
351.991045	2427.315577
352.381198	2371.862885
352.771288	2392.027500
353.161314	2374.383462
353.551276	2414.712692
353.941175	2412.192115
354.331010	2409.671538
354.720782	2424.795000
355.110490	2457.562500
355.500135	2412.192115
355.889717	2414.712692
356.279235	2520.576923
356.668689	2452.521346
357.058080	2472.685962
357.447408	2439.918462
357.836672	2392.027500
358.225873	2480.247692
358.615010	2434.877308
359.004084	2455.041923
359.393095	2424.795000
359.782043	2429.836154
360.170927	2369.342308
360.559748	2437.397885
360.948505	2477.727115
361.337199	2356.739423
361.725830	2434.877308
362.114398	2429.836154
362.502903	2447.480192
362.891344	2422.274423
363.279722	2487.809423
363.668037	2422.274423
364.056289	2414.712692
364.444478	2437.397885
364.832603	2409.671538
365.220665	2417.233269
365.608665	2470.165385
365.996601	2326.492500
366.384474	2386.986346
366.772284	2475.206538
367.160031	2452.521346
367.547715	2439.918462
367.935336	2593.673654
368.322893	2492.850577
368.710388	2412.192115
369.097820	2455.041923
369.485189	2490.330000
369.872495	2429.836154
370.259738	2465.124231
370.646918	2450.000769
371.034035	2497.891731
371.421090	2500.412308
371.808081	2500.412308
372.195010	2392.027500
372.581875	2429.836154
372.968678	2437.397885
373.355418	2485.288846
373.742096	2455.041923
374.128710	2450.000769
374.515262	2389.506923
374.901751	2507.974038
375.288177	2452.521346
375.674540	2432.356731
376.060841	2490.330000
376.447079	2480.247692
376.833254	2437.397885
377.219367	2495.371154
377.605417	2480.247692
377.991404	2455.041923
378.377329	2384.465769
378.763191	2397.068654
379.148991	2497.891731
379.534727	2480.247692
379.920402	2472.685962
380.306013	2457.562500
380.691563	2371.862885
381.077049	2487.809423
381.462474	2389.506923
381.847835	2450.000769
382.233134	2492.850577
382.618371	2470.165385
383.003545	2482.768269
383.388657	2485.288846
383.773706	2465.124231
384.158693	2495.371154
384.543618	2429.836154
384.928480	2535.700385
385.313280	2432.356731
385.698017	2472.685962
386.082692	2467.644808
386.467305	2434.877308
386.851856	2467.644808
387.236344	2470.165385
387.620770	2495.371154
388.005133	2573.509038
388.389435	2442.439038
388.773674	2366.821731
389.157851	2555.865000
389.541965	2452.521346
389.926018	2530.659231
390.310008	2465.124231
390.693936	2462.603654
391.077802	2457.562500
391.461606	2414.712692
391.845348	2399.589231
392.229027	2392.027500
392.612645	2460.083077
392.996200	2462.603654
393.379694	2457.562500
393.763125	2530.659231
394.146494	2485.288846
394.529801	2475.206538
394.913047	2520.576923
395.296230	2442.439038
395.679351	2369.342308
396.062410	2548.303269
396.445408	2502.932885
396.828343	2475.206538
397.211217	2495.371154
397.594028	2439.918462
397.976778	2407.150962
398.359466	2520.576923
398.742092	2538.220962
399.124656	2538.220962
399.507158	2560.906154
399.889598	2407.150962
400.271977	2434.877308
400.654294	2513.015192
401.036549	2412.192115
401.418742	2404.630385
401.800874	2502.932885
402.182944	2538.220962
402.564952	2429.836154
402.946898	2485.288846
403.328783	2467.644808
403.710606	2399.589231
404.092367	2543.262115
404.474067	2379.424615
404.855705	2467.644808
405.237282	2472.685962
405.618797	2535.700385
406.000250	2465.124231
406.381642	2505.453462
406.762972	2462.603654
407.144240	2560.906154
407.525447	2598.714808
407.906593	2507.974038
408.287677	2497.891731
408.668700	2444.959615
409.049661	2465.124231
409.430560	2492.850577
409.811399	2518.056346
410.192176	2487.809423
410.572891	2482.768269
410.953545	2412.192115
411.334138	2470.165385
411.714669	2507.974038
412.095139	2437.397885
412.475547	2530.659231
412.855894	2500.412308
413.236180	2419.753846
413.616405	2558.385577
413.996568	2523.097500
414.376670	2465.124231
414.756711	2480.247692
415.136691	2419.753846
415.516609	2553.344423
415.896466	2465.124231
416.276262	2523.097500
416.655997	2480.247692
417.035670	2495.371154
417.415283	2444.959615
417.794834	2422.274423
418.174324	2596.194231
418.553753	2505.453462
418.933121	2568.467885
419.312428	2442.439038
419.691674	2581.070769
420.070859	2492.850577
420.449983	2432.356731
420.829045	2457.562500
421.208047	2500.412308
421.586988	2409.671538
421.965867	2490.330000
422.344686	2505.453462
422.723444	2452.521346
423.102141	2450.000769
423.480777	2465.124231
423.859352	2581.070769
424.237866	2462.603654
424.616319	2475.206538
424.994712	2485.288846
425.373044	2487.809423
425.751314	2500.412308
426.129524	2485.288846
426.507673	2548.303269
426.885762	2386.986346
427.263789	2422.274423
427.641756	2460.083077
428.019662	2452.521346
428.397508	2462.603654
428.775292	2507.974038
429.153016	2550.823846
429.530679	2515.535769
429.908282	2555.865000
430.285824	2490.330000
430.663305	2442.439038
431.040726	2495.371154
431.418086	2497.891731
431.795385	2558.385577
432.172624	2485.288846
432.549802	2424.795000
432.926920	2528.138654
433.303977	2543.262115
433.680974	2462.603654
434.057910	2502.932885
434.434786	2427.315577
434.811601	2467.644808
435.188355	2470.165385
435.565050	2530.659231
435.941683	2510.494615
436.318257	2513.015192
436.694770	2477.727115
437.071222	2470.165385
437.447614	2455.041923
437.823946	2460.083077
438.200218	2495.371154
438.576429	2447.480192
438.952580	2500.412308
439.328670	2548.303269
439.704700	2429.836154
440.080670	2513.015192
440.456580	2507.974038
440.832429	2495.371154
441.208218	2397.068654
441.583947	2460.083077
441.959616	2409.671538
442.335224	2452.521346
442.710773	2523.097500
443.086261	2462.603654
443.461689	2444.959615
443.837057	2460.083077
444.212365	2429.836154
444.587612	2485.288846
444.962800	2470.165385
445.337927	2518.056346
445.712995	2409.671538
446.088002	2540.741538
446.462949	2513.015192
446.837837	2384.465769
447.212664	2407.150962
447.587431	2505.453462
447.962139	2480.247692
448.336786	2475.206538
448.711374	2538.220962
449.085901	2442.439038
449.460369	2432.356731
449.834776	2510.494615
450.209124	2583.591346
450.583412	2422.274423
450.957640	2515.535769
451.331808	2434.877308
451.705917	2419.753846
452.079965	2555.865000
452.453954	2485.288846
452.827883	2437.397885
453.201752	2477.727115
453.575562	2560.906154
453.949311	2513.015192
454.323001	2538.220962
454.696632	2482.768269
455.070202	2553.344423
455.443713	2530.659231
455.817164	2439.918462
456.190556	2533.179808
456.563888	2394.548077
456.937160	2465.124231
457.310373	2525.618077
457.683526	2510.494615
458.056619	2510.494615
458.429653	2407.150962
458.802628	2507.974038
459.175542	2513.015192
459.548398	2520.576923
459.921194	2465.124231
460.293930	2407.150962
460.666607	2518.056346
461.039224	2409.671538
461.411782	2374.383462
461.784280	2472.685962
462.156719	2432.356731
462.529099	2477.727115
462.901419	2495.371154
463.273680	2467.644808
463.645882	2460.083077
464.018024	2485.288846
464.390106	2477.727115
464.762130	2492.850577
465.134094	2543.262115
465.505999	2581.070769
465.877845	2482.768269
466.249631	2402.109808
466.621358	2424.795000
466.993026	2450.000769
467.364634	2455.041923
467.736184	2460.083077
468.107674	2505.453462
468.479105	2502.932885
468.850477	2530.659231
469.221790	2583.591346
469.593043	2434.877308
469.964238	2492.850577
470.335373	2414.712692
470.706449	2505.453462
471.077467	2450.000769
471.448425	2381.945192
471.819324	2550.823846
472.190164	2497.891731
472.560945	2497.891731
472.931667	2455.041923
473.302330	2540.741538
473.672934	2359.260000
474.043479	2507.974038
474.413965	2487.809423
474.784393	2462.603654
475.154761	2465.124231
475.525070	2500.412308
475.895321	2472.685962
476.265513	2492.850577
476.635645	2550.823846
477.005719	2487.809423
477.375734	2490.330000
477.745691	2399.589231
478.115588	2495.371154
478.485427	2480.247692
478.855207	2497.891731
479.224928	2414.712692
479.594591	2460.083077
479.964194	2462.603654
480.333739	2460.083077
480.703226	2583.591346
481.072653	2563.426731
481.442022	2520.576923
481.811333	2591.153077
482.180584	2525.618077
482.549777	2510.494615
482.918912	2434.877308
483.287988	2485.288846
483.657005	2439.918462
484.025964	2497.891731
484.394864	2389.506923
484.763706	2538.220962
485.132489	2442.439038
485.501213	2465.124231
485.869879	2427.315577
486.238487	2394.548077
486.607036	2487.809423
486.975527	2460.083077
487.343959	2548.303269
487.712333	2497.891731
488.080648	2523.097500
488.448905	2442.439038
488.817104	2485.288846
489.185244	2538.220962
489.553326	2487.809423
489.921350	2465.124231
490.289315	2460.083077
490.657222	2477.727115
491.025070	2492.850577
491.392861	2397.068654
491.760593	2568.467885
492.128267	2424.795000
492.495883	2523.097500
492.863440	2470.165385
493.230939	2533.179808
493.598380	2583.591346
493.965763	2538.220962
494.333088	2480.247692
494.700354	2505.453462
495.067563	2550.823846
495.434713	2505.453462
495.801805	2548.303269
496.168839	2465.124231
496.535815	2513.015192
496.902733	2465.124231
497.269593	2533.179808
497.636395	2462.603654
498.003139	2427.315577
498.369825	2470.165385
498.736453	2437.397885
499.103023	2510.494615
499.469535	2520.576923
499.835989	2487.809423
500.202385	2520.576923
500.568723	2543.262115
500.935003	2480.247692
501.301226	2510.494615
501.667390	2437.397885
502.033497	2520.576923
502.399546	2434.877308
502.765537	2460.083077
503.131470	2500.412308
503.497345	2553.344423
503.863163	2545.782692
504.228923	2523.097500
504.594625	2550.823846
504.960269	2495.371154
505.325856	2500.412308
505.691385	2457.562500
506.056856	2475.206538
506.422270	2495.371154
506.787625	2533.179808
507.152924	2450.000769
507.518164	2538.220962
507.883347	2427.315577
508.248472	2558.385577
508.613540	2485.288846
508.978550	2520.576923
509.343503	2457.562500
509.708398	2613.838269
510.073236	2457.562500
510.438016	2422.274423
510.802738	2520.576923
511.167403	2518.056346
511.532010	2439.918462
511.896561	2412.192115
512.261053	2465.124231
512.625488	2475.206538
512.989866	2427.315577
513.354186	2565.947308
513.718449	2530.659231
514.082655	2467.644808
514.446803	2492.850577
514.810894	2432.356731
515.174927	2472.685962
515.538904	2515.535769
515.902822	2452.521346
516.266684	2560.906154
516.630488	2535.700385
516.994235	2450.000769
517.357925	2578.550192
517.721558	2500.412308
518.085133	2520.576923
518.448651	2492.850577
518.812112	2545.782692
519.175516	2487.809423
519.538863	2525.618077
519.902152	2465.124231
520.265385	2576.029615
520.628560	2492.850577
520.991678	2513.015192
521.354739	2427.315577
521.717743	2492.850577
522.080690	2497.891731
522.443580	2439.918462
522.806413	2434.877308
523.169189	2533.179808
523.531908	2550.823846
523.894569	2477.727115
524.257174	2525.618077
524.619722	2457.562500
524.982213	2505.453462
525.344647	2490.330000
525.707025	2492.850577
526.069345	2457.562500
526.431608	2502.932885
526.793815	2523.097500
527.155964	2470.165385
527.518057	2520.576923
527.880093	2397.068654
528.242072	2515.535769
528.603995	2500.412308
528.965860	2500.412308
529.327669	2465.124231
529.689421	2497.891731
530.051117	2442.439038
530.412755	2470.165385
530.774337	2439.918462
531.135862	2502.932885
531.497331	2467.644808
531.858743	2525.618077
532.220098	2419.753846
532.581396	2480.247692
532.942638	2455.041923
533.303824	2462.603654
533.664953	2603.755962
534.026025	2475.206538
534.387040	2485.288846
534.747999	2538.220962
535.108902	2460.083077
535.469748	2515.535769
535.830537	2523.097500
536.191270	2502.932885
536.551947	2477.727115
536.912567	2500.412308
537.273131	2518.056346
537.633638	2460.083077
537.994089	2505.453462
538.354483	2492.850577
538.714821	2480.247692
539.075103	2467.644808
539.435328	2450.000769
539.795497	2452.521346
540.155609	2525.618077
540.515665	2500.412308
540.875665	2397.068654
541.235609	2515.535769
541.595496	2505.453462
541.955328	2518.056346
542.315102	2520.576923
542.674821	2482.768269
543.034483	2482.768269
543.394090	2497.891731
543.753640	2472.685962
544.113134	2515.535769
544.472571	2434.877308
544.831953	2525.618077
545.191278	2472.685962
545.550548	2540.741538
545.909761	2482.768269
546.268918	2452.521346
546.628019	2437.397885
546.987064	2455.041923
547.346053	2555.865000
547.704986	2525.618077
548.063863	2505.453462
548.422684	2528.138654
548.781449	2472.685962
549.140158	2507.974038
549.498811	2543.262115
549.857408	2507.974038
550.215949	2452.521346
550.574434	2490.330000
550.932864	2412.192115
551.291237	2520.576923
551.649555	2487.809423
552.007817	2550.823846
552.366022	2545.782692
552.724173	2399.589231
553.082267	2530.659231
553.440305	2502.932885
553.798288	2450.000769
554.156215	2477.727115
554.514086	2510.494615
554.871902	2490.330000
555.229661	2530.659231
555.587365	2434.877308
555.945014	2548.303269
556.302606	2424.795000
556.660143	2510.494615
557.017625	2485.288846
557.375050	2442.439038
557.732421	2523.097500
558.089735	2482.768269
558.446994	2505.453462
558.804197	2533.179808
559.161345	2576.029615
559.518437	2460.083077
559.875474	2475.206538
560.232455	2543.262115
560.589381	2611.317692
560.946251	2447.480192
561.303065	2550.823846
561.659825	2477.727115
562.016528	2581.070769
562.373177	2475.206538
562.729770	2386.986346
563.086307	2520.576923
563.442789	2462.603654
563.799216	2540.741538
564.155587	2482.768269
564.511904	2492.850577
564.868164	2465.124231
565.224370	2530.659231
565.580520	2444.959615
565.936615	2550.823846
566.292654	2470.165385
566.648638	2518.056346
567.004567	2490.330000
567.360441	2502.932885
567.716260	2480.247692
568.072023	2450.000769
568.427732	2407.150962
568.783385	2545.782692
569.138982	2576.029615
569.494525	2389.506923
569.850013	2530.659231
570.205445	2472.685962
570.560823	2528.138654
570.916145	2427.315577
571.271412	2500.412308
571.626625	2429.836154
571.981782	2535.700385
572.336884	2518.056346
572.691931	2452.521346
573.046923	2495.371154
573.401860	2460.083077
573.756743	2492.850577
574.111570	2437.397885
574.466342	2565.947308
574.821059	2487.809423
575.175722	2495.371154
575.530330	2550.823846
575.884882	2477.727115
576.239380	2553.344423
576.593823	2482.768269
576.948211	2462.603654
577.302544	2450.000769
577.656823	2432.356731
578.011047	2510.494615
578.365216	2500.412308
578.719330	2460.083077
579.073389	2414.712692
579.427394	2480.247692
579.781344	2434.877308
580.135239	2500.412308
580.489080	2535.700385
580.842866	2477.727115
581.196597	2460.083077
581.550273	2467.644808
581.903895	2374.383462
582.257463	2533.179808
582.610975	2452.521346
582.964434	2495.371154
583.317837	2462.603654
583.671186	2467.644808
584.024481	2591.153077
584.377721	2525.618077
584.730906	2422.274423
585.084037	2525.618077
585.437113	2497.891731
585.790135	2576.029615
586.143103	2487.809423
586.496016	2495.371154
586.848874	2523.097500
587.201679	2487.809423
587.554428	2442.439038
587.907124	2533.179808
588.259765	2472.685962
588.612352	2495.371154
588.964884	2447.480192
589.317362	2465.124231
589.669786	2475.206538
590.022155	2565.947308
590.374470	2432.356731
590.726731	2548.303269
591.078937	2487.809423
591.431090	2613.838269
591.783188	2442.439038
592.135232	2520.576923
592.487222	2543.262115
592.839157	2502.932885
593.191038	2485.288846
593.542866	2581.070769
593.894639	2465.124231
594.246358	2535.700385
594.598022	2409.671538
594.949633	2497.891731
595.301190	2570.988462
595.652692	2518.056346
596.004141	2492.850577
596.355535	2439.918462
596.706876	2502.932885
597.058162	2530.659231
597.409395	2528.138654
597.760573	2505.453462
598.111698	2530.659231
598.462768	2525.618077
598.813785	2515.535769
599.164748	2477.727115
599.515657	2492.850577
599.866511	2530.659231
600.217312	2487.809423
600.568060	2608.797115
600.918753	2553.344423
601.269392	2465.124231
601.619978	2429.836154
601.970510	2528.138654
602.320988	2518.056346
602.671412	2475.206538
603.021783	2513.015192
603.372100	2530.659231
603.722363	2523.097500
604.072572	2538.220962
604.422728	2543.262115
604.772830	2525.618077
605.122878	2480.247692
605.472872	2520.576923
605.822813	2467.644808
606.172701	2545.782692
606.522534	2477.727115
606.872314	2581.070769
607.222041	2540.741538
607.571714	2462.603654
607.921333	2467.644808
608.270899	2563.426731
608.620411	2535.700385
608.969870	2465.124231
609.319276	2439.918462
609.668627	2543.262115
610.017926	2455.041923
610.367171	2513.015192
610.716362	2623.920577
611.065500	2490.330000
611.414585	2540.741538
611.763616	2583.591346
612.112594	2525.618077
612.461518	2540.741538
612.810389	2460.083077
613.159207	2565.947308
613.507971	2565.947308
613.856682	2452.521346
614.205340	2520.576923
614.553945	2470.165385
614.902496	2452.521346
615.250994	2553.344423
615.599439	2520.576923
615.947830	2535.700385
616.296169	2540.741538
616.644454	2515.535769
616.992686	2505.453462
617.340864	2490.330000
617.688990	2437.397885
618.037063	2475.206538
618.385082	2467.644808
618.733048	2492.850577
619.080961	2495.371154
619.428821	2528.138654
619.776628	2412.192115
620.124382	2497.891731
620.472083	2525.618077
620.819731	2477.727115
621.167326	2523.097500
621.514868	2505.453462
621.862357	2402.109808
622.209793	2603.755962
622.557176	2507.974038
622.904506	2535.700385
623.251783	2437.397885
623.599007	2500.412308
623.946179	2475.206538
624.293297	2553.344423
624.640363	2376.904038
624.987376	2578.550192
625.334336	2525.618077
625.681243	2487.809423
626.028097	2591.153077
626.374899	2543.262115
626.721647	2437.397885
627.068343	2447.480192
627.414987	2497.891731
627.761577	2455.041923
628.108115	2515.535769
628.454600	2492.850577
628.801032	2513.015192
629.147412	2447.480192
629.493739	2553.344423
629.840014	2417.233269
630.186236	2485.288846
630.532405	2419.753846
630.878521	2513.015192
631.224585	2480.247692
631.570597	2487.809423
631.916556	2452.521346
632.262462	2500.412308
632.608316	2525.618077
632.954117	2480.247692
633.299866	2507.974038
633.645562	2581.070769
633.991206	2490.330000
634.336797	2518.056346
634.682336	2591.153077
635.027823	2533.179808
635.373257	2555.865000
635.718639	2465.124231
636.063968	2462.603654
636.409245	2500.412308
636.754470	2515.535769
637.099642	2417.233269
637.444762	2492.850577
637.789829	2586.111923
638.134845	2555.865000
638.479808	2523.097500
638.824719	2523.097500
639.169577	2450.000769
639.514383	2497.891731
639.859137	2437.397885
640.203839	2525.618077
640.548489	2475.206538
640.893086	2490.330000
641.237632	2502.932885
641.582125	2437.397885
641.926566	2457.562500
642.270955	2437.397885
642.615292	2515.535769
642.959576	2545.782692
643.303809	2543.262115
643.647990	2518.056346
643.992118	2523.097500
644.336195	2618.879423
644.680219	2492.850577
645.024192	2505.453462
645.368112	2518.056346
645.711981	2444.959615
646.055797	2538.220962
646.399562	2429.836154
646.743274	2462.603654
647.086935	2482.768269
647.430544	2513.015192
647.774101	2462.603654
648.117606	2434.877308
648.461059	2480.247692
648.804460	2520.576923
649.147810	2485.288846
649.491108	2520.576923
649.834354	2422.274423
650.177548	2465.124231
650.520690	2586.111923
650.863781	2482.768269
651.206820	2495.371154
651.549807	2439.918462
651.892742	2523.097500
652.235626	2462.603654
652.578458	2470.165385
652.921238	2487.809423
653.263967	2460.083077
653.606644	2545.782692
653.949269	2409.671538
654.291843	2470.165385
654.634365	2452.521346
654.976836	2455.041923
655.319255	2507.974038
655.661622	2460.083077
656.003938	2505.453462
656.346203	2485.288846
656.688416	2518.056346
657.030577	2437.397885
657.372687	2535.700385
657.714746	2497.891731
658.056753	2543.262115
658.398708	2437.397885
658.740612	2487.809423
659.082465	2502.932885
659.424266	2528.138654
659.766016	2500.412308
660.107715	2518.056346
660.449362	2452.521346
660.790958	2475.206538
661.132503	2583.591346
661.473996	2429.836154
661.815438	2548.303269
662.156829	2490.330000
662.498168	2472.685962
662.839456	2510.494615
663.180693	2444.959615
663.521879	2437.397885
663.863013	2414.712692
664.204097	2429.836154
664.545129	2475.206538
664.886110	2497.891731
665.227040	2497.891731
665.567918	2422.274423
665.908746	2596.194231
666.249522	2548.303269
666.590248	2518.056346
666.930922	2558.385577
667.271545	2439.918462
667.612118	2573.509038
667.952639	2452.521346
668.293109	2412.192115
668.633528	2482.768269
668.973896	2424.795000
669.314213	2495.371154
669.654480	2525.618077
669.994695	2485.288846
670.334859	2570.988462
670.674973	2502.932885
671.015035	2523.097500
671.355047	2492.850577
671.695008	2553.344423
672.034918	2424.795000
672.374777	2525.618077
672.714585	2510.494615
673.054342	2460.083077
673.394049	2535.700385
673.733705	2447.480192
674.073310	2452.521346
674.412864	2465.124231
674.752368	2439.918462
675.091820	2422.274423
675.431223	2492.850577
675.770574	2455.041923
676.109875	2477.727115
676.449125	2419.753846
676.788324	2550.823846
677.127473	2500.412308
677.466571	2497.891731
677.805619	2341.615962
678.144616	2601.235385
678.483562	2530.659231
678.822458	2565.947308
679.161303	2538.220962
679.500098	2560.906154
679.838842	2490.330000
680.177535	2424.795000
680.516179	2462.603654
680.854771	2467.644808
681.193314	2480.247692
681.531805	2485.288846
681.870247	2568.467885
682.208638	2460.083077
682.546978	2528.138654
682.885268	2419.753846
683.223508	2432.356731
683.561697	2563.426731
683.899836	2465.124231
684.237925	2533.179808
684.575963	2510.494615
684.913951	2550.823846
685.251889	2455.041923
685.589776	2568.467885
685.927614	2470.165385
686.265401	2530.659231
686.603137	2520.576923
686.940824	2507.974038
687.278460	2523.097500
687.616046	2475.206538
687.953582	2414.712692
688.291068	2520.576923
688.628504	2513.015192
688.965889	2570.988462
689.303224	2588.632500
689.640510	2528.138654
689.977745	2505.453462
690.314930	2470.165385
690.652065	2535.700385
690.989150	2492.850577
691.326185	2523.097500
691.663170	2447.480192
692.000105	2495.371154
692.336990	2462.603654
692.673825	2520.576923
693.010610	2450.000769
693.347345	2467.644808
693.684030	2553.344423
694.020665	2429.836154
694.357251	2510.494615
694.693786	2485.288846
695.030272	2553.344423
695.366707	2455.041923
695.703093	2455.041923
696.039429	2389.506923
696.375716	2513.015192
696.711952	2470.165385
697.048139	2563.426731
697.384276	2492.850577
697.720363	2530.659231
698.056400	2475.206538
698.392388	2460.083077
698.728326	2495.371154
699.064214	2545.782692
699.400053	2450.000769
699.735842	2507.974038
700.071581	2470.165385
700.407270	2472.685962
700.742910	2573.509038
701.078501	2495.371154
701.414042	2548.303269
701.749533	2429.836154
702.084974	2369.342308
702.420366	2515.535769
702.755709	2482.768269
703.091002	2578.550192
703.426246	2525.618077
703.761440	2510.494615
704.096584	2482.768269
704.431679	2515.535769
704.766725	2507.974038
705.101721	2467.644808
705.436668	2510.494615
705.771565	2485.288846
706.106413	2523.097500
706.441212	2477.727115
706.775961	2548.303269
707.110661	2465.124231
707.445311	2492.850577
707.779913	2475.206538
708.114465	2482.768269
708.448967	2492.850577
708.783421	2513.015192
709.117825	2434.877308
709.452180	2513.015192
709.786485	2535.700385
710.120742	2505.453462
710.454949	2450.000769
710.789107	2497.891731
711.123216	2495.371154
711.457275	2502.932885
711.791286	2467.644808
712.125247	2460.083077
712.459159	2523.097500
712.793023	2533.179808
713.126837	2555.865000
713.460602	2543.262115
713.794318	2520.576923
714.127985	2586.111923
714.461602	2500.412308
714.795171	2452.521346
715.128691	2495.371154
715.462162	2500.412308
715.795584	2548.303269
716.128957	2439.918462
716.462281	2510.494615
716.795556	2487.809423
717.128782	2460.083077
717.461960	2477.727115
717.795088	2545.782692
718.128167	2424.795000
718.461198	2437.397885
718.794180	2475.206538
719.127113	2497.891731
719.459997	2583.591346
719.792833	2528.138654
720.125619	2543.262115
720.458357	2392.027500
720.791046	2457.562500
721.123686	2434.877308
721.456278	2568.467885
721.788821	2475.206538
722.121315	2505.453462
722.453761	2467.644808
722.786158	2457.562500
723.118506	2553.344423
723.450805	2513.015192
723.783056	2497.891731
724.115259	2477.727115
724.447412	2407.150962
724.779518	2439.918462
725.111574	2565.947308
725.443582	2452.521346
725.775542	2477.727115
726.107453	2608.797115
726.439315	2545.782692
726.771129	2533.179808
727.102895	2414.712692
727.434612	2482.768269
727.766281	2548.303269
728.097901	2447.480192
728.429473	2540.741538
728.760996	2462.603654
729.092471	2535.700385
729.423897	2457.562500
729.755276	2528.138654
730.086606	2485.288846
730.417887	2490.330000
730.749120	2543.262115
731.080305	2518.056346
731.411442	2543.262115
731.742530	2492.850577
732.073570	2510.494615
732.404562	2475.206538
732.735506	2523.097500
733.066401	2500.412308
733.397249	2465.124231
733.728048	2470.165385
734.058798	2553.344423
734.389501	2525.618077
734.720156	2490.330000
735.050762	2533.179808
735.381320	2485.288846
735.711831	2555.865000
736.042293	2452.521346
736.372707	2455.041923
736.703073	2560.906154
737.033391	2513.015192
737.363661	2417.233269
737.693883	2369.342308
738.024056	2442.439038
738.354182	2404.630385
738.684260	2475.206538
739.014290	2497.891731
739.344272	2470.165385
739.674207	2480.247692
740.004093	2507.974038
740.333931	2548.303269
740.663722	2467.644808
740.993464	2455.041923
741.323159	2444.959615
741.652806	2467.644808
741.982405	2487.809423
742.311956	2538.220962
742.641460	2598.714808
742.970915	2482.768269
743.300323	2518.056346
743.629683	2477.727115
743.958996	2543.262115
744.288260	2487.809423
744.617477	2475.206538
744.946647	2457.562500
745.275768	2497.891731
745.604842	2465.124231
745.933869	2492.850577
746.262847	2492.850577
746.591778	2502.932885
746.920662	2452.521346
747.249498	2457.562500
747.578286	2510.494615
747.907027	2500.412308
748.235720	2535.700385
748.564365	2525.618077
748.892963	2518.056346
749.221514	2455.041923
749.550017	2495.371154
749.878473	2518.056346
750.206881	2482.768269
750.535242	2447.480192
750.863555	2437.397885
751.191821	2507.974038
751.520039	2457.562500
751.848210	2525.618077
752.176334	2462.603654
752.504411	2487.809423
752.832440	2518.056346
753.160421	2533.179808
753.488356	2502.932885
753.816243	2470.165385
754.144082	2538.220962
754.471875	2502.932885
754.799620	2505.453462
755.127318	2495.371154
755.454969	2555.865000
755.782572	2492.850577
756.110129	2450.000769
756.437638	2497.891731
756.765100	2518.056346
757.092515	2477.727115
757.419882	2510.494615
757.747203	2485.288846
758.074477	2447.480192
758.401703	2412.192115
758.728882	2457.562500
759.056014	2455.041923
759.383099	2533.179808
759.710138	2487.809423
760.037129	2515.535769
760.364073	2457.562500
760.690970	2623.920577
761.017820	2490.330000
761.344623	2462.603654
761.671379	2538.220962
761.998088	2543.262115
762.324751	2525.618077
762.651366	2500.412308
762.977935	2500.412308
763.304456	2502.932885
763.630931	2495.371154
763.957359	2492.850577
764.283740	2540.741538
764.610074	2460.083077
764.936362	2555.865000
765.262602	2457.562500
765.588796	2515.535769
765.914943	2495.371154
766.241044	2495.371154
766.567097	2447.480192
766.893104	2487.809423
767.219064	2427.315577
767.544978	2502.932885
767.870845	2513.015192
768.196665	2513.015192
768.522438	2432.356731
768.848165	2513.015192
769.173846	2485.288846
769.499479	2510.494615
769.825066	2500.412308
770.150607	2485.288846
770.476101	2369.342308
770.801548	2482.768269
771.126949	2424.795000
771.452303	2465.124231
771.777611	2513.015192
772.102872	2510.494615
772.428087	2450.000769
772.753256	2583.591346
773.078378	2427.315577
773.403453	2525.618077
773.728482	2525.618077
774.053465	2505.453462
774.378401	2444.959615
774.703291	2452.521346
775.028135	2371.862885
775.352932	2492.850577
775.677683	2487.809423
776.002388	2528.138654
776.327046	2470.165385
776.651658	2485.288846
776.976224	2515.535769
777.300743	2477.727115
777.625216	2457.562500
777.949643	2444.959615
778.274024	2528.138654
778.598359	2452.521346
778.922647	2477.727115
779.246889	2502.932885
779.571086	2442.439038
779.895236	2528.138654
780.219339	2500.412308
780.543397	2533.179808
780.867409	2520.576923
781.191374	2555.865000
781.515294	2487.809423
781.839167	2460.083077
782.162995	2460.083077
782.486776	2429.836154
782.810511	2432.356731
783.134201	2563.426731
783.457844	2485.288846
783.781441	2565.947308
784.104993	2444.959615
784.428498	2429.836154
784.751958	2495.371154
785.075372	2437.397885
785.398739	2497.891731
785.722061	2502.932885
786.045337	2505.453462
786.368568	2543.262115
786.691752	2447.480192
787.014891	2497.891731
787.337983	2485.288846
787.661030	2538.220962
787.984031	2500.412308
788.306987	2482.768269
788.629897	2422.274423
788.952760	2507.974038
789.275579	2513.015192
789.598351	2500.412308
789.921078	2505.453462
790.243759	2515.535769
790.566395	2422.274423
790.888984	2540.741538
791.211529	2510.494615
791.534027	2412.192115
791.856480	2528.138654
792.178888	2455.041923
792.501249	2480.247692
792.823566	2450.000769
793.145836	2515.535769
793.468062	2482.768269
793.790241	2523.097500
794.112375	2475.206538
794.434464	2450.000769
794.756507	2598.714808
795.078505	2520.576923
795.400457	2500.412308
795.722364	2442.439038
796.044226	2470.165385
796.366042	2568.467885
796.687812	2455.041923
797.009538	2505.453462
797.331218	2429.836154
797.652852	2535.700385
797.974442	2412.192115
798.295986	2563.426731
798.617484	2487.809423
798.938938	2490.330000
799.260346	2452.521346
799.581709	2495.371154
799.903026	2520.576923
800.224299	2427.315577
800.545526	2475.206538
800.866708	2414.712692
801.187845	2487.809423
801.508936	2465.124231
801.829983	2502.932885
802.150984	2613.838269
802.471940	2497.891731
802.792851	2482.768269
803.113717	2558.385577
803.434538	2490.330000
803.755314	2530.659231
804.076045	2543.262115
804.396731	2560.906154
804.717372	2497.891731
805.037967	2480.247692
805.358518	2545.782692
805.679024	2455.041923
805.999485	2565.947308
806.319901	2477.727115
806.640272	2434.877308
806.960598	2518.056346
807.280879	2482.768269
807.601115	2427.315577
807.921306	2472.685962
808.241453	2447.480192
808.561554	2507.974038
808.881611	2399.589231
809.201623	2513.015192
809.521590	2525.618077
809.841513	2477.727115
810.161390	2452.521346
810.481223	2591.153077
810.801011	2495.371154
811.120755	2523.097500
811.440453	2477.727115
811.760107	2550.823846
812.079716	2424.795000
812.399281	2502.932885
812.718801	2495.371154
813.038276	2513.015192
813.357707	2424.795000
813.677093	2477.727115
813.996434	2434.877308
814.315731	2523.097500
814.634983	2475.206538
814.954191	2442.439038
815.273354	2472.685962
815.592473	2447.480192
815.911547	2505.453462
816.230577	2553.344423
816.549562	2545.782692
816.868502	2460.083077
817.187399	2447.480192
817.506250	2432.356731
817.825058	2565.947308
818.143821	2407.150962
818.462539	2530.659231
818.781213	2472.685962
819.099843	2429.836154
819.418429	2482.768269
819.736970	2482.768269
820.055466	2520.576923
820.373919	2500.412308
820.692327	2485.288846
821.010691	2500.412308
821.329011	2470.165385
821.647286	2555.865000
821.965517	2510.494615
822.283704	2558.385577
822.601847	2565.947308
822.919945	2500.412308
823.237999	2457.562500
823.556010	2515.535769
823.873976	2482.768269
824.191897	2502.932885
824.509775	2510.494615
824.827609	2432.356731
825.145398	2507.974038
825.463144	2525.618077
825.780845	2480.247692
826.098502	2500.412308
826.416116	2434.877308
826.733685	2457.562500
827.051210	2528.138654
827.368692	2455.041923
827.686129	2419.753846
828.003522	2558.385577
828.320872	2417.233269
828.638177	2457.562500
828.955439	2487.809423
829.272656	2510.494615
829.589830	2568.467885
829.906960	2528.138654
830.224046	2437.397885
830.541088	2497.891731
830.858086	2495.371154
831.175041	2462.603654
831.491952	2513.015192
831.808819	2457.562500
832.125642	2492.850577
832.442421	2502.932885
832.759157	2455.041923
833.075849	2480.247692
833.392497	2507.974038
833.709101	2490.330000
834.025662	2530.659231
834.342179	2467.644808
834.658653	2520.576923
834.975083	2528.138654
835.291469	2616.358846
835.607811	2480.247692
835.924110	2477.727115
836.240366	2500.412308
836.556578	2477.727115
836.872746	2507.974038
837.188871	2500.412308
837.504952	2578.550192
837.820990	2485.288846
838.136984	2502.932885
838.452935	2462.603654
838.768842	2535.700385
839.084706	2407.150962
839.400526	2538.220962
839.716303	2444.959615
840.032037	2565.947308
840.347727	2492.850577
840.663373	2452.521346
840.978977	2578.550192
841.294537	2507.974038
841.610054	2507.974038
841.925527	2460.083077
842.240957	2505.453462
842.556344	2407.150962
842.871687	2497.891731
843.186987	2412.192115
843.502244	2500.412308
843.817458	2538.220962
844.132629	2437.397885
844.447756	2518.056346
844.762840	2404.630385
845.077881	2475.206538
845.392879	2523.097500
845.707833	2518.056346
846.022745	2442.439038
846.337613	2523.097500
846.652438	2497.891731
846.967221	2455.041923
847.281960	2502.932885
847.596656	2550.823846
847.911309	2545.782692
848.225919	2513.015192
848.540485	2492.850577
848.855009	2490.330000
849.169490	2485.288846
849.483928	2528.138654
849.798323	2419.753846
850.112675	2439.918462
850.426984	2560.906154
850.741251	2477.727115
851.055474	2492.850577
851.369654	2470.165385
851.683792	2525.618077
851.997887	2565.947308
852.311938	2442.439038
852.625947	2535.700385
852.939914	2540.741538
853.253837	2437.397885
853.567718	2477.727115
853.881555	2540.741538
854.195350	2497.891731
854.509103	2470.165385
854.822812	2528.138654
855.136479	2427.315577
855.450103	2495.371154
855.763685	2492.850577
856.077224	2450.000769
856.390720	2523.097500
856.704173	2518.056346
857.017584	2563.426731
857.330953	2490.330000
857.644278	2399.589231
857.957561	2424.795000
858.270802	2507.974038
858.584000	2414.712692
858.897155	2500.412308
859.210268	2444.959615
859.523339	2497.891731
859.836367	2412.192115
860.149352	2543.262115
860.462295	2475.206538
860.775195	2507.974038
861.088054	2457.562500
861.400869	2399.589231
861.713642	2399.589231
862.026373	2558.385577
862.339062	2452.521346
862.651708	2523.097500
862.964312	2520.576923
863.276873	2399.589231
863.589392	2492.850577
863.901869	2525.618077
864.214303	2515.535769
864.526696	2460.083077
864.839045	2480.247692
865.151353	2470.165385
865.463619	2472.685962
865.775842	2442.439038
866.088023	2465.124231
866.400162	2404.630385
866.712258	2565.947308
867.024313	2500.412308
867.336325	2515.535769
867.648296	2533.179808
867.960224	2502.932885
868.272110	2543.262115
868.583954	2530.659231
868.895755	2457.562500
869.207515	2515.535769
869.519233	2475.206538
869.830909	2450.000769
870.142542	2495.371154
870.454134	2467.644808
870.765684	2472.685962
871.077191	2412.192115
871.388657	2545.782692
871.700081	2462.603654
872.011463	2472.685962
872.322803	2414.712692
872.634101	2475.206538
872.945357	2523.097500
873.256571	2490.330000
873.567744	2490.330000
873.878874	2513.015192
874.189963	2447.480192
874.501010	2460.083077
874.812015	2475.206538
875.122979	2470.165385
875.433900	2434.877308
875.744780	2442.439038
876.055618	2450.000769
876.366415	2432.356731
876.677169	2520.576923
876.987882	2497.891731
877.298554	2525.618077
877.609183	2515.535769
877.919771	2510.494615
878.230317	2424.795000
878.540822	2487.809423
878.851285	2457.562500
879.161707	2558.385577
879.472087	2500.412308
879.782425	2578.550192
880.092722	2513.015192
880.402977	2432.356731
880.713191	2497.891731
881.023363	2450.000769
881.333494	2467.644808
881.643583	2560.906154
881.953631	2550.823846
882.263637	2472.685962
882.573602	2520.576923
882.883526	2437.397885
883.193408	2500.412308
883.503248	2465.124231
883.813048	2500.412308
884.122806	2510.494615
884.432522	2523.097500
884.742197	2460.083077
885.051831	2518.056346
885.361424	2424.795000
885.670975	2510.494615
885.980485	2414.712692
886.289954	2470.165385
886.599382	2518.056346
886.908768	2472.685962
887.218113	2525.618077
887.527417	2427.315577
887.836680	2505.453462
888.145901	2482.768269
888.455082	2560.906154
888.764221	2487.809423
889.073319	2492.850577
889.382376	2417.233269
889.691392	2540.741538
890.000366	2485.288846
890.309300	2482.768269
890.618193	2429.836154
890.927044	2447.480192
891.235855	2510.494615
891.544625	2518.056346
891.853353	2490.330000
892.162041	2490.330000
892.470687	2467.644808
892.779293	2465.124231
893.087858	2482.768269
893.396381	2520.576923
893.704864	2490.330000
894.013306	2412.192115
894.321707	2518.056346
894.630068	2510.494615
894.938387	2470.165385
895.246665	2611.317692
895.554903	2444.959615
895.863100	2538.220962
896.171256	2480.247692
896.479371	2490.330000
896.787446	2510.494615
897.095480	2462.603654
897.403473	2467.644808
897.711425	2505.453462
898.019336	2414.712692
898.327207	2460.083077
898.635038	2510.494615
898.942827	2477.727115
899.250576	2497.891731
899.558284	2482.768269
899.865952	2515.535769
900.173579	2480.247692
900.481165	2553.344423
900.788711	2457.562500
901.096216	2530.659231
901.403681	2548.303269
901.711105	2424.795000
902.018489	2550.823846
902.325832	2472.685962
902.633135	2460.083077
902.940397	2417.233269
903.247619	2593.673654
903.554800	2510.494615
903.861941	2465.124231
904.169041	2560.906154
904.476101	2543.262115
904.783121	2409.671538
905.090100	2490.330000
905.397039	2472.685962
905.703938	2465.124231
906.010796	2490.330000
906.317614	2485.288846
906.624391	2444.959615
906.931129	2419.753846
907.237826	2528.138654
907.544483	2475.206538
907.851099	2467.644808
908.157675	2502.932885
908.464211	2485.288846
908.770707	2427.315577
909.077163	2502.932885
909.383578	2462.603654
909.689954	2419.753846
909.996289	2558.385577
910.302584	2417.233269
910.608839	2414.712692
910.915054	2505.453462
911.221229	2505.453462
911.527363	2513.015192
911.833458	2538.220962
912.139513	2477.727115
912.445527	2492.850577
912.751502	2457.562500
913.057436	2480.247692
913.363331	2447.480192
913.669186	2477.727115
913.975000	2485.288846
914.280775	2497.891731
914.586510	2490.330000
914.892205	2563.426731
915.197859	2578.550192
915.503475	2477.727115
915.809050	2397.068654
916.114585	2460.083077
916.420081	2429.836154
916.725536	2502.932885
917.030952	2432.356731
917.336328	2513.015192
917.641665	2485.288846
917.946961	2525.618077
918.252218	2460.083077
918.557435	2565.947308
918.862612	2505.453462
919.167750	2427.315577
919.472848	2558.385577
919.777906	2480.247692
920.082925	2513.015192
920.387904	2528.138654
920.692843	2513.015192
920.997743	2487.809423
921.302603	2500.412308
921.607423	2500.412308
921.912204	2427.315577
922.216946	2510.494615
922.521647	2492.850577
922.826310	2500.412308
923.130932	2480.247692
923.435516	2482.768269
923.740059	2475.206538
924.044564	2545.782692
924.349028	2460.083077
924.653454	2510.494615
924.957840	2424.795000
925.262186	2477.727115
925.566493	2437.397885
925.870761	2500.412308
926.174989	2525.618077
926.479178	2472.685962
926.783328	2563.426731
927.087438	2588.632500
927.391509	2444.959615
927.695541	2502.932885
927.999533	2510.494615
928.303486	2505.453462
928.607400	2437.397885
928.911275	2558.385577
929.215110	2465.124231
929.518906	2470.165385
929.822663	2447.480192
930.126381	2417.233269
930.430060	2553.344423
930.733699	2452.521346
931.037299	2505.453462
931.340861	2543.262115
931.644383	2447.480192
931.947866	2520.576923
932.251309	2450.000769
932.554714	2523.097500
932.858080	2545.782692
933.161407	2412.192115
933.464694	2545.782692
933.767943	2475.206538
934.071153	2439.918462
934.374323	2558.385577
934.677455	2500.412308
934.980548	2457.562500
935.283602	2472.685962
935.586617	2520.576923
935.889593	2528.138654
936.192530	2439.918462
936.495428	2507.974038
936.798287	2475.206538
937.101108	2576.029615
937.403890	2523.097500
937.706632	2485.288846
938.009336	2457.562500
938.312002	2472.685962
938.614628	2462.603654
938.917216	2505.453462
939.219765	2432.356731
939.522275	2563.426731
939.824747	2495.371154
940.127179	2581.070769
940.429573	2447.480192
940.731929	2485.288846
941.034246	2455.041923
941.336524	2502.932885
941.638763	2429.836154
941.940964	2492.850577
942.243126	2417.233269
942.545250	2477.727115
942.847335	2434.877308
943.149381	2510.494615
943.451389	2495.371154
943.753359	2472.685962
944.055290	2442.439038
944.357182	2407.150962
944.659036	2495.371154
944.960851	2467.644808
945.262628	2480.247692
945.564367	2444.959615
945.866067	2447.480192
946.167729	2477.727115
946.469352	2427.315577
946.770937	2475.206538
947.072484	2502.932885
947.373992	2427.315577
947.675462	2422.274423
947.976893	2523.097500
948.278286	2462.603654
948.579641	2500.412308
948.880958	2543.262115
949.182236	2470.165385
949.483476	2500.412308
949.784678	2530.659231
950.085841	2414.712692
950.386967	2480.247692
950.688054	2465.124231
950.989103	2525.618077
951.290114	2450.000769
951.591087	2492.850577
951.892021	2480.247692
952.192917	2528.138654
952.493776	2568.467885
952.794596	2450.000769
953.095378	2495.371154
953.396122	2455.041923
953.696828	2482.768269
953.997496	2467.644808
954.298126	2560.906154
954.598718	2497.891731
954.899272	2523.097500
955.199788	2565.947308
955.500266	2477.727115
955.800706	2515.535769
956.101108	2447.480192
956.401472	2495.371154
956.701798	2462.603654
957.002087	2538.220962
957.302337	2523.097500
957.602550	2548.303269
957.902724	2528.138654
958.202861	2530.659231
958.502960	2462.603654
958.803022	2510.494615
959.103045	2452.521346
959.403031	2477.727115
959.702979	2424.795000
960.002889	2525.618077
960.302762	2525.618077
960.602596	2455.041923
960.902393	2432.356731
961.202153	2422.274423
961.501875	2472.685962
961.801559	2563.426731
962.101205	2538.220962
962.400814	2460.083077
962.700385	2414.712692
962.999918	2404.630385
963.299414	2540.741538
963.598873	2608.797115
963.898293	2540.741538
964.197677	2492.850577
964.497022	2477.727115
964.796331	2495.371154
965.095601	2462.603654
965.394835	2439.918462
965.694030	2424.795000
965.993189	2543.262115
966.292309	2492.850577
966.591393	2560.906154
966.890439	2525.618077
967.189447	2558.385577
967.488419	2500.412308
967.787353	2480.247692
968.086249	2510.494615
968.385108	2507.974038
968.683930	2482.768269
968.982714	2515.535769
969.281462	2510.494615
969.580172	2545.782692
969.878844	2417.233269
970.177480	2505.453462
970.476078	2543.262115
970.774639	2495.371154
971.073162	2578.550192
971.371649	2523.097500
971.670098	2487.809423
971.968510	2480.247692
972.266885	2497.891731
972.565223	2578.550192
972.863524	2424.795000
973.161788	2523.097500
973.460014	2429.836154
973.758204	2482.768269
974.056356	2487.809423
974.354471	2533.179808
974.652550	2460.083077
974.950591	2389.506923
975.248595	2535.700385
975.546563	2523.097500
975.844493	2550.823846
976.142386	2480.247692
976.440243	2535.700385
976.738062	2422.274423
977.035845	2470.165385
977.333590	2545.782692
977.631299	2444.959615
977.928971	2477.727115
978.226606	2475.206538
978.524204	2520.576923
978.821765	2452.521346
979.119290	2467.644808
979.416777	2543.262115
979.714228	2482.768269
980.011642	2490.330000
980.309020	2480.247692
980.606360	2361.780577
980.903664	2424.795000
981.200931	2525.618077
981.498162	2470.165385
981.795356	2510.494615
982.092513	2465.124231
982.389633	2518.056346
982.686717	2502.932885
982.983764	2490.330000
983.280775	2434.877308
983.577749	2497.891731
983.874686	2407.150962
984.171587	2500.412308
984.468451	2359.260000
984.765279	2417.233269
985.062070	2492.850577
985.358824	2482.768269
985.655543	2515.535769
985.952224	2475.206538
986.248869	2467.644808
986.545478	2500.412308
986.842050	2414.712692
987.138586	2518.056346
987.435086	2472.685962
987.731549	2492.850577
988.027975	2535.700385
988.324366	2452.521346
988.620719	2497.891731
988.917037	2470.165385
989.213318	2505.453462
989.509563	2523.097500
989.805772	2515.535769
990.101944	2462.603654
990.398080	2419.753846
990.694180	2543.262115
990.990244	2470.165385
991.286271	2487.809423
991.582262	2414.712692
991.878217	2475.206538
992.174136	2485.288846
992.470019	2530.659231
992.765865	2482.768269
993.061676	2442.439038
993.357450	2518.056346
993.653188	2487.809423
993.948890	2505.453462
994.244556	2480.247692
994.540186	2505.453462
994.835780	2588.632500
995.131337	2492.850577
995.426859	2432.356731
995.722345	2470.165385
996.017795	2472.685962
996.313208	2513.015192
996.608586	2480.247692
996.903928	2434.877308
997.199234	2520.576923
997.494504	2465.124231
997.789738	2560.906154
998.084936	2460.083077
998.380099	2553.344423
998.675225	2495.371154
998.970316	2523.097500
999.265371	2490.330000
999.560390	2470.165385
999.855373	2399.589231
1000.150320	2502.932885
1000.445232	2439.918462
1000.740108	2560.906154
1001.034948	2525.618077
1001.329752	2444.959615
1001.624521	2555.865000
1001.919254	2470.165385
1002.213951	2581.070769
1002.508613	2477.727115
1002.803239	2376.904038
1003.097829	2407.150962
1003.392384	2540.741538
1003.686903	2444.959615
1003.981386	2462.603654
1004.275834	2502.932885
1004.570246	2366.821731
1004.864623	2409.671538
1005.158964	2523.097500
1005.453270	2545.782692
1005.747540	2465.124231
1006.041775	2513.015192
1006.335974	2485.288846
1006.630138	2434.877308
1006.924266	2528.138654
1007.218359	2497.891731
1007.512416	2460.083077
1007.806438	2482.768269
1008.100425	2412.192115
1008.394376	2513.015192
1008.688292	2442.439038
1008.982172	2505.453462
1009.276017	2520.576923
1009.569827	2500.412308
1009.863602	2460.083077
1010.157341	2475.206538
1010.451045	2502.932885
1010.744714	2475.206538
1011.038347	2515.535769
1011.331945	2455.041923
1011.625508	2528.138654
1011.919036	2475.206538
1012.212528	2432.356731
1012.505986	2477.727115
1012.799408	2487.809423
1013.092795	2507.974038
1013.386147	2543.262115
1013.679464	2495.371154
1013.972745	2543.262115
1014.265992	2513.015192
1014.559204	2462.603654
1014.852380	2434.877308
1015.145521	2477.727115
1015.438628	2560.906154
1015.731699	2545.782692
1016.024736	2424.795000
1016.317737	2492.850577
1016.610703	2502.932885
1016.903635	2525.618077
1017.196531	2482.768269
1017.489393	2437.397885
1017.782219	2510.494615
1018.075011	2525.618077
1018.367768	2538.220962
1018.660490	2591.153077
1018.953177	2591.153077
1019.245829	2591.153077
