Dividing Wavelength (nm)	Counts (n)	Blue Motor Position (mm): 7.600000	Red Motor Position (mm): 0.000000	
326.493990	2081.996538
326.888308	2081.996538
327.282561	2081.996538
327.676750	2117.284615
328.070874	2054.270192
328.464933	2049.229038
328.858929	2021.502692
329.252859	2071.914231
329.646726	2041.667308
330.040528	2160.134423
330.434265	2197.943077
330.827938	2129.887500
331.221547	2210.545962
331.615091	2124.846346
332.008571	2177.778462
332.401986	2202.984231
332.795338	2218.107692
333.188625	2253.395769
333.581847	2245.834038
333.975006	2258.436923
334.368100	2336.574808
334.761129	2293.725000
335.154095	2311.369038
335.546996	2306.327885
335.939833	2389.506923
336.332606	2321.451346
336.725315	2371.862885
337.117960	2384.465769
337.510540	2412.192115
337.903056	2424.795000
338.295508	2460.083077
338.687896	2450.000769
339.080220	2412.192115
339.472480	2419.753846
339.864676	2356.739423
340.256807	2490.330000
340.648875	2515.535769
341.040879	2460.083077
341.432818	2419.753846
341.824694	2432.356731
342.216506	2465.124231
342.608253	2487.809423
342.999937	2475.206538
343.391557	2505.453462
343.783113	2414.712692
344.174605	2528.138654
344.566033	2513.015192
344.957397	2457.562500
345.348697	2392.027500
345.739934	2543.262115
346.131106	2467.644808
346.522215	2530.659231
346.913260	2513.015192
347.304241	2525.618077
347.695159	2490.330000
348.086012	2417.233269
348.476802	2460.083077
348.867528	2434.877308
349.258191	2442.439038
349.648789	2419.753846
350.039324	2356.739423
350.429796	2460.083077
350.820203	2432.356731
351.210548	2389.506923
351.600828	2470.165385
351.991045	2417.233269
352.381198	2424.795000
352.771288	2485.288846
353.161314	2540.741538
353.551276	2434.877308
353.941175	2412.192115
354.331010	2397.068654
354.720782	2487.809423
355.110490	2525.618077
355.500135	2427.315577
355.889717	2505.453462
356.279235	2447.480192
356.668689	2432.356731
357.058080	2422.274423
357.447408	2472.685962
357.836672	2482.768269
358.225873	2407.150962
358.615010	2495.371154
359.004084	2455.041923
359.393095	2465.124231
359.782043	2480.247692
360.170927	2427.315577
360.559748	2452.521346
360.948505	2412.192115
361.337199	2492.850577
361.725830	2460.083077
362.114398	2538.220962
362.502903	2510.494615
362.891344	2450.000769
363.279722	2475.206538
363.668037	2439.918462
364.056289	2497.891731
364.444478	2434.877308
364.832603	2455.041923
365.220665	2543.262115
365.608665	2429.836154
365.996601	2543.262115
366.384474	2437.397885
366.772284	2442.439038
367.160031	2450.000769
367.547715	2439.918462
367.935336	2424.795000
368.322893	2533.179808
368.710388	2495.371154
369.097820	2470.165385
369.485189	2485.288846
369.872495	2462.603654
370.259738	2485.288846
370.646918	2361.780577
371.034035	2394.548077
371.421090	2497.891731
371.808081	2434.877308
372.195010	2507.974038
372.581875	2500.412308
372.968678	2457.562500
373.355418	2402.109808
373.742096	2442.439038
374.128710	2482.768269
374.515262	2540.741538
374.901751	2513.015192
375.288177	2465.124231
375.674540	2485.288846
376.060841	2510.494615
376.447079	2490.330000
376.833254	2495.371154
377.219367	2462.603654
377.605417	2402.109808
377.991404	2450.000769
378.377329	2470.165385
378.763191	2452.521346
379.148991	2490.330000
379.534727	2540.741538
379.920402	2404.630385
380.306013	2450.000769
380.691563	2434.877308
381.077049	2369.342308
381.462474	2444.959615
381.847835	2482.768269
382.233134	2354.218846
382.618371	2422.274423
383.003545	2475.206538
383.388657	2427.315577
383.773706	2450.000769
384.158693	2482.768269
384.543618	2394.548077
384.928480	2543.262115
385.313280	2518.056346
385.698017	2465.124231
386.082692	2475.206538
386.467305	2392.027500
386.851856	2475.206538
387.236344	2477.727115
387.620770	2477.727115
388.005133	2457.562500
388.389435	2520.576923
388.773674	2477.727115
389.157851	2442.439038
389.541965	2462.603654
389.926018	2492.850577
390.310008	2470.165385
390.693936	2482.768269
391.077802	2520.576923
391.461606	2470.165385
391.845348	2505.453462
392.229027	2414.712692
392.612645	2500.412308
392.996200	2465.124231
393.379694	2444.959615
393.763125	2432.356731
394.146494	2467.644808
394.529801	2570.988462
394.913047	2523.097500
395.296230	2477.727115
395.679351	2505.453462
396.062410	2452.521346
396.445408	2555.865000
396.828343	2429.836154
397.211217	2477.727115
397.594028	2381.945192
397.976778	2444.959615
398.359466	2432.356731
398.742092	2465.124231
399.124656	2528.138654
399.507158	2525.618077
399.889598	2417.233269
400.271977	2480.247692
400.654294	2502.932885
401.036549	2487.809423
401.418742	2497.891731
401.800874	2518.056346
402.182944	2545.782692
402.564952	2404.630385
402.946898	2392.027500
403.328783	2518.056346
403.710606	2467.644808
404.092367	2492.850577
404.474067	2437.397885
404.855705	2424.795000
405.237282	2523.097500
405.618797	2452.521346
406.000250	2450.000769
406.381642	2462.603654
406.762972	2482.768269
407.144240	2500.412308
407.525447	2444.959615
407.906593	2510.494615
408.287677	2495.371154
408.668700	2480.247692
409.049661	2409.671538
409.430560	2417.233269
409.811399	2480.247692
410.192176	2472.685962
410.572891	2465.124231
410.953545	2384.465769
411.334138	2422.274423
411.714669	2485.288846
412.095139	2465.124231
412.475547	2497.891731
412.855894	2497.891731
413.236180	2555.865000
413.616405	2477.727115
413.996568	2472.685962
414.376670	2452.521346
414.756711	2437.397885
415.136691	2507.974038
415.516609	2528.138654
415.896466	2439.918462
416.276262	2505.453462
416.655997	2442.439038
417.035670	2502.932885
417.415283	2467.644808
417.794834	2444.959615
418.174324	2487.809423
418.553753	2576.029615
418.933121	2434.877308
419.312428	2513.015192
419.691674	2558.385577
420.070859	2548.303269
420.449983	2518.056346
420.829045	2492.850577
421.208047	2455.041923
421.586988	2437.397885
421.965867	2397.068654
422.344686	2533.179808
422.723444	2480.247692
423.102141	2407.150962
423.480777	2513.015192
423.859352	2513.015192
424.237866	2510.494615
424.616319	2485.288846
424.994712	2533.179808
425.373044	2404.630385
425.751314	2596.194231
426.129524	2450.000769
426.507673	2533.179808
426.885762	2384.465769
427.263789	2467.644808
427.641756	2472.685962
428.019662	2535.700385
428.397508	2505.453462
428.775292	2432.356731
429.153016	2553.344423
429.530679	2475.206538
429.908282	2507.974038
430.285824	2442.439038
430.663305	2550.823846
431.040726	2510.494615
431.418086	2548.303269
431.795385	2568.467885
432.172624	2545.782692
432.549802	2490.330000
432.926920	2399.589231
433.303977	2558.385577
433.680974	2412.192115
434.057910	2457.562500
434.434786	2414.712692
434.811601	2520.576923
435.188355	2518.056346
435.565050	2480.247692
435.941683	2467.644808
436.318257	2447.480192
436.694770	2576.029615
437.071222	2477.727115
437.447614	2500.412308
437.823946	2497.891731
438.200218	2412.192115
438.576429	2507.974038
438.952580	2462.603654
439.328670	2490.330000
439.704700	2492.850577
440.080670	2490.330000
440.456580	2422.274423
440.832429	2450.000769
441.208218	2460.083077
441.583947	2505.453462
441.959616	2505.453462
442.335224	2540.741538
442.710773	2505.453462
443.086261	2414.712692
443.461689	2497.891731
443.837057	2502.932885
444.212365	2510.494615
444.587612	2447.480192
444.962800	2563.426731
445.337927	2447.480192
445.712995	2520.576923
446.088002	2495.371154
446.462949	2533.179808
446.837837	2460.083077
447.212664	2492.850577
447.587431	2465.124231
447.962139	2432.356731
448.336786	2434.877308
448.711374	2485.288846
449.085901	2485.288846
449.460369	2477.727115
449.834776	2500.412308
450.209124	2442.439038
450.583412	2487.809423
450.957640	2558.385577
451.331808	2588.632500
451.705917	2490.330000
452.079965	2450.000769
452.453954	2523.097500
452.827883	2457.562500
453.201752	2457.562500
453.575562	2490.330000
453.949311	2490.330000
454.323001	2510.494615
454.696632	2502.932885
455.070202	2467.644808
455.443713	2409.671538
455.817164	2470.165385
456.190556	2444.959615
456.563888	2460.083077
456.937160	2528.138654
457.310373	2439.918462
457.683526	2475.206538
458.056619	2452.521346
458.429653	2490.330000
458.802628	2437.397885
459.175542	2540.741538
459.548398	2502.932885
459.921194	2530.659231
460.293930	2490.330000
460.666607	2492.850577
461.039224	2510.494615
461.411782	2389.506923
461.784280	2424.795000
462.156719	2399.589231
462.529099	2500.412308
462.901419	2586.111923
463.273680	2530.659231
463.645882	2457.562500
464.018024	2596.194231
464.390106	2515.535769
464.762130	2507.974038
465.134094	2460.083077
465.505999	2472.685962
465.877845	2392.027500
466.249631	2472.685962
466.621358	2467.644808
466.993026	2505.453462
467.364634	2495.371154
467.736184	2475.206538
468.107674	2570.988462
468.479105	2507.974038
468.850477	2538.220962
469.221790	2538.220962
469.593043	2507.974038
469.964238	2500.412308
470.335373	2518.056346
470.706449	2447.480192
471.077467	2507.974038
471.448425	2507.974038
471.819324	2581.070769
472.190164	2477.727115
472.560945	2472.685962
472.931667	2417.233269
473.302330	2502.932885
473.672934	2480.247692
474.043479	2392.027500
474.413965	2495.371154
474.784393	2523.097500
475.154761	2520.576923
475.525070	2460.083077
475.895321	2515.535769
476.265513	2432.356731
476.635645	2485.288846
477.005719	2525.618077
477.375734	2389.506923
477.745691	2487.809423
478.115588	2530.659231
478.485427	2497.891731
478.855207	2457.562500
479.224928	2480.247692
479.594591	2427.315577
479.964194	2480.247692
480.333739	2477.727115
480.703226	2513.015192
481.072653	2450.000769
481.442022	2462.603654
481.811333	2475.206538
482.180584	2492.850577
482.549777	2530.659231
482.918912	2525.618077
483.287988	2576.029615
483.657005	2482.768269
484.025964	2510.494615
484.394864	2434.877308
484.763706	2472.685962
485.132489	2487.809423
485.501213	2505.453462
485.869879	2434.877308
486.238487	2341.615962
486.607036	2450.000769
486.975527	2497.891731
487.343959	2497.891731
487.712333	2407.150962
488.080648	2570.988462
488.448905	2490.330000
488.817104	2513.015192
489.185244	2477.727115
489.553326	2472.685962
489.921350	2470.165385
490.289315	2455.041923
490.657222	2444.959615
491.025070	2487.809423
491.392861	2500.412308
491.760593	2545.782692
492.128267	2452.521346
492.495883	2487.809423
492.863440	2477.727115
493.230939	2439.918462
493.598380	2507.974038
493.965763	2490.330000
494.333088	2502.932885
494.700354	2412.192115
495.067563	2475.206538
495.434713	2523.097500
495.801805	2480.247692
496.168839	2409.671538
496.535815	2530.659231
496.902733	2452.521346
497.269593	2500.412308
497.636395	2444.959615
498.003139	2394.548077
498.369825	2505.453462
498.736453	2540.741538
499.103023	2480.247692
499.469535	2452.521346
499.835989	2447.480192
500.202385	2593.673654
500.568723	2530.659231
500.935003	2515.535769
501.301226	2485.288846
501.667390	2528.138654
502.033497	2530.659231
502.399546	2565.947308
502.765537	2492.850577
503.131470	2371.862885
503.497345	2528.138654
503.863163	2505.453462
504.228923	2432.356731
504.594625	2535.700385
504.960269	2545.782692
505.325856	2487.809423
505.691385	2583.591346
506.056856	2510.494615
506.422270	2482.768269
506.787625	2472.685962
507.152924	2513.015192
507.518164	2419.753846
507.883347	2540.741538
508.248472	2485.288846
508.613540	2444.959615
508.978550	2465.124231
509.343503	2540.741538
509.708398	2510.494615
510.073236	2533.179808
510.438016	2487.809423
510.802738	2502.932885
511.167403	2455.041923
511.532010	2434.877308
511.896561	2419.753846
512.261053	2507.974038
512.625488	2444.959615
512.989866	2598.714808
513.354186	2553.344423
513.718449	2490.330000
514.082655	2583.591346
514.446803	2623.920577
514.810894	2467.644808
515.174927	2444.959615
515.538904	2545.782692
515.902822	2465.124231
516.266684	2470.165385
516.630488	2553.344423
516.994235	2533.179808
517.357925	2492.850577
517.721558	2583.591346
518.085133	2460.083077
518.448651	2480.247692
518.812112	2455.041923
519.175516	2560.906154
519.538863	2545.782692
519.902152	2485.288846
520.265385	2525.618077
520.628560	2538.220962
520.991678	2470.165385
521.354739	2543.262115
521.717743	2553.344423
522.080690	2513.015192
522.443580	2417.233269
522.806413	2510.494615
523.169189	2429.836154
523.531908	2480.247692
523.894569	2444.959615
524.257174	2432.356731
524.619722	2530.659231
524.982213	2450.000769
525.344647	2555.865000
525.707025	2528.138654
526.069345	2495.371154
526.431608	2384.465769
526.793815	2439.918462
527.155964	2497.891731
527.518057	2472.685962
527.880093	2447.480192
528.242072	2402.109808
528.603995	2475.206538
528.965860	2472.685962
529.327669	2540.741538
529.689421	2502.932885
530.051117	2576.029615
530.412755	2472.685962
530.774337	2535.700385
531.135862	2586.111923
531.497331	2450.000769
531.858743	2573.509038
532.220098	2505.453462
532.581396	2548.303269
532.942638	2472.685962
533.303824	2480.247692
533.664953	2429.836154
534.026025	2603.755962
534.387040	2518.056346
534.747999	2550.823846
535.108902	2374.383462
535.469748	2530.659231
535.830537	2450.000769
536.191270	2563.426731
536.551947	2520.576923
536.912567	2502.932885
537.273131	2545.782692
537.633638	2470.165385
537.994089	2560.906154
538.354483	2515.535769
538.714821	2520.576923
539.075103	2507.974038
539.435328	2565.947308
539.795497	2490.330000
540.155609	2487.809423
540.515665	2490.330000
540.875665	2407.150962
541.235609	2482.768269
541.595496	2520.576923
541.955328	2548.303269
542.315102	2520.576923
542.674821	2437.397885
543.034483	2419.753846
543.394090	2540.741538
543.753640	2487.809423
544.113134	2510.494615
544.472571	2437.397885
544.831953	2465.124231
545.191278	2470.165385
545.550548	2477.727115
545.909761	2455.041923
546.268918	2538.220962
546.628019	2467.644808
546.987064	2500.412308
547.346053	2437.397885
547.704986	2437.397885
548.063863	2507.974038
548.422684	2502.932885
548.781449	2500.412308
549.140158	2472.685962
549.498811	2528.138654
549.857408	2467.644808
550.215949	2505.453462
550.574434	2500.412308
550.932864	2520.576923
551.291237	2538.220962
551.649555	2477.727115
552.007817	2507.974038
552.366022	2490.330000
552.724173	2535.700385
553.082267	2457.562500
553.440305	2507.974038
553.798288	2427.315577
554.156215	2460.083077
554.514086	2457.562500
554.871902	2603.755962
555.229661	2437.397885
555.587365	2497.891731
555.945014	2570.988462
556.302606	2573.509038
556.660143	2530.659231
557.017625	2452.521346
557.375050	2513.015192
557.732421	2490.330000
558.089735	2530.659231
558.446994	2500.412308
558.804197	2490.330000
559.161345	2505.453462
559.518437	2540.741538
559.875474	2470.165385
560.232455	2510.494615
560.589381	2475.206538
560.946251	2608.797115
561.303065	2540.741538
561.659825	2485.288846
562.016528	2530.659231
562.373177	2568.467885
562.729770	2452.521346
563.086307	2500.412308
563.442789	2457.562500
563.799216	2434.877308
564.155587	2543.262115
564.511904	2621.400000
564.868164	2495.371154
565.224370	2518.056346
565.580520	2568.467885
565.936615	2586.111923
566.292654	2455.041923
566.648638	2518.056346
567.004567	2553.344423
567.360441	2457.562500
567.716260	2507.974038
568.072023	2513.015192
568.427732	2452.521346
568.783385	2480.247692
569.138982	2477.727115
569.494525	2487.809423
569.850013	2470.165385
570.205445	2510.494615
570.560823	2480.247692
570.916145	2477.727115
571.271412	2386.986346
571.626625	2470.165385
571.981782	2515.535769
572.336884	2470.165385
572.691931	2437.397885
573.046923	2553.344423
573.401860	2550.823846
573.756743	2397.068654
574.111570	2545.782692
574.466342	2507.974038
574.821059	2480.247692
575.175722	2515.535769
575.530330	2507.974038
575.884882	2376.904038
576.239380	2432.356731
576.593823	2470.165385
576.948211	2442.439038
577.302544	2502.932885
577.656823	2538.220962
578.011047	2510.494615
578.365216	2429.836154
578.719330	2601.235385
579.073389	2520.576923
579.427394	2427.315577
579.781344	2586.111923
580.135239	2409.671538
580.489080	2500.412308
580.842866	2510.494615
581.196597	2487.809423
581.550273	2497.891731
581.903895	2399.589231
582.257463	2460.083077
582.610975	2470.165385
582.964434	2507.974038
583.317837	2548.303269
583.671186	2450.000769
584.024481	2560.906154
584.377721	2570.988462
584.730906	2472.685962
585.084037	2457.562500
585.437113	2530.659231
585.790135	2465.124231
586.143103	2555.865000
586.496016	2490.330000
586.848874	2467.644808
587.201679	2581.070769
587.554428	2492.850577
587.907124	2518.056346
588.259765	2480.247692
588.612352	2502.932885
588.964884	2470.165385
589.317362	2429.836154
589.669786	2397.068654
590.022155	2570.988462
590.374470	2581.070769
590.726731	2500.412308
591.078937	2560.906154
591.431090	2628.961731
591.783188	2550.823846
592.135232	2530.659231
592.487222	2485.288846
592.839157	2510.494615
593.191038	2467.644808
593.542866	2500.412308
593.894639	2555.865000
594.246358	2447.480192
594.598022	2465.124231
594.949633	2462.603654
595.301190	2505.453462
595.652692	2477.727115
596.004141	2558.385577
596.355535	2487.809423
596.706876	2530.659231
597.058162	2447.480192
597.409395	2543.262115
597.760573	2487.809423
598.111698	2427.315577
598.462768	2460.083077
598.813785	2467.644808
599.164748	2470.165385
599.515657	2447.480192
599.866511	2447.480192
600.217312	2505.453462
600.568060	2528.138654
600.918753	2470.165385
601.269392	2563.426731
601.619978	2593.673654
601.970510	2528.138654
602.320988	2513.015192
602.671412	2510.494615
603.021783	2455.041923
603.372100	2535.700385
603.722363	2472.685962
604.072572	2434.877308
604.422728	2510.494615
604.772830	2467.644808
605.122878	2462.603654
605.472872	2560.906154
605.822813	2538.220962
606.172701	2465.124231
606.522534	2507.974038
606.872314	2450.000769
607.222041	2540.741538
607.571714	2497.891731
607.921333	2442.439038
608.270899	2467.644808
608.620411	2540.741538
608.969870	2460.083077
609.319276	2472.685962
609.668627	2570.988462
610.017926	2507.974038
610.367171	2475.206538
610.716362	2444.959615
611.065500	2490.330000
611.414585	2465.124231
611.763616	2447.480192
612.112594	2442.439038
612.461518	2543.262115
612.810389	2490.330000
613.159207	2487.809423
613.507971	2467.644808
613.856682	2490.330000
614.205340	2530.659231
614.553945	2570.988462
614.902496	2563.426731
615.250994	2427.315577
615.599439	2515.535769
615.947830	2470.165385
616.296169	2540.741538
616.644454	2505.453462
616.992686	2513.015192
617.340864	2407.150962
617.688990	2470.165385
618.037063	2500.412308
618.385082	2472.685962
618.733048	2500.412308
619.080961	2538.220962
619.428821	2455.041923
619.776628	2596.194231
620.124382	2510.494615
620.472083	2500.412308
620.819731	2543.262115
621.167326	2482.768269
621.514868	2477.727115
621.862357	2460.083077
622.209793	2450.000769
622.557176	2555.865000
622.904506	2510.494615
623.251783	2412.192115
623.599007	2515.535769
623.946179	2490.330000
624.293297	2578.550192
624.640363	2505.453462
624.987376	2470.165385
625.334336	2533.179808
625.681243	2444.959615
626.028097	2462.603654
626.374899	2457.562500
626.721647	2601.235385
627.068343	2450.000769
627.414987	2412.192115
627.761577	2550.823846
628.108115	2412.192115
628.454600	2560.906154
628.801032	2495.371154
629.147412	2500.412308
629.493739	2485.288846
629.840014	2475.206538
630.186236	2434.877308
630.532405	2477.727115
630.878521	2545.782692
631.224585	2467.644808
631.570597	2487.809423
631.916556	2563.426731
632.262462	2618.879423
632.608316	2558.385577
632.954117	2452.521346
633.299866	2427.315577
633.645562	2545.782692
633.991206	2422.274423
634.336797	2563.426731
634.682336	2465.124231
635.027823	2573.509038
635.373257	2497.891731
635.718639	2545.782692
636.063968	2606.276538
636.409245	2553.344423
636.754470	2535.700385
637.099642	2502.932885
637.444762	2497.891731
637.789829	2492.850577
638.134845	2444.959615
638.479808	2467.644808
638.824719	2545.782692
639.169577	2437.397885
639.514383	2510.494615
639.859137	2487.809423
640.203839	2437.397885
640.548489	2497.891731
640.893086	2538.220962
641.237632	2515.535769
641.582125	2548.303269
641.926566	2513.015192
642.270955	2558.385577
642.615292	2578.550192
642.959576	2492.850577
643.303809	2457.562500
643.647990	2520.576923
643.992118	2523.097500
644.336195	2427.315577
644.680219	2490.330000
645.024192	2482.768269
645.368112	2550.823846
645.711981	2510.494615
646.055797	2427.315577
646.399562	2500.412308
646.743274	2525.618077
647.086935	2570.988462
647.430544	2465.124231
647.774101	2548.303269
648.117606	2510.494615
648.461059	2487.809423
648.804460	2495.371154
649.147810	2477.727115
649.491108	2533.179808
649.834354	2515.535769
650.177548	2518.056346
650.520690	2467.644808
650.863781	2497.891731
651.206820	2500.412308
651.549807	2507.974038
651.892742	2457.562500
652.235626	2518.056346
652.578458	2518.056346
652.921238	2490.330000
653.263967	2487.809423
653.606644	2502.932885
653.949269	2477.727115
654.291843	2583.591346
654.634365	2520.576923
654.976836	2553.344423
655.319255	2535.700385
655.661622	2528.138654
656.003938	2515.535769
656.346203	2545.782692
656.688416	2470.165385
657.030577	2472.685962
657.372687	2457.562500
657.714746	2477.727115
658.056753	2523.097500
658.398708	2545.782692
658.740612	2439.918462
659.082465	2497.891731
659.424266	2518.056346
659.766016	2500.412308
660.107715	2457.562500
660.449362	2439.918462
660.790958	2457.562500
661.132503	2543.262115
661.473996	2470.165385
661.815438	2523.097500
662.156829	2485.288846
662.498168	2543.262115
662.839456	2460.083077
663.180693	2540.741538
663.521879	2540.741538
663.863013	2417.233269
664.204097	2460.083077
664.545129	2550.823846
664.886110	2515.535769
665.227040	2439.918462
665.567918	2528.138654
665.908746	2475.206538
666.249522	2480.247692
666.590248	2482.768269
666.930922	2505.453462
667.271545	2487.809423
667.612118	2507.974038
667.952639	2450.000769
668.293109	2490.330000
668.633528	2563.426731
668.973896	2568.467885
669.314213	2523.097500
669.654480	2520.576923
669.994695	2535.700385
670.334859	2515.535769
670.674973	2482.768269
671.015035	2535.700385
671.355047	2480.247692
671.695008	2457.562500
672.034918	2528.138654
672.374777	2495.371154
672.714585	2558.385577
673.054342	2520.576923
673.394049	2477.727115
673.733705	2497.891731
674.073310	2533.179808
674.412864	2528.138654
674.752368	2480.247692
675.091820	2502.932885
675.431223	2533.179808
675.770574	2520.576923
676.109875	2482.768269
676.449125	2490.330000
676.788324	2434.877308
677.127473	2495.371154
677.466571	2465.124231
677.805619	2510.494615
678.144616	2455.041923
678.483562	2528.138654
678.822458	2462.603654
679.161303	2482.768269
679.500098	2535.700385
679.838842	2472.685962
680.177535	2417.233269
680.516179	2399.589231
680.854771	2485.288846
681.193314	2507.974038
681.531805	2414.712692
681.870247	2487.809423
682.208638	2450.000769
682.546978	2457.562500
682.885268	2492.850577
683.223508	2548.303269
683.561697	2528.138654
683.899836	2495.371154
684.237925	2432.356731
684.575963	2470.165385
684.913951	2513.015192
685.251889	2533.179808
685.589776	2487.809423
685.927614	2525.618077
686.265401	2444.959615
686.603137	2429.836154
686.940824	2505.453462
687.278460	2457.562500
687.616046	2523.097500
687.953582	2543.262115
688.291068	2480.247692
688.628504	2518.056346
688.965889	2432.356731
689.303224	2485.288846
689.640510	2510.494615
689.977745	2495.371154
690.314930	2523.097500
690.652065	2560.906154
690.989150	2457.562500
691.326185	2530.659231
691.663170	2412.192115
692.000105	2439.918462
692.336990	2450.000769
692.673825	2447.480192
693.010610	2419.753846
693.347345	2510.494615
693.684030	2560.906154
694.020665	2500.412308
694.357251	2518.056346
694.693786	2515.535769
695.030272	2495.371154
695.366707	2500.412308
695.703093	2550.823846
696.039429	2442.439038
696.375716	2497.891731
696.711952	2513.015192
697.048139	2480.247692
697.384276	2520.576923
697.720363	2389.506923
698.056400	2467.644808
698.392388	2495.371154
698.728326	2485.288846
699.064214	2505.453462
699.400053	2409.671538
699.735842	2427.315577
700.071581	2472.685962
700.407270	2437.397885
700.742910	2457.562500
701.078501	2490.330000
701.414042	2477.727115
701.749533	2470.165385
702.084974	2472.685962
702.420366	2603.755962
702.755709	2570.988462
703.091002	2442.439038
703.426246	2530.659231
703.761440	2520.576923
704.096584	2505.453462
704.431679	2475.206538
704.766725	2520.576923
705.101721	2424.795000
705.436668	2470.165385
705.771565	2462.603654
706.106413	2462.603654
706.441212	2545.782692
706.775961	2402.109808
707.110661	2555.865000
707.445311	2439.918462
707.779913	2530.659231
708.114465	2467.644808
708.448967	2586.111923
708.783421	2528.138654
709.117825	2500.412308
709.452180	2465.124231
709.786485	2452.521346
710.120742	2538.220962
710.454949	2437.397885
710.789107	2515.535769
711.123216	2467.644808
711.457275	2510.494615
711.791286	2513.015192
712.125247	2447.480192
712.459159	2518.056346
712.793023	2462.603654
713.126837	2545.782692
713.460602	2560.906154
713.794318	2442.439038
714.127985	2538.220962
714.461602	2450.000769
714.795171	2513.015192
715.128691	2455.041923
715.462162	2515.535769
715.795584	2492.850577
716.128957	2510.494615
716.462281	2439.918462
716.795556	2457.562500
717.128782	2462.603654
717.461960	2480.247692
717.795088	2515.535769
718.128167	2520.576923
718.461198	2447.480192
718.794180	2510.494615
719.127113	2419.753846
719.459997	2447.480192
719.792833	2490.330000
720.125619	2487.809423
720.458357	2555.865000
720.791046	2450.000769
721.123686	2487.809423
721.456278	2535.700385
721.788821	2507.974038
722.121315	2568.467885
722.453761	2495.371154
722.786158	2553.344423
723.118506	2507.974038
723.450805	2472.685962
723.783056	2462.603654
724.115259	2543.262115
724.447412	2545.782692
724.779518	2518.056346
725.111574	2515.535769
725.443582	2444.959615
725.775542	2500.412308
726.107453	2492.850577
726.439315	2467.644808
726.771129	2507.974038
727.102895	2467.644808
727.434612	2530.659231
727.766281	2515.535769
728.097901	2507.974038
728.429473	2427.315577
728.760996	2507.974038
729.092471	2439.918462
729.423897	2487.809423
729.755276	2437.397885
730.086606	2502.932885
730.417887	2588.632500
730.749120	2460.083077
731.080305	2548.303269
731.411442	2492.850577
731.742530	2520.576923
732.073570	2402.109808
732.404562	2540.741538
732.735506	2518.056346
733.066401	2409.671538
733.397249	2530.659231
733.728048	2465.124231
734.058798	2601.235385
734.389501	2452.521346
734.720156	2520.576923
735.050762	2515.535769
735.381320	2457.562500
735.711831	2429.836154
736.042293	2505.453462
736.372707	2510.494615
736.703073	2528.138654
737.033391	2518.056346
737.363661	2535.700385
737.693883	2477.727115
738.024056	2409.671538
738.354182	2482.768269
738.684260	2543.262115
739.014290	2497.891731
739.344272	2513.015192
739.674207	2414.712692
740.004093	2540.741538
740.333931	2465.124231
740.663722	2507.974038
740.993464	2555.865000
741.323159	2568.467885
741.652806	2444.959615
741.982405	2482.768269
742.311956	2472.685962
742.641460	2533.179808
742.970915	2477.727115
743.300323	2457.562500
743.629683	2439.918462
743.958996	2419.753846
744.288260	2475.206538
744.617477	2513.015192
744.946647	2598.714808
745.275768	2480.247692
745.604842	2490.330000
745.933869	2492.850577
746.262847	2500.412308
746.591778	2548.303269
746.920662	2540.741538
747.249498	2540.741538
747.578286	2439.918462
747.907027	2525.618077
748.235720	2502.932885
748.564365	2424.795000
748.892963	2545.782692
749.221514	2520.576923
749.550017	2432.356731
749.878473	2480.247692
750.206881	2583.591346
750.535242	2523.097500
750.863555	2455.041923
751.191821	2550.823846
751.520039	2465.124231
751.848210	2515.535769
752.176334	2460.083077
752.504411	2533.179808
752.832440	2465.124231
753.160421	2523.097500
753.488356	2507.974038
753.816243	2540.741538
754.144082	2404.630385
754.471875	2447.480192
754.799620	2450.000769
755.127318	2472.685962
755.454969	2525.618077
755.782572	2462.603654
756.110129	2507.974038
756.437638	2475.206538
756.765100	2470.165385
757.092515	2523.097500
757.419882	2455.041923
757.747203	2518.056346
758.074477	2482.768269
758.401703	2485.288846
758.728882	2540.741538
759.056014	2507.974038
759.383099	2457.562500
759.710138	2470.165385
760.037129	2427.315577
760.364073	2515.535769
760.690970	2432.356731
761.017820	2432.356731
761.344623	2470.165385
761.671379	2447.480192
761.998088	2497.891731
762.324751	2530.659231
762.651366	2545.782692
762.977935	2515.535769
763.304456	2573.509038
763.630931	2467.644808
763.957359	2495.371154
764.283740	2492.850577
764.610074	2507.974038
764.936362	2419.753846
765.262602	2447.480192
765.588796	2518.056346
765.914943	2429.836154
766.241044	2523.097500
766.567097	2414.712692
766.893104	2538.220962
767.219064	2467.644808
767.544978	2525.618077
767.870845	2485.288846
768.196665	2472.685962
768.522438	2563.426731
768.848165	2492.850577
769.173846	2462.603654
769.499479	2467.644808
769.825066	2525.618077
770.150607	2515.535769
770.476101	2596.194231
770.801548	2444.959615
771.126949	2487.809423
771.452303	2497.891731
771.777611	2477.727115
772.102872	2351.698269
772.428087	2502.932885
772.753256	2487.809423
773.078378	2447.480192
773.403453	2472.685962
773.728482	2515.535769
774.053465	2389.506923
774.378401	2543.262115
774.703291	2497.891731
775.028135	2505.453462
775.352932	2472.685962
775.677683	2470.165385
776.002388	2550.823846
776.327046	2447.480192
776.651658	2452.521346
776.976224	2460.083077
777.300743	2399.589231
777.625216	2555.865000
777.949643	2467.644808
778.274024	2555.865000
778.598359	2495.371154
778.922647	2535.700385
779.246889	2462.603654
779.571086	2492.850577
779.895236	2467.644808
780.219339	2502.932885
780.543397	2437.397885
780.867409	2424.795000
781.191374	2490.330000
781.515294	2417.233269
781.839167	2576.029615
782.162995	2472.685962
782.486776	2497.891731
782.810511	2470.165385
783.134201	2462.603654
783.457844	2563.426731
783.781441	2475.206538
784.104993	2477.727115
784.428498	2429.836154
784.751958	2470.165385
785.075372	2450.000769
785.398739	2502.932885
785.722061	2487.809423
786.045337	2505.453462
786.368568	2520.576923
786.691752	2510.494615
787.014891	2555.865000
787.337983	2457.562500
787.661030	2533.179808
787.984031	2465.124231
788.306987	2485.288846
788.629897	2437.397885
788.952760	2487.809423
789.275579	2404.630385
789.598351	2497.891731
789.921078	2462.603654
790.243759	2427.315577
790.566395	2623.920577
790.888984	2452.521346
791.211529	2523.097500
791.534027	2485.288846
791.856480	2472.685962
792.178888	2510.494615
792.501249	2505.453462
792.823566	2490.330000
793.145836	2513.015192
793.468062	2525.618077
793.790241	2530.659231
794.112375	2628.961731
794.434464	2540.741538
794.756507	2444.959615
795.078505	2588.632500
795.400457	2525.618077
795.722364	2442.439038
796.044226	2485.288846
796.366042	2548.303269
796.687812	2427.315577
797.009538	2432.356731
797.331218	2485.288846
797.652852	2472.685962
797.974442	2538.220962
798.295986	2432.356731
798.617484	2460.083077
798.938938	2477.727115
799.260346	2485.288846
799.581709	2507.974038
799.903026	2545.782692
800.224299	2434.877308
800.545526	2518.056346
800.866708	2477.727115
801.187845	2472.685962
801.508936	2492.850577
801.829983	2543.262115
802.150984	2477.727115
802.471940	2502.932885
802.792851	2450.000769
803.113717	2455.041923
803.434538	2444.959615
803.755314	2502.932885
804.076045	2490.330000
804.396731	2374.383462
804.717372	2482.768269
805.037967	2462.603654
805.358518	2530.659231
805.679024	2525.618077
805.999485	2518.056346
806.319901	2439.918462
806.640272	2480.247692
806.960598	2485.288846
807.280879	2518.056346
807.601115	2487.809423
807.921306	2465.124231
808.241453	2480.247692
808.561554	2472.685962
808.881611	2492.850577
809.201623	2502.932885
809.521590	2437.397885
809.841513	2495.371154
810.161390	2465.124231
810.481223	2500.412308
810.801011	2424.795000
811.120755	2583.591346
811.440453	2477.727115
811.760107	2518.056346
812.079716	2414.712692
812.399281	2482.768269
812.718801	2520.576923
813.038276	2513.015192
813.357707	2507.974038
813.677093	2482.768269
813.996434	2495.371154
814.315731	2439.918462
814.634983	2450.000769
814.954191	2528.138654
815.273354	2520.576923
815.592473	2432.356731
815.911547	2490.330000
816.230577	2475.206538
816.549562	2543.262115
816.868502	2490.330000
817.187399	2490.330000
817.506250	2480.247692
817.825058	2538.220962
818.143821	2510.494615
818.462539	2490.330000
818.781213	2505.453462
819.099843	2379.424615
819.418429	2432.356731
819.736970	2510.494615
820.055466	2450.000769
820.373919	2462.603654
820.692327	2576.029615
821.010691	2429.836154
821.329011	2480.247692
821.647286	2394.548077
821.965517	2475.206538
822.283704	2507.974038
822.601847	2394.548077
822.919945	2500.412308
823.237999	2513.015192
823.556010	2578.550192
823.873976	2548.303269
824.191897	2482.768269
824.509775	2444.959615
824.827609	2530.659231
825.145398	2497.891731
825.463144	2578.550192
825.780845	2465.124231
826.098502	2477.727115
826.416116	2505.453462
826.733685	2472.685962
827.051210	2507.974038
827.368692	2447.480192
827.686129	2513.015192
828.003522	2477.727115
828.320872	2525.618077
828.638177	2477.727115
828.955439	2472.685962
829.272656	2409.671538
829.589830	2568.467885
829.906960	2452.521346
830.224046	2432.356731
830.541088	2596.194231
830.858086	2460.083077
831.175041	2548.303269
831.491952	2565.947308
831.808819	2399.589231
832.125642	2442.439038
832.442421	2535.700385
832.759157	2573.509038
833.075849	2467.644808
833.392497	2455.041923
833.709101	2480.247692
834.025662	2477.727115
834.342179	2505.453462
834.658653	2518.056346
834.975083	2497.891731
835.291469	2505.453462
835.607811	2492.850577
835.924110	2533.179808
836.240366	2492.850577
836.556578	2598.714808
836.872746	2497.891731
837.188871	2505.453462
837.504952	2555.865000
837.820990	2434.877308
838.136984	2472.685962
838.452935	2507.974038
838.768842	2497.891731
839.084706	2523.097500
839.400526	2437.397885
839.716303	2596.194231
840.032037	2523.097500
840.347727	2528.138654
840.663373	2444.959615
840.978977	2437.397885
841.294537	2507.974038
841.610054	2570.988462
841.925527	2467.644808
842.240957	2548.303269
842.556344	2533.179808
842.871687	2482.768269
843.186987	2450.000769
843.502244	2432.356731
843.817458	2593.673654
844.132629	2470.165385
844.447756	2505.453462
844.762840	2535.700385
845.077881	2520.576923
845.392879	2495.371154
845.707833	2455.041923
846.022745	2528.138654
846.337613	2477.727115
846.652438	2545.782692
846.967221	2528.138654
847.281960	2518.056346
847.596656	2507.974038
847.911309	2482.768269
848.225919	2467.644808
848.540485	2523.097500
848.855009	2528.138654
849.169490	2518.056346
849.483928	2515.535769
849.798323	2502.932885
850.112675	2470.165385
850.426984	2548.303269
850.741251	2558.385577
851.055474	2457.562500
851.369654	2510.494615
851.683792	2540.741538
851.997887	2568.467885
852.311938	2447.480192
852.625947	2487.809423
852.939914	2480.247692
853.253837	2545.782692
853.567718	2427.315577
853.881555	2487.809423
854.195350	2507.974038
854.509103	2475.206538
854.822812	2523.097500
855.136479	2538.220962
855.450103	2371.862885
855.763685	2502.932885
856.077224	2467.644808
856.390720	2500.412308
856.704173	2462.603654
857.017584	2470.165385
857.330953	2444.959615
857.644278	2482.768269
857.957561	2490.330000
858.270802	2560.906154
858.584000	2389.506923
858.897155	2538.220962
859.210268	2470.165385
859.523339	2490.330000
859.836367	2510.494615
860.149352	2495.371154
860.462295	2558.385577
860.775195	2429.836154
861.088054	2576.029615
861.400869	2565.947308
861.713642	2482.768269
862.026373	2518.056346
862.339062	2450.000769
862.651708	2457.562500
862.964312	2457.562500
863.276873	2485.288846
863.589392	2447.480192
863.901869	2490.330000
864.214303	2442.439038
864.526696	2497.891731
864.839045	2467.644808
865.151353	2392.027500
865.463619	2465.124231
865.775842	2439.918462
866.088023	2518.056346
866.400162	2518.056346
866.712258	2460.083077
867.024313	2482.768269
867.336325	2570.988462
867.648296	2427.315577
867.960224	2447.480192
868.272110	2414.712692
868.583954	2515.535769
868.895755	2485.288846
869.207515	2502.932885
869.519233	2472.685962
869.830909	2407.150962
870.142542	2452.521346
870.454134	2487.809423
870.765684	2581.070769
871.077191	2470.165385
871.388657	2497.891731
871.700081	2470.165385
872.011463	2487.809423
872.322803	2465.124231
872.634101	2409.671538
872.945357	2523.097500
873.256571	2485.288846
873.567744	2538.220962
873.878874	2482.768269
874.189963	2510.494615
874.501010	2520.576923
874.812015	2513.015192
875.122979	2442.439038
875.433900	2485.288846
875.744780	2455.041923
876.055618	2450.000769
876.366415	2550.823846
876.677169	2495.371154
876.987882	2457.562500
877.298554	2462.603654
877.609183	2470.165385
877.919771	2525.618077
878.230317	2447.480192
878.540822	2457.562500
878.851285	2530.659231
879.161707	2374.383462
879.472087	2477.727115
879.782425	2472.685962
880.092722	2558.385577
880.402977	2419.753846
880.713191	2548.303269
881.023363	2513.015192
881.333494	2480.247692
881.643583	2447.480192
881.953631	2565.947308
882.263637	2482.768269
882.573602	2480.247692
882.883526	2515.535769
883.193408	2482.768269
883.503248	2528.138654
883.813048	2470.165385
884.122806	2455.041923
884.432522	2432.356731
884.742197	2465.124231
885.051831	2492.850577
885.361424	2530.659231
885.670975	2523.097500
885.980485	2545.782692
886.289954	2437.397885
886.599382	2505.453462
886.908768	2525.618077
887.218113	2510.494615
887.527417	2543.262115
887.836680	2482.768269
888.145901	2497.891731
888.455082	2467.644808
888.764221	2540.741538
889.073319	2565.947308
889.382376	2490.330000
889.691392	2497.891731
890.000366	2507.974038
890.309300	2560.906154
890.618193	2513.015192
890.927044	2490.330000
891.235855	2553.344423
891.544625	2472.685962
891.853353	2550.823846
892.162041	2465.124231
892.470687	2460.083077
892.779293	2480.247692
893.087858	2490.330000
893.396381	2520.576923
893.704864	2457.562500
894.013306	2429.836154
894.321707	2500.412308
894.630068	2540.741538
894.938387	2460.083077
895.246665	2502.932885
895.554903	2576.029615
895.863100	2515.535769
896.171256	2540.741538
896.479371	2439.918462
896.787446	2455.041923
897.095480	2507.974038
897.403473	2452.521346
897.711425	2510.494615
898.019336	2465.124231
898.327207	2487.809423
898.635038	2427.315577
898.942827	2480.247692
899.250576	2465.124231
899.558284	2518.056346
899.865952	2462.603654
900.173579	2417.233269
900.481165	2480.247692
900.788711	2487.809423
901.096216	2568.467885
901.403681	2450.000769
901.711105	2548.303269
902.018489	2515.535769
902.325832	2432.356731
902.633135	2492.850577
902.940397	2444.959615
903.247619	2432.356731
903.554800	2497.891731
903.861941	2399.589231
904.169041	2495.371154
904.476101	2502.932885
904.783121	2565.947308
905.090100	2492.850577
905.397039	2520.576923
905.703938	2513.015192
906.010796	2515.535769
906.317614	2518.056346
906.624391	2465.124231
906.931129	2475.206538
907.237826	2439.918462
907.544483	2502.932885
907.851099	2497.891731
908.157675	2528.138654
908.464211	2548.303269
908.770707	2505.453462
909.077163	2565.947308
909.383578	2492.850577
909.689954	2477.727115
909.996289	2497.891731
910.302584	2533.179808
910.608839	2563.426731
910.915054	2490.330000
911.221229	2452.521346
911.527363	2492.850577
911.833458	2460.083077
912.139513	2515.535769
912.445527	2540.741538
912.751502	2500.412308
913.057436	2500.412308
913.363331	2500.412308
913.669186	2548.303269
913.975000	2329.013077
914.280775	2530.659231
914.586510	2404.630385
914.892205	2530.659231
915.197859	2462.603654
915.503475	2455.041923
915.809050	2495.371154
916.114585	2462.603654
916.420081	2414.712692
916.725536	2455.041923
917.030952	2558.385577
917.336328	2533.179808
917.641665	2429.836154
917.946961	2497.891731
918.252218	2427.315577
918.557435	2487.809423
918.862612	2460.083077
919.167750	2475.206538
919.472848	2497.891731
919.777906	2513.015192
920.082925	2548.303269
920.387904	2560.906154
920.692843	2467.644808
920.997743	2477.727115
921.302603	2424.795000
921.607423	2477.727115
921.912204	2455.041923
922.216946	2477.727115
922.521647	2543.262115
922.826310	2457.562500
923.130932	2538.220962
923.435516	2477.727115
923.740059	2472.685962
924.044564	2470.165385
924.349028	2482.768269
924.653454	2437.397885
924.957840	2462.603654
925.262186	2490.330000
925.566493	2550.823846
925.870761	2525.618077
926.174989	2477.727115
926.479178	2495.371154
926.783328	2525.618077
927.087438	2480.247692
927.391509	2381.945192
927.695541	2538.220962
927.999533	2533.179808
928.303486	2457.562500
928.607400	2515.535769
928.911275	2505.453462
929.215110	2492.850577
929.518906	2455.041923
929.822663	2528.138654
930.126381	2422.274423
930.430060	2462.603654
930.733699	2470.165385
931.037299	2442.439038
931.340861	2462.603654
931.644383	2444.959615
931.947866	2475.206538
932.251309	2581.070769
932.554714	2470.165385
932.858080	2490.330000
933.161407	2533.179808
933.464694	2528.138654
933.767943	2490.330000
934.071153	2490.330000
934.374323	2515.535769
934.677455	2465.124231
934.980548	2482.768269
935.283602	2444.959615
935.586617	2490.330000
935.889593	2412.192115
936.192530	2497.891731
936.495428	2495.371154
936.798287	2528.138654
937.101108	2550.823846
937.403890	2470.165385
937.706632	2497.891731
938.009336	2507.974038
938.312002	2452.521346
938.614628	2490.330000
938.917216	2485.288846
939.219765	2513.015192
939.522275	2432.356731
939.824747	2495.371154
940.127179	2399.589231
940.429573	2588.632500
940.731929	2485.288846
941.034246	2555.865000
941.336524	2462.603654
941.638763	2475.206538
941.940964	2397.068654
942.243126	2513.015192
942.545250	2518.056346
942.847335	2485.288846
943.149381	2523.097500
943.451389	2452.521346
943.753359	2540.741538
944.055290	2462.603654
944.357182	2518.056346
944.659036	2550.823846
944.960851	2465.124231
945.262628	2490.330000
945.564367	2525.618077
945.866067	2528.138654
946.167729	2586.111923
946.469352	2447.480192
946.770937	2495.371154
947.072484	2513.015192
947.373992	2487.809423
947.675462	2502.932885
947.976893	2442.439038
948.278286	2467.644808
948.579641	2444.959615
948.880958	2528.138654
949.182236	2434.877308
949.483476	2535.700385
949.784678	2518.056346
950.085841	2523.097500
950.386967	2462.603654
950.688054	2568.467885
950.989103	2432.356731
951.290114	2507.974038
951.591087	2460.083077
951.892021	2520.576923
952.192917	2543.262115
952.493776	2555.865000
952.794596	2492.850577
953.095378	2485.288846
953.396122	2555.865000
953.696828	2520.576923
953.997496	2397.068654
954.298126	2510.494615
954.598718	2457.562500
954.899272	2487.809423
955.199788	2530.659231
955.500266	2452.521346
955.800706	2495.371154
956.101108	2447.480192
956.401472	2427.315577
956.701798	2470.165385
957.002087	2460.083077
957.302337	2437.397885
957.602550	2487.809423
957.902724	2462.603654
958.202861	2429.836154
958.502960	2455.041923
958.803022	2492.850577
959.103045	2513.015192
959.403031	2505.453462
959.702979	2460.083077
960.002889	2518.056346
960.302762	2485.288846
960.602596	2485.288846
960.902393	2482.768269
961.202153	2490.330000
961.501875	2437.397885
961.801559	2528.138654
962.101205	2553.344423
962.400814	2505.453462
962.700385	2490.330000
962.999918	2492.850577
963.299414	2513.015192
963.598873	2409.671538
963.898293	2477.727115
964.197677	2510.494615
964.497022	2495.371154
964.796331	2520.576923
965.095601	2525.618077
965.394835	2497.891731
965.694030	2515.535769
965.993189	2447.480192
966.292309	2545.782692
966.591393	2472.685962
966.890439	2477.727115
967.189447	2472.685962
967.488419	2513.015192
967.787353	2482.768269
968.086249	2535.700385
968.385108	2462.603654
968.683930	2434.877308
968.982714	2485.288846
969.281462	2490.330000
969.580172	2558.385577
969.878844	2500.412308
970.177480	2518.056346
970.476078	2462.603654
970.774639	2495.371154
971.073162	2502.932885
971.371649	2460.083077
971.670098	2452.521346
971.968510	2525.618077
972.266885	2452.521346
972.565223	2495.371154
972.863524	2535.700385
973.161788	2490.330000
973.460014	2518.056346
973.758204	2460.083077
974.056356	2538.220962
974.354471	2472.685962
974.652550	2500.412308
974.950591	2507.974038
975.248595	2460.083077
975.546563	2477.727115
975.844493	2525.618077
976.142386	2515.535769
976.440243	2412.192115
976.738062	2439.918462
977.035845	2513.015192
977.333590	2513.015192
977.631299	2523.097500
977.928971	2384.465769
978.226606	2500.412308
978.524204	2500.412308
978.821765	2505.453462
979.119290	2419.753846
979.416777	2437.397885
979.714228	2515.535769
980.011642	2444.959615
980.309020	2553.344423
980.606360	2601.235385
980.903664	2513.015192
981.200931	2477.727115
981.498162	2507.974038
981.795356	2424.795000
982.092513	2429.836154
982.389633	2485.288846
982.686717	2533.179808
982.983764	2513.015192
983.280775	2533.179808
983.577749	2490.330000
983.874686	2507.974038
984.171587	2455.041923
984.468451	2450.000769
984.765279	2525.618077
985.062070	2525.618077
985.358824	2437.397885
985.655543	2507.974038
985.952224	2480.247692
986.248869	2467.644808
986.545478	2492.850577
986.842050	2462.603654
987.138586	2492.850577
987.435086	2540.741538
987.731549	2472.685962
988.027975	2510.494615
988.324366	2490.330000
988.620719	2520.576923
988.917037	2485.288846
989.213318	2480.247692
989.509563	2455.041923
989.805772	2520.576923
990.101944	2626.441154
990.398080	2462.603654
990.694180	2419.753846
990.990244	2397.068654
991.286271	2545.782692
991.582262	2457.562500
991.878217	2500.412308
992.174136	2424.795000
992.470019	2553.344423
992.765865	2538.220962
993.061676	2523.097500
993.357450	2455.041923
993.653188	2533.179808
993.948890	2586.111923
994.244556	2487.809423
994.540186	2495.371154
994.835780	2467.644808
995.131337	2505.453462
995.426859	2452.521346
995.722345	2467.644808
996.017795	2452.521346
996.313208	2502.932885
996.608586	2462.603654
996.903928	2500.412308
997.199234	2467.644808
997.494504	2505.453462
997.789738	2500.412308
998.084936	2470.165385
998.380099	2560.906154
998.675225	2467.644808
998.970316	2513.015192
999.265371	2530.659231
999.560390	2530.659231
999.855373	2510.494615
1000.150320	2492.850577
1000.445232	2510.494615
1000.740108	2505.453462
1001.034948	2490.330000
1001.329752	2485.288846
1001.624521	2434.877308
1001.919254	2520.576923
1002.213951	2427.315577
1002.508613	2550.823846
1002.803239	2437.397885
1003.097829	2432.356731
1003.392384	2384.465769
1003.686903	2492.850577
1003.981386	2560.906154
1004.275834	2528.138654
1004.570246	2540.741538
1004.864623	2442.439038
1005.158964	2560.906154
1005.453270	2555.865000
1005.747540	2548.303269
1006.041775	2470.165385
1006.335974	2495.371154
1006.630138	2475.206538
1006.924266	2487.809423
1007.218359	2452.521346
1007.512416	2525.618077
1007.806438	2533.179808
1008.100425	2548.303269
1008.394376	2487.809423
1008.688292	2394.548077
1008.982172	2472.685962
1009.276017	2399.589231
1009.569827	2422.274423
1009.863602	2553.344423
1010.157341	2563.426731
1010.451045	2565.947308
1010.744714	2434.877308
1011.038347	2485.288846
1011.331945	2374.383462
1011.625508	2470.165385
1011.919036	2442.439038
1012.212528	2462.603654
1012.505986	2457.562500
1012.799408	2356.739423
1013.092795	2525.618077
1013.386147	2510.494615
1013.679464	2500.412308
1013.972745	2457.562500
1014.265992	2492.850577
1014.559204	2412.192115
1014.852380	2475.206538
1015.145521	2429.836154
1015.438628	2513.015192
1015.731699	2460.083077
1016.024736	2429.836154
1016.317737	2467.644808
1016.610703	2444.959615
1016.903635	2500.412308
1017.196531	2490.330000
1017.489393	2450.000769
1017.782219	2487.809423
1018.075011	2442.439038
1018.367768	2460.083077
1018.660490	2490.330000
1018.953177	2490.330000
1019.245829	2490.330000
