Dividing Wavelength (nm)	Counts (n)	Blue Motor Position (mm): 1.600000	Red Motor Position (mm): 0.000000	
326.493990	2107.202308
326.888308	2107.202308
327.282561	2107.202308
327.676750	2129.887500
328.070874	2112.243462
328.464933	2066.873077
328.858929	2155.093269
329.252859	2107.202308
329.646726	2127.366923
330.040528	2139.969808
330.434265	2152.572692
330.827938	2114.764038
331.221547	2157.613846
331.615091	2137.449231
332.008571	2213.066538
332.401986	2220.628269
332.795338	2225.669423
333.188625	2228.190000
333.581847	2263.478077
333.975006	2245.834038
334.368100	2147.531538
334.761129	2276.080962
335.154095	2364.301154
335.546996	2376.904038
335.939833	2336.574808
336.332606	2465.124231
336.725315	2417.233269
337.117960	2447.480192
337.510540	2472.685962
337.903056	2482.768269
338.295508	2386.986346
338.687896	2482.768269
339.080220	2492.850577
339.472480	2490.330000
339.864676	2475.206538
340.256807	2502.932885
340.648875	2424.795000
341.040879	2495.371154
341.432818	2439.918462
341.824694	2502.932885
342.216506	2530.659231
342.608253	2487.809423
342.999937	2447.480192
343.391557	2394.548077
343.783113	2485.288846
344.174605	2500.412308
344.566033	2548.303269
344.957397	2447.480192
345.348697	2457.562500
345.739934	2487.809423
346.131106	2490.330000
346.522215	2462.603654
346.913260	2497.891731
347.304241	2558.385577
347.695159	2366.821731
348.086012	2409.671538
348.476802	2460.083077
348.867528	2407.150962
349.258191	2462.603654
349.648789	2407.150962
350.039324	2364.301154
350.429796	2429.836154
350.820203	2482.768269
351.210548	2429.836154
351.600828	2502.932885
351.991045	2432.356731
352.381198	2465.124231
352.771288	2429.836154
353.161314	2424.795000
353.551276	2384.465769
353.941175	2500.412308
354.331010	2447.480192
354.720782	2409.671538
355.110490	2422.274423
355.500135	2447.480192
355.889717	2480.247692
356.279235	2472.685962
356.668689	2429.836154
357.058080	2520.576923
357.447408	2518.056346
357.836672	2485.288846
358.225873	2419.753846
358.615010	2364.301154
359.004084	2374.383462
359.393095	2472.685962
359.782043	2482.768269
360.170927	2434.877308
360.559748	2497.891731
360.948505	2462.603654
361.337199	2424.795000
361.725830	2460.083077
362.114398	2407.150962
362.502903	2397.068654
362.891344	2434.877308
363.279722	2502.932885
363.668037	2465.124231
364.056289	2376.904038
364.444478	2407.150962
364.832603	2427.315577
365.220665	2450.000769
365.608665	2447.480192
365.996601	2482.768269
366.384474	2452.521346
366.772284	2528.138654
367.160031	2434.877308
367.547715	2487.809423
367.935336	2414.712692
368.322893	2439.918462
368.710388	2447.480192
369.097820	2381.945192
369.485189	2376.904038
369.872495	2397.068654
370.259738	2450.000769
370.646918	2422.274423
371.034035	2495.371154
371.421090	2472.685962
371.808081	2392.027500
372.195010	2384.465769
372.581875	2414.712692
372.968678	2392.027500
373.355418	2414.712692
373.742096	2480.247692
374.128710	2417.233269
374.515262	2472.685962
374.901751	2414.712692
375.288177	2376.904038
375.674540	2480.247692
376.060841	2543.262115
376.447079	2434.877308
376.833254	2482.768269
377.219367	2447.480192
377.605417	2480.247692
377.991404	2399.589231
378.377329	2507.974038
378.763191	2465.124231
379.148991	2553.344423
379.534727	2404.630385
379.920402	2434.877308
380.306013	2538.220962
380.691563	2467.644808
381.077049	2429.836154
381.462474	2447.480192
381.847835	2487.809423
382.233134	2452.521346
382.618371	2442.439038
383.003545	2460.083077
383.388657	2482.768269
383.773706	2477.727115
384.158693	2444.959615
384.543618	2450.000769
384.928480	2455.041923
385.313280	2455.041923
385.698017	2492.850577
386.082692	2472.685962
386.467305	2434.877308
386.851856	2447.480192
387.236344	2452.521346
387.620770	2465.124231
388.005133	2424.795000
388.389435	2507.974038
388.773674	2432.356731
389.157851	2495.371154
389.541965	2422.274423
389.926018	2538.220962
390.310008	2397.068654
390.693936	2444.959615
391.077802	2442.439038
391.461606	2480.247692
391.845348	2447.480192
392.229027	2513.015192
392.612645	2492.850577
392.996200	2485.288846
393.379694	2414.712692
393.763125	2447.480192
394.146494	2495.371154
394.529801	2409.671538
394.913047	2336.574808
395.296230	2482.768269
395.679351	2407.150962
396.062410	2407.150962
396.445408	2434.877308
396.828343	2502.932885
397.211217	2419.753846
397.594028	2538.220962
397.976778	2513.015192
398.359466	2553.344423
398.742092	2475.206538
399.124656	2470.165385
399.507158	2402.109808
399.889598	2450.000769
400.271977	2505.453462
400.654294	2437.397885
401.036549	2465.124231
401.418742	2414.712692
401.800874	2429.836154
402.182944	2472.685962
402.564952	2427.315577
402.946898	2553.344423
403.328783	2447.480192
403.710606	2550.823846
404.092367	2470.165385
404.474067	2477.727115
404.855705	2470.165385
405.237282	2513.015192
405.618797	2460.083077
406.000250	2394.548077
406.381642	2507.974038
406.762972	2505.453462
407.144240	2455.041923
407.525447	2444.959615
407.906593	2437.397885
408.287677	2432.356731
408.668700	2573.509038
409.049661	2412.192115
409.430560	2513.015192
409.811399	2397.068654
410.192176	2429.836154
410.572891	2379.424615
410.953545	2535.700385
411.334138	2586.111923
411.714669	2482.768269
412.095139	2530.659231
412.475547	2465.124231
412.855894	2417.233269
413.236180	2487.809423
413.616405	2394.548077
413.996568	2450.000769
414.376670	2472.685962
414.756711	2422.274423
415.136691	2402.109808
415.516609	2538.220962
415.896466	2475.206538
416.276262	2394.548077
416.655997	2490.330000
417.035670	2470.165385
417.415283	2553.344423
417.794834	2487.809423
418.174324	2452.521346
418.553753	2525.618077
418.933121	2545.782692
419.312428	2465.124231
419.691674	2442.439038
420.070859	2545.782692
420.449983	2472.685962
420.829045	2467.644808
421.208047	2442.439038
421.586988	2470.165385
421.965867	2538.220962
422.344686	2439.918462
422.723444	2482.768269
423.102141	2379.424615
423.480777	2434.877308
423.859352	2452.521346
424.237866	2470.165385
424.616319	2450.000769
424.994712	2490.330000
425.373044	2502.932885
425.751314	2500.412308
426.129524	2480.247692
426.507673	2475.206538
426.885762	2490.330000
427.263789	2535.700385
427.641756	2470.165385
428.019662	2460.083077
428.397508	2528.138654
428.775292	2450.000769
429.153016	2442.439038
429.530679	2550.823846
429.908282	2465.124231
430.285824	2518.056346
430.663305	2424.795000
431.040726	2495.371154
431.418086	2470.165385
431.795385	2482.768269
432.172624	2507.974038
432.549802	2518.056346
432.926920	2472.685962
433.303977	2344.136538
433.680974	2495.371154
434.057910	2467.644808
434.434786	2497.891731
434.811601	2490.330000
435.188355	2427.315577
435.565050	2462.603654
435.941683	2442.439038
436.318257	2447.480192
436.694770	2434.877308
437.071222	2467.644808
437.447614	2444.959615
437.823946	2520.576923
438.200218	2381.945192
438.576429	2553.344423
438.952580	2452.521346
439.328670	2497.891731
439.704700	2460.083077
440.080670	2480.247692
440.456580	2424.795000
440.832429	2480.247692
441.208218	2437.397885
441.583947	2515.535769
441.959616	2535.700385
442.335224	2472.685962
442.710773	2535.700385
443.086261	2482.768269
443.461689	2538.220962
443.837057	2452.521346
444.212365	2434.877308
444.587612	2477.727115
444.962800	2510.494615
445.337927	2543.262115
445.712995	2515.535769
446.088002	2543.262115
446.462949	2452.521346
446.837837	2470.165385
447.212664	2394.548077
447.587431	2563.426731
447.962139	2434.877308
448.336786	2535.700385
448.711374	2465.124231
449.085901	2467.644808
449.460369	2540.741538
449.834776	2447.480192
450.209124	2553.344423
450.583412	2482.768269
450.957640	2457.562500
451.331808	2510.494615
451.705917	2422.274423
452.079965	2500.412308
452.453954	2570.988462
452.827883	2417.233269
453.201752	2505.453462
453.575562	2460.083077
453.949311	2555.865000
454.323001	2515.535769
454.696632	2528.138654
455.070202	2513.015192
455.443713	2490.330000
455.817164	2598.714808
456.190556	2482.768269
456.563888	2558.385577
456.937160	2490.330000
457.310373	2515.535769
457.683526	2452.521346
458.056619	2505.453462
458.429653	2513.015192
458.802628	2455.041923
459.175542	2397.068654
459.548398	2545.782692
459.921194	2538.220962
460.293930	2500.412308
460.666607	2507.974038
461.039224	2472.685962
461.411782	2492.850577
461.784280	2457.562500
462.156719	2475.206538
462.529099	2447.480192
462.901419	2500.412308
463.273680	2460.083077
463.645882	2502.932885
464.018024	2568.467885
464.390106	2538.220962
464.762130	2480.247692
465.134094	2500.412308
465.505999	2450.000769
465.877845	2533.179808
466.249631	2593.673654
466.621358	2520.576923
466.993026	2480.247692
467.364634	2424.795000
467.736184	2450.000769
468.107674	2505.453462
468.479105	2409.671538
468.850477	2485.288846
469.221790	2442.439038
469.593043	2495.371154
469.964238	2497.891731
470.335373	2550.823846
470.706449	2482.768269
471.077467	2419.753846
471.448425	2482.768269
471.819324	2523.097500
472.190164	2399.589231
472.560945	2419.753846
472.931667	2555.865000
473.302330	2550.823846
473.672934	2510.494615
474.043479	2495.371154
474.413965	2515.535769
474.784393	2487.809423
475.154761	2434.877308
475.525070	2530.659231
475.895321	2467.644808
476.265513	2523.097500
476.635645	2432.356731
477.005719	2502.932885
477.375734	2530.659231
477.745691	2452.521346
478.115588	2525.618077
478.485427	2444.959615
478.855207	2520.576923
479.224928	2460.083077
479.594591	2535.700385
479.964194	2437.397885
480.333739	2467.644808
480.703226	2535.700385
481.072653	2500.412308
481.442022	2518.056346
481.811333	2528.138654
482.180584	2457.562500
482.549777	2513.015192
482.918912	2500.412308
483.287988	2528.138654
483.657005	2392.027500
484.025964	2518.056346
484.394864	2439.918462
484.763706	2495.371154
485.132489	2533.179808
485.501213	2455.041923
485.869879	2507.974038
486.238487	2530.659231
486.607036	2583.591346
486.975527	2394.548077
487.343959	2502.932885
487.712333	2477.727115
488.080648	2490.330000
488.448905	2439.918462
488.817104	2407.150962
489.185244	2550.823846
489.553326	2457.562500
489.921350	2414.712692
490.289315	2460.083077
490.657222	2502.932885
491.025070	2490.330000
491.392861	2558.385577
491.760593	2407.150962
492.128267	2581.070769
492.495883	2429.836154
492.863440	2480.247692
493.230939	2462.603654
493.598380	2452.521346
493.965763	2545.782692
494.333088	2444.959615
494.700354	2611.317692
495.067563	2485.288846
495.434713	2475.206538
495.801805	2452.521346
496.168839	2563.426731
496.535815	2535.700385
496.902733	2558.385577
497.269593	2467.644808
497.636395	2550.823846
498.003139	2465.124231
498.369825	2507.974038
498.736453	2462.603654
499.103023	2482.768269
499.469535	2480.247692
499.835989	2472.685962
500.202385	2518.056346
500.568723	2520.576923
500.935003	2550.823846
501.301226	2505.453462
501.667390	2434.877308
502.033497	2523.097500
502.399546	2460.083077
502.765537	2384.465769
503.131470	2548.303269
503.497345	2467.644808
503.863163	2545.782692
504.228923	2429.836154
504.594625	2417.233269
504.960269	2492.850577
505.325856	2472.685962
505.691385	2482.768269
506.056856	2475.206538
506.422270	2507.974038
506.787625	2394.548077
507.152924	2530.659231
507.518164	2560.906154
507.883347	2548.303269
508.248472	2472.685962
508.613540	2487.809423
508.978550	2414.712692
509.343503	2444.959615
509.708398	2442.439038
510.073236	2495.371154
510.438016	2462.603654
510.802738	2528.138654
511.167403	2452.521346
511.532010	2450.000769
511.896561	2477.727115
512.261053	2429.836154
512.625488	2467.644808
512.989866	2530.659231
513.354186	2525.618077
513.718449	2452.521346
514.082655	2520.576923
514.446803	2573.509038
514.810894	2500.412308
515.174927	2502.932885
515.538904	2510.494615
515.902822	2495.371154
516.266684	2505.453462
516.630488	2520.576923
516.994235	2455.041923
517.357925	2500.412308
517.721558	2492.850577
518.085133	2467.644808
518.448651	2470.165385
518.812112	2513.015192
519.175516	2490.330000
519.538863	2495.371154
519.902152	2487.809423
520.265385	2465.124231
520.628560	2460.083077
520.991678	2490.330000
521.354739	2543.262115
521.717743	2583.591346
522.080690	2487.809423
522.443580	2470.165385
522.806413	2586.111923
523.169189	2515.535769
523.531908	2555.865000
523.894569	2462.603654
524.257174	2520.576923
524.619722	2427.315577
524.982213	2578.550192
525.344647	2523.097500
525.707025	2485.288846
526.069345	2394.548077
526.431608	2477.727115
526.793815	2457.562500
527.155964	2591.153077
527.518057	2492.850577
527.880093	2523.097500
528.242072	2492.850577
528.603995	2492.850577
528.965860	2520.576923
529.327669	2470.165385
529.689421	2606.276538
530.051117	2530.659231
530.412755	2565.947308
530.774337	2490.330000
531.135862	2455.041923
531.497331	2573.509038
531.858743	2470.165385
532.220098	2502.932885
532.581396	2455.041923
532.942638	2452.521346
533.303824	2505.453462
533.664953	2525.618077
534.026025	2505.453462
534.387040	2492.850577
534.747999	2505.453462
535.108902	2492.850577
535.469748	2543.262115
535.830537	2492.850577
536.191270	2475.206538
536.551947	2497.891731
536.912567	2465.124231
537.273131	2495.371154
537.633638	2510.494615
537.994089	2397.068654
538.354483	2492.850577
538.714821	2492.850577
539.075103	2502.932885
539.435328	2480.247692
539.795497	2538.220962
540.155609	2450.000769
540.515665	2520.576923
540.875665	2525.618077
541.235609	2480.247692
541.595496	2497.891731
541.955328	2379.424615
542.315102	2500.412308
542.674821	2507.974038
543.034483	2510.494615
543.394090	2457.562500
543.753640	2560.906154
544.113134	2419.753846
544.472571	2452.521346
544.831953	2570.988462
545.191278	2457.562500
545.550548	2500.412308
545.909761	2465.124231
546.268918	2450.000769
546.628019	2475.206538
546.987064	2492.850577
547.346053	2505.453462
547.704986	2523.097500
548.063863	2434.877308
548.422684	2407.150962
548.781449	2515.535769
549.140158	2528.138654
549.498811	2510.494615
549.857408	2472.685962
550.215949	2447.480192
550.574434	2497.891731
550.932864	2477.727115
551.291237	2500.412308
551.649555	2389.506923
552.007817	2528.138654
552.366022	2553.344423
552.724173	2447.480192
553.082267	2530.659231
553.440305	2535.700385
553.798288	2533.179808
554.156215	2510.494615
554.514086	2543.262115
554.871902	2510.494615
555.229661	2553.344423
555.587365	2460.083077
555.945014	2439.918462
556.302606	2515.535769
556.660143	2460.083077
557.017625	2495.371154
557.375050	2540.741538
557.732421	2439.918462
558.089735	2477.727115
558.446994	2470.165385
558.804197	2502.932885
559.161345	2520.576923
559.518437	2460.083077
559.875474	2457.562500
560.232455	2475.206538
560.589381	2480.247692
560.946251	2470.165385
561.303065	2460.083077
561.659825	2432.356731
562.016528	2467.644808
562.373177	2470.165385
562.729770	2465.124231
563.086307	2475.206538
563.442789	2475.206538
563.799216	2437.397885
564.155587	2460.083077
564.511904	2578.550192
564.868164	2442.439038
565.224370	2593.673654
565.580520	2497.891731
565.936615	2455.041923
566.292654	2518.056346
566.648638	2505.453462
567.004567	2470.165385
567.360441	2477.727115
567.716260	2452.521346
568.072023	2583.591346
568.427732	2487.809423
568.783385	2500.412308
569.138982	2543.262115
569.494525	2374.383462
569.850013	2450.000769
570.205445	2548.303269
570.560823	2510.494615
570.916145	2505.453462
571.271412	2492.850577
571.626625	2465.124231
571.981782	2472.685962
572.336884	2586.111923
572.691931	2462.603654
573.046923	2555.865000
573.401860	2467.644808
573.756743	2550.823846
574.111570	2502.932885
574.466342	2545.782692
574.821059	2543.262115
575.175722	2548.303269
575.530330	2419.753846
575.884882	2475.206538
576.239380	2477.727115
576.593823	2495.371154
576.948211	2477.727115
577.302544	2576.029615
577.656823	2457.562500
578.011047	2492.850577
578.365216	2452.521346
578.719330	2543.262115
579.073389	2482.768269
579.427394	2502.932885
579.781344	2470.165385
580.135239	2429.836154
580.489080	2560.906154
580.842866	2530.659231
581.196597	2515.535769
581.550273	2495.371154
581.903895	2470.165385
582.257463	2434.877308
582.610975	2515.535769
582.964434	2462.603654
583.317837	2472.685962
583.671186	2530.659231
584.024481	2487.809423
584.377721	2543.262115
584.730906	2455.041923
585.084037	2485.288846
585.437113	2525.618077
585.790135	2442.439038
586.143103	2470.165385
586.496016	2492.850577
586.848874	2598.714808
587.201679	2518.056346
587.554428	2495.371154
587.907124	2555.865000
588.259765	2505.453462
588.612352	2598.714808
588.964884	2593.673654
589.317362	2573.509038
589.669786	2568.467885
590.022155	2497.891731
590.374470	2497.891731
590.726731	2455.041923
591.078937	2530.659231
591.431090	2462.603654
591.783188	2442.439038
592.135232	2507.974038
592.487222	2422.274423
592.839157	2475.206538
593.191038	2480.247692
593.542866	2500.412308
593.894639	2482.768269
594.246358	2510.494615
594.598022	2462.603654
594.949633	2520.576923
595.301190	2591.153077
595.652692	2485.288846
596.004141	2525.618077
596.355535	2495.371154
596.706876	2460.083077
597.058162	2540.741538
597.409395	2538.220962
597.760573	2553.344423
598.111698	2533.179808
598.462768	2505.453462
598.813785	2470.165385
599.164748	2462.603654
599.515657	2460.083077
599.866511	2470.165385
600.217312	2548.303269
600.568060	2560.906154
600.918753	2490.330000
601.269392	2414.712692
601.619978	2560.906154
601.970510	2528.138654
602.320988	2485.288846
602.671412	2475.206538
603.021783	2427.315577
603.372100	2470.165385
603.722363	2513.015192
604.072572	2513.015192
604.422728	2513.015192
604.772830	2492.850577
605.122878	2475.206538
605.472872	2505.453462
605.822813	2525.618077
606.172701	2505.453462
606.522534	2495.371154
606.872314	2417.233269
607.222041	2533.179808
607.571714	2467.644808
607.921333	2533.179808
608.270899	2487.809423
608.620411	2507.974038
608.969870	2434.877308
609.319276	2548.303269
609.668627	2510.494615
610.017926	2497.891731
610.367171	2472.685962
610.716362	2447.480192
611.065500	2492.850577
611.414585	2560.906154
611.763616	2462.603654
612.112594	2384.465769
612.461518	2487.809423
612.810389	2490.330000
613.159207	2520.576923
613.507971	2470.165385
613.856682	2528.138654
614.205340	2397.068654
614.553945	2555.865000
614.902496	2581.070769
615.250994	2434.877308
615.599439	2492.850577
615.947830	2442.439038
616.296169	2518.056346
616.644454	2560.906154
616.992686	2487.809423
617.340864	2470.165385
617.688990	2475.206538
618.037063	2573.509038
618.385082	2389.506923
618.733048	2502.932885
619.080961	2434.877308
619.428821	2533.179808
619.776628	2550.823846
620.124382	2450.000769
620.472083	2485.288846
620.819731	2422.274423
621.167326	2480.247692
621.514868	2510.494615
621.862357	2460.083077
622.209793	2452.521346
622.557176	2480.247692
622.904506	2465.124231
623.251783	2550.823846
623.599007	2444.959615
623.946179	2525.618077
624.293297	2545.782692
624.640363	2502.932885
624.987376	2540.741538
625.334336	2432.356731
625.681243	2502.932885
626.028097	2487.809423
626.374899	2460.083077
626.721647	2520.576923
627.068343	2515.535769
627.414987	2455.041923
627.761577	2523.097500
628.108115	2439.918462
628.454600	2495.371154
628.801032	2507.974038
629.147412	2482.768269
629.493739	2535.700385
629.840014	2455.041923
630.186236	2507.974038
630.532405	2563.426731
630.878521	2485.288846
631.224585	2442.439038
631.570597	2528.138654
631.916556	2502.932885
632.262462	2480.247692
632.608316	2472.685962
632.954117	2520.576923
633.299866	2417.233269
633.645562	2460.083077
633.991206	2475.206538
634.336797	2444.959615
634.682336	2555.865000
635.027823	2543.262115
635.373257	2465.124231
635.718639	2442.439038
636.063968	2528.138654
636.409245	2533.179808
636.754470	2404.630385
637.099642	2538.220962
637.444762	2475.206538
637.789829	2553.344423
638.134845	2480.247692
638.479808	2507.974038
638.824719	2381.945192
639.169577	2452.521346
639.514383	2480.247692
639.859137	2465.124231
640.203839	2492.850577
640.548489	2555.865000
640.893086	2470.165385
641.237632	2465.124231
641.582125	2422.274423
641.926566	2525.618077
642.270955	2472.685962
642.615292	2540.741538
642.959576	2437.397885
643.303809	2500.412308
643.647990	2533.179808
643.992118	2510.494615
644.336195	2439.918462
644.680219	2427.315577
645.024192	2520.576923
645.368112	2429.836154
645.711981	2429.836154
646.055797	2505.453462
646.399562	2457.562500
646.743274	2465.124231
647.086935	2530.659231
647.430544	2439.918462
647.774101	2528.138654
648.117606	2482.768269
648.461059	2472.685962
648.804460	2581.070769
649.147810	2611.317692
649.491108	2462.603654
649.834354	2520.576923
650.177548	2424.795000
650.520690	2505.453462
650.863781	2555.865000
651.206820	2465.124231
651.549807	2500.412308
651.892742	2507.974038
652.235626	2472.685962
652.578458	2427.315577
652.921238	2397.068654
653.263967	2510.494615
653.606644	2533.179808
653.949269	2500.412308
654.291843	2472.685962
654.634365	2432.356731
654.976836	2480.247692
655.319255	2555.865000
655.661622	2465.124231
656.003938	2505.453462
656.346203	2439.918462
656.688416	2535.700385
657.030577	2497.891731
657.372687	2518.056346
657.714746	2482.768269
658.056753	2500.412308
658.398708	2502.932885
658.740612	2518.056346
659.082465	2482.768269
659.424266	2525.618077
659.766016	2560.906154
660.107715	2570.988462
660.449362	2437.397885
660.790958	2465.124231
661.132503	2502.932885
661.473996	2591.153077
661.815438	2495.371154
662.156829	2477.727115
662.498168	2487.809423
662.839456	2460.083077
663.180693	2500.412308
663.521879	2462.603654
663.863013	2482.768269
664.204097	2528.138654
664.545129	2455.041923
664.886110	2500.412308
665.227040	2520.576923
665.567918	2550.823846
665.908746	2513.015192
666.249522	2452.521346
666.590248	2485.288846
666.930922	2439.918462
667.271545	2460.083077
667.612118	2495.371154
667.952639	2404.630385
668.293109	2492.850577
668.633528	2465.124231
668.973896	2540.741538
669.314213	2528.138654
669.654480	2402.109808
669.994695	2480.247692
670.334859	2502.932885
670.674973	2490.330000
671.015035	2513.015192
671.355047	2505.453462
671.695008	2500.412308
672.034918	2480.247692
672.374777	2505.453462
672.714585	2550.823846
673.054342	2533.179808
673.394049	2485.288846
673.733705	2495.371154
674.073310	2492.850577
674.412864	2475.206538
674.752368	2434.877308
675.091820	2497.891731
675.431223	2442.439038
675.770574	2505.453462
676.109875	2548.303269
676.449125	2472.685962
676.788324	2603.755962
677.127473	2550.823846
677.466571	2487.809423
677.805619	2472.685962
678.144616	2545.782692
678.483562	2475.206538
678.822458	2510.494615
679.161303	2518.056346
679.500098	2394.548077
679.838842	2518.056346
680.177535	2427.315577
680.516179	2525.618077
680.854771	2407.150962
681.193314	2472.685962
681.531805	2518.056346
681.870247	2477.727115
682.208638	2467.644808
682.546978	2553.344423
682.885268	2500.412308
683.223508	2528.138654
683.561697	2518.056346
683.899836	2467.644808
684.237925	2460.083077
684.575963	2480.247692
684.913951	2593.673654
685.251889	2457.562500
685.589776	2502.932885
685.927614	2515.535769
686.265401	2495.371154
686.603137	2525.618077
686.940824	2568.467885
687.278460	2470.165385
687.616046	2528.138654
687.953582	2467.644808
688.291068	2548.303269
688.628504	2462.603654
688.965889	2505.453462
689.303224	2507.974038
689.640510	2482.768269
689.977745	2533.179808
690.314930	2480.247692
690.652065	2538.220962
690.989150	2442.439038
691.326185	2510.494615
691.663170	2480.247692
692.000105	2480.247692
692.336990	2563.426731
692.673825	2429.836154
693.010610	2555.865000
693.347345	2510.494615
693.684030	2545.782692
694.020665	2520.576923
694.357251	2465.124231
694.693786	2402.109808
695.030272	2515.535769
695.366707	2437.397885
695.703093	2480.247692
696.039429	2472.685962
696.375716	2535.700385
696.711952	2548.303269
697.048139	2467.644808
697.384276	2460.083077
697.720363	2480.247692
698.056400	2573.509038
698.392388	2477.727115
698.728326	2507.974038
699.064214	2500.412308
699.400053	2444.959615
699.735842	2465.124231
700.071581	2578.550192
700.407270	2472.685962
700.742910	2495.371154
701.078501	2543.262115
701.414042	2502.932885
701.749533	2533.179808
702.084974	2490.330000
702.420366	2492.850577
702.755709	2515.535769
703.091002	2485.288846
703.426246	2510.494615
703.761440	2404.630385
704.096584	2480.247692
704.431679	2492.850577
704.766725	2502.932885
705.101721	2570.988462
705.436668	2533.179808
705.771565	2550.823846
706.106413	2470.165385
706.441212	2555.865000
706.775961	2495.371154
707.110661	2525.618077
707.445311	2510.494615
707.779913	2530.659231
708.114465	2457.562500
708.448967	2432.356731
708.783421	2518.056346
709.117825	2470.165385
709.452180	2485.288846
709.786485	2467.644808
710.120742	2540.741538
710.454949	2442.439038
710.789107	2555.865000
711.123216	2477.727115
711.457275	2492.850577
711.791286	2485.288846
712.125247	2510.494615
712.459159	2558.385577
712.793023	2548.303269
713.126837	2606.276538
713.460602	2548.303269
713.794318	2470.165385
714.127985	2462.603654
714.461602	2452.521346
714.795171	2543.262115
715.128691	2492.850577
715.462162	2485.288846
715.795584	2475.206538
716.128957	2631.482308
716.462281	2450.000769
716.795556	2520.576923
717.128782	2578.550192
717.461960	2417.233269
717.795088	2450.000769
718.128167	2545.782692
718.461198	2470.165385
718.794180	2447.480192
719.127113	2528.138654
719.459997	2510.494615
719.792833	2462.603654
720.125619	2455.041923
720.458357	2442.439038
720.791046	2497.891731
721.123686	2439.918462
721.456278	2450.000769
721.788821	2432.356731
722.121315	2485.288846
722.453761	2467.644808
722.786158	2520.576923
723.118506	2450.000769
723.450805	2535.700385
723.783056	2462.603654
724.115259	2492.850577
724.447412	2530.659231
724.779518	2409.671538
725.111574	2507.974038
725.443582	2626.441154
725.775542	2550.823846
726.107453	2530.659231
726.439315	2475.206538
726.771129	2497.891731
727.102895	2513.015192
727.434612	2545.782692
727.766281	2495.371154
728.097901	2482.768269
728.429473	2513.015192
728.760996	2475.206538
729.092471	2432.356731
729.423897	2502.932885
729.755276	2480.247692
730.086606	2525.618077
730.417887	2422.274423
730.749120	2515.535769
731.080305	2505.453462
731.411442	2525.618077
731.742530	2502.932885
732.073570	2505.453462
732.404562	2543.262115
732.735506	2442.439038
733.066401	2558.385577
733.397249	2500.412308
733.728048	2467.644808
734.058798	2470.165385
734.389501	2495.371154
734.720156	2447.480192
735.050762	2545.782692
735.381320	2477.727115
735.711831	2581.070769
736.042293	2467.644808
736.372707	2467.644808
736.703073	2507.974038
737.033391	2422.274423
737.363661	2500.412308
737.693883	2447.480192
738.024056	2543.262115
738.354182	2457.562500
738.684260	2480.247692
739.014290	2429.836154
739.344272	2467.644808
739.674207	2520.576923
740.004093	2507.974038
740.333931	2485.288846
740.663722	2495.371154
740.993464	2573.509038
741.323159	2560.906154
741.652806	2482.768269
741.982405	2568.467885
742.311956	2472.685962
742.641460	2485.288846
742.970915	2490.330000
743.300323	2535.700385
743.629683	2528.138654
743.958996	2510.494615
744.288260	2361.780577
744.617477	2510.494615
744.946647	2497.891731
745.275768	2467.644808
745.604842	2500.412308
745.933869	2480.247692
746.262847	2434.877308
746.591778	2467.644808
746.920662	2487.809423
747.249498	2500.412308
747.578286	2525.618077
747.907027	2513.015192
748.235720	2492.850577
748.564365	2634.002885
748.892963	2460.083077
749.221514	2563.426731
749.550017	2424.795000
749.878473	2560.906154
750.206881	2500.412308
750.535242	2460.083077
750.863555	2505.453462
751.191821	2427.315577
751.520039	2510.494615
751.848210	2520.576923
752.176334	2540.741538
752.504411	2462.603654
752.832440	2548.303269
753.160421	2581.070769
753.488356	2576.029615
753.816243	2500.412308
754.144082	2540.741538
754.471875	2523.097500
754.799620	2495.371154
755.127318	2543.262115
755.454969	2485.288846
755.782572	2550.823846
756.110129	2525.618077
756.437638	2528.138654
756.765100	2591.153077
757.092515	2407.150962
757.419882	2455.041923
757.747203	2553.344423
758.074477	2502.932885
758.401703	2520.576923
758.728882	2548.303269
759.056014	2543.262115
759.383099	2601.235385
759.710138	2525.618077
760.037129	2550.823846
760.364073	2497.891731
760.690970	2560.906154
761.017820	2490.330000
761.344623	2548.303269
761.671379	2540.741538
761.998088	2472.685962
762.324751	2555.865000
762.651366	2490.330000
762.977935	2462.603654
763.304456	2480.247692
763.630931	2485.288846
763.957359	2518.056346
764.283740	2475.206538
764.610074	2475.206538
764.936362	2495.371154
765.262602	2482.768269
765.588796	2543.262115
765.914943	2523.097500
766.241044	2548.303269
766.567097	2518.056346
766.893104	2434.877308
767.219064	2485.288846
767.544978	2510.494615
767.870845	2533.179808
768.196665	2548.303269
768.522438	2386.986346
768.848165	2487.809423
769.173846	2485.288846
769.499479	2555.865000
769.825066	2497.891731
770.150607	2467.644808
770.476101	2432.356731
770.801548	2583.591346
771.126949	2452.521346
771.452303	2502.932885
771.777611	2507.974038
772.102872	2586.111923
772.428087	2560.906154
772.753256	2460.083077
773.078378	2500.412308
773.403453	2563.426731
773.728482	2432.356731
774.053465	2460.083077
774.378401	2485.288846
774.703291	2570.988462
775.028135	2480.247692
775.352932	2475.206538
775.677683	2409.671538
776.002388	2563.426731
776.327046	2495.371154
776.651658	2495.371154
776.976224	2437.397885
777.300743	2596.194231
777.625216	2560.906154
777.949643	2462.603654
778.274024	2462.603654
778.598359	2528.138654
778.922647	2492.850577
779.246889	2520.576923
779.571086	2505.453462
779.895236	2581.070769
780.219339	2492.850577
780.543397	2475.206538
780.867409	2576.029615
781.191374	2457.562500
781.515294	2520.576923
781.839167	2485.288846
782.162995	2467.644808
782.486776	2487.809423
782.810511	2538.220962
783.134201	2545.782692
783.457844	2457.562500
783.781441	2472.685962
784.104993	2492.850577
784.428498	2487.809423
784.751958	2472.685962
785.075372	2523.097500
785.398739	2500.412308
785.722061	2591.153077
786.045337	2397.068654
786.368568	2475.206538
786.691752	2475.206538
787.014891	2485.288846
787.337983	2465.124231
787.661030	2507.974038
787.984031	2492.850577
788.306987	2442.439038
788.629897	2523.097500
788.952760	2487.809423
789.275579	2447.480192
789.598351	2480.247692
789.921078	2475.206538
790.243759	2455.041923
790.566395	2497.891731
790.888984	2452.521346
791.211529	2480.247692
791.534027	2497.891731
791.856480	2487.809423
792.178888	2507.974038
792.501249	2540.741538
792.823566	2444.959615
793.145836	2502.932885
793.468062	2613.838269
793.790241	2472.685962
794.112375	2424.795000
794.434464	2548.303269
794.756507	2525.618077
795.078505	2480.247692
795.400457	2550.823846
795.722364	2523.097500
796.044226	2593.673654
796.366042	2462.603654
796.687812	2565.947308
797.009538	2465.124231
797.331218	2525.618077
797.652852	2460.083077
797.974442	2530.659231
798.295986	2412.192115
798.617484	2538.220962
798.938938	2513.015192
799.260346	2540.741538
799.581709	2490.330000
799.903026	2656.688077
800.224299	2492.850577
800.545526	2545.782692
800.866708	2470.165385
801.187845	2480.247692
801.508936	2442.439038
801.829983	2500.412308
802.150984	2533.179808
802.471940	2510.494615
802.792851	2520.576923
803.113717	2465.124231
803.434538	2495.371154
803.755314	2530.659231
804.076045	2520.576923
804.396731	2450.000769
804.717372	2533.179808
805.037967	2543.262115
805.358518	2409.671538
805.679024	2510.494615
805.999485	2455.041923
806.319901	2555.865000
806.640272	2399.589231
806.960598	2399.589231
807.280879	2424.795000
807.601115	2482.768269
807.921306	2381.945192
808.241453	2525.618077
808.561554	2490.330000
808.881611	2507.974038
809.201623	2444.959615
809.521590	2535.700385
809.841513	2487.809423
810.161390	2530.659231
810.481223	2513.015192
810.801011	2548.303269
811.120755	2422.274423
811.440453	2492.850577
811.760107	2525.618077
812.079716	2364.301154
812.399281	2477.727115
812.718801	2555.865000
813.038276	2520.576923
813.357707	2492.850577
813.677093	2457.562500
813.996434	2442.439038
814.315731	2427.315577
814.634983	2434.877308
814.954191	2434.877308
815.273354	2477.727115
815.592473	2525.618077
815.911547	2513.015192
816.230577	2467.644808
816.549562	2553.344423
816.868502	2477.727115
817.187399	2462.603654
817.506250	2570.988462
817.825058	2457.562500
818.143821	2515.535769
818.462539	2528.138654
818.781213	2475.206538
819.099843	2429.836154
819.418429	2543.262115
819.736970	2467.644808
820.055466	2482.768269
820.373919	2462.603654
820.692327	2495.371154
821.010691	2465.124231
821.329011	2462.603654
821.647286	2455.041923
821.965517	2490.330000
822.283704	2467.644808
822.601847	2477.727115
822.919945	2450.000769
823.237999	2518.056346
823.556010	2470.165385
823.873976	2492.850577
824.191897	2472.685962
824.509775	2515.535769
824.827609	2507.974038
825.145398	2510.494615
825.463144	2470.165385
825.780845	2515.535769
826.098502	2502.932885
826.416116	2442.439038
826.733685	2475.206538
827.051210	2495.371154
827.368692	2548.303269
827.686129	2475.206538
828.003522	2530.659231
828.320872	2497.891731
828.638177	2457.562500
828.955439	2482.768269
829.272656	2402.109808
829.589830	2505.453462
829.906960	2467.644808
830.224046	2427.315577
830.541088	2530.659231
830.858086	2525.618077
831.175041	2492.850577
831.491952	2472.685962
831.808819	2502.932885
832.125642	2495.371154
832.442421	2482.768269
832.759157	2525.618077
833.075849	2475.206538
833.392497	2475.206538
833.709101	2487.809423
834.025662	2480.247692
834.342179	2543.262115
834.658653	2447.480192
834.975083	2513.015192
835.291469	2558.385577
835.607811	2515.535769
835.924110	2505.453462
836.240366	2513.015192
836.556578	2535.700385
836.872746	2513.015192
837.188871	2482.768269
837.504952	2492.850577
837.820990	2475.206538
838.136984	2543.262115
838.452935	2495.371154
838.768842	2520.576923
839.084706	2429.836154
839.400526	2528.138654
839.716303	2520.576923
840.032037	2528.138654
840.347727	2470.165385
840.663373	2535.700385
840.978977	2371.862885
841.294537	2470.165385
841.610054	2407.150962
841.925527	2545.782692
842.240957	2462.603654
842.556344	2424.795000
842.871687	2540.741538
843.186987	2412.192115
843.502244	2467.644808
843.817458	2500.412308
844.132629	2568.467885
844.447756	2570.988462
844.762840	2581.070769
845.077881	2507.974038
845.392879	2500.412308
845.707833	2513.015192
846.022745	2455.041923
846.337613	2555.865000
846.652438	2467.644808
846.967221	2450.000769
847.281960	2460.083077
847.596656	2381.945192
847.911309	2341.615962
848.225919	2447.480192
848.540485	2455.041923
848.855009	2419.753846
849.169490	2495.371154
849.483928	2424.795000
849.798323	2502.932885
850.112675	2518.056346
850.426984	2465.124231
850.741251	2548.303269
851.055474	2482.768269
851.369654	2540.741538
851.683792	2477.727115
851.997887	2518.056346
852.311938	2507.974038
852.625947	2545.782692
852.939914	2475.206538
853.253837	2452.521346
853.567718	2502.932885
853.881555	2513.015192
854.195350	2513.015192
854.509103	2533.179808
854.822812	2495.371154
855.136479	2450.000769
855.450103	2490.330000
855.763685	2525.618077
856.077224	2465.124231
856.390720	2548.303269
856.704173	2525.618077
857.017584	2475.206538
857.330953	2528.138654
857.644278	2472.685962
857.957561	2462.603654
858.270802	2523.097500
858.584000	2477.727115
858.897155	2492.850577
859.210268	2560.906154
859.523339	2404.630385
859.836367	2565.947308
860.149352	2583.591346
860.462295	2530.659231
860.775195	2490.330000
861.088054	2437.397885
861.400869	2507.974038
861.713642	2540.741538
862.026373	2485.288846
862.339062	2465.124231
862.651708	2417.233269
862.964312	2472.685962
863.276873	2470.165385
863.589392	2507.974038
863.901869	2487.809423
864.214303	2437.397885
864.526696	2520.576923
864.839045	2490.330000
865.151353	2553.344423
865.463619	2422.274423
865.775842	2437.397885
866.088023	2424.795000
866.400162	2545.782692
866.712258	2500.412308
867.024313	2505.453462
867.336325	2533.179808
867.648296	2422.274423
867.960224	2502.932885
868.272110	2470.165385
868.583954	2487.809423
868.895755	2465.124231
869.207515	2475.206538
869.519233	2460.083077
869.830909	2520.576923
870.142542	2412.192115
870.454134	2397.068654
870.765684	2462.603654
871.077191	2419.753846
871.388657	2450.000769
871.700081	2429.836154
872.011463	2482.768269
872.322803	2495.371154
872.634101	2450.000769
872.945357	2439.918462
873.256571	2450.000769
873.567744	2530.659231
873.878874	2528.138654
874.189963	2510.494615
874.501010	2485.288846
874.812015	2540.741538
875.122979	2565.947308
875.433900	2452.521346
875.744780	2490.330000
876.055618	2492.850577
876.366415	2510.494615
876.677169	2432.356731
876.987882	2470.165385
877.298554	2490.330000
877.609183	2545.782692
877.919771	2485.288846
878.230317	2429.836154
878.540822	2455.041923
878.851285	2525.618077
879.161707	2472.685962
879.472087	2518.056346
879.782425	2535.700385
880.092722	2583.591346
880.402977	2477.727115
880.713191	2570.988462
881.023363	2507.974038
881.333494	2523.097500
881.643583	2439.918462
881.953631	2553.344423
882.263637	2490.330000
882.573602	2417.233269
882.883526	2429.836154
883.193408	2505.453462
883.503248	2515.535769
883.813048	2495.371154
884.122806	2578.550192
884.432522	2480.247692
884.742197	2523.097500
885.051831	2437.397885
885.361424	2477.727115
885.670975	2437.397885
885.980485	2535.700385
886.289954	2525.618077
886.599382	2578.550192
886.908768	2487.809423
887.218113	2447.480192
887.527417	2502.932885
887.836680	2502.932885
888.145901	2523.097500
888.455082	2467.644808
888.764221	2462.603654
889.073319	2525.618077
889.382376	2480.247692
889.691392	2495.371154
890.000366	2452.521346
890.309300	2505.453462
890.618193	2603.755962
890.927044	2465.124231
891.235855	2553.344423
891.544625	2490.330000
891.853353	2447.480192
892.162041	2450.000769
892.470687	2513.015192
892.779293	2515.535769
893.087858	2505.453462
893.396381	2497.891731
893.704864	2475.206538
894.013306	2525.618077
894.321707	2462.603654
894.630068	2381.945192
894.938387	2502.932885
895.246665	2482.768269
895.554903	2507.974038
895.863100	2550.823846
896.171256	2460.083077
896.479371	2500.412308
896.787446	2429.836154
897.095480	2583.591346
897.403473	2500.412308
897.711425	2520.576923
898.019336	2419.753846
898.327207	2424.795000
898.635038	2505.453462
898.942827	2465.124231
899.250576	2485.288846
899.558284	2525.618077
899.865952	2513.015192
900.173579	2472.685962
900.481165	2457.562500
900.788711	2507.974038
901.096216	2502.932885
901.403681	2530.659231
901.711105	2500.412308
902.018489	2457.562500
902.325832	2462.603654
902.633135	2485.288846
902.940397	2444.959615
903.247619	2550.823846
903.554800	2507.974038
903.861941	2505.453462
904.169041	2548.303269
904.476101	2518.056346
904.783121	2576.029615
905.090100	2422.274423
905.397039	2472.685962
905.703938	2492.850577
906.010796	2417.233269
906.317614	2568.467885
906.624391	2490.330000
906.931129	2500.412308
907.237826	2434.877308
907.544483	2412.192115
907.851099	2467.644808
908.157675	2510.494615
908.464211	2470.165385
908.770707	2442.439038
909.077163	2515.535769
909.383578	2523.097500
909.689954	2565.947308
909.996289	2525.618077
910.302584	2485.288846
910.608839	2538.220962
910.915054	2480.247692
911.221229	2518.056346
911.527363	2487.809423
911.833458	2462.603654
912.139513	2543.262115
912.445527	2560.906154
912.751502	2513.015192
913.057436	2502.932885
913.363331	2576.029615
913.669186	2470.165385
913.975000	2364.301154
914.280775	2465.124231
914.586510	2480.247692
914.892205	2523.097500
915.197859	2475.206538
915.503475	2452.521346
915.809050	2502.932885
916.114585	2455.041923
916.420081	2510.494615
916.725536	2427.315577
917.030952	2560.906154
917.336328	2525.618077
917.641665	2482.768269
917.946961	2505.453462
918.252218	2588.632500
918.557435	2485.288846
918.862612	2563.426731
919.167750	2530.659231
919.472848	2518.056346
919.777906	2487.809423
920.082925	2472.685962
920.387904	2475.206538
920.692843	2530.659231
920.997743	2417.233269
921.302603	2386.986346
921.607423	2601.235385
921.912204	2487.809423
922.216946	2576.029615
922.521647	2558.385577
922.826310	2427.315577
923.130932	2465.124231
923.435516	2462.603654
923.740059	2553.344423
924.044564	2553.344423
924.349028	2472.685962
924.653454	2502.932885
924.957840	2444.959615
925.262186	2470.165385
925.566493	2520.576923
925.870761	2480.247692
926.174989	2495.371154
926.479178	2492.850577
926.783328	2535.700385
927.087438	2475.206538
927.391509	2490.330000
927.695541	2523.097500
927.999533	2434.877308
928.303486	2497.891731
928.607400	2487.809423
928.911275	2535.700385
929.215110	2520.576923
929.518906	2518.056346
929.822663	2507.974038
930.126381	2502.932885
930.430060	2502.932885
930.733699	2470.165385
931.037299	2447.480192
931.340861	2497.891731
931.644383	2369.342308
931.947866	2414.712692
932.251309	2475.206538
932.554714	2462.603654
932.858080	2452.521346
933.161407	2515.535769
933.464694	2472.685962
933.767943	2538.220962
934.071153	2475.206538
934.374323	2419.753846
934.677455	2518.056346
934.980548	2581.070769
935.283602	2513.015192
935.586617	2477.727115
935.889593	2439.918462
936.192530	2487.809423
936.495428	2515.535769
936.798287	2475.206538
937.101108	2452.521346
937.403890	2429.836154
937.706632	2462.603654
938.009336	2492.850577
938.312002	2528.138654
938.614628	2444.959615
938.917216	2505.453462
939.219765	2475.206538
939.522275	2500.412308
939.824747	2538.220962
940.127179	2528.138654
940.429573	2533.179808
940.731929	2518.056346
941.034246	2565.947308
941.336524	2487.809423
941.638763	2492.850577
941.940964	2455.041923
942.243126	2538.220962
942.545250	2497.891731
942.847335	2392.027500
943.149381	2455.041923
943.451389	2492.850577
943.753359	2422.274423
944.055290	2492.850577
944.357182	2409.671538
944.659036	2588.632500
944.960851	2490.330000
945.262628	2510.494615
945.564367	2540.741538
945.866067	2515.535769
946.167729	2513.015192
946.469352	2475.206538
946.770937	2485.288846
947.072484	2495.371154
947.373992	2528.138654
947.675462	2444.959615
947.976893	2462.603654
948.278286	2482.768269
948.579641	2507.974038
948.880958	2487.809423
949.182236	2462.603654
949.483476	2520.576923
949.784678	2545.782692
950.085841	2492.850577
950.386967	2568.467885
950.688054	2450.000769
950.989103	2495.371154
951.290114	2422.274423
951.591087	2565.947308
951.892021	2477.727115
952.192917	2540.741538
952.493776	2513.015192
952.794596	2505.453462
953.095378	2513.015192
953.396122	2497.891731
953.696828	2450.000769
953.997496	2565.947308
954.298126	2487.809423
954.598718	2601.235385
954.899272	2462.603654
955.199788	2444.959615
955.500266	2442.439038
955.800706	2437.397885
956.101108	2500.412308
956.401472	2434.877308
956.701798	2487.809423
957.002087	2530.659231
957.302337	2452.521346
957.602550	2429.836154
957.902724	2583.591346
958.202861	2513.015192
958.502960	2465.124231
958.803022	2545.782692
959.103045	2490.330000
959.403031	2565.947308
959.702979	2535.700385
960.002889	2472.685962
960.302762	2613.838269
960.602596	2510.494615
960.902393	2467.644808
961.202153	2507.974038
961.501875	2540.741538
961.801559	2535.700385
962.101205	2485.288846
962.400814	2482.768269
962.700385	2452.521346
962.999918	2480.247692
963.299414	2518.056346
963.598873	2487.809423
963.898293	2500.412308
964.197677	2560.906154
964.497022	2505.453462
964.796331	2376.904038
965.095601	2422.274423
965.394835	2439.918462
965.694030	2414.712692
965.993189	2407.150962
966.292309	2528.138654
966.591393	2535.700385
966.890439	2409.671538
967.189447	2502.932885
967.488419	2472.685962
967.787353	2543.262115
968.086249	2507.974038
968.385108	2525.618077
968.683930	2455.041923
968.982714	2545.782692
969.281462	2480.247692
969.580172	2492.850577
969.878844	2442.439038
970.177480	2482.768269
970.476078	2528.138654
970.774639	2490.330000
971.073162	2485.288846
971.371649	2490.330000
971.670098	2535.700385
971.968510	2402.109808
972.266885	2545.782692
972.565223	2482.768269
972.863524	2460.083077
973.161788	2457.562500
973.460014	2450.000769
973.758204	2462.603654
974.056356	2470.165385
974.354471	2434.877308
974.652550	2482.768269
974.950591	2480.247692
975.248595	2510.494615
975.546563	2505.453462
975.844493	2513.015192
976.142386	2550.823846
976.440243	2480.247692
976.738062	2586.111923
977.035845	2563.426731
977.333590	2475.206538
977.631299	2460.083077
977.928971	2450.000769
978.226606	2462.603654
978.524204	2500.412308
978.821765	2492.850577
979.119290	2540.741538
979.416777	2455.041923
979.714228	2515.535769
980.011642	2485.288846
980.309020	2485.288846
980.606360	2530.659231
980.903664	2513.015192
981.200931	2477.727115
981.498162	2437.397885
981.795356	2452.521346
982.092513	2500.412308
982.389633	2555.865000
982.686717	2497.891731
982.983764	2502.932885
983.280775	2439.918462
983.577749	2495.371154
983.874686	2472.685962
984.171587	2462.603654
984.468451	2525.618077
984.765279	2450.000769
985.062070	2457.562500
985.358824	2434.877308
985.655543	2576.029615
985.952224	2452.521346
986.248869	2399.589231
986.545478	2442.439038
986.842050	2568.467885
987.138586	2543.262115
987.435086	2450.000769
987.731549	2485.288846
988.027975	2470.165385
988.324366	2447.480192
988.620719	2500.412308
988.917037	2434.877308
989.213318	2472.685962
989.509563	2495.371154
989.805772	2452.521346
990.101944	2344.136538
990.398080	2477.727115
990.694180	2535.700385
990.990244	2507.974038
991.286271	2444.959615
991.582262	2502.932885
991.878217	2528.138654
992.174136	2502.932885
992.470019	2452.521346
992.765865	2462.603654
993.061676	2591.153077
993.357450	2492.850577
993.653188	2444.959615
993.948890	2495.371154
994.244556	2505.453462
994.540186	2505.453462
994.835780	2530.659231
995.131337	2462.603654
995.426859	2513.015192
995.722345	2573.509038
996.017795	2472.685962
996.313208	2500.412308
996.608586	2450.000769
996.903928	2535.700385
997.199234	2560.906154
997.494504	2525.618077
997.789738	2475.206538
998.084936	2470.165385
998.380099	2477.727115
998.675225	2510.494615
998.970316	2376.904038
999.265371	2513.015192
999.560390	2505.453462
999.855373	2518.056346
1000.150320	2510.494615
1000.445232	2502.932885
1000.740108	2500.412308
1001.034948	2487.809423
1001.329752	2482.768269
1001.624521	2540.741538
1001.919254	2510.494615
1002.213951	2495.371154
1002.508613	2437.397885
1002.803239	2515.535769
1003.097829	2475.206538
1003.392384	2581.070769
1003.686903	2437.397885
1003.981386	2442.439038
1004.275834	2518.056346
1004.570246	2407.150962
1004.864623	2475.206538
1005.158964	2543.262115
1005.453270	2470.165385
1005.747540	2583.591346
1006.041775	2533.179808
1006.335974	2578.550192
1006.630138	2485.288846
1006.924266	2409.671538
1007.218359	2520.576923
1007.512416	2520.576923
1007.806438	2618.879423
1008.100425	2487.809423
1008.394376	2429.836154
1008.688292	2591.153077
1008.982172	2530.659231
1009.276017	2432.356731
1009.569827	2497.891731
1009.863602	2460.083077
1010.157341	2545.782692
1010.451045	2540.741538
1010.744714	2520.576923
1011.038347	2487.809423
1011.331945	2560.906154
1011.625508	2502.932885
1011.919036	2439.918462
1012.212528	2480.247692
1012.505986	2457.562500
1012.799408	2419.753846
1013.092795	2500.412308
1013.386147	2535.700385
1013.679464	2470.165385
1013.972745	2502.932885
1014.265992	2550.823846
1014.559204	2510.494615
1014.852380	2518.056346
1015.145521	2460.083077
1015.438628	2490.330000
1015.731699	2535.700385
1016.024736	2450.000769
1016.317737	2507.974038
1016.610703	2470.165385
1016.903635	2490.330000
1017.196531	2497.891731
1017.489393	2495.371154
1017.782219	2507.974038
1018.075011	2586.111923
1018.367768	2530.659231
1018.660490	2467.644808
1018.953177	2467.644808
1019.245829	2467.644808
