Dividing Wavelength (nm)	Counts (n)	Blue Motor Position (mm): 7.000000	Red Motor Position (mm): 0.000000	
326.493990	2069.393654
326.888308	2069.393654
327.282561	2069.393654
327.676750	2114.764038
328.070874	2099.640577
328.464933	2087.037692
328.858929	2041.667308
329.252859	2054.270192
329.646726	2175.257885
330.040528	2061.831923
330.434265	2071.914231
330.827938	2155.093269
331.221547	2170.216731
331.615091	2195.422500
332.008571	2220.628269
332.401986	2260.957500
332.795338	2195.422500
333.188625	2228.190000
333.581847	2225.669423
333.975006	2258.436923
334.368100	2283.642692
334.761129	2402.109808
335.154095	2298.766154
335.546996	2271.039808
335.939833	2384.465769
336.332606	2432.356731
336.725315	2374.383462
337.117960	2389.506923
337.510540	2364.301154
337.903056	2351.698269
338.295508	2429.836154
338.687896	2467.644808
339.080220	2485.288846
339.472480	2477.727115
339.864676	2490.330000
340.256807	2475.206538
340.648875	2462.603654
341.040879	2437.397885
341.432818	2467.644808
341.824694	2455.041923
342.216506	2523.097500
342.608253	2460.083077
342.999937	2472.685962
343.391557	2472.685962
343.783113	2487.809423
344.174605	2510.494615
344.566033	2460.083077
344.957397	2424.795000
345.348697	2540.741538
345.739934	2502.932885
346.131106	2450.000769
346.522215	2409.671538
346.913260	2538.220962
347.304241	2455.041923
347.695159	2409.671538
348.086012	2490.330000
348.476802	2429.836154
348.867528	2487.809423
349.258191	2523.097500
349.648789	2490.330000
350.039324	2444.959615
350.429796	2439.918462
350.820203	2432.356731
351.210548	2389.506923
351.600828	2359.260000
351.991045	2417.233269
352.381198	2439.918462
352.771288	2404.630385
353.161314	2475.206538
353.551276	2505.453462
353.941175	2386.986346
354.331010	2394.548077
354.720782	2442.439038
355.110490	2507.974038
355.500135	2442.439038
355.889717	2402.109808
356.279235	2467.644808
356.668689	2450.000769
357.058080	2371.862885
357.447408	2540.741538
357.836672	2434.877308
358.225873	2397.068654
358.615010	2455.041923
359.004084	2455.041923
359.393095	2414.712692
359.782043	2502.932885
360.170927	2407.150962
360.559748	2402.109808
360.948505	2518.056346
361.337199	2442.439038
361.725830	2455.041923
362.114398	2462.603654
362.502903	2424.795000
362.891344	2437.397885
363.279722	2450.000769
363.668037	2417.233269
364.056289	2450.000769
364.444478	2467.644808
364.832603	2407.150962
365.220665	2455.041923
365.608665	2417.233269
365.996601	2480.247692
366.384474	2462.603654
366.772284	2462.603654
367.160031	2442.439038
367.547715	2417.233269
367.935336	2444.959615
368.322893	2480.247692
368.710388	2505.453462
369.097820	2439.918462
369.485189	2492.850577
369.872495	2462.603654
370.259738	2520.576923
370.646918	2392.027500
371.034035	2439.918462
371.421090	2374.383462
371.808081	2444.959615
372.195010	2434.877308
372.581875	2500.412308
372.968678	2520.576923
373.355418	2477.727115
373.742096	2422.274423
374.128710	2417.233269
374.515262	2560.906154
374.901751	2450.000769
375.288177	2381.945192
375.674540	2455.041923
376.060841	2523.097500
376.447079	2490.330000
376.833254	2394.548077
377.219367	2444.959615
377.605417	2432.356731
377.991404	2515.535769
378.377329	2450.000769
378.763191	2548.303269
379.148991	2457.562500
379.534727	2505.453462
379.920402	2452.521346
380.306013	2520.576923
380.691563	2442.439038
381.077049	2472.685962
381.462474	2452.521346
381.847835	2515.535769
382.233134	2505.453462
382.618371	2439.918462
383.003545	2530.659231
383.388657	2404.630385
383.773706	2462.603654
384.158693	2412.192115
384.543618	2404.630385
384.928480	2364.301154
385.313280	2487.809423
385.698017	2510.494615
386.082692	2515.535769
386.467305	2407.150962
386.851856	2533.179808
387.236344	2492.850577
387.620770	2535.700385
388.005133	2472.685962
388.389435	2502.932885
388.773674	2460.083077
389.157851	2429.836154
389.541965	2427.315577
389.926018	2424.795000
390.310008	2510.494615
390.693936	2429.836154
391.077802	2495.371154
391.461606	2482.768269
391.845348	2427.315577
392.229027	2555.865000
392.612645	2525.618077
392.996200	2467.644808
393.379694	2359.260000
393.763125	2462.603654
394.146494	2553.344423
394.529801	2528.138654
394.913047	2427.315577
395.296230	2455.041923
395.679351	2510.494615
396.062410	2444.959615
396.445408	2417.233269
396.828343	2407.150962
397.211217	2462.603654
397.594028	2414.712692
397.976778	2482.768269
398.359466	2422.274423
398.742092	2457.562500
399.124656	2470.165385
399.507158	2407.150962
399.889598	2424.795000
400.271977	2520.576923
400.654294	2528.138654
401.036549	2439.918462
401.418742	2437.397885
401.800874	2412.192115
402.182944	2460.083077
402.564952	2452.521346
402.946898	2530.659231
403.328783	2472.685962
403.710606	2490.330000
404.092367	2530.659231
404.474067	2535.700385
404.855705	2414.712692
405.237282	2419.753846
405.618797	2460.083077
406.000250	2424.795000
406.381642	2543.262115
406.762972	2477.727115
407.144240	2495.371154
407.525447	2505.453462
407.906593	2502.932885
408.287677	2444.959615
408.668700	2467.644808
409.049661	2457.562500
409.430560	2573.509038
409.811399	2450.000769
410.192176	2412.192115
410.572891	2507.974038
410.953545	2553.344423
411.334138	2495.371154
411.714669	2414.712692
412.095139	2545.782692
412.475547	2528.138654
412.855894	2490.330000
413.236180	2422.274423
413.616405	2578.550192
413.996568	2462.603654
414.376670	2447.480192
414.756711	2414.712692
415.136691	2500.412308
415.516609	2497.891731
415.896466	2500.412308
416.276262	2533.179808
416.655997	2528.138654
417.035670	2434.877308
417.415283	2523.097500
417.794834	2480.247692
418.174324	2450.000769
418.553753	2492.850577
418.933121	2462.603654
419.312428	2465.124231
419.691674	2480.247692
420.070859	2444.959615
420.449983	2540.741538
420.829045	2495.371154
421.208047	2492.850577
421.586988	2399.589231
421.965867	2558.385577
422.344686	2444.959615
422.723444	2452.521346
423.102141	2394.548077
423.480777	2495.371154
423.859352	2497.891731
424.237866	2533.179808
424.616319	2434.877308
424.994712	2437.397885
425.373044	2472.685962
425.751314	2427.315577
426.129524	2409.671538
426.507673	2482.768269
426.885762	2427.315577
427.263789	2505.453462
427.641756	2462.603654
428.019662	2465.124231
428.397508	2510.494615
428.775292	2533.179808
429.153016	2442.439038
429.530679	2429.836154
429.908282	2518.056346
430.285824	2535.700385
430.663305	2429.836154
431.040726	2515.535769
431.418086	2424.795000
431.795385	2518.056346
432.172624	2513.015192
432.549802	2510.494615
432.926920	2477.727115
433.303977	2538.220962
433.680974	2548.303269
434.057910	2576.029615
434.434786	2419.753846
434.811601	2427.315577
435.188355	2497.891731
435.565050	2502.932885
435.941683	2487.809423
436.318257	2525.618077
436.694770	2482.768269
437.071222	2457.562500
437.447614	2470.165385
437.823946	2518.056346
438.200218	2543.262115
438.576429	2399.589231
438.952580	2507.974038
439.328670	2424.795000
439.704700	2366.821731
440.080670	2500.412308
440.456580	2379.424615
440.832429	2533.179808
441.208218	2538.220962
441.583947	2482.768269
441.959616	2500.412308
442.335224	2475.206538
442.710773	2530.659231
443.086261	2457.562500
443.461689	2495.371154
443.837057	2455.041923
444.212365	2538.220962
444.587612	2515.535769
444.962800	2457.562500
445.337927	2427.315577
445.712995	2523.097500
446.088002	2412.192115
446.462949	2563.426731
446.837837	2487.809423
447.212664	2518.056346
447.587431	2460.083077
447.962139	2530.659231
448.336786	2480.247692
448.711374	2472.685962
449.085901	2513.015192
449.460369	2470.165385
449.834776	2555.865000
450.209124	2495.371154
450.583412	2545.782692
450.957640	2424.795000
451.331808	2460.083077
451.705917	2497.891731
452.079965	2513.015192
452.453954	2457.562500
452.827883	2548.303269
453.201752	2455.041923
453.575562	2487.809423
453.949311	2540.741538
454.323001	2432.356731
454.696632	2472.685962
455.070202	2472.685962
455.443713	2482.768269
455.817164	2586.111923
456.190556	2470.165385
456.563888	2490.330000
456.937160	2535.700385
457.310373	2616.358846
457.683526	2507.974038
458.056619	2500.412308
458.429653	2460.083077
458.802628	2482.768269
459.175542	2457.562500
459.548398	2422.274423
459.921194	2505.453462
460.293930	2581.070769
460.666607	2480.247692
461.039224	2507.974038
461.411782	2520.576923
461.784280	2447.480192
462.156719	2480.247692
462.529099	2530.659231
462.901419	2462.603654
463.273680	2424.795000
463.645882	2518.056346
464.018024	2510.494615
464.390106	2525.618077
464.762130	2404.630385
465.134094	2447.480192
465.505999	2533.179808
465.877845	2490.330000
466.249631	2492.850577
466.621358	2553.344423
466.993026	2452.521346
467.364634	2470.165385
467.736184	2485.288846
468.107674	2591.153077
468.479105	2439.918462
468.850477	2545.782692
469.221790	2555.865000
469.593043	2467.644808
469.964238	2500.412308
470.335373	2429.836154
470.706449	2477.727115
471.077467	2523.097500
471.448425	2533.179808
471.819324	2460.083077
472.190164	2465.124231
472.560945	2417.233269
472.931667	2475.206538
473.302330	2439.918462
473.672934	2601.235385
474.043479	2502.932885
474.413965	2452.521346
474.784393	2427.315577
475.154761	2434.877308
475.525070	2555.865000
475.895321	2450.000769
476.265513	2465.124231
476.635645	2447.480192
477.005719	2528.138654
477.375734	2543.262115
477.745691	2520.576923
478.115588	2442.439038
478.485427	2452.521346
478.855207	2528.138654
479.224928	2414.712692
479.594591	2525.618077
479.964194	2581.070769
480.333739	2591.153077
480.703226	2442.439038
481.072653	2472.685962
481.442022	2543.262115
481.811333	2500.412308
482.180584	2510.494615
482.549777	2596.194231
482.918912	2500.412308
483.287988	2500.412308
483.657005	2560.906154
484.025964	2439.918462
484.394864	2487.809423
484.763706	2455.041923
485.132489	2470.165385
485.501213	2550.823846
485.869879	2460.083077
486.238487	2482.768269
486.607036	2518.056346
486.975527	2520.576923
487.343959	2439.918462
487.712333	2500.412308
488.080648	2510.494615
488.448905	2513.015192
488.817104	2520.576923
489.185244	2485.288846
489.553326	2525.618077
489.921350	2495.371154
490.289315	2555.865000
490.657222	2540.741538
491.025070	2487.809423
491.392861	2457.562500
491.760593	2553.344423
492.128267	2507.974038
492.495883	2480.247692
492.863440	2412.192115
493.230939	2477.727115
493.598380	2450.000769
493.965763	2482.768269
494.333088	2535.700385
494.700354	2480.247692
495.067563	2477.727115
495.434713	2535.700385
495.801805	2570.988462
496.168839	2538.220962
496.535815	2545.782692
496.902733	2538.220962
497.269593	2492.850577
497.636395	2550.823846
498.003139	2543.262115
498.369825	2558.385577
498.736453	2593.673654
499.103023	2545.782692
499.469535	2485.288846
499.835989	2444.959615
500.202385	2457.562500
500.568723	2490.330000
500.935003	2497.891731
501.301226	2497.891731
501.667390	2588.632500
502.033497	2467.644808
502.399546	2525.618077
502.765537	2507.974038
503.131470	2492.850577
503.497345	2548.303269
503.863163	2507.974038
504.228923	2558.385577
504.594625	2538.220962
504.960269	2520.576923
505.325856	2462.603654
505.691385	2482.768269
506.056856	2492.850577
506.422270	2422.274423
506.787625	2404.630385
507.152924	2460.083077
507.518164	2495.371154
507.883347	2409.671538
508.248472	2465.124231
508.613540	2432.356731
508.978550	2586.111923
509.343503	2538.220962
509.708398	2570.988462
510.073236	2538.220962
510.438016	2525.618077
510.802738	2518.056346
511.167403	2513.015192
511.532010	2505.453462
511.896561	2497.891731
512.261053	2442.439038
512.625488	2467.644808
512.989866	2490.330000
513.354186	2533.179808
513.718449	2523.097500
514.082655	2475.206538
514.446803	2538.220962
514.810894	2429.836154
515.174927	2535.700385
515.538904	2480.247692
515.902822	2472.685962
516.266684	2482.768269
516.630488	2510.494615
516.994235	2563.426731
517.357925	2485.288846
517.721558	2444.959615
518.085133	2515.535769
518.448651	2434.877308
518.812112	2480.247692
519.175516	2573.509038
519.538863	2518.056346
519.902152	2558.385577
520.265385	2487.809423
520.628560	2525.618077
520.991678	2470.165385
521.354739	2518.056346
521.717743	2462.603654
522.080690	2492.850577
522.443580	2492.850577
522.806413	2485.288846
523.169189	2518.056346
523.531908	2570.988462
523.894569	2475.206538
524.257174	2591.153077
524.619722	2588.632500
524.982213	2518.056346
525.344647	2470.165385
525.707025	2513.015192
526.069345	2500.412308
526.431608	2578.550192
526.793815	2502.932885
527.155964	2500.412308
527.518057	2485.288846
527.880093	2520.576923
528.242072	2573.509038
528.603995	2505.453462
528.965860	2510.494615
529.327669	2457.562500
529.689421	2530.659231
530.051117	2465.124231
530.412755	2634.002885
530.774337	2399.589231
531.135862	2502.932885
531.497331	2606.276538
531.858743	2497.891731
532.220098	2429.836154
532.581396	2500.412308
532.942638	2465.124231
533.303824	2497.891731
533.664953	2452.521346
534.026025	2490.330000
534.387040	2419.753846
534.747999	2497.891731
535.108902	2518.056346
535.469748	2555.865000
535.830537	2535.700385
536.191270	2495.371154
536.551947	2518.056346
536.912567	2427.315577
537.273131	2412.192115
537.633638	2553.344423
537.994089	2502.932885
538.354483	2452.521346
538.714821	2558.385577
539.075103	2480.247692
539.435328	2510.494615
539.795497	2480.247692
540.155609	2515.535769
540.515665	2492.850577
540.875665	2414.712692
541.235609	2520.576923
541.595496	2475.206538
541.955328	2533.179808
542.315102	2460.083077
542.674821	2492.850577
543.034483	2450.000769
543.394090	2482.768269
543.753640	2465.124231
544.113134	2485.288846
544.472571	2444.959615
544.831953	2515.535769
545.191278	2560.906154
545.550548	2482.768269
545.909761	2533.179808
546.268918	2467.644808
546.628019	2472.685962
546.987064	2505.453462
547.346053	2525.618077
547.704986	2490.330000
548.063863	2513.015192
548.422684	2505.453462
548.781449	2492.850577
549.140158	2492.850577
549.498811	2500.412308
549.857408	2490.330000
550.215949	2548.303269
550.574434	2510.494615
550.932864	2525.618077
551.291237	2515.535769
551.649555	2490.330000
552.007817	2472.685962
552.366022	2530.659231
552.724173	2427.315577
553.082267	2472.685962
553.440305	2520.576923
553.798288	2500.412308
554.156215	2490.330000
554.514086	2467.644808
554.871902	2399.589231
555.229661	2475.206538
555.587365	2455.041923
555.945014	2470.165385
556.302606	2518.056346
556.660143	2495.371154
557.017625	2457.562500
557.375050	2432.356731
557.732421	2485.288846
558.089735	2563.426731
558.446994	2568.467885
558.804197	2613.838269
559.161345	2455.041923
559.518437	2558.385577
559.875474	2450.000769
560.232455	2472.685962
560.589381	2450.000769
560.946251	2437.397885
561.303065	2457.562500
561.659825	2560.906154
562.016528	2475.206538
562.373177	2530.659231
562.729770	2518.056346
563.086307	2452.521346
563.442789	2505.453462
563.799216	2457.562500
564.155587	2444.959615
564.511904	2507.974038
564.868164	2540.741538
565.224370	2502.932885
565.580520	2437.397885
565.936615	2482.768269
566.292654	2432.356731
566.648638	2530.659231
567.004567	2480.247692
567.360441	2518.056346
567.716260	2505.453462
568.072023	2530.659231
568.427732	2560.906154
568.783385	2450.000769
569.138982	2502.932885
569.494525	2588.632500
569.850013	2434.877308
570.205445	2510.494615
570.560823	2419.753846
570.916145	2480.247692
571.271412	2553.344423
571.626625	2518.056346
571.981782	2480.247692
572.336884	2455.041923
572.691931	2490.330000
573.046923	2500.412308
573.401860	2477.727115
573.756743	2535.700385
574.111570	2487.809423
574.466342	2500.412308
574.821059	2465.124231
575.175722	2492.850577
575.530330	2553.344423
575.884882	2558.385577
576.239380	2510.494615
576.593823	2502.932885
576.948211	2485.288846
577.302544	2460.083077
577.656823	2492.850577
578.011047	2455.041923
578.365216	2460.083077
578.719330	2492.850577
579.073389	2414.712692
579.427394	2560.906154
579.781344	2518.056346
580.135239	2500.412308
580.489080	2490.330000
580.842866	2497.891731
581.196597	2535.700385
581.550273	2543.262115
581.903895	2530.659231
582.257463	2631.482308
582.610975	2477.727115
582.964434	2563.426731
583.317837	2535.700385
583.671186	2434.877308
584.024481	2465.124231
584.377721	2427.315577
584.730906	2455.041923
585.084037	2497.891731
585.437113	2407.150962
585.790135	2467.644808
586.143103	2538.220962
586.496016	2497.891731
586.848874	2467.644808
587.201679	2518.056346
587.554428	2502.932885
587.907124	2492.850577
588.259765	2548.303269
588.612352	2447.480192
588.964884	2492.850577
589.317362	2535.700385
589.669786	2560.906154
590.022155	2472.685962
590.374470	2492.850577
590.726731	2596.194231
591.078937	2442.439038
591.431090	2555.865000
591.783188	2460.083077
592.135232	2465.124231
592.487222	2417.233269
592.839157	2565.947308
593.191038	2528.138654
593.542866	2434.877308
593.894639	2578.550192
594.246358	2538.220962
594.598022	2457.562500
594.949633	2467.644808
595.301190	2422.274423
595.652692	2462.603654
596.004141	2447.480192
596.355535	2533.179808
596.706876	2558.385577
597.058162	2565.947308
597.409395	2540.741538
597.760573	2588.632500
598.111698	2460.083077
598.462768	2392.027500
598.813785	2598.714808
599.164748	2460.083077
599.515657	2462.603654
599.866511	2480.247692
600.217312	2576.029615
600.568060	2543.262115
600.918753	2505.453462
601.269392	2525.618077
601.619978	2455.041923
601.970510	2487.809423
602.320988	2465.124231
602.671412	2497.891731
603.021783	2462.603654
603.372100	2533.179808
603.722363	2457.562500
604.072572	2568.467885
604.422728	2392.027500
604.772830	2535.700385
605.122878	2444.959615
605.472872	2568.467885
605.822813	2502.932885
606.172701	2545.782692
606.522534	2437.397885
606.872314	2558.385577
607.222041	2457.562500
607.571714	2500.412308
607.921333	2462.603654
608.270899	2558.385577
608.620411	2634.002885
608.969870	2548.303269
609.319276	2540.741538
609.668627	2465.124231
610.017926	2497.891731
610.367171	2545.782692
610.716362	2533.179808
611.065500	2510.494615
611.414585	2397.068654
611.763616	2472.685962
612.112594	2538.220962
612.461518	2444.959615
612.810389	2565.947308
613.159207	2502.932885
613.507971	2510.494615
613.856682	2518.056346
614.205340	2447.480192
614.553945	2482.768269
614.902496	2515.535769
615.250994	2450.000769
615.599439	2573.509038
615.947830	2477.727115
616.296169	2485.288846
616.644454	2412.192115
616.992686	2500.412308
617.340864	2480.247692
617.688990	2487.809423
618.037063	2452.521346
618.385082	2399.589231
618.733048	2500.412308
619.080961	2576.029615
619.428821	2497.891731
619.776628	2520.576923
620.124382	2465.124231
620.472083	2550.823846
620.819731	2502.932885
621.167326	2462.603654
621.514868	2535.700385
621.862357	2593.673654
622.209793	2545.782692
622.557176	2455.041923
622.904506	2520.576923
623.251783	2598.714808
623.599007	2444.959615
623.946179	2412.192115
624.293297	2477.727115
624.640363	2450.000769
624.987376	2513.015192
625.334336	2472.685962
625.681243	2414.712692
626.028097	2518.056346
626.374899	2460.083077
626.721647	2530.659231
627.068343	2450.000769
627.414987	2528.138654
627.761577	2518.056346
628.108115	2520.576923
628.454600	2555.865000
628.801032	2460.083077
629.147412	2563.426731
629.493739	2518.056346
629.840014	2500.412308
630.186236	2487.809423
630.532405	2535.700385
630.878521	2434.877308
631.224585	2558.385577
631.570597	2455.041923
631.916556	2507.974038
632.262462	2442.439038
632.608316	2568.467885
632.954117	2442.439038
633.299866	2452.521346
633.645562	2513.015192
633.991206	2525.618077
634.336797	2563.426731
634.682336	2520.576923
635.027823	2530.659231
635.373257	2500.412308
635.718639	2477.727115
636.063968	2485.288846
636.409245	2570.988462
636.754470	2444.959615
637.099642	2455.041923
637.444762	2467.644808
637.789829	2452.521346
638.134845	2515.535769
638.479808	2462.603654
638.824719	2548.303269
639.169577	2487.809423
639.514383	2475.206538
639.859137	2452.521346
640.203839	2424.795000
640.548489	2492.850577
640.893086	2548.303269
641.237632	2583.591346
641.582125	2540.741538
641.926566	2427.315577
642.270955	2505.453462
642.615292	2533.179808
642.959576	2525.618077
643.303809	2460.083077
643.647990	2432.356731
643.992118	2558.385577
644.336195	2545.782692
644.680219	2457.562500
645.024192	2480.247692
645.368112	2480.247692
645.711981	2457.562500
646.055797	2412.192115
646.399562	2523.097500
646.743274	2414.712692
647.086935	2510.494615
647.430544	2452.521346
647.774101	2455.041923
648.117606	2450.000769
648.461059	2482.768269
648.804460	2550.823846
649.147810	2475.206538
649.491108	2528.138654
649.834354	2500.412308
650.177548	2515.535769
650.520690	2475.206538
650.863781	2462.603654
651.206820	2497.891731
651.549807	2475.206538
651.892742	2492.850577
652.235626	2452.521346
652.578458	2439.918462
652.921238	2392.027500
653.263967	2437.397885
653.606644	2586.111923
653.949269	2455.041923
654.291843	2535.700385
654.634365	2434.877308
654.976836	2518.056346
655.319255	2507.974038
655.661622	2417.233269
656.003938	2497.891731
656.346203	2553.344423
656.688416	2553.344423
657.030577	2412.192115
657.372687	2447.480192
657.714746	2487.809423
658.056753	2535.700385
658.398708	2565.947308
658.740612	2485.288846
659.082465	2518.056346
659.424266	2467.644808
659.766016	2543.262115
660.107715	2432.356731
660.449362	2487.809423
660.790958	2492.850577
661.132503	2583.591346
661.473996	2530.659231
661.815438	2586.111923
662.156829	2467.644808
662.498168	2525.618077
662.839456	2545.782692
663.180693	2465.124231
663.521879	2528.138654
663.863013	2482.768269
664.204097	2482.768269
664.545129	2432.356731
664.886110	2573.509038
665.227040	2472.685962
665.567918	2520.576923
665.908746	2525.618077
666.249522	2586.111923
666.590248	2465.124231
666.930922	2545.782692
667.271545	2510.494615
667.612118	2482.768269
667.952639	2447.480192
668.293109	2507.974038
668.633528	2417.233269
668.973896	2490.330000
669.314213	2399.589231
669.654480	2492.850577
669.994695	2523.097500
670.334859	2487.809423
670.674973	2495.371154
671.015035	2505.453462
671.355047	2550.823846
671.695008	2450.000769
672.034918	2513.015192
672.374777	2507.974038
672.714585	2477.727115
673.054342	2586.111923
673.394049	2500.412308
673.733705	2530.659231
674.073310	2432.356731
674.412864	2497.891731
674.752368	2442.439038
675.091820	2500.412308
675.431223	2424.795000
675.770574	2490.330000
676.109875	2482.768269
676.449125	2500.412308
676.788324	2480.247692
677.127473	2553.344423
677.466571	2455.041923
677.805619	2500.412308
678.144616	2480.247692
678.483562	2520.576923
678.822458	2450.000769
679.161303	2543.262115
679.500098	2470.165385
679.838842	2530.659231
680.177535	2530.659231
680.516179	2460.083077
680.854771	2520.576923
681.193314	2550.823846
681.531805	2490.330000
681.870247	2490.330000
682.208638	2485.288846
682.546978	2495.371154
682.885268	2465.124231
683.223508	2525.618077
683.561697	2535.700385
683.899836	2553.344423
684.237925	2528.138654
684.575963	2457.562500
684.913951	2523.097500
685.251889	2447.480192
685.589776	2424.795000
685.927614	2513.015192
686.265401	2538.220962
686.603137	2485.288846
686.940824	2497.891731
687.278460	2447.480192
687.616046	2555.865000
687.953582	2457.562500
688.291068	2467.644808
688.628504	2487.809423
688.965889	2497.891731
689.303224	2518.056346
689.640510	2492.850577
689.977745	2502.932885
690.314930	2533.179808
690.652065	2507.974038
690.989150	2427.315577
691.326185	2510.494615
691.663170	2565.947308
692.000105	2404.630385
692.336990	2507.974038
692.673825	2518.056346
693.010610	2424.795000
693.347345	2548.303269
693.684030	2507.974038
694.020665	2538.220962
694.357251	2502.932885
694.693786	2528.138654
695.030272	2457.562500
695.366707	2497.891731
695.703093	2497.891731
696.039429	2444.959615
696.375716	2427.315577
696.711952	2497.891731
697.048139	2452.521346
697.384276	2513.015192
697.720363	2523.097500
698.056400	2583.591346
698.392388	2482.768269
698.728326	2515.535769
699.064214	2495.371154
699.400053	2576.029615
699.735842	2490.330000
700.071581	2535.700385
700.407270	2427.315577
700.742910	2507.974038
701.078501	2477.727115
701.414042	2525.618077
701.749533	2482.768269
702.084974	2528.138654
702.420366	2467.644808
702.755709	2492.850577
703.091002	2477.727115
703.426246	2515.535769
703.761440	2497.891731
704.096584	2427.315577
704.431679	2601.235385
704.766725	2513.015192
705.101721	2563.426731
705.436668	2497.891731
705.771565	2467.644808
706.106413	2460.083077
706.441212	2520.576923
706.775961	2480.247692
707.110661	2452.521346
707.445311	2528.138654
707.779913	2535.700385
708.114465	2460.083077
708.448967	2505.453462
708.783421	2545.782692
709.117825	2543.262115
709.452180	2528.138654
709.786485	2515.535769
710.120742	2548.303269
710.454949	2528.138654
710.789107	2515.535769
711.123216	2573.509038
711.457275	2407.150962
711.791286	2513.015192
712.125247	2513.015192
712.459159	2482.768269
712.793023	2470.165385
713.126837	2502.932885
713.460602	2434.877308
713.794318	2460.083077
714.127985	2429.836154
714.461602	2525.618077
714.795171	2460.083077
715.128691	2432.356731
715.462162	2576.029615
715.795584	2535.700385
716.128957	2447.480192
716.462281	2515.535769
716.795556	2444.959615
717.128782	2477.727115
717.461960	2432.356731
717.795088	2457.562500
718.128167	2457.562500
718.461198	2502.932885
718.794180	2487.809423
719.127113	2500.412308
719.459997	2518.056346
719.792833	2543.262115
720.125619	2404.630385
720.458357	2548.303269
720.791046	2510.494615
721.123686	2457.562500
721.456278	2576.029615
721.788821	2497.891731
722.121315	2518.056346
722.453761	2444.959615
722.786158	2538.220962
723.118506	2492.850577
723.450805	2432.356731
723.783056	2507.974038
724.115259	2457.562500
724.447412	2507.974038
724.779518	2570.988462
725.111574	2505.453462
725.443582	2507.974038
725.775542	2487.809423
726.107453	2467.644808
726.439315	2631.482308
726.771129	2482.768269
727.102895	2523.097500
727.434612	2533.179808
727.766281	2538.220962
728.097901	2495.371154
728.429473	2565.947308
728.760996	2565.947308
729.092471	2470.165385
729.423897	2528.138654
729.755276	2558.385577
730.086606	2558.385577
730.417887	2533.179808
730.749120	2460.083077
731.080305	2467.644808
731.411442	2462.603654
731.742530	2492.850577
732.073570	2490.330000
732.404562	2565.947308
732.735506	2447.480192
733.066401	2550.823846
733.397249	2586.111923
733.728048	2439.918462
734.058798	2533.179808
734.389501	2492.850577
734.720156	2475.206538
735.050762	2472.685962
735.381320	2520.576923
735.711831	2470.165385
736.042293	2475.206538
736.372707	2513.015192
736.703073	2576.029615
737.033391	2475.206538
737.363661	2540.741538
737.693883	2422.274423
738.024056	2500.412308
738.354182	2528.138654
738.684260	2497.891731
739.014290	2535.700385
739.344272	2419.753846
739.674207	2450.000769
740.004093	2533.179808
740.333931	2487.809423
740.663722	2518.056346
740.993464	2540.741538
741.323159	2545.782692
741.652806	2490.330000
741.982405	2432.356731
742.311956	2477.727115
742.641460	2535.700385
742.970915	2492.850577
743.300323	2520.576923
743.629683	2515.535769
743.958996	2553.344423
744.288260	2467.644808
744.617477	2495.371154
744.946647	2450.000769
745.275768	2452.521346
745.604842	2540.741538
745.933869	2553.344423
746.262847	2472.685962
746.591778	2540.741538
746.920662	2500.412308
747.249498	2540.741538
747.578286	2429.836154
747.907027	2530.659231
748.235720	2485.288846
748.564365	2596.194231
748.892963	2490.330000
749.221514	2505.453462
749.550017	2535.700385
749.878473	2482.768269
750.206881	2507.974038
750.535242	2520.576923
750.863555	2467.644808
751.191821	2507.974038
751.520039	2460.083077
751.848210	2507.974038
752.176334	2414.712692
752.504411	2472.685962
752.832440	2452.521346
753.160421	2424.795000
753.488356	2507.974038
753.816243	2578.550192
754.144082	2434.877308
754.471875	2485.288846
754.799620	2437.397885
755.127318	2548.303269
755.454969	2472.685962
755.782572	2452.521346
756.110129	2467.644808
756.437638	2507.974038
756.765100	2467.644808
757.092515	2565.947308
757.419882	2414.712692
757.747203	2513.015192
758.074477	2482.768269
758.401703	2518.056346
758.728882	2578.550192
759.056014	2457.562500
759.383099	2384.465769
759.710138	2535.700385
760.037129	2533.179808
760.364073	2578.550192
760.690970	2543.262115
761.017820	2472.685962
761.344623	2558.385577
761.671379	2515.535769
761.998088	2467.644808
762.324751	2475.206538
762.651366	2500.412308
762.977935	2412.192115
763.304456	2558.385577
763.630931	2482.768269
763.957359	2553.344423
764.283740	2444.959615
764.610074	2525.618077
764.936362	2432.356731
765.262602	2399.589231
765.588796	2485.288846
765.914943	2452.521346
766.241044	2533.179808
766.567097	2586.111923
766.893104	2495.371154
767.219064	2492.850577
767.544978	2596.194231
767.870845	2480.247692
768.196665	2568.467885
768.522438	2548.303269
768.848165	2480.247692
769.173846	2502.932885
769.499479	2465.124231
769.825066	2523.097500
770.150607	2392.027500
770.476101	2465.124231
770.801548	2414.712692
771.126949	2417.233269
771.452303	2455.041923
771.777611	2409.671538
772.102872	2568.467885
772.428087	2412.192115
772.753256	2548.303269
773.078378	2497.891731
773.403453	2475.206538
773.728482	2588.632500
774.053465	2530.659231
774.378401	2477.727115
774.703291	2457.562500
775.028135	2513.015192
775.352932	2492.850577
775.677683	2485.288846
776.002388	2477.727115
776.327046	2492.850577
776.651658	2576.029615
776.976224	2424.795000
777.300743	2528.138654
777.625216	2457.562500
777.949643	2550.823846
778.274024	2392.027500
778.598359	2507.974038
778.922647	2563.426731
779.246889	2487.809423
779.571086	2530.659231
779.895236	2460.083077
780.219339	2427.315577
780.543397	2520.576923
780.867409	2528.138654
781.191374	2520.576923
781.515294	2525.618077
781.839167	2437.397885
782.162995	2475.206538
782.486776	2482.768269
782.810511	2525.618077
783.134201	2513.015192
783.457844	2427.315577
783.781441	2417.233269
784.104993	2495.371154
784.428498	2513.015192
784.751958	2515.535769
785.075372	2432.356731
785.398739	2502.932885
785.722061	2477.727115
786.045337	2515.535769
786.368568	2482.768269
786.691752	2520.576923
787.014891	2515.535769
787.337983	2487.809423
787.661030	2507.974038
787.984031	2570.988462
788.306987	2439.918462
788.629897	2492.850577
788.952760	2477.727115
789.275579	2381.945192
789.598351	2480.247692
789.921078	2485.288846
790.243759	2510.494615
790.566395	2472.685962
790.888984	2535.700385
791.211529	2480.247692
791.534027	2482.768269
791.856480	2535.700385
792.178888	2480.247692
792.501249	2518.056346
792.823566	2485.288846
793.145836	2399.589231
793.468062	2477.727115
793.790241	2429.836154
794.112375	2528.138654
794.434464	2492.850577
794.756507	2530.659231
795.078505	2482.768269
795.400457	2480.247692
795.722364	2472.685962
796.044226	2470.165385
796.366042	2505.453462
796.687812	2424.795000
797.009538	2465.124231
797.331218	2434.877308
797.652852	2465.124231
797.974442	2447.480192
798.295986	2477.727115
798.617484	2507.974038
798.938938	2447.480192
799.260346	2477.727115
799.581709	2523.097500
799.903026	2558.385577
800.224299	2487.809423
800.545526	2598.714808
800.866708	2452.521346
801.187845	2530.659231
801.508936	2563.426731
801.829983	2487.809423
802.150984	2513.015192
802.471940	2576.029615
802.792851	2444.959615
803.113717	2505.453462
803.434538	2462.603654
803.755314	2419.753846
804.076045	2593.673654
804.396731	2518.056346
804.717372	2487.809423
805.037967	2505.453462
805.358518	2525.618077
805.679024	2515.535769
805.999485	2397.068654
806.319901	2487.809423
806.640272	2392.027500
806.960598	2467.644808
807.280879	2457.562500
807.601115	2603.755962
807.921306	2452.521346
808.241453	2500.412308
808.561554	2432.356731
808.881611	2523.097500
809.201623	2455.041923
809.521590	2480.247692
809.841513	2505.453462
810.161390	2510.494615
810.481223	2510.494615
810.801011	2492.850577
811.120755	2510.494615
811.440453	2482.768269
811.760107	2460.083077
812.079716	2510.494615
812.399281	2525.618077
812.718801	2545.782692
813.038276	2495.371154
813.357707	2525.618077
813.677093	2510.494615
813.996434	2467.644808
814.315731	2538.220962
814.634983	2457.562500
814.954191	2472.685962
815.273354	2520.576923
815.592473	2447.480192
815.911547	2528.138654
816.230577	2523.097500
816.549562	2535.700385
816.868502	2510.494615
817.187399	2523.097500
817.506250	2487.809423
817.825058	2500.412308
818.143821	2558.385577
818.462539	2535.700385
818.781213	2565.947308
819.099843	2518.056346
819.418429	2439.918462
819.736970	2513.015192
820.055466	2492.850577
820.373919	2528.138654
820.692327	2513.015192
821.010691	2525.618077
821.329011	2444.959615
821.647286	2510.494615
821.965517	2502.932885
822.283704	2490.330000
822.601847	2477.727115
822.919945	2502.932885
823.237999	2545.782692
823.556010	2495.371154
823.873976	2439.918462
824.191897	2538.220962
824.509775	2475.206538
824.827609	2487.809423
825.145398	2482.768269
825.463144	2535.700385
825.780845	2462.603654
826.098502	2528.138654
826.416116	2583.591346
826.733685	2490.330000
827.051210	2523.097500
827.368692	2540.741538
827.686129	2507.974038
828.003522	2550.823846
828.320872	2455.041923
828.638177	2535.700385
828.955439	2409.671538
829.272656	2452.521346
829.589830	2470.165385
829.906960	2437.397885
830.224046	2502.932885
830.541088	2596.194231
830.858086	2515.535769
831.175041	2485.288846
831.491952	2507.974038
831.808819	2480.247692
832.125642	2492.850577
832.442421	2487.809423
832.759157	2462.603654
833.075849	2523.097500
833.392497	2530.659231
833.709101	2465.124231
834.025662	2482.768269
834.342179	2444.959615
834.658653	2480.247692
834.975083	2495.371154
835.291469	2523.097500
835.607811	2475.206538
835.924110	2437.397885
836.240366	2460.083077
836.556578	2553.344423
836.872746	2490.330000
837.188871	2528.138654
837.504952	2432.356731
837.820990	2444.959615
838.136984	2480.247692
838.452935	2475.206538
838.768842	2472.685962
839.084706	2470.165385
839.400526	2407.150962
839.716303	2535.700385
840.032037	2548.303269
840.347727	2500.412308
840.663373	2500.412308
840.978977	2477.727115
841.294537	2492.850577
841.610054	2533.179808
841.925527	2429.836154
842.240957	2399.589231
842.556344	2553.344423
842.871687	2505.453462
843.186987	2515.535769
843.502244	2429.836154
843.817458	2530.659231
844.132629	2520.576923
844.447756	2548.303269
844.762840	2533.179808
845.077881	2490.330000
845.392879	2510.494615
845.707833	2470.165385
846.022745	2477.727115
846.337613	2606.276538
846.652438	2470.165385
846.967221	2470.165385
847.281960	2480.247692
847.596656	2462.603654
847.911309	2568.467885
848.225919	2495.371154
848.540485	2535.700385
848.855009	2460.083077
849.169490	2495.371154
849.483928	2487.809423
849.798323	2543.262115
850.112675	2482.768269
850.426984	2455.041923
850.741251	2523.097500
851.055474	2482.768269
851.369654	2540.741538
851.683792	2475.206538
851.997887	2548.303269
852.311938	2500.412308
852.625947	2495.371154
852.939914	2510.494615
853.253837	2482.768269
853.567718	2437.397885
853.881555	2510.494615
854.195350	2513.015192
854.509103	2535.700385
854.822812	2480.247692
855.136479	2583.591346
855.450103	2550.823846
855.763685	2530.659231
856.077224	2437.397885
856.390720	2485.288846
856.704173	2455.041923
857.017584	2530.659231
857.330953	2465.124231
857.644278	2568.467885
857.957561	2477.727115
858.270802	2442.439038
858.584000	2500.412308
858.897155	2553.344423
859.210268	2497.891731
859.523339	2528.138654
859.836367	2490.330000
860.149352	2525.618077
860.462295	2505.453462
860.775195	2507.974038
861.088054	2447.480192
861.400869	2576.029615
861.713642	2447.480192
862.026373	2538.220962
862.339062	2422.274423
862.651708	2467.644808
862.964312	2472.685962
863.276873	2502.932885
863.589392	2502.932885
863.901869	2480.247692
864.214303	2558.385577
864.526696	2596.194231
864.839045	2490.330000
865.151353	2480.247692
865.463619	2460.083077
865.775842	2513.015192
866.088023	2462.603654
866.400162	2439.918462
866.712258	2475.206538
867.024313	2515.535769
867.336325	2495.371154
867.648296	2399.589231
867.960224	2434.877308
868.272110	2528.138654
868.583954	2467.644808
868.895755	2568.467885
869.207515	2460.083077
869.519233	2507.974038
869.830909	2553.344423
870.142542	2467.644808
870.454134	2502.932885
870.765684	2485.288846
871.077191	2482.768269
871.388657	2460.083077
871.700081	2477.727115
872.011463	2530.659231
872.322803	2472.685962
872.634101	2465.124231
872.945357	2444.959615
873.256571	2497.891731
873.567744	2490.330000
873.878874	2480.247692
874.189963	2533.179808
874.501010	2472.685962
874.812015	2437.397885
875.122979	2505.453462
875.433900	2550.823846
875.744780	2495.371154
876.055618	2530.659231
876.366415	2518.056346
876.677169	2553.344423
876.987882	2500.412308
877.298554	2513.015192
877.609183	2450.000769
877.919771	2472.685962
878.230317	2505.453462
878.540822	2535.700385
878.851285	2434.877308
879.161707	2485.288846
879.472087	2475.206538
879.782425	2533.179808
880.092722	2412.192115
880.402977	2422.274423
880.713191	2452.521346
881.023363	2452.521346
881.333494	2495.371154
881.643583	2550.823846
881.953631	2500.412308
882.263637	2414.712692
882.573602	2525.618077
882.883526	2462.603654
883.193408	2560.906154
883.503248	2399.589231
883.813048	2528.138654
884.122806	2492.850577
884.432522	2495.371154
884.742197	2444.959615
885.051831	2429.836154
885.361424	2492.850577
885.670975	2399.589231
885.980485	2497.891731
886.289954	2477.727115
886.599382	2500.412308
886.908768	2520.576923
887.218113	2399.589231
887.527417	2518.056346
887.836680	2477.727115
888.145901	2409.671538
888.455082	2525.618077
888.764221	2475.206538
889.073319	2528.138654
889.382376	2432.356731
889.691392	2505.453462
890.000366	2452.521346
890.309300	2523.097500
890.618193	2402.109808
890.927044	2545.782692
891.235855	2462.603654
891.544625	2576.029615
891.853353	2515.535769
892.162041	2520.576923
892.470687	2412.192115
892.779293	2520.576923
893.087858	2482.768269
893.396381	2538.220962
893.704864	2460.083077
894.013306	2480.247692
894.321707	2550.823846
894.630068	2450.000769
894.938387	2397.068654
895.246665	2475.206538
895.554903	2434.877308
895.863100	2530.659231
896.171256	2570.988462
896.479371	2427.315577
896.787446	2502.932885
897.095480	2467.644808
897.403473	2540.741538
897.711425	2510.494615
898.019336	2507.974038
898.327207	2490.330000
898.635038	2487.809423
898.942827	2485.288846
899.250576	2490.330000
899.558284	2502.932885
899.865952	2455.041923
900.173579	2442.439038
900.481165	2528.138654
900.788711	2465.124231
901.096216	2460.083077
901.403681	2538.220962
901.711105	2581.070769
902.018489	2442.439038
902.325832	2472.685962
902.633135	2480.247692
902.940397	2502.932885
903.247619	2505.453462
903.554800	2434.877308
903.861941	2409.671538
904.169041	2470.165385
904.476101	2505.453462
904.783121	2447.480192
905.090100	2548.303269
905.397039	2490.330000
905.703938	2475.206538
906.010796	2447.480192
906.317614	2472.685962
906.624391	2528.138654
906.931129	2495.371154
907.237826	2583.591346
907.544483	2538.220962
907.851099	2545.782692
908.157675	2487.809423
908.464211	2492.850577
908.770707	2505.453462
909.077163	2462.603654
909.383578	2487.809423
909.689954	2457.562500
909.996289	2419.753846
910.302584	2492.850577
910.608839	2414.712692
910.915054	2523.097500
911.221229	2477.727115
911.527363	2470.165385
911.833458	2550.823846
912.139513	2472.685962
912.445527	2485.288846
912.751502	2507.974038
913.057436	2475.206538
913.363331	2565.947308
913.669186	2525.618077
913.975000	2477.727115
914.280775	2437.397885
914.586510	2427.315577
914.892205	2392.027500
915.197859	2462.603654
915.503475	2467.644808
915.809050	2543.262115
916.114585	2563.426731
916.420081	2515.535769
916.725536	2444.959615
917.030952	2523.097500
917.336328	2434.877308
917.641665	2505.453462
917.946961	2593.673654
918.252218	2432.356731
918.557435	2545.782692
918.862612	2492.850577
919.167750	2502.932885
919.472848	2500.412308
919.777906	2510.494615
920.082925	2487.809423
920.387904	2505.453462
920.692843	2455.041923
920.997743	2535.700385
921.302603	2485.288846
921.607423	2422.274423
921.912204	2482.768269
922.216946	2467.644808
922.521647	2568.467885
922.826310	2477.727115
923.130932	2485.288846
923.435516	2560.906154
923.740059	2417.233269
924.044564	2477.727115
924.349028	2467.644808
924.653454	2487.809423
924.957840	2409.671538
925.262186	2578.550192
925.566493	2558.385577
925.870761	2538.220962
926.174989	2472.685962
926.479178	2475.206538
926.783328	2502.932885
927.087438	2442.439038
927.391509	2492.850577
927.695541	2475.206538
927.999533	2507.974038
928.303486	2480.247692
928.607400	2460.083077
928.911275	2434.877308
929.215110	2513.015192
929.518906	2422.274423
929.822663	2485.288846
930.126381	2480.247692
930.430060	2346.657115
930.733699	2525.618077
931.037299	2611.317692
931.340861	2467.644808
931.644383	2490.330000
931.947866	2487.809423
932.251309	2518.056346
932.554714	2530.659231
932.858080	2543.262115
933.161407	2505.453462
933.464694	2502.932885
933.767943	2477.727115
934.071153	2500.412308
934.374323	2500.412308
934.677455	2583.591346
934.980548	2444.959615
935.283602	2533.179808
935.586617	2555.865000
935.889593	2545.782692
936.192530	2414.712692
936.495428	2467.644808
936.798287	2465.124231
937.101108	2553.344423
937.403890	2477.727115
937.706632	2477.727115
938.009336	2457.562500
938.312002	2492.850577
938.614628	2500.412308
938.917216	2578.550192
939.219765	2518.056346
939.522275	2502.932885
939.824747	2576.029615
940.127179	2555.865000
940.429573	2543.262115
940.731929	2432.356731
941.034246	2404.630385
941.336524	2533.179808
941.638763	2502.932885
941.940964	2586.111923
942.243126	2389.506923
942.545250	2507.974038
942.847335	2470.165385
943.149381	2545.782692
943.451389	2497.891731
943.753359	2490.330000
944.055290	2518.056346
944.357182	2576.029615
944.659036	2523.097500
944.960851	2462.603654
945.262628	2510.494615
945.564367	2477.727115
945.866067	2412.192115
946.167729	2586.111923
946.469352	2444.959615
946.770937	2495.371154
947.072484	2518.056346
947.373992	2500.412308
947.675462	2558.385577
947.976893	2528.138654
948.278286	2518.056346
948.579641	2417.233269
948.880958	2495.371154
949.182236	2402.109808
949.483476	2533.179808
949.784678	2583.591346
950.085841	2447.480192
950.386967	2578.550192
950.688054	2576.029615
950.989103	2485.288846
951.290114	2485.288846
951.591087	2482.768269
951.892021	2543.262115
952.192917	2452.521346
952.493776	2507.974038
952.794596	2492.850577
953.095378	2485.288846
953.396122	2510.494615
953.696828	2505.453462
953.997496	2452.521346
954.298126	2455.041923
954.598718	2507.974038
954.899272	2429.836154
955.199788	2518.056346
955.500266	2455.041923
955.800706	2543.262115
956.101108	2422.274423
956.401472	2560.906154
956.701798	2502.932885
957.002087	2502.932885
957.302337	2480.247692
957.602550	2414.712692
957.902724	2505.453462
958.202861	2450.000769
958.502960	2530.659231
958.803022	2500.412308
959.103045	2492.850577
959.403031	2528.138654
959.702979	2419.753846
960.002889	2510.494615
960.302762	2480.247692
960.602596	2510.494615
960.902393	2573.509038
961.202153	2414.712692
961.501875	2555.865000
961.801559	2455.041923
962.101205	2495.371154
962.400814	2545.782692
962.700385	2492.850577
962.999918	2462.603654
963.299414	2507.974038
963.598873	2518.056346
963.898293	2528.138654
964.197677	2450.000769
964.497022	2439.918462
964.796331	2417.233269
965.095601	2462.603654
965.394835	2452.521346
965.694030	2444.959615
965.993189	2500.412308
966.292309	2518.056346
966.591393	2576.029615
966.890439	2470.165385
967.189447	2497.891731
967.488419	2475.206538
967.787353	2533.179808
968.086249	2533.179808
968.385108	2530.659231
968.683930	2467.644808
968.982714	2518.056346
969.281462	2510.494615
969.580172	2500.412308
969.878844	2404.630385
970.177480	2462.603654
970.476078	2492.850577
970.774639	2500.412308
971.073162	2460.083077
971.371649	2588.632500
971.670098	2465.124231
971.968510	2455.041923
972.266885	2434.877308
972.565223	2515.535769
972.863524	2543.262115
973.161788	2507.974038
973.460014	2467.644808
973.758204	2467.644808
974.056356	2457.562500
974.354471	2485.288846
974.652550	2533.179808
974.950591	2462.603654
975.248595	2513.015192
975.546563	2533.179808
975.844493	2467.644808
976.142386	2500.412308
976.440243	2555.865000
976.738062	2455.041923
977.035845	2414.712692
977.333590	2472.685962
977.631299	2455.041923
977.928971	2422.274423
978.226606	2442.439038
978.524204	2482.768269
978.821765	2455.041923
979.119290	2528.138654
979.416777	2470.165385
979.714228	2455.041923
980.011642	2394.548077
980.309020	2432.356731
980.606360	2507.974038
980.903664	2465.124231
981.200931	2523.097500
981.498162	2452.521346
981.795356	2490.330000
982.092513	2568.467885
982.389633	2472.685962
982.686717	2515.535769
982.983764	2510.494615
983.280775	2495.371154
983.577749	2502.932885
983.874686	2379.424615
984.171587	2518.056346
984.468451	2480.247692
984.765279	2558.385577
985.062070	2450.000769
985.358824	2490.330000
985.655543	2452.521346
985.952224	2515.535769
986.248869	2497.891731
986.545478	2485.288846
986.842050	2565.947308
987.138586	2535.700385
987.435086	2487.809423
987.731549	2457.562500
988.027975	2502.932885
988.324366	2472.685962
988.620719	2482.768269
988.917037	2548.303269
989.213318	2502.932885
989.509563	2500.412308
989.805772	2490.330000
990.101944	2540.741538
990.398080	2437.397885
990.694180	2505.453462
990.990244	2495.371154
991.286271	2480.247692
991.582262	2460.083077
991.878217	2487.809423
992.174136	2523.097500
992.470019	2442.439038
992.765865	2429.836154
993.061676	2500.412308
993.357450	2487.809423
993.653188	2525.618077
993.948890	2475.206538
994.244556	2525.618077
994.540186	2621.400000
994.835780	2452.521346
995.131337	2553.344423
995.426859	2492.850577
995.722345	2437.397885
996.017795	2485.288846
996.313208	2429.836154
996.608586	2515.535769
996.903928	2540.741538
997.199234	2432.356731
997.494504	2482.768269
997.789738	2530.659231
998.084936	2472.685962
998.380099	2434.877308
998.675225	2424.795000
998.970316	2424.795000
999.265371	2450.000769
999.560390	2545.782692
999.855373	2462.603654
1000.150320	2492.850577
1000.445232	2502.932885
1000.740108	2505.453462
1001.034948	2442.439038
1001.329752	2500.412308
1001.624521	2460.083077
1001.919254	2465.124231
1002.213951	2381.945192
1002.508613	2520.576923
1002.803239	2465.124231
1003.097829	2505.453462
1003.392384	2492.850577
1003.686903	2485.288846
1003.981386	2500.412308
1004.275834	2467.644808
1004.570246	2447.480192
1004.864623	2470.165385
1005.158964	2442.439038
1005.453270	2520.576923
1005.747540	2432.356731
1006.041775	2457.562500
1006.335974	2480.247692
1006.630138	2485.288846
1006.924266	2439.918462
1007.218359	2520.576923
1007.512416	2528.138654
1007.806438	2465.124231
1008.100425	2422.274423
1008.394376	2560.906154
1008.688292	2555.865000
1008.982172	2467.644808
1009.276017	2507.974038
1009.569827	2510.494615
1009.863602	2424.795000
1010.157341	2487.809423
1010.451045	2462.603654
1010.744714	2482.768269
1011.038347	2455.041923
1011.331945	2487.809423
1011.625508	2502.932885
1011.919036	2369.342308
1012.212528	2535.700385
1012.505986	2482.768269
1012.799408	2518.056346
1013.092795	2570.988462
1013.386147	2500.412308
1013.679464	2477.727115
1013.972745	2424.795000
1014.265992	2422.274423
1014.559204	2525.618077
1014.852380	2480.247692
1015.145521	2457.562500
1015.438628	2513.015192
1015.731699	2520.576923
1016.024736	2462.603654
1016.317737	2394.548077
1016.610703	2467.644808
1016.903635	2495.371154
1017.196531	2510.494615
1017.489393	2495.371154
1017.782219	2533.179808
1018.075011	2407.150962
1018.367768	2513.015192
1018.660490	2475.206538
1018.953177	2475.206538
1019.245829	2475.206538
