Dividing Wavelength (nm)	Counts (n)	Blue Motor Position (mm): 8.800000	Red Motor Position (mm): 0.000000	
326.493990	2165.175577
326.888308	2165.175577
327.282561	2165.175577
327.676750	2087.037692
328.070874	2046.708462
328.464933	2079.475962
328.858929	1991.255769
329.252859	2087.037692
329.646726	2172.737308
330.040528	2097.120000
330.434265	2223.148846
330.827938	2175.257885
331.221547	2087.037692
331.615091	2170.216731
332.008571	2122.325769
332.401986	2255.916346
332.795338	2200.463654
333.188625	2308.848462
333.581847	2293.725000
333.975006	2381.945192
334.368100	2392.027500
334.761129	2293.725000
335.154095	2349.177692
335.546996	2306.327885
335.939833	2364.301154
336.332606	2308.848462
336.725315	2417.233269
337.117960	2455.041923
337.510540	2492.850577
337.903056	2356.739423
338.295508	2399.589231
338.687896	2392.027500
339.080220	2452.521346
339.472480	2394.548077
339.864676	2477.727115
340.256807	2480.247692
340.648875	2495.371154
341.040879	2450.000769
341.432818	2487.809423
341.824694	2482.768269
342.216506	2404.630385
342.608253	2497.891731
342.999937	2404.630385
343.391557	2507.974038
343.783113	2465.124231
344.174605	2482.768269
344.566033	2507.974038
344.957397	2487.809423
345.348697	2507.974038
345.739934	2538.220962
346.131106	2505.453462
346.522215	2447.480192
346.913260	2462.603654
347.304241	2507.974038
347.695159	2432.356731
348.086012	2462.603654
348.476802	2452.521346
348.867528	2434.877308
349.258191	2437.397885
349.648789	2399.589231
350.039324	2510.494615
350.429796	2480.247692
350.820203	2412.192115
351.210548	2538.220962
351.600828	2379.424615
351.991045	2444.959615
352.381198	2505.453462
352.771288	2510.494615
353.161314	2427.315577
353.551276	2424.795000
353.941175	2412.192115
354.331010	2427.315577
354.720782	2545.782692
355.110490	2407.150962
355.500135	2422.274423
355.889717	2455.041923
356.279235	2502.932885
356.668689	2507.974038
357.058080	2422.274423
357.447408	2409.671538
357.836672	2422.274423
358.225873	2394.548077
358.615010	2402.109808
359.004084	2349.177692
359.393095	2475.206538
359.782043	2450.000769
360.170927	2437.397885
360.559748	2480.247692
360.948505	2485.288846
361.337199	2457.562500
361.725830	2475.206538
362.114398	2487.809423
362.502903	2444.959615
362.891344	2477.727115
363.279722	2417.233269
363.668037	2452.521346
364.056289	2392.027500
364.444478	2447.480192
364.832603	2412.192115
365.220665	2412.192115
365.608665	2550.823846
365.996601	2434.877308
366.384474	2462.603654
366.772284	2379.424615
367.160031	2394.548077
367.547715	2515.535769
367.935336	2467.644808
368.322893	2475.206538
368.710388	2439.918462
369.097820	2523.097500
369.485189	2422.274423
369.872495	2487.809423
370.259738	2442.439038
370.646918	2384.465769
371.034035	2495.371154
371.421090	2414.712692
371.808081	2386.986346
372.195010	2550.823846
372.581875	2462.603654
372.968678	2417.233269
373.355418	2437.397885
373.742096	2457.562500
374.128710	2419.753846
374.515262	2500.412308
374.901751	2376.904038
375.288177	2447.480192
375.674540	2518.056346
376.060841	2439.918462
376.447079	2409.671538
376.833254	2467.644808
377.219367	2371.862885
377.605417	2422.274423
377.991404	2500.412308
378.377329	2530.659231
378.763191	2467.644808
379.148991	2460.083077
379.534727	2414.712692
379.920402	2480.247692
380.306013	2455.041923
380.691563	2432.356731
381.077049	2480.247692
381.462474	2497.891731
381.847835	2460.083077
382.233134	2442.439038
382.618371	2581.070769
383.003545	2490.330000
383.388657	2497.891731
383.773706	2470.165385
384.158693	2450.000769
384.543618	2470.165385
384.928480	2460.083077
385.313280	2457.562500
385.698017	2455.041923
386.082692	2344.136538
386.467305	2409.671538
386.851856	2374.383462
387.236344	2502.932885
387.620770	2558.385577
388.005133	2432.356731
388.389435	2450.000769
388.773674	2402.109808
389.157851	2460.083077
389.541965	2457.562500
389.926018	2475.206538
390.310008	2455.041923
390.693936	2465.124231
391.077802	2460.083077
391.461606	2467.644808
391.845348	2452.521346
392.229027	2397.068654
392.612645	2326.492500
392.996200	2429.836154
393.379694	2507.974038
393.763125	2530.659231
394.146494	2492.850577
394.529801	2492.850577
394.913047	2510.494615
395.296230	2457.562500
395.679351	2399.589231
396.062410	2490.330000
396.445408	2510.494615
396.828343	2424.795000
397.211217	2442.439038
397.594028	2475.206538
397.976778	2510.494615
398.359466	2419.753846
398.742092	2442.439038
399.124656	2576.029615
399.507158	2442.439038
399.889598	2485.288846
400.271977	2409.671538
400.654294	2450.000769
401.036549	2507.974038
401.418742	2455.041923
401.800874	2437.397885
402.182944	2490.330000
402.564952	2475.206538
402.946898	2492.850577
403.328783	2538.220962
403.710606	2513.015192
404.092367	2485.288846
404.474067	2427.315577
404.855705	2450.000769
405.237282	2412.192115
405.618797	2374.383462
406.000250	2392.027500
406.381642	2472.685962
406.762972	2475.206538
407.144240	2439.918462
407.525447	2472.685962
407.906593	2485.288846
408.287677	2389.506923
408.668700	2402.109808
409.049661	2475.206538
409.430560	2465.124231
409.811399	2402.109808
410.192176	2460.083077
410.572891	2510.494615
410.953545	2417.233269
411.334138	2412.192115
411.714669	2480.247692
412.095139	2409.671538
412.475547	2530.659231
412.855894	2558.385577
413.236180	2545.782692
413.616405	2470.165385
413.996568	2565.947308
414.376670	2434.877308
414.756711	2568.467885
415.136691	2447.480192
415.516609	2465.124231
415.896466	2518.056346
416.276262	2447.480192
416.655997	2528.138654
417.035670	2447.480192
417.415283	2518.056346
417.794834	2472.685962
418.174324	2417.233269
418.553753	2422.274423
418.933121	2472.685962
419.312428	2412.192115
419.691674	2495.371154
420.070859	2497.891731
420.449983	2480.247692
420.829045	2505.453462
421.208047	2560.906154
421.586988	2432.356731
421.965867	2497.891731
422.344686	2475.206538
422.723444	2518.056346
423.102141	2480.247692
423.480777	2495.371154
423.859352	2538.220962
424.237866	2477.727115
424.616319	2477.727115
424.994712	2495.371154
425.373044	2447.480192
425.751314	2447.480192
426.129524	2462.603654
426.507673	2518.056346
426.885762	2513.015192
427.263789	2487.809423
427.641756	2523.097500
428.019662	2450.000769
428.397508	2492.850577
428.775292	2495.371154
429.153016	2437.397885
429.530679	2460.083077
429.908282	2505.453462
430.285824	2444.959615
430.663305	2502.932885
431.040726	2523.097500
431.418086	2530.659231
431.795385	2497.891731
432.172624	2507.974038
432.549802	2470.165385
432.926920	2465.124231
433.303977	2525.618077
433.680974	2457.562500
434.057910	2467.644808
434.434786	2540.741538
434.811601	2457.562500
435.188355	2402.109808
435.565050	2563.426731
435.941683	2502.932885
436.318257	2465.124231
436.694770	2472.685962
437.071222	2470.165385
437.447614	2550.823846
437.823946	2495.371154
438.200218	2528.138654
438.576429	2424.795000
438.952580	2384.465769
439.328670	2480.247692
439.704700	2593.673654
440.080670	2432.356731
440.456580	2492.850577
440.832429	2507.974038
441.208218	2495.371154
441.583947	2515.535769
441.959616	2560.906154
442.335224	2515.535769
442.710773	2502.932885
443.086261	2467.644808
443.461689	2422.274423
443.837057	2505.453462
444.212365	2472.685962
444.587612	2560.906154
444.962800	2397.068654
445.337927	2545.782692
445.712995	2432.356731
446.088002	2490.330000
446.462949	2439.918462
446.837837	2533.179808
447.212664	2437.397885
447.587431	2520.576923
447.962139	2530.659231
448.336786	2550.823846
448.711374	2505.453462
449.085901	2543.262115
449.460369	2490.330000
449.834776	2510.494615
450.209124	2530.659231
450.583412	2487.809423
450.957640	2460.083077
451.331808	2550.823846
451.705917	2460.083077
452.079965	2460.083077
452.453954	2553.344423
452.827883	2535.700385
453.201752	2535.700385
453.575562	2510.494615
453.949311	2505.453462
454.323001	2510.494615
454.696632	2513.015192
455.070202	2487.809423
455.443713	2439.918462
455.817164	2497.891731
456.190556	2485.288846
456.563888	2429.836154
456.937160	2533.179808
457.310373	2485.288846
457.683526	2518.056346
458.056619	2543.262115
458.429653	2596.194231
458.802628	2419.753846
459.175542	2467.644808
459.548398	2437.397885
459.921194	2460.083077
460.293930	2457.562500
460.666607	2535.700385
461.039224	2462.603654
461.411782	2482.768269
461.784280	2555.865000
462.156719	2507.974038
462.529099	2452.521346
462.901419	2465.124231
463.273680	2384.465769
463.645882	2487.809423
464.018024	2523.097500
464.390106	2495.371154
464.762130	2467.644808
465.134094	2472.685962
465.505999	2528.138654
465.877845	2570.988462
466.249631	2447.480192
466.621358	2507.974038
466.993026	2500.412308
467.364634	2513.015192
467.736184	2495.371154
468.107674	2467.644808
468.479105	2538.220962
468.850477	2394.548077
469.221790	2505.453462
469.593043	2502.932885
469.964238	2447.480192
470.335373	2492.850577
470.706449	2447.480192
471.077467	2437.397885
471.448425	2485.288846
471.819324	2452.521346
472.190164	2530.659231
472.560945	2477.727115
472.931667	2487.809423
473.302330	2487.809423
473.672934	2545.782692
474.043479	2540.741538
474.413965	2563.426731
474.784393	2457.562500
475.154761	2467.644808
475.525070	2513.015192
475.895321	2475.206538
476.265513	2480.247692
476.635645	2472.685962
477.005719	2538.220962
477.375734	2515.535769
477.745691	2513.015192
478.115588	2455.041923
478.485427	2591.153077
478.855207	2513.015192
479.224928	2497.891731
479.594591	2560.906154
479.964194	2533.179808
480.333739	2460.083077
480.703226	2525.618077
481.072653	2492.850577
481.442022	2520.576923
481.811333	2495.371154
482.180584	2419.753846
482.549777	2513.015192
482.918912	2535.700385
483.287988	2480.247692
483.657005	2457.562500
484.025964	2475.206538
484.394864	2510.494615
484.763706	2518.056346
485.132489	2475.206538
485.501213	2523.097500
485.869879	2558.385577
486.238487	2545.782692
486.607036	2472.685962
486.975527	2507.974038
487.343959	2434.877308
487.712333	2487.809423
488.080648	2487.809423
488.448905	2470.165385
488.817104	2452.521346
489.185244	2497.891731
489.553326	2467.644808
489.921350	2487.809423
490.289315	2495.371154
490.657222	2505.453462
491.025070	2507.974038
491.392861	2477.727115
491.760593	2502.932885
492.128267	2528.138654
492.495883	2487.809423
492.863440	2497.891731
493.230939	2417.233269
493.598380	2515.535769
493.965763	2518.056346
494.333088	2558.385577
494.700354	2518.056346
495.067563	2558.385577
495.434713	2407.150962
495.801805	2462.603654
496.168839	2427.315577
496.535815	2533.179808
496.902733	2513.015192
497.269593	2598.714808
497.636395	2470.165385
498.003139	2573.509038
498.369825	2444.959615
498.736453	2455.041923
499.103023	2366.821731
499.469535	2525.618077
499.835989	2530.659231
500.202385	2518.056346
500.568723	2487.809423
500.935003	2422.274423
501.301226	2507.974038
501.667390	2465.124231
502.033497	2477.727115
502.399546	2507.974038
502.765537	2505.453462
503.131470	2487.809423
503.497345	2457.562500
503.863163	2472.685962
504.228923	2437.397885
504.594625	2553.344423
504.960269	2407.150962
505.325856	2548.303269
505.691385	2485.288846
506.056856	2447.480192
506.422270	2495.371154
506.787625	2442.439038
507.152924	2543.262115
507.518164	2487.809423
507.883347	2513.015192
508.248472	2487.809423
508.613540	2485.288846
508.978550	2444.959615
509.343503	2528.138654
509.708398	2555.865000
510.073236	2482.768269
510.438016	2528.138654
510.802738	2477.727115
511.167403	2487.809423
511.532010	2457.562500
511.896561	2540.741538
512.261053	2507.974038
512.625488	2513.015192
512.989866	2573.509038
513.354186	2447.480192
513.718449	2490.330000
514.082655	2588.632500
514.446803	2465.124231
514.810894	2409.671538
515.174927	2583.591346
515.538904	2555.865000
515.902822	2558.385577
516.266684	2502.932885
516.630488	2424.795000
516.994235	2550.823846
517.357925	2568.467885
517.721558	2477.727115
518.085133	2389.506923
518.448651	2538.220962
518.812112	2475.206538
519.175516	2513.015192
519.538863	2518.056346
519.902152	2510.494615
520.265385	2457.562500
520.628560	2392.027500
520.991678	2485.288846
521.354739	2568.467885
521.717743	2495.371154
522.080690	2502.932885
522.443580	2434.877308
522.806413	2487.809423
523.169189	2482.768269
523.531908	2538.220962
523.894569	2510.494615
524.257174	2588.632500
524.619722	2568.467885
524.982213	2490.330000
525.344647	2482.768269
525.707025	2465.124231
526.069345	2407.150962
526.431608	2437.397885
526.793815	2505.453462
527.155964	2444.959615
527.518057	2376.904038
527.880093	2543.262115
528.242072	2502.932885
528.603995	2502.932885
528.965860	2533.179808
529.327669	2528.138654
529.689421	2480.247692
530.051117	2470.165385
530.412755	2465.124231
530.774337	2475.206538
531.135862	2467.644808
531.497331	2565.947308
531.858743	2460.083077
532.220098	2502.932885
532.581396	2528.138654
532.942638	2578.550192
533.303824	2482.768269
533.664953	2475.206538
534.026025	2470.165385
534.387040	2492.850577
534.747999	2447.480192
535.108902	2545.782692
535.469748	2437.397885
535.830537	2530.659231
536.191270	2540.741538
536.551947	2603.755962
536.912567	2477.727115
537.273131	2472.685962
537.633638	2475.206538
537.994089	2515.535769
538.354483	2555.865000
538.714821	2452.521346
539.075103	2510.494615
539.435328	2457.562500
539.795497	2573.509038
540.155609	2472.685962
540.515665	2485.288846
540.875665	2490.330000
541.235609	2598.714808
541.595496	2485.288846
541.955328	2460.083077
542.315102	2528.138654
542.674821	2535.700385
543.034483	2462.603654
543.394090	2533.179808
543.753640	2470.165385
544.113134	2442.439038
544.472571	2553.344423
544.831953	2641.564615
545.191278	2485.288846
545.550548	2550.823846
545.909761	2444.959615
546.268918	2510.494615
546.628019	2510.494615
546.987064	2502.932885
547.346053	2505.453462
547.704986	2427.315577
548.063863	2495.371154
548.422684	2535.700385
548.781449	2565.947308
549.140158	2553.344423
549.498811	2528.138654
549.857408	2507.974038
550.215949	2487.809423
550.574434	2427.315577
550.932864	2475.206538
551.291237	2513.015192
551.649555	2432.356731
552.007817	2507.974038
552.366022	2568.467885
552.724173	2528.138654
553.082267	2540.741538
553.440305	2485.288846
553.798288	2533.179808
554.156215	2492.850577
554.514086	2528.138654
554.871902	2470.165385
555.229661	2432.356731
555.587365	2530.659231
555.945014	2510.494615
556.302606	2427.315577
556.660143	2434.877308
557.017625	2490.330000
557.375050	2586.111923
557.732421	2455.041923
558.089735	2513.015192
558.446994	2588.632500
558.804197	2525.618077
559.161345	2452.521346
559.518437	2523.097500
559.875474	2424.795000
560.232455	2412.192115
560.589381	2452.521346
560.946251	2439.918462
561.303065	2505.453462
561.659825	2452.521346
562.016528	2495.371154
562.373177	2525.618077
562.729770	2555.865000
563.086307	2407.150962
563.442789	2500.412308
563.799216	2497.891731
564.155587	2563.426731
564.511904	2482.768269
564.868164	2538.220962
565.224370	2586.111923
565.580520	2487.809423
565.936615	2455.041923
566.292654	2525.618077
566.648638	2528.138654
567.004567	2528.138654
567.360441	2502.932885
567.716260	2528.138654
568.072023	2477.727115
568.427732	2538.220962
568.783385	2513.015192
569.138982	2460.083077
569.494525	2487.809423
569.850013	2492.850577
570.205445	2558.385577
570.560823	2460.083077
570.916145	2535.700385
571.271412	2533.179808
571.626625	2455.041923
571.981782	2432.356731
572.336884	2545.782692
572.691931	2447.480192
573.046923	2530.659231
573.401860	2462.603654
573.756743	2515.535769
574.111570	2447.480192
574.466342	2427.315577
574.821059	2455.041923
575.175722	2450.000769
575.530330	2487.809423
575.884882	2518.056346
576.239380	2462.603654
576.593823	2533.179808
576.948211	2480.247692
577.302544	2518.056346
577.656823	2548.303269
578.011047	2480.247692
578.365216	2389.506923
578.719330	2540.741538
579.073389	2492.850577
579.427394	2412.192115
579.781344	2530.659231
580.135239	2510.494615
580.489080	2465.124231
580.842866	2535.700385
581.196597	2611.317692
581.550273	2475.206538
581.903895	2530.659231
582.257463	2462.603654
582.610975	2528.138654
582.964434	2500.412308
583.317837	2538.220962
583.671186	2495.371154
584.024481	2515.535769
584.377721	2452.521346
584.730906	2520.576923
585.084037	2553.344423
585.437113	2513.015192
585.790135	2548.303269
586.143103	2540.741538
586.496016	2530.659231
586.848874	2444.959615
587.201679	2565.947308
587.554428	2467.644808
587.907124	2444.959615
588.259765	2550.823846
588.612352	2482.768269
588.964884	2528.138654
589.317362	2487.809423
589.669786	2563.426731
590.022155	2475.206538
590.374470	2444.959615
590.726731	2497.891731
591.078937	2432.356731
591.431090	2505.453462
591.783188	2513.015192
592.135232	2492.850577
592.487222	2462.603654
592.839157	2520.576923
593.191038	2518.056346
593.542866	2470.165385
593.894639	2576.029615
594.246358	2525.618077
594.598022	2565.947308
594.949633	2553.344423
595.301190	2510.494615
595.652692	2397.068654
596.004141	2502.932885
596.355535	2563.426731
596.706876	2414.712692
597.058162	2429.836154
597.409395	2447.480192
597.760573	2535.700385
598.111698	2586.111923
598.462768	2472.685962
598.813785	2470.165385
599.164748	2518.056346
599.515657	2533.179808
599.866511	2457.562500
600.217312	2550.823846
600.568060	2576.029615
600.918753	2492.850577
601.269392	2535.700385
601.619978	2593.673654
601.970510	2485.288846
602.320988	2462.603654
602.671412	2500.412308
603.021783	2573.509038
603.372100	2565.947308
603.722363	2588.632500
604.072572	2535.700385
604.422728	2485.288846
604.772830	2576.029615
605.122878	2452.521346
605.472872	2548.303269
605.822813	2553.344423
606.172701	2553.344423
606.522534	2523.097500
606.872314	2515.535769
607.222041	2487.809423
607.571714	2550.823846
607.921333	2450.000769
608.270899	2480.247692
608.620411	2523.097500
608.969870	2553.344423
609.319276	2470.165385
609.668627	2480.247692
610.017926	2570.988462
610.367171	2515.535769
610.716362	2439.918462
611.065500	2530.659231
611.414585	2510.494615
611.763616	2490.330000
612.112594	2487.809423
612.461518	2596.194231
612.810389	2520.576923
613.159207	2535.700385
613.507971	2510.494615
613.856682	2457.562500
614.205340	2533.179808
614.553945	2591.153077
614.902496	2492.850577
615.250994	2515.535769
615.599439	2492.850577
615.947830	2480.247692
616.296169	2455.041923
616.644454	2576.029615
616.992686	2507.974038
617.340864	2515.535769
617.688990	2485.288846
618.037063	2502.932885
618.385082	2457.562500
618.733048	2558.385577
619.080961	2502.932885
619.428821	2588.632500
619.776628	2550.823846
620.124382	2381.945192
620.472083	2487.809423
620.819731	2525.618077
621.167326	2533.179808
621.514868	2550.823846
621.862357	2439.918462
622.209793	2548.303269
622.557176	2523.097500
622.904506	2500.412308
623.251783	2485.288846
623.599007	2495.371154
623.946179	2487.809423
624.293297	2450.000769
624.640363	2470.165385
624.987376	2518.056346
625.334336	2487.809423
625.681243	2523.097500
626.028097	2424.795000
626.374899	2535.700385
626.721647	2518.056346
627.068343	2578.550192
627.414987	2510.494615
627.761577	2538.220962
628.108115	2558.385577
628.454600	2502.932885
628.801032	2538.220962
629.147412	2500.412308
629.493739	2553.344423
629.840014	2432.356731
630.186236	2555.865000
630.532405	2497.891731
630.878521	2576.029615
631.224585	2460.083077
631.570597	2560.906154
631.916556	2533.179808
632.262462	2462.603654
632.608316	2366.821731
632.954117	2470.165385
633.299866	2525.618077
633.645562	2525.618077
633.991206	2465.124231
634.336797	2452.521346
634.682336	2565.947308
635.027823	2513.015192
635.373257	2518.056346
635.718639	2417.233269
636.063968	2434.877308
636.409245	2427.315577
636.754470	2439.918462
637.099642	2558.385577
637.444762	2492.850577
637.789829	2583.591346
638.134845	2533.179808
638.479808	2460.083077
638.824719	2472.685962
639.169577	2480.247692
639.514383	2500.412308
639.859137	2545.782692
640.203839	2540.741538
640.548489	2444.959615
640.893086	2450.000769
641.237632	2515.535769
641.582125	2553.344423
641.926566	2450.000769
642.270955	2467.644808
642.615292	2490.330000
642.959576	2502.932885
643.303809	2434.877308
643.647990	2540.741538
643.992118	2558.385577
644.336195	2631.482308
644.680219	2485.288846
645.024192	2533.179808
645.368112	2485.288846
645.711981	2492.850577
646.055797	2465.124231
646.399562	2518.056346
646.743274	2424.795000
647.086935	2437.397885
647.430544	2540.741538
647.774101	2528.138654
648.117606	2402.109808
648.461059	2492.850577
648.804460	2472.685962
649.147810	2500.412308
649.491108	2447.480192
649.834354	2485.288846
650.177548	2465.124231
650.520690	2485.288846
650.863781	2434.877308
651.206820	2507.974038
651.549807	2523.097500
651.892742	2513.015192
652.235626	2502.932885
652.578458	2452.521346
652.921238	2533.179808
653.263967	2500.412308
653.606644	2450.000769
653.949269	2475.206538
654.291843	2540.741538
654.634365	2495.371154
654.976836	2470.165385
655.319255	2394.548077
655.661622	2523.097500
656.003938	2455.041923
656.346203	2513.015192
656.688416	2525.618077
657.030577	2502.932885
657.372687	2550.823846
657.714746	2462.603654
658.056753	2545.782692
658.398708	2487.809423
658.740612	2505.453462
659.082465	2520.576923
659.424266	2379.424615
659.766016	2492.850577
660.107715	2507.974038
660.449362	2477.727115
660.790958	2505.453462
661.132503	2434.877308
661.473996	2570.988462
661.815438	2507.974038
662.156829	2523.097500
662.498168	2462.603654
662.839456	2523.097500
663.180693	2480.247692
663.521879	2502.932885
663.863013	2510.494615
664.204097	2500.412308
664.545129	2460.083077
664.886110	2394.548077
665.227040	2419.753846
665.567918	2601.235385
665.908746	2500.412308
666.249522	2540.741538
666.590248	2513.015192
666.930922	2490.330000
667.271545	2500.412308
667.612118	2530.659231
667.952639	2450.000769
668.293109	2379.424615
668.633528	2495.371154
668.973896	2470.165385
669.314213	2475.206538
669.654480	2439.918462
669.994695	2565.947308
670.334859	2412.192115
670.674973	2465.124231
671.015035	2497.891731
671.355047	2495.371154
671.695008	2417.233269
672.034918	2555.865000
672.374777	2502.932885
672.714585	2507.974038
673.054342	2518.056346
673.394049	2482.768269
673.733705	2417.233269
674.073310	2434.877308
674.412864	2538.220962
674.752368	2477.727115
675.091820	2515.535769
675.431223	2487.809423
675.770574	2558.385577
676.109875	2442.439038
676.449125	2507.974038
676.788324	2502.932885
677.127473	2492.850577
677.466571	2543.262115
677.805619	2570.988462
678.144616	2543.262115
678.483562	2505.453462
678.822458	2581.070769
679.161303	2475.206538
679.500098	2505.453462
679.838842	2470.165385
680.177535	2467.644808
680.516179	2475.206538
680.854771	2487.809423
681.193314	2467.644808
681.531805	2434.877308
681.870247	2452.521346
682.208638	2457.562500
682.546978	2558.385577
682.885268	2477.727115
683.223508	2558.385577
683.561697	2510.494615
683.899836	2437.397885
684.237925	2533.179808
684.575963	2528.138654
684.913951	2523.097500
685.251889	2475.206538
685.589776	2528.138654
685.927614	2470.165385
686.265401	2538.220962
686.603137	2470.165385
686.940824	2528.138654
687.278460	2467.644808
687.616046	2586.111923
687.953582	2477.727115
688.291068	2470.165385
688.628504	2518.056346
688.965889	2487.809423
689.303224	2553.344423
689.640510	2507.974038
689.977745	2485.288846
690.314930	2583.591346
690.652065	2518.056346
690.989150	2490.330000
691.326185	2507.974038
691.663170	2472.685962
692.000105	2540.741538
692.336990	2502.932885
692.673825	2500.412308
693.010610	2467.644808
693.347345	2414.712692
693.684030	2424.795000
694.020665	2500.412308
694.357251	2429.836154
694.693786	2487.809423
695.030272	2472.685962
695.366707	2477.727115
695.703093	2500.412308
696.039429	2424.795000
696.375716	2558.385577
696.711952	2394.548077
697.048139	2457.562500
697.384276	2515.535769
697.720363	2528.138654
698.056400	2507.974038
698.392388	2432.356731
698.728326	2502.932885
699.064214	2412.192115
699.400053	2477.727115
699.735842	2492.850577
700.071581	2515.535769
700.407270	2530.659231
700.742910	2530.659231
701.078501	2422.274423
701.414042	2369.342308
701.749533	2482.768269
702.084974	2434.877308
702.420366	2475.206538
702.755709	2500.412308
703.091002	2550.823846
703.426246	2540.741538
703.761440	2538.220962
704.096584	2523.097500
704.431679	2535.700385
704.766725	2565.947308
705.101721	2424.795000
705.436668	2558.385577
705.771565	2500.412308
706.106413	2462.603654
706.441212	2492.850577
706.775961	2422.274423
707.110661	2487.809423
707.445311	2490.330000
707.779913	2530.659231
708.114465	2505.453462
708.448967	2500.412308
708.783421	2598.714808
709.117825	2525.618077
709.452180	2581.070769
709.786485	2482.768269
710.120742	2455.041923
710.454949	2513.015192
710.789107	2513.015192
711.123216	2470.165385
711.457275	2505.453462
711.791286	2513.015192
712.125247	2535.700385
712.459159	2490.330000
712.793023	2434.877308
713.126837	2462.603654
713.460602	2550.823846
713.794318	2462.603654
714.127985	2495.371154
714.461602	2533.179808
714.795171	2475.206538
715.128691	2525.618077
715.462162	2545.782692
715.795584	2457.562500
716.128957	2490.330000
716.462281	2528.138654
716.795556	2518.056346
717.128782	2502.932885
717.461960	2467.644808
717.795088	2535.700385
718.128167	2487.809423
718.461198	2422.274423
718.794180	2460.083077
719.127113	2548.303269
719.459997	2513.015192
719.792833	2462.603654
720.125619	2419.753846
720.458357	2490.330000
720.791046	2457.562500
721.123686	2601.235385
721.456278	2530.659231
721.788821	2525.618077
722.121315	2389.506923
722.453761	2487.809423
722.786158	2510.494615
723.118506	2455.041923
723.450805	2523.097500
723.783056	2404.630385
724.115259	2568.467885
724.447412	2465.124231
724.779518	2457.562500
725.111574	2515.535769
725.443582	2462.603654
725.775542	2482.768269
726.107453	2482.768269
726.439315	2487.809423
726.771129	2477.727115
727.102895	2475.206538
727.434612	2480.247692
727.766281	2495.371154
728.097901	2472.685962
728.429473	2507.974038
728.760996	2548.303269
729.092471	2394.548077
729.423897	2518.056346
729.755276	2510.494615
730.086606	2523.097500
730.417887	2422.274423
730.749120	2452.521346
731.080305	2452.521346
731.411442	2455.041923
731.742530	2450.000769
732.073570	2455.041923
732.404562	2555.865000
732.735506	2439.918462
733.066401	2492.850577
733.397249	2439.918462
733.728048	2442.439038
734.058798	2513.015192
734.389501	2500.412308
734.720156	2439.918462
735.050762	2545.782692
735.381320	2450.000769
735.711831	2470.165385
736.042293	2455.041923
736.372707	2470.165385
736.703073	2386.986346
737.033391	2560.906154
737.363661	2470.165385
737.693883	2432.356731
738.024056	2434.877308
738.354182	2487.809423
738.684260	2520.576923
739.014290	2444.959615
739.344272	2429.836154
739.674207	2528.138654
740.004093	2497.891731
740.333931	2470.165385
740.663722	2462.603654
740.993464	2586.111923
741.323159	2457.562500
741.652806	2477.727115
741.982405	2515.535769
742.311956	2510.494615
742.641460	2467.644808
742.970915	2497.891731
743.300323	2447.480192
743.629683	2538.220962
743.958996	2480.247692
744.288260	2553.344423
744.617477	2497.891731
744.946647	2553.344423
745.275768	2543.262115
745.604842	2439.918462
745.933869	2465.124231
746.262847	2427.315577
746.591778	2500.412308
746.920662	2409.671538
747.249498	2444.959615
747.578286	2538.220962
747.907027	2492.850577
748.235720	2485.288846
748.564365	2399.589231
748.892963	2553.344423
749.221514	2457.562500
749.550017	2500.412308
749.878473	2558.385577
750.206881	2455.041923
750.535242	2520.576923
750.863555	2507.974038
751.191821	2510.494615
751.520039	2402.109808
751.848210	2548.303269
752.176334	2555.865000
752.504411	2558.385577
752.832440	2540.741538
753.160421	2500.412308
753.488356	2482.768269
753.816243	2427.315577
754.144082	2502.932885
754.471875	2515.535769
754.799620	2490.330000
755.127318	2475.206538
755.454969	2518.056346
755.782572	2500.412308
756.110129	2427.315577
756.437638	2455.041923
756.765100	2467.644808
757.092515	2502.932885
757.419882	2525.618077
757.747203	2477.727115
758.074477	2417.233269
758.401703	2492.850577
758.728882	2565.947308
759.056014	2588.632500
759.383099	2442.439038
759.710138	2502.932885
760.037129	2450.000769
760.364073	2462.603654
760.690970	2523.097500
761.017820	2500.412308
761.344623	2495.371154
761.671379	2480.247692
761.998088	2570.988462
762.324751	2520.576923
762.651366	2475.206538
762.977935	2518.056346
763.304456	2535.700385
763.630931	2565.947308
763.957359	2490.330000
764.283740	2482.768269
764.610074	2558.385577
764.936362	2427.315577
765.262602	2533.179808
765.588796	2480.247692
765.914943	2465.124231
766.241044	2568.467885
766.567097	2467.644808
766.893104	2520.576923
767.219064	2450.000769
767.544978	2507.974038
767.870845	2457.562500
768.196665	2528.138654
768.522438	2530.659231
768.848165	2495.371154
769.173846	2447.480192
769.499479	2513.015192
769.825066	2432.356731
770.150607	2480.247692
770.476101	2482.768269
770.801548	2608.797115
771.126949	2439.918462
771.452303	2550.823846
771.777611	2495.371154
772.102872	2530.659231
772.428087	2497.891731
772.753256	2550.823846
773.078378	2485.288846
773.403453	2361.780577
773.728482	2480.247692
774.053465	2533.179808
774.378401	2540.741538
774.703291	2497.891731
775.028135	2470.165385
775.352932	2399.589231
775.677683	2470.165385
776.002388	2505.453462
776.327046	2518.056346
776.651658	2434.877308
776.976224	2570.988462
777.300743	2480.247692
777.625216	2538.220962
777.949643	2462.603654
778.274024	2518.056346
778.598359	2515.535769
778.922647	2545.782692
779.246889	2497.891731
779.571086	2550.823846
779.895236	2543.262115
780.219339	2452.521346
780.543397	2573.509038
780.867409	2427.315577
781.191374	2520.576923
781.515294	2505.453462
781.839167	2480.247692
782.162995	2475.206538
782.486776	2477.727115
782.810511	2490.330000
783.134201	2543.262115
783.457844	2500.412308
783.781441	2482.768269
784.104993	2513.015192
784.428498	2510.494615
784.751958	2525.618077
785.075372	2495.371154
785.398739	2460.083077
785.722061	2465.124231
786.045337	2470.165385
786.368568	2507.974038
786.691752	2472.685962
787.014891	2510.494615
787.337983	2462.603654
787.661030	2505.453462
787.984031	2472.685962
788.306987	2505.453462
788.629897	2530.659231
788.952760	2439.918462
789.275579	2472.685962
789.598351	2555.865000
789.921078	2467.644808
790.243759	2429.836154
790.566395	2490.330000
790.888984	2505.453462
791.211529	2558.385577
791.534027	2467.644808
791.856480	2490.330000
792.178888	2540.741538
792.501249	2457.562500
792.823566	2467.644808
793.145836	2432.356731
793.468062	2510.494615
793.790241	2450.000769
794.112375	2548.303269
794.434464	2533.179808
794.756507	2500.412308
795.078505	2465.124231
795.400457	2409.671538
795.722364	2523.097500
796.044226	2465.124231
796.366042	2570.988462
796.687812	2502.932885
797.009538	2560.906154
797.331218	2596.194231
797.652852	2482.768269
797.974442	2515.535769
798.295986	2550.823846
798.617484	2429.836154
798.938938	2502.932885
799.260346	2450.000769
799.581709	2487.809423
799.903026	2500.412308
800.224299	2465.124231
800.545526	2560.906154
800.866708	2480.247692
801.187845	2442.439038
801.508936	2475.206538
801.829983	2528.138654
802.150984	2505.453462
802.471940	2465.124231
802.792851	2485.288846
803.113717	2507.974038
803.434538	2447.480192
803.755314	2528.138654
804.076045	2492.850577
804.396731	2513.015192
804.717372	2427.315577
805.037967	2513.015192
805.358518	2452.521346
805.679024	2545.782692
805.999485	2439.918462
806.319901	2467.644808
806.640272	2510.494615
806.960598	2525.618077
807.280879	2462.603654
807.601115	2490.330000
807.921306	2467.644808
808.241453	2530.659231
808.561554	2502.932885
808.881611	2530.659231
809.201623	2550.823846
809.521590	2437.397885
809.841513	2525.618077
810.161390	2535.700385
810.481223	2475.206538
810.801011	2495.371154
811.120755	2472.685962
811.440453	2392.027500
811.760107	2477.727115
812.079716	2518.056346
812.399281	2457.562500
812.718801	2485.288846
813.038276	2475.206538
813.357707	2543.262115
813.677093	2492.850577
813.996434	2492.850577
814.315731	2422.274423
814.634983	2528.138654
814.954191	2455.041923
815.273354	2525.618077
815.592473	2525.618077
815.911547	2500.412308
816.230577	2507.974038
816.549562	2523.097500
816.868502	2412.192115
817.187399	2553.344423
817.506250	2505.453462
817.825058	2507.974038
818.143821	2439.918462
818.462539	2470.165385
818.781213	2525.618077
819.099843	2502.932885
819.418429	2533.179808
819.736970	2444.959615
820.055466	2495.371154
820.373919	2502.932885
820.692327	2470.165385
821.010691	2570.988462
821.329011	2528.138654
821.647286	2573.509038
821.965517	2550.823846
822.283704	2500.412308
822.601847	2384.465769
822.919945	2603.755962
823.237999	2505.453462
823.556010	2450.000769
823.873976	2525.618077
824.191897	2371.862885
824.509775	2540.741538
824.827609	2533.179808
825.145398	2465.124231
825.463144	2513.015192
825.780845	2485.288846
826.098502	2586.111923
826.416116	2434.877308
826.733685	2477.727115
827.051210	2500.412308
827.368692	2487.809423
827.686129	2492.850577
828.003522	2402.109808
828.320872	2523.097500
828.638177	2465.124231
828.955439	2497.891731
829.272656	2450.000769
829.589830	2550.823846
829.906960	2525.618077
830.224046	2442.439038
830.541088	2432.356731
830.858086	2480.247692
831.175041	2399.589231
831.491952	2487.809423
831.808819	2490.330000
832.125642	2550.823846
832.442421	2444.959615
832.759157	2460.083077
833.075849	2548.303269
833.392497	2460.083077
833.709101	2565.947308
834.025662	2482.768269
834.342179	2505.453462
834.658653	2502.932885
834.975083	2465.124231
835.291469	2452.521346
835.607811	2429.836154
835.924110	2523.097500
836.240366	2384.465769
836.556578	2583.591346
836.872746	2565.947308
837.188871	2394.548077
837.504952	2525.618077
837.820990	2513.015192
838.136984	2485.288846
838.452935	2492.850577
838.768842	2447.480192
839.084706	2507.974038
839.400526	2485.288846
839.716303	2558.385577
840.032037	2480.247692
840.347727	2432.356731
840.663373	2432.356731
840.978977	2422.274423
841.294537	2472.685962
841.610054	2520.576923
841.925527	2530.659231
842.240957	2439.918462
842.556344	2495.371154
842.871687	2460.083077
843.186987	2470.165385
843.502244	2515.535769
843.817458	2530.659231
844.132629	2507.974038
844.447756	2510.494615
844.762840	2560.906154
845.077881	2518.056346
845.392879	2570.988462
845.707833	2523.097500
846.022745	2525.618077
846.337613	2450.000769
846.652438	2518.056346
846.967221	2510.494615
847.281960	2480.247692
847.596656	2472.685962
847.911309	2545.782692
848.225919	2417.233269
848.540485	2525.618077
848.855009	2424.795000
849.169490	2444.959615
849.483928	2533.179808
849.798323	2507.974038
850.112675	2497.891731
850.426984	2437.397885
850.741251	2518.056346
851.055474	2450.000769
851.369654	2472.685962
851.683792	2548.303269
851.997887	2568.467885
852.311938	2457.562500
852.625947	2495.371154
852.939914	2505.453462
853.253837	2447.480192
853.567718	2422.274423
853.881555	2482.768269
854.195350	2507.974038
854.509103	2432.356731
854.822812	2543.262115
855.136479	2439.918462
855.450103	2490.330000
855.763685	2518.056346
856.077224	2495.371154
856.390720	2490.330000
856.704173	2505.453462
857.017584	2505.453462
857.330953	2553.344423
857.644278	2457.562500
857.957561	2470.165385
858.270802	2432.356731
858.584000	2538.220962
858.897155	2611.317692
859.210268	2472.685962
859.523339	2444.959615
859.836367	2535.700385
860.149352	2497.891731
860.462295	2490.330000
860.775195	2581.070769
861.088054	2548.303269
861.400869	2407.150962
861.713642	2477.727115
862.026373	2450.000769
862.339062	2475.206538
862.651708	2513.015192
862.964312	2502.932885
863.276873	2477.727115
863.589392	2495.371154
863.901869	2487.809423
864.214303	2394.548077
864.526696	2444.959615
864.839045	2502.932885
865.151353	2437.397885
865.463619	2467.644808
865.775842	2507.974038
866.088023	2518.056346
866.400162	2545.782692
866.712258	2502.932885
867.024313	2442.439038
867.336325	2492.850577
867.648296	2432.356731
867.960224	2548.303269
868.272110	2490.330000
868.583954	2500.412308
868.895755	2550.823846
869.207515	2525.618077
869.519233	2462.603654
869.830909	2404.630385
870.142542	2465.124231
870.454134	2500.412308
870.765684	2513.015192
871.077191	2485.288846
871.388657	2437.397885
871.700081	2553.344423
872.011463	2434.877308
872.322803	2404.630385
872.634101	2492.850577
872.945357	2477.727115
873.256571	2515.535769
873.567744	2472.685962
873.878874	2442.439038
874.189963	2510.494615
874.501010	2548.303269
874.812015	2482.768269
875.122979	2485.288846
875.433900	2444.959615
875.744780	2480.247692
876.055618	2482.768269
876.366415	2475.206538
876.677169	2452.521346
876.987882	2497.891731
877.298554	2555.865000
877.609183	2570.988462
877.919771	2437.397885
878.230317	2480.247692
878.540822	2507.974038
878.851285	2528.138654
879.161707	2465.124231
879.472087	2518.056346
879.782425	2535.700385
880.092722	2528.138654
880.402977	2518.056346
880.713191	2513.015192
881.023363	2523.097500
881.333494	2492.850577
881.643583	2538.220962
881.953631	2462.603654
882.263637	2485.288846
882.573602	2596.194231
882.883526	2480.247692
883.193408	2447.480192
883.503248	2505.453462
883.813048	2513.015192
884.122806	2457.562500
884.432522	2525.618077
884.742197	2568.467885
885.051831	2502.932885
885.361424	2480.247692
885.670975	2518.056346
885.980485	2492.850577
886.289954	2507.974038
886.599382	2576.029615
886.908768	2515.535769
887.218113	2487.809423
887.527417	2530.659231
887.836680	2442.439038
888.145901	2462.603654
888.455082	2482.768269
888.764221	2558.385577
889.073319	2500.412308
889.382376	2475.206538
889.691392	2485.288846
890.000366	2424.795000
890.309300	2568.467885
890.618193	2455.041923
890.927044	2548.303269
891.235855	2467.644808
891.544625	2472.685962
891.853353	2492.850577
892.162041	2442.439038
892.470687	2518.056346
892.779293	2487.809423
893.087858	2439.918462
893.396381	2535.700385
893.704864	2470.165385
894.013306	2477.727115
894.321707	2492.850577
894.630068	2429.836154
894.938387	2452.521346
895.246665	2475.206538
895.554903	2492.850577
895.863100	2505.453462
896.171256	2550.823846
896.479371	2434.877308
896.787446	2553.344423
897.095480	2525.618077
897.403473	2507.974038
897.711425	2616.358846
898.019336	2437.397885
898.327207	2550.823846
898.635038	2513.015192
898.942827	2392.027500
899.250576	2513.015192
899.558284	2402.109808
899.865952	2616.358846
900.173579	2465.124231
900.481165	2480.247692
900.788711	2570.988462
901.096216	2490.330000
901.403681	2457.562500
901.711105	2392.027500
902.018489	2530.659231
902.325832	2444.959615
902.633135	2439.918462
902.940397	2482.768269
903.247619	2510.494615
903.554800	2500.412308
903.861941	2523.097500
904.169041	2404.630385
904.476101	2470.165385
904.783121	2414.712692
905.090100	2419.753846
905.397039	2389.506923
905.703938	2492.850577
906.010796	2535.700385
906.317614	2497.891731
906.624391	2419.753846
906.931129	2520.576923
907.237826	2475.206538
907.544483	2432.356731
907.851099	2492.850577
908.157675	2490.330000
908.464211	2515.535769
908.770707	2477.727115
909.077163	2555.865000
909.383578	2515.535769
909.689954	2485.288846
909.996289	2472.685962
910.302584	2457.562500
910.608839	2467.644808
910.915054	2482.768269
911.221229	2487.809423
911.527363	2570.988462
911.833458	2442.439038
912.139513	2497.891731
912.445527	2591.153077
912.751502	2452.521346
913.057436	2500.412308
913.363331	2394.548077
913.669186	2563.426731
913.975000	2455.041923
914.280775	2465.124231
914.586510	2465.124231
914.892205	2553.344423
915.197859	2530.659231
915.503475	2442.439038
915.809050	2422.274423
916.114585	2467.644808
916.420081	2515.535769
916.725536	2540.741538
917.030952	2505.453462
917.336328	2475.206538
917.641665	2507.974038
917.946961	2487.809423
918.252218	2490.330000
918.557435	2518.056346
918.862612	2497.891731
919.167750	2538.220962
919.472848	2548.303269
919.777906	2470.165385
920.082925	2482.768269
920.387904	2558.385577
920.692843	2563.426731
920.997743	2447.480192
921.302603	2500.412308
921.607423	2450.000769
921.912204	2502.932885
922.216946	2429.836154
922.521647	2568.467885
922.826310	2439.918462
923.130932	2601.235385
923.435516	2515.535769
923.740059	2465.124231
924.044564	2528.138654
924.349028	2409.671538
924.653454	2465.124231
924.957840	2452.521346
925.262186	2427.315577
925.566493	2528.138654
925.870761	2409.671538
926.174989	2417.233269
926.479178	2570.988462
926.783328	2452.521346
927.087438	2477.727115
927.391509	2485.288846
927.695541	2492.850577
927.999533	2429.836154
928.303486	2525.618077
928.607400	2462.603654
928.911275	2487.809423
929.215110	2520.576923
929.518906	2535.700385
929.822663	2407.150962
930.126381	2374.383462
930.430060	2472.685962
930.733699	2530.659231
931.037299	2472.685962
931.340861	2507.974038
931.644383	2432.356731
931.947866	2450.000769
932.251309	2535.700385
932.554714	2485.288846
932.858080	2397.068654
933.161407	2611.317692
933.464694	2424.795000
933.767943	2407.150962
934.071153	2422.274423
934.374323	2497.891731
934.677455	2470.165385
934.980548	2447.480192
935.283602	2407.150962
935.586617	2490.330000
935.889593	2553.344423
936.192530	2530.659231
936.495428	2507.974038
936.798287	2482.768269
937.101108	2581.070769
937.403890	2500.412308
937.706632	2530.659231
938.009336	2523.097500
938.312002	2515.535769
938.614628	2475.206538
938.917216	2535.700385
939.219765	2500.412308
939.522275	2480.247692
939.824747	2472.685962
940.127179	2538.220962
940.429573	2477.727115
940.731929	2485.288846
941.034246	2475.206538
941.336524	2419.753846
941.638763	2502.932885
941.940964	2568.467885
942.243126	2427.315577
942.545250	2482.768269
942.847335	2540.741538
943.149381	2439.918462
943.451389	2467.644808
943.753359	2376.904038
944.055290	2560.906154
944.357182	2455.041923
944.659036	2515.535769
944.960851	2533.179808
945.262628	2523.097500
945.564367	2510.494615
945.866067	2381.945192
946.167729	2573.509038
946.469352	2480.247692
946.770937	2510.494615
947.072484	2490.330000
947.373992	2450.000769
947.675462	2455.041923
947.976893	2500.412308
948.278286	2510.494615
948.579641	2525.618077
948.880958	2480.247692
949.182236	2457.562500
949.483476	2429.836154
949.784678	2429.836154
950.085841	2523.097500
950.386967	2450.000769
950.688054	2407.150962
950.989103	2374.383462
951.290114	2465.124231
951.591087	2424.795000
951.892021	2470.165385
952.192917	2523.097500
952.493776	2417.233269
952.794596	2457.562500
953.095378	2397.068654
953.396122	2434.877308
953.696828	2515.535769
953.997496	2518.056346
954.298126	2603.755962
954.598718	2507.974038
954.899272	2548.303269
955.199788	2507.974038
955.500266	2518.056346
955.800706	2429.836154
956.101108	2513.015192
956.401472	2558.385577
956.701798	2482.768269
957.002087	2507.974038
957.302337	2570.988462
957.602550	2540.741538
957.902724	2543.262115
958.202861	2565.947308
958.502960	2402.109808
958.803022	2520.576923
959.103045	2434.877308
959.403031	2520.576923
959.702979	2482.768269
960.002889	2485.288846
960.302762	2414.712692
960.602596	2497.891731
960.902393	2540.741538
961.202153	2495.371154
961.501875	2487.809423
961.801559	2472.685962
962.101205	2447.480192
962.400814	2460.083077
962.700385	2462.603654
962.999918	2487.809423
963.299414	2505.453462
963.598873	2462.603654
963.898293	2409.671538
964.197677	2525.618077
964.497022	2442.439038
964.796331	2543.262115
965.095601	2545.782692
965.394835	2515.535769
965.694030	2497.891731
965.993189	2465.124231
966.292309	2565.947308
966.591393	2497.891731
966.890439	2482.768269
967.189447	2593.673654
967.488419	2432.356731
967.787353	2507.974038
968.086249	2477.727115
968.385108	2465.124231
968.683930	2505.453462
968.982714	2500.412308
969.281462	2407.150962
969.580172	2568.467885
969.878844	2543.262115
970.177480	2528.138654
970.476078	2500.412308
970.774639	2467.644808
971.073162	2417.233269
971.371649	2515.535769
971.670098	2497.891731
971.968510	2530.659231
972.266885	2482.768269
972.565223	2548.303269
972.863524	2447.480192
973.161788	2477.727115
973.460014	2591.153077
973.758204	2480.247692
974.056356	2492.850577
974.354471	2533.179808
974.652550	2523.097500
974.950591	2570.988462
975.248595	2545.782692
975.546563	2429.836154
975.844493	2495.371154
976.142386	2545.782692
976.440243	2505.453462
976.738062	2558.385577
977.035845	2460.083077
977.333590	2523.097500
977.631299	2518.056346
977.928971	2452.521346
978.226606	2457.562500
978.524204	2510.494615
978.821765	2480.247692
979.119290	2477.727115
979.416777	2439.918462
979.714228	2402.109808
980.011642	2409.671538
980.309020	2520.576923
980.606360	2472.685962
980.903664	2455.041923
981.200931	2475.206538
981.498162	2444.959615
981.795356	2540.741538
982.092513	2525.618077
982.389633	2442.439038
982.686717	2497.891731
982.983764	2462.603654
983.280775	2505.453462
983.577749	2452.521346
983.874686	2510.494615
984.171587	2507.974038
984.468451	2525.618077
984.765279	2573.509038
985.062070	2470.165385
985.358824	2495.371154
985.655543	2457.562500
985.952224	2407.150962
986.248869	2465.124231
986.545478	2470.165385
986.842050	2447.480192
987.138586	2447.480192
987.435086	2533.179808
987.731549	2442.439038
988.027975	2540.741538
988.324366	2492.850577
988.620719	2477.727115
988.917037	2439.918462
989.213318	2470.165385
989.509563	2460.083077
989.805772	2399.589231
990.101944	2523.097500
990.398080	2565.947308
990.694180	2475.206538
990.990244	2480.247692
991.286271	2576.029615
991.582262	2450.000769
991.878217	2437.397885
992.174136	2402.109808
992.470019	2470.165385
992.765865	2417.233269
993.061676	2490.330000
993.357450	2487.809423
993.653188	2525.618077
993.948890	2475.206538
994.244556	2472.685962
994.540186	2510.494615
994.835780	2457.562500
995.131337	2513.015192
995.426859	2507.974038
995.722345	2434.877308
996.017795	2530.659231
996.313208	2497.891731
996.608586	2525.618077
996.903928	2442.439038
997.199234	2462.603654
997.494504	2465.124231
997.789738	2457.562500
998.084936	2442.439038
998.380099	2460.083077
998.675225	2570.988462
998.970316	2467.644808
999.265371	2477.727115
999.560390	2475.206538
999.855373	2439.918462
1000.150320	2434.877308
1000.445232	2492.850577
1000.740108	2553.344423
1001.034948	2523.097500
1001.329752	2565.947308
1001.624521	2528.138654
1001.919254	2601.235385
1002.213951	2485.288846
1002.508613	2495.371154
1002.803239	2447.480192
1003.097829	2477.727115
1003.392384	2384.465769
1003.686903	2523.097500
1003.981386	2447.480192
1004.275834	2412.192115
1004.570246	2447.480192
1004.864623	2432.356731
1005.158964	2550.823846
1005.453270	2513.015192
1005.747540	2470.165385
1006.041775	2452.521346
1006.335974	2520.576923
1006.630138	2475.206538
1006.924266	2379.424615
1007.218359	2475.206538
1007.512416	2550.823846
1007.806438	2480.247692
1008.100425	2492.850577
1008.394376	2535.700385
1008.688292	2437.397885
1008.982172	2505.453462
1009.276017	2450.000769
1009.569827	2384.465769
1009.863602	2518.056346
1010.157341	2492.850577
1010.451045	2437.397885
1010.744714	2530.659231
1011.038347	2462.603654
1011.331945	2472.685962
1011.625508	2455.041923
1011.919036	2533.179808
1012.212528	2515.535769
1012.505986	2505.453462
1012.799408	2535.700385
1013.092795	2533.179808
1013.386147	2465.124231
1013.679464	2462.603654
1013.972745	2502.932885
1014.265992	2427.315577
1014.559204	2581.070769
1014.852380	2502.932885
1015.145521	2530.659231
1015.438628	2500.412308
1015.731699	2432.356731
1016.024736	2414.712692
1016.317737	2495.371154
1016.610703	2465.124231
1016.903635	2455.041923
1017.196531	2591.153077
1017.489393	2457.562500
1017.782219	2502.932885
1018.075011	2502.932885
1018.367768	2407.150962
1018.660490	2560.906154
1018.953177	2560.906154
1019.245829	2560.906154
