Dividing Wavelength (nm)	Counts (n)	Blue Motor Position (mm): 3.200000	Red Motor Position (mm): 0.000000	
326.493990	2119.805192
326.888308	2119.805192
327.282561	2119.805192
327.676750	2016.461538
328.070874	2094.599423
328.464933	2031.585000
328.858929	2124.846346
329.252859	2049.229038
329.646726	2076.955385
330.040528	2099.640577
330.434265	2059.311346
330.827938	2170.216731
331.221547	2162.655000
331.615091	2197.943077
332.008571	2187.860769
332.401986	2172.737308
332.795338	2238.272308
333.188625	2235.751731
333.581847	2213.066538
333.975006	2208.025385
334.368100	2271.039808
334.761129	2323.971923
335.154095	2366.821731
335.546996	2291.204423
335.939833	2344.136538
336.332606	2344.136538
336.725315	2407.150962
337.117960	2417.233269
337.510540	2429.836154
337.903056	2442.439038
338.295508	2462.603654
338.687896	2472.685962
339.080220	2497.891731
339.472480	2485.288846
339.864676	2399.589231
340.256807	2465.124231
340.648875	2404.630385
341.040879	2507.974038
341.432818	2518.056346
341.824694	2429.836154
342.216506	2386.986346
342.608253	2376.904038
342.999937	2462.603654
343.391557	2538.220962
343.783113	2591.153077
344.174605	2407.150962
344.566033	2427.315577
344.957397	2495.371154
345.348697	2422.274423
345.739934	2535.700385
346.131106	2472.685962
346.522215	2482.768269
346.913260	2412.192115
347.304241	2535.700385
347.695159	2452.521346
348.086012	2470.165385
348.476802	2505.453462
348.867528	2495.371154
349.258191	2467.644808
349.648789	2470.165385
350.039324	2424.795000
350.429796	2371.862885
350.820203	2477.727115
351.210548	2457.562500
351.600828	2434.877308
351.991045	2437.397885
352.381198	2480.247692
352.771288	2462.603654
353.161314	2447.480192
353.551276	2392.027500
353.941175	2432.356731
354.331010	2444.959615
354.720782	2510.494615
355.110490	2417.233269
355.500135	2409.671538
355.889717	2389.506923
356.279235	2427.315577
356.668689	2414.712692
357.058080	2417.233269
357.447408	2379.424615
357.836672	2409.671538
358.225873	2361.780577
358.615010	2437.397885
359.004084	2452.521346
359.393095	2429.836154
359.782043	2515.535769
360.170927	2480.247692
360.559748	2528.138654
360.948505	2429.836154
361.337199	2409.671538
361.725830	2447.480192
362.114398	2495.371154
362.502903	2507.974038
362.891344	2394.548077
363.279722	2434.877308
363.668037	2452.521346
364.056289	2523.097500
364.444478	2507.974038
364.832603	2447.480192
365.220665	2492.850577
365.608665	2460.083077
365.996601	2450.000769
366.384474	2432.356731
366.772284	2402.109808
367.160031	2500.412308
367.547715	2485.288846
367.935336	2414.712692
368.322893	2505.453462
368.710388	2455.041923
369.097820	2510.494615
369.485189	2442.439038
369.872495	2477.727115
370.259738	2487.809423
370.646918	2492.850577
371.034035	2490.330000
371.421090	2414.712692
371.808081	2407.150962
372.195010	2533.179808
372.581875	2439.918462
372.968678	2465.124231
373.355418	2381.945192
373.742096	2457.562500
374.128710	2369.342308
374.515262	2460.083077
374.901751	2427.315577
375.288177	2475.206538
375.674540	2437.397885
376.060841	2500.412308
376.447079	2409.671538
376.833254	2492.850577
377.219367	2407.150962
377.605417	2543.262115
377.991404	2510.494615
378.377329	2394.548077
378.763191	2429.836154
379.148991	2497.891731
379.534727	2611.317692
379.920402	2465.124231
380.306013	2472.685962
380.691563	2455.041923
381.077049	2523.097500
381.462474	2515.535769
381.847835	2467.644808
382.233134	2460.083077
382.618371	2472.685962
383.003545	2444.959615
383.388657	2497.891731
383.773706	2492.850577
384.158693	2419.753846
384.543618	2439.918462
384.928480	2452.521346
385.313280	2472.685962
385.698017	2399.589231
386.082692	2515.535769
386.467305	2485.288846
386.851856	2555.865000
387.236344	2384.465769
387.620770	2399.589231
388.005133	2442.439038
388.389435	2472.685962
388.773674	2502.932885
389.157851	2502.932885
389.541965	2520.576923
389.926018	2490.330000
390.310008	2525.618077
390.693936	2505.453462
391.077802	2490.330000
391.461606	2455.041923
391.845348	2460.083077
392.229027	2397.068654
392.612645	2462.603654
392.996200	2450.000769
393.379694	2447.480192
393.763125	2495.371154
394.146494	2518.056346
394.529801	2439.918462
394.913047	2439.918462
395.296230	2492.850577
395.679351	2447.480192
396.062410	2442.439038
396.445408	2429.836154
396.828343	2439.918462
397.211217	2475.206538
397.594028	2467.644808
397.976778	2515.535769
398.359466	2485.288846
398.742092	2470.165385
399.124656	2361.780577
399.507158	2457.562500
399.889598	2437.397885
400.271977	2502.932885
400.654294	2450.000769
401.036549	2460.083077
401.418742	2507.974038
401.800874	2386.986346
402.182944	2550.823846
402.564952	2490.330000
402.946898	2460.083077
403.328783	2492.850577
403.710606	2442.439038
404.092367	2540.741538
404.474067	2495.371154
404.855705	2424.795000
405.237282	2470.165385
405.618797	2510.494615
406.000250	2500.412308
406.381642	2452.521346
406.762972	2467.644808
407.144240	2450.000769
407.525447	2500.412308
407.906593	2465.124231
408.287677	2490.330000
408.668700	2497.891731
409.049661	2429.836154
409.430560	2439.918462
409.811399	2482.768269
410.192176	2530.659231
410.572891	2457.562500
410.953545	2369.342308
411.334138	2510.494615
411.714669	2515.535769
412.095139	2495.371154
412.475547	2538.220962
412.855894	2429.836154
413.236180	2560.906154
413.616405	2497.891731
413.996568	2472.685962
414.376670	2442.439038
414.756711	2434.877308
415.136691	2500.412308
415.516609	2417.233269
415.896466	2384.465769
416.276262	2475.206538
416.655997	2477.727115
417.035670	2490.330000
417.415283	2472.685962
417.794834	2467.644808
418.174324	2513.015192
418.553753	2457.562500
418.933121	2470.165385
419.312428	2434.877308
419.691674	2447.480192
420.070859	2444.959615
420.449983	2492.850577
420.829045	2540.741538
421.208047	2422.274423
421.586988	2502.932885
421.965867	2528.138654
422.344686	2505.453462
422.723444	2455.041923
423.102141	2565.947308
423.480777	2444.959615
423.859352	2482.768269
424.237866	2487.809423
424.616319	2452.521346
424.994712	2417.233269
425.373044	2563.426731
425.751314	2369.342308
426.129524	2427.315577
426.507673	2515.535769
426.885762	2482.768269
427.263789	2510.494615
427.641756	2510.494615
428.019662	2447.480192
428.397508	2442.439038
428.775292	2460.083077
429.153016	2500.412308
429.530679	2439.918462
429.908282	2518.056346
430.285824	2490.330000
430.663305	2480.247692
431.040726	2550.823846
431.418086	2444.959615
431.795385	2518.056346
432.172624	2581.070769
432.549802	2394.548077
432.926920	2540.741538
433.303977	2442.439038
433.680974	2462.603654
434.057910	2515.535769
434.434786	2497.891731
434.811601	2480.247692
435.188355	2535.700385
435.565050	2470.165385
435.941683	2412.192115
436.318257	2462.603654
436.694770	2515.535769
437.071222	2497.891731
437.447614	2439.918462
437.823946	2535.700385
438.200218	2480.247692
438.576429	2487.809423
438.952580	2538.220962
439.328670	2429.836154
439.704700	2502.932885
440.080670	2409.671538
440.456580	2467.644808
440.832429	2477.727115
441.208218	2520.576923
441.583947	2495.371154
441.959616	2560.906154
442.335224	2553.344423
442.710773	2432.356731
443.086261	2465.124231
443.461689	2457.562500
443.837057	2560.906154
444.212365	2455.041923
444.587612	2510.494615
444.962800	2442.439038
445.337927	2502.932885
445.712995	2475.206538
446.088002	2437.397885
446.462949	2510.494615
446.837837	2480.247692
447.212664	2555.865000
447.587431	2487.809423
447.962139	2422.274423
448.336786	2510.494615
448.711374	2399.589231
449.085901	2452.521346
449.460369	2397.068654
449.834776	2545.782692
450.209124	2510.494615
450.583412	2495.371154
450.957640	2540.741538
451.331808	2523.097500
451.705917	2543.262115
452.079965	2535.700385
452.453954	2477.727115
452.827883	2480.247692
453.201752	2465.124231
453.575562	2510.494615
453.949311	2472.685962
454.323001	2553.344423
454.696632	2535.700385
455.070202	2452.521346
455.443713	2404.630385
455.817164	2540.741538
456.190556	2565.947308
456.563888	2462.603654
456.937160	2409.671538
457.310373	2457.562500
457.683526	2480.247692
458.056619	2442.439038
458.429653	2455.041923
458.802628	2555.865000
459.175542	2513.015192
459.548398	2515.535769
459.921194	2510.494615
460.293930	2513.015192
460.666607	2452.521346
461.039224	2434.877308
461.411782	2487.809423
461.784280	2419.753846
462.156719	2505.453462
462.529099	2540.741538
462.901419	2432.356731
463.273680	2427.315577
463.645882	2470.165385
464.018024	2502.932885
464.390106	2500.412308
464.762130	2490.330000
465.134094	2528.138654
465.505999	2606.276538
465.877845	2515.535769
466.249631	2495.371154
466.621358	2434.877308
466.993026	2513.015192
467.364634	2457.562500
467.736184	2437.397885
468.107674	2513.015192
468.479105	2518.056346
468.850477	2500.412308
469.221790	2502.932885
469.593043	2523.097500
469.964238	2495.371154
470.335373	2427.315577
470.706449	2520.576923
471.077467	2424.795000
471.448425	2475.206538
471.819324	2528.138654
472.190164	2447.480192
472.560945	2520.576923
472.931667	2477.727115
473.302330	2462.603654
473.672934	2462.603654
474.043479	2553.344423
474.413965	2465.124231
474.784393	2497.891731
475.154761	2480.247692
475.525070	2475.206538
475.895321	2515.535769
476.265513	2457.562500
476.635645	2457.562500
477.005719	2540.741538
477.375734	2558.385577
477.745691	2523.097500
478.115588	2543.262115
478.485427	2462.603654
478.855207	2606.276538
479.224928	2548.303269
479.594591	2545.782692
479.964194	2439.918462
480.333739	2434.877308
480.703226	2442.439038
481.072653	2487.809423
481.442022	2422.274423
481.811333	2495.371154
482.180584	2492.850577
482.549777	2601.235385
482.918912	2492.850577
483.287988	2414.712692
483.657005	2437.397885
484.025964	2535.700385
484.394864	2480.247692
484.763706	2485.288846
485.132489	2502.932885
485.501213	2497.891731
485.869879	2513.015192
486.238487	2495.371154
486.607036	2543.262115
486.975527	2500.412308
487.343959	2442.439038
487.712333	2450.000769
488.080648	2513.015192
488.448905	2455.041923
488.817104	2439.918462
489.185244	2480.247692
489.553326	2450.000769
489.921350	2480.247692
490.289315	2523.097500
490.657222	2444.959615
491.025070	2530.659231
491.392861	2520.576923
491.760593	2399.589231
492.128267	2520.576923
492.495883	2492.850577
492.863440	2475.206538
493.230939	2490.330000
493.598380	2419.753846
493.965763	2540.741538
494.333088	2510.494615
494.700354	2492.850577
495.067563	2495.371154
495.434713	2439.918462
495.801805	2465.124231
496.168839	2535.700385
496.535815	2450.000769
496.902733	2497.891731
497.269593	2495.371154
497.636395	2513.015192
498.003139	2507.974038
498.369825	2505.453462
498.736453	2533.179808
499.103023	2538.220962
499.469535	2434.877308
499.835989	2533.179808
500.202385	2407.150962
500.568723	2444.959615
500.935003	2533.179808
501.301226	2497.891731
501.667390	2475.206538
502.033497	2533.179808
502.399546	2487.809423
502.765537	2525.618077
503.131470	2452.521346
503.497345	2487.809423
503.863163	2500.412308
504.228923	2467.644808
504.594625	2437.397885
504.960269	2404.630385
505.325856	2528.138654
505.691385	2475.206538
506.056856	2487.809423
506.422270	2487.809423
506.787625	2578.550192
507.152924	2568.467885
507.518164	2507.974038
507.883347	2528.138654
508.248472	2598.714808
508.613540	2528.138654
508.978550	2487.809423
509.343503	2447.480192
509.708398	2578.550192
510.073236	2457.562500
510.438016	2427.315577
510.802738	2578.550192
511.167403	2507.974038
511.532010	2518.056346
511.896561	2523.097500
512.261053	2472.685962
512.625488	2427.315577
512.989866	2482.768269
513.354186	2568.467885
513.718449	2596.194231
514.082655	2515.535769
514.446803	2578.550192
514.810894	2505.453462
515.174927	2507.974038
515.538904	2477.727115
515.902822	2487.809423
516.266684	2457.562500
516.630488	2538.220962
516.994235	2487.809423
517.357925	2518.056346
517.721558	2507.974038
518.085133	2548.303269
518.448651	2548.303269
518.812112	2467.644808
519.175516	2497.891731
519.538863	2437.397885
519.902152	2523.097500
520.265385	2553.344423
520.628560	2548.303269
520.991678	2598.714808
521.354739	2553.344423
521.717743	2485.288846
522.080690	2429.836154
522.443580	2447.480192
522.806413	2477.727115
523.169189	2465.124231
523.531908	2538.220962
523.894569	2465.124231
524.257174	2518.056346
524.619722	2528.138654
524.982213	2568.467885
525.344647	2518.056346
525.707025	2568.467885
526.069345	2477.727115
526.431608	2477.727115
526.793815	2487.809423
527.155964	2528.138654
527.518057	2477.727115
527.880093	2492.850577
528.242072	2523.097500
528.603995	2528.138654
528.965860	2482.768269
529.327669	2507.974038
529.689421	2455.041923
530.051117	2500.412308
530.412755	2523.097500
530.774337	2565.947308
531.135862	2523.097500
531.497331	2497.891731
531.858743	2505.453462
532.220098	2455.041923
532.581396	2467.644808
532.942638	2505.453462
533.303824	2528.138654
533.664953	2467.644808
534.026025	2497.891731
534.387040	2417.233269
534.747999	2548.303269
535.108902	2598.714808
535.469748	2487.809423
535.830537	2502.932885
536.191270	2492.850577
536.551947	2497.891731
536.912567	2477.727115
537.273131	2523.097500
537.633638	2535.700385
537.994089	2525.618077
538.354483	2452.521346
538.714821	2497.891731
539.075103	2535.700385
539.435328	2482.768269
539.795497	2497.891731
540.155609	2429.836154
540.515665	2538.220962
540.875665	2518.056346
541.235609	2505.453462
541.595496	2447.480192
541.955328	2465.124231
542.315102	2487.809423
542.674821	2507.974038
543.034483	2518.056346
543.394090	2487.809423
543.753640	2462.603654
544.113134	2533.179808
544.472571	2518.056346
544.831953	2553.344423
545.191278	2467.644808
545.550548	2455.041923
545.909761	2565.947308
546.268918	2528.138654
546.628019	2616.358846
546.987064	2497.891731
547.346053	2538.220962
547.704986	2477.727115
548.063863	2513.015192
548.422684	2462.603654
548.781449	2457.562500
549.140158	2553.344423
549.498811	2477.727115
549.857408	2525.618077
550.215949	2565.947308
550.574434	2457.562500
550.932864	2505.453462
551.291237	2518.056346
551.649555	2553.344423
552.007817	2492.850577
552.366022	2477.727115
552.724173	2427.315577
553.082267	2583.591346
553.440305	2525.618077
553.798288	2500.412308
554.156215	2497.891731
554.514086	2538.220962
554.871902	2515.535769
555.229661	2528.138654
555.587365	2424.795000
555.945014	2492.850577
556.302606	2533.179808
556.660143	2548.303269
557.017625	2548.303269
557.375050	2482.768269
557.732421	2414.712692
558.089735	2480.247692
558.446994	2477.727115
558.804197	2427.315577
559.161345	2475.206538
559.518437	2422.274423
559.875474	2500.412308
560.232455	2518.056346
560.589381	2543.262115
560.946251	2518.056346
561.303065	2495.371154
561.659825	2419.753846
562.016528	2513.015192
562.373177	2525.618077
562.729770	2472.685962
563.086307	2477.727115
563.442789	2545.782692
563.799216	2429.836154
564.155587	2492.850577
564.511904	2515.535769
564.868164	2492.850577
565.224370	2427.315577
565.580520	2475.206538
565.936615	2500.412308
566.292654	2462.603654
566.648638	2576.029615
567.004567	2533.179808
567.360441	2543.262115
567.716260	2530.659231
568.072023	2434.877308
568.427732	2417.233269
568.783385	2560.906154
569.138982	2434.877308
569.494525	2576.029615
569.850013	2472.685962
570.205445	2477.727115
570.560823	2525.618077
570.916145	2523.097500
571.271412	2538.220962
571.626625	2576.029615
571.981782	2543.262115
572.336884	2528.138654
572.691931	2444.959615
573.046923	2492.850577
573.401860	2467.644808
573.756743	2525.618077
574.111570	2482.768269
574.466342	2518.056346
574.821059	2434.877308
575.175722	2507.974038
575.530330	2533.179808
575.884882	2490.330000
576.239380	2452.521346
576.593823	2447.480192
576.948211	2427.315577
577.302544	2515.535769
577.656823	2555.865000
578.011047	2495.371154
578.365216	2427.315577
578.719330	2538.220962
579.073389	2518.056346
579.427394	2528.138654
579.781344	2538.220962
580.135239	2467.644808
580.489080	2427.315577
580.842866	2437.397885
581.196597	2467.644808
581.550273	2427.315577
581.903895	2447.480192
582.257463	2497.891731
582.610975	2538.220962
582.964434	2422.274423
583.317837	2523.097500
583.671186	2533.179808
584.024481	2462.603654
584.377721	2553.344423
584.730906	2460.083077
585.084037	2530.659231
585.437113	2455.041923
585.790135	2545.782692
586.143103	2434.877308
586.496016	2505.453462
586.848874	2485.288846
587.201679	2568.467885
587.554428	2477.727115
587.907124	2467.644808
588.259765	2507.974038
588.612352	2497.891731
588.964884	2538.220962
589.317362	2477.727115
589.669786	2487.809423
590.022155	2477.727115
590.374470	2518.056346
590.726731	2513.015192
591.078937	2381.945192
591.431090	2492.850577
591.783188	2558.385577
592.135232	2457.562500
592.487222	2586.111923
592.839157	2586.111923
593.191038	2530.659231
593.542866	2472.685962
593.894639	2502.932885
594.246358	2518.056346
594.598022	2507.974038
594.949633	2505.453462
595.301190	2505.453462
595.652692	2545.782692
596.004141	2487.809423
596.355535	2447.480192
596.706876	2477.727115
597.058162	2538.220962
597.409395	2507.974038
597.760573	2467.644808
598.111698	2477.727115
598.462768	2523.097500
598.813785	2513.015192
599.164748	2543.262115
599.515657	2623.920577
599.866511	2513.015192
600.217312	2480.247692
600.568060	2626.441154
600.918753	2490.330000
601.269392	2510.494615
601.619978	2460.083077
601.970510	2510.494615
602.320988	2472.685962
602.671412	2520.576923
603.021783	2555.865000
603.372100	2465.124231
603.722363	2515.535769
604.072572	2434.877308
604.422728	2555.865000
604.772830	2487.809423
605.122878	2538.220962
605.472872	2548.303269
605.822813	2427.315577
606.172701	2502.932885
606.522534	2402.109808
606.872314	2583.591346
607.222041	2437.397885
607.571714	2477.727115
607.921333	2485.288846
608.270899	2520.576923
608.620411	2535.700385
608.969870	2437.397885
609.319276	2502.932885
609.668627	2487.809423
610.017926	2565.947308
610.367171	2487.809423
610.716362	2492.850577
611.065500	2490.330000
611.414585	2502.932885
611.763616	2417.233269
612.112594	2457.562500
612.461518	2444.959615
612.810389	2545.782692
613.159207	2485.288846
613.507971	2497.891731
613.856682	2442.439038
614.205340	2381.945192
614.553945	2492.850577
614.902496	2533.179808
615.250994	2422.274423
615.599439	2520.576923
615.947830	2460.083077
616.296169	2535.700385
616.644454	2455.041923
616.992686	2485.288846
617.340864	2485.288846
617.688990	2485.288846
618.037063	2593.673654
618.385082	2442.439038
618.733048	2563.426731
619.080961	2452.521346
619.428821	2533.179808
619.776628	2439.918462
620.124382	2500.412308
620.472083	2515.535769
620.819731	2586.111923
621.167326	2475.206538
621.514868	2460.083077
621.862357	2419.753846
622.209793	2502.932885
622.557176	2386.986346
622.904506	2477.727115
623.251783	2475.206538
623.599007	2495.371154
623.946179	2510.494615
624.293297	2502.932885
624.640363	2492.850577
624.987376	2427.315577
625.334336	2548.303269
625.681243	2490.330000
626.028097	2540.741538
626.374899	2540.741538
626.721647	2558.385577
627.068343	2467.644808
627.414987	2475.206538
627.761577	2505.453462
628.108115	2510.494615
628.454600	2583.591346
628.801032	2533.179808
629.147412	2513.015192
629.493739	2523.097500
629.840014	2540.741538
630.186236	2490.330000
630.532405	2570.988462
630.878521	2439.918462
631.224585	2555.865000
631.570597	2550.823846
631.916556	2439.918462
632.262462	2510.494615
632.608316	2540.741538
632.954117	2533.179808
633.299866	2495.371154
633.645562	2490.330000
633.991206	2480.247692
634.336797	2399.589231
634.682336	2540.741538
635.027823	2573.509038
635.373257	2364.301154
635.718639	2429.836154
636.063968	2490.330000
636.409245	2470.165385
636.754470	2505.453462
637.099642	2467.644808
637.444762	2515.535769
637.789829	2495.371154
638.134845	2576.029615
638.479808	2548.303269
638.824719	2492.850577
639.169577	2437.397885
639.514383	2538.220962
639.859137	2422.274423
640.203839	2528.138654
640.548489	2485.288846
640.893086	2543.262115
641.237632	2477.727115
641.582125	2515.535769
641.926566	2502.932885
642.270955	2578.550192
642.615292	2495.371154
642.959576	2593.673654
643.303809	2427.315577
643.647990	2535.700385
643.992118	2523.097500
644.336195	2472.685962
644.680219	2429.836154
645.024192	2412.192115
645.368112	2497.891731
645.711981	2424.795000
646.055797	2404.630385
646.399562	2480.247692
646.743274	2434.877308
647.086935	2447.480192
647.430544	2467.644808
647.774101	2548.303269
648.117606	2515.535769
648.461059	2578.550192
648.804460	2518.056346
649.147810	2518.056346
649.491108	2518.056346
649.834354	2447.480192
650.177548	2457.562500
650.520690	2427.315577
650.863781	2487.809423
651.206820	2477.727115
651.549807	2528.138654
651.892742	2502.932885
652.235626	2482.768269
652.578458	2467.644808
652.921238	2623.920577
653.263967	2482.768269
653.606644	2500.412308
653.949269	2560.906154
654.291843	2497.891731
654.634365	2495.371154
654.976836	2510.494615
655.319255	2515.535769
655.661622	2455.041923
656.003938	2558.385577
656.346203	2528.138654
656.688416	2475.206538
657.030577	2538.220962
657.372687	2538.220962
657.714746	2507.974038
658.056753	2548.303269
658.398708	2457.562500
658.740612	2457.562500
659.082465	2507.974038
659.424266	2392.027500
659.766016	2543.262115
660.107715	2457.562500
660.449362	2528.138654
660.790958	2477.727115
661.132503	2520.576923
661.473996	2455.041923
661.815438	2523.097500
662.156829	2603.755962
662.498168	2477.727115
662.839456	2465.124231
663.180693	2467.644808
663.521879	2490.330000
663.863013	2455.041923
664.204097	2507.974038
664.545129	2457.562500
664.886110	2618.879423
665.227040	2475.206538
665.567918	2477.727115
665.908746	2497.891731
666.249522	2437.397885
666.590248	2548.303269
666.930922	2462.603654
667.271545	2533.179808
667.612118	2558.385577
667.952639	2492.850577
668.293109	2482.768269
668.633528	2520.576923
668.973896	2555.865000
669.314213	2482.768269
669.654480	2354.218846
669.994695	2485.288846
670.334859	2611.317692
670.674973	2523.097500
671.015035	2550.823846
671.355047	2558.385577
671.695008	2518.056346
672.034918	2429.836154
672.374777	2485.288846
672.714585	2485.288846
673.054342	2528.138654
673.394049	2437.397885
673.733705	2465.124231
674.073310	2507.974038
674.412864	2472.685962
674.752368	2513.015192
675.091820	2548.303269
675.431223	2528.138654
675.770574	2487.809423
676.109875	2470.165385
676.449125	2581.070769
676.788324	2447.480192
677.127473	2492.850577
677.466571	2528.138654
677.805619	2465.124231
678.144616	2540.741538
678.483562	2533.179808
678.822458	2379.424615
679.161303	2543.262115
679.500098	2497.891731
679.838842	2485.288846
680.177535	2535.700385
680.516179	2480.247692
680.854771	2465.124231
681.193314	2497.891731
681.531805	2437.397885
681.870247	2371.862885
682.208638	2480.247692
682.546978	2417.233269
682.885268	2472.685962
683.223508	2402.109808
683.561697	2460.083077
683.899836	2560.906154
684.237925	2447.480192
684.575963	2555.865000
684.913951	2480.247692
685.251889	2505.453462
685.589776	2485.288846
685.927614	2462.603654
686.265401	2492.850577
686.603137	2505.453462
686.940824	2543.262115
687.278460	2422.274423
687.616046	2460.083077
687.953582	2520.576923
688.291068	2467.644808
688.628504	2485.288846
688.965889	2419.753846
689.303224	2560.906154
689.640510	2540.741538
689.977745	2558.385577
690.314930	2518.056346
690.652065	2475.206538
690.989150	2570.988462
691.326185	2535.700385
691.663170	2492.850577
692.000105	2402.109808
692.336990	2528.138654
692.673825	2545.782692
693.010610	2538.220962
693.347345	2525.618077
693.684030	2480.247692
694.020665	2487.809423
694.357251	2487.809423
694.693786	2467.644808
695.030272	2442.439038
695.366707	2525.618077
695.703093	2533.179808
696.039429	2543.262115
696.375716	2447.480192
696.711952	2470.165385
697.048139	2472.685962
697.384276	2540.741538
697.720363	2550.823846
698.056400	2432.356731
698.392388	2500.412308
698.728326	2495.371154
699.064214	2480.247692
699.400053	2535.700385
699.735842	2505.453462
700.071581	2480.247692
700.407270	2452.521346
700.742910	2485.288846
701.078501	2553.344423
701.414042	2558.385577
701.749533	2576.029615
702.084974	2510.494615
702.420366	2472.685962
702.755709	2515.535769
703.091002	2563.426731
703.426246	2427.315577
703.761440	2465.124231
704.096584	2535.700385
704.431679	2467.644808
704.766725	2409.671538
705.101721	2457.562500
705.436668	2528.138654
705.771565	2467.644808
706.106413	2543.262115
706.441212	2515.535769
706.775961	2452.521346
707.110661	2427.315577
707.445311	2538.220962
707.779913	2530.659231
708.114465	2518.056346
708.448967	2465.124231
708.783421	2533.179808
709.117825	2487.809423
709.452180	2505.453462
709.786485	2583.591346
710.120742	2507.974038
710.454949	2465.124231
710.789107	2563.426731
711.123216	2507.974038
711.457275	2510.494615
711.791286	2518.056346
712.125247	2422.274423
712.459159	2475.206538
712.793023	2507.974038
713.126837	2510.494615
713.460602	2482.768269
713.794318	2555.865000
714.127985	2573.509038
714.461602	2533.179808
714.795171	2525.618077
715.128691	2555.865000
715.462162	2497.891731
715.795584	2434.877308
716.128957	2576.029615
716.462281	2507.974038
716.795556	2538.220962
717.128782	2588.632500
717.461960	2487.809423
717.795088	2528.138654
718.128167	2548.303269
718.461198	2487.809423
718.794180	2432.356731
719.127113	2533.179808
719.459997	2543.262115
719.792833	2533.179808
720.125619	2538.220962
720.458357	2475.206538
720.791046	2530.659231
721.123686	2475.206538
721.456278	2535.700385
721.788821	2457.562500
722.121315	2427.315577
722.453761	2480.247692
722.786158	2462.603654
723.118506	2507.974038
723.450805	2477.727115
723.783056	2528.138654
724.115259	2525.618077
724.447412	2434.877308
724.779518	2507.974038
725.111574	2528.138654
725.443582	2507.974038
725.775542	2548.303269
726.107453	2472.685962
726.439315	2563.426731
726.771129	2502.932885
727.102895	2437.397885
727.434612	2502.932885
727.766281	2460.083077
728.097901	2465.124231
728.429473	2434.877308
728.760996	2497.891731
729.092471	2540.741538
729.423897	2515.535769
729.755276	2502.932885
730.086606	2523.097500
730.417887	2548.303269
730.749120	2470.165385
731.080305	2563.426731
731.411442	2394.548077
731.742530	2535.700385
732.073570	2457.562500
732.404562	2555.865000
732.735506	2404.630385
733.066401	2457.562500
733.397249	2513.015192
733.728048	2533.179808
734.058798	2513.015192
734.389501	2452.521346
734.720156	2477.727115
735.050762	2515.535769
735.381320	2565.947308
735.711831	2470.165385
736.042293	2601.235385
736.372707	2432.356731
736.703073	2518.056346
737.033391	2553.344423
737.363661	2505.453462
737.693883	2485.288846
738.024056	2545.782692
738.354182	2538.220962
738.684260	2455.041923
739.014290	2492.850577
739.344272	2553.344423
739.674207	2497.891731
740.004093	2538.220962
740.333931	2457.562500
740.663722	2510.494615
740.993464	2601.235385
741.323159	2573.509038
741.652806	2568.467885
741.982405	2482.768269
742.311956	2439.918462
742.641460	2530.659231
742.970915	2540.741538
743.300323	2502.932885
743.629683	2530.659231
743.958996	2470.165385
744.288260	2475.206538
744.617477	2560.906154
744.946647	2545.782692
745.275768	2570.988462
745.604842	2455.041923
745.933869	2507.974038
746.262847	2490.330000
746.591778	2442.439038
746.920662	2545.782692
747.249498	2492.850577
747.578286	2392.027500
747.907027	2510.494615
748.235720	2560.906154
748.564365	2412.192115
748.892963	2460.083077
749.221514	2535.700385
749.550017	2475.206538
749.878473	2460.083077
750.206881	2455.041923
750.535242	2444.959615
750.863555	2477.727115
751.191821	2447.480192
751.520039	2439.918462
751.848210	2497.891731
752.176334	2543.262115
752.504411	2472.685962
752.832440	2472.685962
753.160421	2485.288846
753.488356	2497.891731
753.816243	2500.412308
754.144082	2545.782692
754.471875	2545.782692
754.799620	2538.220962
755.127318	2563.426731
755.454969	2495.371154
755.782572	2487.809423
756.110129	2518.056346
756.437638	2523.097500
756.765100	2439.918462
757.092515	2487.809423
757.419882	2538.220962
757.747203	2477.727115
758.074477	2490.330000
758.401703	2535.700385
758.728882	2492.850577
759.056014	2497.891731
759.383099	2492.850577
759.710138	2515.535769
760.037129	2462.603654
760.364073	2500.412308
760.690970	2472.685962
761.017820	2515.535769
761.344623	2497.891731
761.671379	2596.194231
761.998088	2550.823846
762.324751	2470.165385
762.651366	2518.056346
762.977935	2558.385577
763.304456	2502.932885
763.630931	2450.000769
763.957359	2530.659231
764.283740	2518.056346
764.610074	2513.015192
764.936362	2530.659231
765.262602	2540.741538
765.588796	2596.194231
765.914943	2432.356731
766.241044	2379.424615
766.567097	2550.823846
766.893104	2439.918462
767.219064	2543.262115
767.544978	2525.618077
767.870845	2520.576923
768.196665	2510.494615
768.522438	2450.000769
768.848165	2560.906154
769.173846	2502.932885
769.499479	2540.741538
769.825066	2475.206538
770.150607	2520.576923
770.476101	2495.371154
770.801548	2510.494615
771.126949	2570.988462
771.452303	2543.262115
771.777611	2444.959615
772.102872	2457.562500
772.428087	2520.576923
772.753256	2510.494615
773.078378	2444.959615
773.403453	2497.891731
773.728482	2412.192115
774.053465	2535.700385
774.378401	2485.288846
774.703291	2472.685962
775.028135	2447.480192
775.352932	2505.453462
775.677683	2472.685962
776.002388	2447.480192
776.327046	2565.947308
776.651658	2538.220962
776.976224	2533.179808
777.300743	2485.288846
777.625216	2502.932885
777.949643	2523.097500
778.274024	2497.891731
778.598359	2429.836154
778.922647	2452.521346
779.246889	2540.741538
779.571086	2475.206538
779.895236	2523.097500
780.219339	2495.371154
780.543397	2611.317692
780.867409	2465.124231
781.191374	2558.385577
781.515294	2485.288846
781.839167	2518.056346
782.162995	2515.535769
782.486776	2427.315577
782.810511	2497.891731
783.134201	2487.809423
783.457844	2437.397885
783.781441	2563.426731
784.104993	2553.344423
784.428498	2467.644808
784.751958	2432.356731
785.075372	2407.150962
785.398739	2555.865000
785.722061	2535.700385
786.045337	2497.891731
786.368568	2439.918462
786.691752	2513.015192
787.014891	2507.974038
787.337983	2432.356731
787.661030	2502.932885
787.984031	2470.165385
788.306987	2414.712692
788.629897	2482.768269
788.952760	2455.041923
789.275579	2525.618077
789.598351	2485.288846
789.921078	2538.220962
790.243759	2515.535769
790.566395	2487.809423
790.888984	2492.850577
791.211529	2422.274423
791.534027	2538.220962
791.856480	2538.220962
792.178888	2452.521346
792.501249	2434.877308
792.823566	2409.671538
793.145836	2507.974038
793.468062	2523.097500
793.790241	2429.836154
794.112375	2518.056346
794.434464	2444.959615
794.756507	2497.891731
795.078505	2480.247692
795.400457	2520.576923
795.722364	2457.562500
796.044226	2533.179808
796.366042	2518.056346
796.687812	2550.823846
797.009538	2525.618077
797.331218	2507.974038
797.652852	2495.371154
797.974442	2452.521346
798.295986	2470.165385
798.617484	2568.467885
798.938938	2513.015192
799.260346	2538.220962
799.581709	2434.877308
799.903026	2470.165385
800.224299	2482.768269
800.545526	2409.671538
800.866708	2407.150962
801.187845	2477.727115
801.508936	2490.330000
801.829983	2409.671538
802.150984	2470.165385
802.471940	2553.344423
802.792851	2437.397885
803.113717	2495.371154
803.434538	2510.494615
803.755314	2480.247692
804.076045	2450.000769
804.396731	2497.891731
804.717372	2553.344423
805.037967	2510.494615
805.358518	2510.494615
805.679024	2515.535769
805.999485	2477.727115
806.319901	2480.247692
806.640272	2424.795000
806.960598	2475.206538
807.280879	2543.262115
807.601115	2452.521346
807.921306	2520.576923
808.241453	2472.685962
808.561554	2457.562500
808.881611	2450.000769
809.201623	2530.659231
809.521590	2444.959615
809.841513	2500.412308
810.161390	2442.439038
810.481223	2545.782692
810.801011	2419.753846
811.120755	2492.850577
811.440453	2540.741538
811.760107	2535.700385
812.079716	2467.644808
812.399281	2510.494615
812.718801	2530.659231
813.038276	2409.671538
813.357707	2477.727115
813.677093	2497.891731
813.996434	2515.535769
814.315731	2495.371154
814.634983	2540.741538
814.954191	2533.179808
815.273354	2457.562500
815.592473	2583.591346
815.911547	2528.138654
816.230577	2444.959615
816.549562	2505.453462
816.868502	2548.303269
817.187399	2555.865000
817.506250	2477.727115
817.825058	2518.056346
818.143821	2427.315577
818.462539	2492.850577
818.781213	2492.850577
819.099843	2513.015192
819.418429	2487.809423
819.736970	2513.015192
820.055466	2500.412308
820.373919	2530.659231
820.692327	2540.741538
821.010691	2472.685962
821.329011	2475.206538
821.647286	2419.753846
821.965517	2510.494615
822.283704	2565.947308
822.601847	2394.548077
822.919945	2482.768269
823.237999	2485.288846
823.556010	2550.823846
823.873976	2457.562500
824.191897	2477.727115
824.509775	2485.288846
824.827609	2477.727115
825.145398	2475.206538
825.463144	2502.932885
825.780845	2533.179808
826.098502	2452.521346
826.416116	2462.603654
826.733685	2427.315577
827.051210	2535.700385
827.368692	2460.083077
827.686129	2495.371154
828.003522	2565.947308
828.320872	2402.109808
828.638177	2497.891731
828.955439	2434.877308
829.272656	2528.138654
829.589830	2513.015192
829.906960	2455.041923
830.224046	2447.480192
830.541088	2533.179808
830.858086	2472.685962
831.175041	2434.877308
831.491952	2563.426731
831.808819	2477.727115
832.125642	2455.041923
832.442421	2460.083077
832.759157	2482.768269
833.075849	2510.494615
833.392497	2467.644808
833.709101	2573.509038
834.025662	2470.165385
834.342179	2444.959615
834.658653	2515.535769
834.975083	2437.397885
835.291469	2555.865000
835.607811	2525.618077
835.924110	2538.220962
836.240366	2442.439038
836.556578	2482.768269
836.872746	2548.303269
837.188871	2507.974038
837.504952	2568.467885
837.820990	2470.165385
838.136984	2525.618077
838.452935	2518.056346
838.768842	2502.932885
839.084706	2447.480192
839.400526	2364.301154
839.716303	2513.015192
840.032037	2502.932885
840.347727	2470.165385
840.663373	2538.220962
840.978977	2507.974038
841.294537	2545.782692
841.610054	2490.330000
841.925527	2500.412308
842.240957	2376.904038
842.556344	2518.056346
842.871687	2507.974038
843.186987	2389.506923
843.502244	2520.576923
843.817458	2507.974038
844.132629	2472.685962
844.447756	2502.932885
844.762840	2510.494615
845.077881	2525.618077
845.392879	2477.727115
845.707833	2525.618077
846.022745	2515.535769
846.337613	2444.959615
846.652438	2437.397885
846.967221	2573.509038
847.281960	2523.097500
847.596656	2482.768269
847.911309	2472.685962
848.225919	2502.932885
848.540485	2500.412308
848.855009	2460.083077
849.169490	2444.959615
849.483928	2530.659231
849.798323	2500.412308
850.112675	2500.412308
850.426984	2480.247692
850.741251	2477.727115
851.055474	2414.712692
851.369654	2535.700385
851.683792	2439.918462
851.997887	2500.412308
852.311938	2462.603654
852.625947	2432.356731
852.939914	2427.315577
853.253837	2404.630385
853.567718	2525.618077
853.881555	2540.741538
854.195350	2429.836154
854.509103	2513.015192
854.822812	2548.303269
855.136479	2507.974038
855.450103	2525.618077
855.763685	2434.877308
856.077224	2601.235385
856.390720	2497.891731
856.704173	2518.056346
857.017584	2492.850577
857.330953	2538.220962
857.644278	2550.823846
857.957561	2462.603654
858.270802	2513.015192
858.584000	2520.576923
858.897155	2543.262115
859.210268	2540.741538
859.523339	2414.712692
859.836367	2439.918462
860.149352	2439.918462
860.462295	2520.576923
860.775195	2490.330000
861.088054	2452.521346
861.400869	2510.494615
861.713642	2419.753846
862.026373	2470.165385
862.339062	2480.247692
862.651708	2525.618077
862.964312	2550.823846
863.276873	2434.877308
863.589392	2444.959615
863.901869	2475.206538
864.214303	2507.974038
864.526696	2570.988462
864.839045	2487.809423
865.151353	2523.097500
865.463619	2548.303269
865.775842	2497.891731
866.088023	2444.959615
866.400162	2472.685962
866.712258	2545.782692
867.024313	2548.303269
867.336325	2472.685962
867.648296	2568.467885
867.960224	2505.453462
868.272110	2518.056346
868.583954	2568.467885
868.895755	2475.206538
869.207515	2427.315577
869.519233	2422.274423
869.830909	2518.056346
870.142542	2442.439038
870.454134	2427.315577
870.765684	2502.932885
871.077191	2475.206538
871.388657	2462.603654
871.700081	2465.124231
872.011463	2492.850577
872.322803	2419.753846
872.634101	2558.385577
872.945357	2530.659231
873.256571	2462.603654
873.567744	2444.959615
873.878874	2505.453462
874.189963	2528.138654
874.501010	2485.288846
874.812015	2495.371154
875.122979	2543.262115
875.433900	2558.385577
875.744780	2528.138654
876.055618	2518.056346
876.366415	2533.179808
876.677169	2505.453462
876.987882	2513.015192
877.298554	2442.439038
877.609183	2482.768269
877.919771	2460.083077
878.230317	2462.603654
878.540822	2480.247692
878.851285	2540.741538
879.161707	2545.782692
879.472087	2404.630385
879.782425	2545.782692
880.092722	2495.371154
880.402977	2545.782692
880.713191	2543.262115
881.023363	2533.179808
881.333494	2407.150962
881.643583	2447.480192
881.953631	2452.521346
882.263637	2424.795000
882.573602	2495.371154
882.883526	2472.685962
883.193408	2553.344423
883.503248	2495.371154
883.813048	2472.685962
884.122806	2497.891731
884.432522	2470.165385
884.742197	2586.111923
885.051831	2447.480192
885.361424	2465.124231
885.670975	2437.397885
885.980485	2480.247692
886.289954	2462.603654
886.599382	2513.015192
886.908768	2437.397885
887.218113	2598.714808
887.527417	2500.412308
887.836680	2591.153077
888.145901	2434.877308
888.455082	2402.109808
888.764221	2528.138654
889.073319	2455.041923
889.382376	2444.959615
889.691392	2528.138654
890.000366	2530.659231
890.309300	2467.644808
890.618193	2487.809423
890.927044	2482.768269
891.235855	2392.027500
891.544625	2490.330000
891.853353	2477.727115
892.162041	2523.097500
892.470687	2525.618077
892.779293	2480.247692
893.087858	2460.083077
893.396381	2432.356731
893.704864	2379.424615
894.013306	2513.015192
894.321707	2535.700385
894.630068	2520.576923
894.938387	2515.535769
895.246665	2505.453462
895.554903	2419.753846
895.863100	2538.220962
896.171256	2480.247692
896.479371	2518.056346
896.787446	2492.850577
897.095480	2535.700385
897.403473	2528.138654
897.711425	2505.453462
898.019336	2422.274423
898.327207	2510.494615
898.635038	2492.850577
898.942827	2477.727115
899.250576	2492.850577
899.558284	2470.165385
899.865952	2485.288846
900.173579	2530.659231
900.481165	2437.397885
900.788711	2555.865000
901.096216	2490.330000
901.403681	2538.220962
901.711105	2490.330000
902.018489	2528.138654
902.325832	2518.056346
902.633135	2455.041923
902.940397	2482.768269
903.247619	2560.906154
903.554800	2482.768269
903.861941	2533.179808
904.169041	2528.138654
904.476101	2530.659231
904.783121	2550.823846
905.090100	2500.412308
905.397039	2470.165385
905.703938	2502.932885
906.010796	2444.959615
906.317614	2505.453462
906.624391	2616.358846
906.931129	2485.288846
907.237826	2460.083077
907.544483	2538.220962
907.851099	2407.150962
908.157675	2507.974038
908.464211	2513.015192
908.770707	2500.412308
909.077163	2437.397885
909.383578	2452.521346
909.689954	2472.685962
909.996289	2480.247692
910.302584	2409.671538
910.608839	2467.644808
910.915054	2500.412308
911.221229	2455.041923
911.527363	2364.301154
911.833458	2399.589231
912.139513	2548.303269
912.445527	2434.877308
912.751502	2422.274423
913.057436	2422.274423
913.363331	2530.659231
913.669186	2437.397885
913.975000	2502.932885
914.280775	2535.700385
914.586510	2465.124231
914.892205	2520.576923
915.197859	2462.603654
915.503475	2429.836154
915.809050	2507.974038
916.114585	2487.809423
916.420081	2414.712692
916.725536	2490.330000
917.030952	2475.206538
917.336328	2442.439038
917.641665	2467.644808
917.946961	2523.097500
918.252218	2495.371154
918.557435	2417.233269
918.862612	2515.535769
919.167750	2467.644808
919.472848	2465.124231
919.777906	2593.673654
920.082925	2422.274423
920.387904	2452.521346
920.692843	2427.315577
920.997743	2432.356731
921.302603	2515.535769
921.607423	2475.206538
921.912204	2480.247692
922.216946	2442.439038
922.521647	2560.906154
922.826310	2462.603654
923.130932	2472.685962
923.435516	2500.412308
923.740059	2495.371154
924.044564	2520.576923
924.349028	2520.576923
924.653454	2419.753846
924.957840	2480.247692
925.262186	2467.644808
925.566493	2480.247692
925.870761	2455.041923
926.174989	2495.371154
926.479178	2450.000769
926.783328	2523.097500
927.087438	2460.083077
927.391509	2412.192115
927.695541	2558.385577
927.999533	2460.083077
928.303486	2495.371154
928.607400	2515.535769
928.911275	2510.494615
929.215110	2402.109808
929.518906	2525.618077
929.822663	2427.315577
930.126381	2487.809423
930.430060	2490.330000
930.733699	2444.959615
931.037299	2477.727115
931.340861	2533.179808
931.644383	2507.974038
931.947866	2500.412308
932.251309	2447.480192
932.554714	2472.685962
932.858080	2475.206538
933.161407	2487.809423
933.464694	2470.165385
933.767943	2452.521346
934.071153	2525.618077
934.374323	2513.015192
934.677455	2427.315577
934.980548	2500.412308
935.283602	2525.618077
935.586617	2477.727115
935.889593	2470.165385
936.192530	2487.809423
936.495428	2470.165385
936.798287	2492.850577
937.101108	2462.603654
937.403890	2424.795000
937.706632	2467.644808
938.009336	2586.111923
938.312002	2434.877308
938.614628	2520.576923
938.917216	2543.262115
939.219765	2533.179808
939.522275	2482.768269
939.824747	2578.550192
940.127179	2535.700385
940.429573	2470.165385
940.731929	2505.453462
941.034246	2576.029615
941.336524	2613.838269
941.638763	2593.673654
941.940964	2520.576923
942.243126	2467.644808
942.545250	2407.150962
942.847335	2515.535769
943.149381	2429.836154
943.451389	2485.288846
943.753359	2492.850577
944.055290	2502.932885
944.357182	2553.344423
944.659036	2480.247692
944.960851	2467.644808
945.262628	2480.247692
945.564367	2520.576923
945.866067	2510.494615
946.167729	2535.700385
946.469352	2452.521346
946.770937	2500.412308
947.072484	2465.124231
947.373992	2465.124231
947.675462	2487.809423
947.976893	2455.041923
948.278286	2450.000769
948.579641	2533.179808
948.880958	2533.179808
949.182236	2502.932885
949.483476	2502.932885
949.784678	2460.083077
950.085841	2465.124231
950.386967	2530.659231
950.688054	2525.618077
950.989103	2550.823846
951.290114	2434.877308
951.591087	2482.768269
951.892021	2465.124231
952.192917	2568.467885
952.493776	2470.165385
952.794596	2472.685962
953.095378	2475.206538
953.396122	2528.138654
953.696828	2467.644808
953.997496	2530.659231
954.298126	2611.317692
954.598718	2427.315577
954.899272	2563.426731
955.199788	2452.521346
955.500266	2601.235385
955.800706	2485.288846
956.101108	2487.809423
956.401472	2565.947308
956.701798	2480.247692
957.002087	2394.548077
957.302337	2492.850577
957.602550	2442.439038
957.902724	2442.439038
958.202861	2480.247692
958.502960	2502.932885
958.803022	2495.371154
959.103045	2384.465769
959.403031	2581.070769
959.702979	2555.865000
960.002889	2470.165385
960.302762	2543.262115
960.602596	2583.591346
960.902393	2480.247692
961.202153	2528.138654
961.501875	2434.877308
961.801559	2485.288846
962.101205	2530.659231
962.400814	2480.247692
962.700385	2563.426731
962.999918	2502.932885
963.299414	2432.356731
963.598873	2515.535769
963.898293	2429.836154
964.197677	2505.453462
964.497022	2470.165385
964.796331	2444.959615
965.095601	2487.809423
965.394835	2450.000769
965.694030	2513.015192
965.993189	2525.618077
966.292309	2487.809423
966.591393	2422.274423
966.890439	2485.288846
967.189447	2439.918462
967.488419	2568.467885
967.787353	2452.521346
968.086249	2530.659231
968.385108	2523.097500
968.683930	2399.589231
968.982714	2412.192115
969.281462	2439.918462
969.580172	2505.453462
969.878844	2444.959615
970.177480	2530.659231
970.476078	2465.124231
970.774639	2470.165385
971.073162	2543.262115
971.371649	2472.685962
971.670098	2465.124231
971.968510	2457.562500
972.266885	2460.083077
972.565223	2485.288846
972.863524	2591.153077
973.161788	2487.809423
973.460014	2518.056346
973.758204	2409.671538
974.056356	2492.850577
974.354471	2560.906154
974.652550	2487.809423
974.950591	2563.426731
975.248595	2455.041923
975.546563	2576.029615
975.844493	2596.194231
976.142386	2502.932885
976.440243	2460.083077
976.738062	2487.809423
977.035845	2477.727115
977.333590	2513.015192
977.631299	2505.453462
977.928971	2490.330000
978.226606	2492.850577
978.524204	2482.768269
978.821765	2455.041923
979.119290	2507.974038
979.416777	2560.906154
979.714228	2480.247692
980.011642	2535.700385
980.309020	2497.891731
980.606360	2502.932885
980.903664	2460.083077
981.200931	2540.741538
981.498162	2467.644808
981.795356	2533.179808
982.092513	2424.795000
982.389633	2500.412308
982.686717	2500.412308
982.983764	2442.439038
983.280775	2535.700385
983.577749	2543.262115
983.874686	2535.700385
984.171587	2565.947308
984.468451	2439.918462
984.765279	2507.974038
985.062070	2500.412308
985.358824	2472.685962
985.655543	2442.439038
985.952224	2505.453462
986.248869	2543.262115
986.545478	2465.124231
986.842050	2470.165385
987.138586	2444.959615
987.435086	2422.274423
987.731549	2470.165385
988.027975	2472.685962
988.324366	2424.795000
988.620719	2513.015192
988.917037	2419.753846
989.213318	2495.371154
989.509563	2550.823846
989.805772	2502.932885
990.101944	2455.041923
990.398080	2439.918462
990.694180	2487.809423
990.990244	2444.959615
991.286271	2535.700385
991.582262	2492.850577
991.878217	2515.535769
992.174136	2482.768269
992.470019	2513.015192
992.765865	2437.397885
993.061676	2560.906154
993.357450	2462.603654
993.653188	2439.918462
993.948890	2520.576923
994.244556	2477.727115
994.540186	2510.494615
994.835780	2450.000769
995.131337	2545.782692
995.426859	2555.865000
995.722345	2497.891731
996.017795	2515.535769
996.313208	2455.041923
996.608586	2427.315577
996.903928	2497.891731
997.199234	2492.850577
997.494504	2437.397885
997.789738	2432.356731
998.084936	2452.521346
998.380099	2477.727115
998.675225	2530.659231
998.970316	2538.220962
999.265371	2545.782692
999.560390	2374.383462
999.855373	2467.644808
1000.150320	2500.412308
1000.445232	2447.480192
1000.740108	2553.344423
1001.034948	2528.138654
1001.329752	2487.809423
1001.624521	2525.618077
1001.919254	2482.768269
1002.213951	2429.836154
1002.508613	2528.138654
1002.803239	2518.056346
1003.097829	2457.562500
1003.392384	2434.877308
1003.686903	2540.741538
1003.981386	2467.644808
1004.275834	2472.685962
1004.570246	2427.315577
1004.864623	2477.727115
1005.158964	2565.947308
1005.453270	2523.097500
1005.747540	2586.111923
1006.041775	2502.932885
1006.335974	2457.562500
1006.630138	2412.192115
1006.924266	2576.029615
1007.218359	2412.192115
1007.512416	2470.165385
1007.806438	2598.714808
1008.100425	2570.988462
1008.394376	2482.768269
1008.688292	2490.330000
1008.982172	2515.535769
1009.276017	2442.439038
1009.569827	2429.836154
1009.863602	2555.865000
1010.157341	2510.494615
1010.451045	2457.562500
1010.744714	2490.330000
1011.038347	2530.659231
1011.331945	2467.644808
1011.625508	2450.000769
1011.919036	2502.932885
1012.212528	2495.371154
1012.505986	2450.000769
1012.799408	2492.850577
1013.092795	2470.165385
1013.386147	2490.330000
1013.679464	2452.521346
1013.972745	2495.371154
1014.265992	2434.877308
1014.559204	2455.041923
1014.852380	2485.288846
1015.145521	2429.836154
1015.438628	2472.685962
1015.731699	2457.562500
1016.024736	2447.480192
1016.317737	2477.727115
1016.610703	2555.865000
1016.903635	2510.494615
1017.196531	2462.603654
1017.489393	2538.220962
1017.782219	2477.727115
1018.075011	2467.644808
1018.367768	2485.288846
1018.660490	2495.371154
1018.953177	2495.371154
1019.245829	2495.371154
