Dividing Wavelength (nm)	Counts (n)	Blue Motor Position (mm): 4.800000	Red Motor Position (mm): 0.000000	
326.493990	2112.243462
326.888308	2112.243462
327.282561	2112.243462
327.676750	2069.393654
328.070874	2036.626154
328.464933	2064.352500
328.858929	2092.078846
329.252859	2122.325769
329.646726	2102.161154
330.040528	2097.120000
330.434265	2114.764038
330.827938	2230.710577
331.221547	2139.969808
331.615091	2165.175577
332.008571	2152.572692
332.401986	2139.969808
332.795338	2258.436923
333.188625	2268.519231
333.581847	2301.286731
333.975006	2180.299038
334.368100	2258.436923
334.761129	2339.095385
335.154095	2313.889615
335.546996	2379.424615
335.939833	2364.301154
336.332606	2429.836154
336.725315	2354.218846
337.117960	2442.439038
337.510540	2349.177692
337.903056	2442.439038
338.295508	2414.712692
338.687896	2462.603654
339.080220	2414.712692
339.472480	2460.083077
339.864676	2434.877308
340.256807	2417.233269
340.648875	2500.412308
341.040879	2386.986346
341.432818	2439.918462
341.824694	2422.274423
342.216506	2497.891731
342.608253	2505.453462
342.999937	2447.480192
343.391557	2505.453462
343.783113	2480.247692
344.174605	2437.397885
344.566033	2432.356731
344.957397	2452.521346
345.348697	2422.274423
345.739934	2500.412308
346.131106	2437.397885
346.522215	2550.823846
346.913260	2450.000769
347.304241	2434.877308
347.695159	2500.412308
348.086012	2482.768269
348.476802	2450.000769
348.867528	2525.618077
349.258191	2447.480192
349.648789	2515.535769
350.039324	2429.836154
350.429796	2525.618077
350.820203	2507.974038
351.210548	2553.344423
351.600828	2392.027500
351.991045	2455.041923
352.381198	2492.850577
352.771288	2477.727115
353.161314	2460.083077
353.551276	2434.877308
353.941175	2392.027500
354.331010	2344.136538
354.720782	2482.768269
355.110490	2475.206538
355.500135	2487.809423
355.889717	2424.795000
356.279235	2518.056346
356.668689	2485.288846
357.058080	2462.603654
357.447408	2351.698269
357.836672	2472.685962
358.225873	2432.356731
358.615010	2392.027500
359.004084	2485.288846
359.393095	2505.453462
359.782043	2424.795000
360.170927	2369.342308
360.559748	2495.371154
360.948505	2366.821731
361.337199	2402.109808
361.725830	2502.932885
362.114398	2389.506923
362.502903	2432.356731
362.891344	2412.192115
363.279722	2450.000769
363.668037	2450.000769
364.056289	2475.206538
364.444478	2439.918462
364.832603	2414.712692
365.220665	2455.041923
365.608665	2510.494615
365.996601	2442.439038
366.384474	2419.753846
366.772284	2437.397885
367.160031	2477.727115
367.547715	2460.083077
367.935336	2399.589231
368.322893	2520.576923
368.710388	2523.097500
369.097820	2376.904038
369.485189	2475.206538
369.872495	2434.877308
370.259738	2450.000769
370.646918	2530.659231
371.034035	2477.727115
371.421090	2457.562500
371.808081	2397.068654
372.195010	2515.535769
372.581875	2510.494615
372.968678	2477.727115
373.355418	2482.768269
373.742096	2497.891731
374.128710	2447.480192
374.515262	2439.918462
374.901751	2452.521346
375.288177	2490.330000
375.674540	2422.274423
376.060841	2507.974038
376.447079	2450.000769
376.833254	2419.753846
377.219367	2404.630385
377.605417	2480.247692
377.991404	2422.274423
378.377329	2500.412308
378.763191	2429.836154
379.148991	2442.439038
379.534727	2394.548077
379.920402	2419.753846
380.306013	2460.083077
380.691563	2495.371154
381.077049	2490.330000
381.462474	2518.056346
381.847835	2581.070769
382.233134	2399.589231
382.618371	2477.727115
383.003545	2495.371154
383.388657	2442.439038
383.773706	2419.753846
384.158693	2535.700385
384.543618	2432.356731
384.928480	2457.562500
385.313280	2495.371154
385.698017	2465.124231
386.082692	2417.233269
386.467305	2465.124231
386.851856	2472.685962
387.236344	2497.891731
387.620770	2427.315577
388.005133	2392.027500
388.389435	2346.657115
388.773674	2505.453462
389.157851	2457.562500
389.541965	2477.727115
389.926018	2500.412308
390.310008	2482.768269
390.693936	2437.397885
391.077802	2477.727115
391.461606	2502.932885
391.845348	2434.877308
392.229027	2450.000769
392.612645	2397.068654
392.996200	2386.986346
393.379694	2500.412308
393.763125	2386.986346
394.146494	2460.083077
394.529801	2427.315577
394.913047	2518.056346
395.296230	2429.836154
395.679351	2457.562500
396.062410	2475.206538
396.445408	2457.562500
396.828343	2467.644808
397.211217	2374.383462
397.594028	2432.356731
397.976778	2457.562500
398.359466	2381.945192
398.742092	2502.932885
399.124656	2528.138654
399.507158	2480.247692
399.889598	2497.891731
400.271977	2465.124231
400.654294	2409.671538
401.036549	2381.945192
401.418742	2434.877308
401.800874	2407.150962
402.182944	2477.727115
402.564952	2379.424615
402.946898	2510.494615
403.328783	2447.480192
403.710606	2437.397885
404.092367	2467.644808
404.474067	2444.959615
404.855705	2460.083077
405.237282	2457.562500
405.618797	2467.644808
406.000250	2442.439038
406.381642	2518.056346
406.762972	2490.330000
407.144240	2487.809423
407.525447	2518.056346
407.906593	2485.288846
408.287677	2462.603654
408.668700	2475.206538
409.049661	2497.891731
409.430560	2472.685962
409.811399	2528.138654
410.192176	2480.247692
410.572891	2502.932885
410.953545	2452.521346
411.334138	2450.000769
411.714669	2457.562500
412.095139	2540.741538
412.475547	2480.247692
412.855894	2465.124231
413.236180	2429.836154
413.616405	2447.480192
413.996568	2434.877308
414.376670	2424.795000
414.756711	2477.727115
415.136691	2480.247692
415.516609	2432.356731
415.896466	2528.138654
416.276262	2482.768269
416.655997	2533.179808
417.035670	2344.136538
417.415283	2505.453462
417.794834	2447.480192
418.174324	2495.371154
418.553753	2470.165385
418.933121	2507.974038
419.312428	2412.192115
419.691674	2487.809423
420.070859	2533.179808
420.449983	2465.124231
420.829045	2386.986346
421.208047	2465.124231
421.586988	2477.727115
421.965867	2480.247692
422.344686	2518.056346
422.723444	2472.685962
423.102141	2487.809423
423.480777	2472.685962
423.859352	2550.823846
424.237866	2467.644808
424.616319	2565.947308
424.994712	2477.727115
425.373044	2515.535769
425.751314	2450.000769
426.129524	2462.603654
426.507673	2487.809423
426.885762	2563.426731
427.263789	2397.068654
427.641756	2510.494615
428.019662	2429.836154
428.397508	2553.344423
428.775292	2510.494615
429.153016	2528.138654
429.530679	2550.823846
429.908282	2424.795000
430.285824	2500.412308
430.663305	2455.041923
431.040726	2563.426731
431.418086	2470.165385
431.795385	2533.179808
432.172624	2444.959615
432.549802	2558.385577
432.926920	2520.576923
433.303977	2560.906154
433.680974	2515.535769
434.057910	2502.932885
434.434786	2502.932885
434.811601	2515.535769
435.188355	2404.630385
435.565050	2412.192115
435.941683	2460.083077
436.318257	2384.465769
436.694770	2543.262115
437.071222	2447.480192
437.447614	2379.424615
437.823946	2586.111923
438.200218	2422.274423
438.576429	2540.741538
438.952580	2472.685962
439.328670	2560.906154
439.704700	2558.385577
440.080670	2470.165385
440.456580	2500.412308
440.832429	2520.576923
441.208218	2475.206538
441.583947	2492.850577
441.959616	2545.782692
442.335224	2535.700385
442.710773	2495.371154
443.086261	2528.138654
443.461689	2530.659231
443.837057	2518.056346
444.212365	2472.685962
444.587612	2578.550192
444.962800	2457.562500
445.337927	2500.412308
445.712995	2513.015192
446.088002	2460.083077
446.462949	2442.439038
446.837837	2407.150962
447.212664	2409.671538
447.587431	2495.371154
447.962139	2419.753846
448.336786	2444.959615
448.711374	2548.303269
449.085901	2560.906154
449.460369	2472.685962
449.834776	2444.959615
450.209124	2412.192115
450.583412	2417.233269
450.957640	2520.576923
451.331808	2485.288846
451.705917	2523.097500
452.079965	2485.288846
452.453954	2462.603654
452.827883	2419.753846
453.201752	2477.727115
453.575562	2424.795000
453.949311	2502.932885
454.323001	2520.576923
454.696632	2444.959615
455.070202	2502.932885
455.443713	2437.397885
455.817164	2500.412308
456.190556	2439.918462
456.563888	2563.426731
456.937160	2495.371154
457.310373	2417.233269
457.683526	2470.165385
458.056619	2434.877308
458.429653	2455.041923
458.802628	2442.439038
459.175542	2472.685962
459.548398	2480.247692
459.921194	2442.439038
460.293930	2482.768269
460.666607	2480.247692
461.039224	2374.383462
461.411782	2444.959615
461.784280	2450.000769
462.156719	2485.288846
462.529099	2429.836154
462.901419	2548.303269
463.273680	2457.562500
463.645882	2450.000769
464.018024	2502.932885
464.390106	2555.865000
464.762130	2442.439038
465.134094	2432.356731
465.505999	2530.659231
465.877845	2414.712692
466.249631	2588.632500
466.621358	2535.700385
466.993026	2515.535769
467.364634	2419.753846
467.736184	2462.603654
468.107674	2507.974038
468.479105	2487.809423
468.850477	2457.562500
469.221790	2439.918462
469.593043	2399.589231
469.964238	2507.974038
470.335373	2568.467885
470.706449	2533.179808
471.077467	2570.988462
471.448425	2505.453462
471.819324	2518.056346
472.190164	2452.521346
472.560945	2444.959615
472.931667	2515.535769
473.302330	2487.809423
473.672934	2492.850577
474.043479	2530.659231
474.413965	2462.603654
474.784393	2442.439038
475.154761	2518.056346
475.525070	2500.412308
475.895321	2520.576923
476.265513	2565.947308
476.635645	2470.165385
477.005719	2321.451346
477.375734	2419.753846
477.745691	2560.906154
478.115588	2467.644808
478.485427	2490.330000
478.855207	2535.700385
479.224928	2480.247692
479.594591	2565.947308
479.964194	2543.262115
480.333739	2576.029615
480.703226	2487.809423
481.072653	2505.453462
481.442022	2502.932885
481.811333	2510.494615
482.180584	2462.603654
482.549777	2492.850577
482.918912	2507.974038
483.287988	2460.083077
483.657005	2444.959615
484.025964	2424.795000
484.394864	2374.383462
484.763706	2497.891731
485.132489	2475.206538
485.501213	2543.262115
485.869879	2507.974038
486.238487	2482.768269
486.607036	2447.480192
486.975527	2533.179808
487.343959	2490.330000
487.712333	2523.097500
488.080648	2429.836154
488.448905	2553.344423
488.817104	2565.947308
489.185244	2530.659231
489.553326	2409.671538
489.921350	2399.589231
490.289315	2510.494615
490.657222	2528.138654
491.025070	2480.247692
491.392861	2535.700385
491.760593	2450.000769
492.128267	2434.877308
492.495883	2462.603654
492.863440	2525.618077
493.230939	2507.974038
493.598380	2500.412308
493.965763	2507.974038
494.333088	2419.753846
494.700354	2402.109808
495.067563	2573.509038
495.434713	2485.288846
495.801805	2492.850577
496.168839	2515.535769
496.535815	2515.535769
496.902733	2591.153077
497.269593	2457.562500
497.636395	2475.206538
498.003139	2422.274423
498.369825	2487.809423
498.736453	2570.988462
499.103023	2487.809423
499.469535	2462.603654
499.835989	2500.412308
500.202385	2482.768269
500.568723	2429.836154
500.935003	2533.179808
501.301226	2465.124231
501.667390	2485.288846
502.033497	2424.795000
502.399546	2429.836154
502.765537	2515.535769
503.131470	2533.179808
503.497345	2442.439038
503.863163	2497.891731
504.228923	2510.494615
504.594625	2507.974038
504.960269	2364.301154
505.325856	2475.206538
505.691385	2507.974038
506.056856	2505.453462
506.422270	2538.220962
506.787625	2462.603654
507.152924	2533.179808
507.518164	2472.685962
507.883347	2507.974038
508.248472	2502.932885
508.613540	2495.371154
508.978550	2434.877308
509.343503	2419.753846
509.708398	2452.521346
510.073236	2429.836154
510.438016	2513.015192
510.802738	2528.138654
511.167403	2520.576923
511.532010	2576.029615
511.896561	2444.959615
512.261053	2515.535769
512.625488	2533.179808
512.989866	2525.618077
513.354186	2543.262115
513.718449	2538.220962
514.082655	2497.891731
514.446803	2515.535769
514.810894	2482.768269
515.174927	2560.906154
515.538904	2482.768269
515.902822	2513.015192
516.266684	2548.303269
516.630488	2570.988462
516.994235	2485.288846
517.357925	2434.877308
517.721558	2500.412308
518.085133	2472.685962
518.448651	2555.865000
518.812112	2593.673654
519.175516	2427.315577
519.538863	2439.918462
519.902152	2414.712692
520.265385	2513.015192
520.628560	2570.988462
520.991678	2437.397885
521.354739	2510.494615
521.717743	2502.932885
522.080690	2434.877308
522.443580	2530.659231
522.806413	2482.768269
523.169189	2429.836154
523.531908	2480.247692
523.894569	2427.315577
524.257174	2490.330000
524.619722	2525.618077
524.982213	2480.247692
525.344647	2475.206538
525.707025	2568.467885
526.069345	2520.576923
526.431608	2497.891731
526.793815	2525.618077
527.155964	2533.179808
527.518057	2502.932885
527.880093	2490.330000
528.242072	2543.262115
528.603995	2477.727115
528.965860	2545.782692
529.327669	2465.124231
529.689421	2495.371154
530.051117	2434.877308
530.412755	2447.480192
530.774337	2487.809423
531.135862	2533.179808
531.497331	2467.644808
531.858743	2553.344423
532.220098	2538.220962
532.581396	2513.015192
532.942638	2570.988462
533.303824	2452.521346
533.664953	2485.288846
534.026025	2528.138654
534.387040	2515.535769
534.747999	2465.124231
535.108902	2485.288846
535.469748	2533.179808
535.830537	2533.179808
536.191270	2518.056346
536.551947	2543.262115
536.912567	2583.591346
537.273131	2510.494615
537.633638	2505.453462
537.994089	2477.727115
538.354483	2495.371154
538.714821	2586.111923
539.075103	2470.165385
539.435328	2467.644808
539.795497	2553.344423
540.155609	2472.685962
540.515665	2543.262115
540.875665	2586.111923
541.235609	2381.945192
541.595496	2460.083077
541.955328	2439.918462
542.315102	2429.836154
542.674821	2397.068654
543.034483	2485.288846
543.394090	2490.330000
543.753640	2490.330000
544.113134	2485.288846
544.472571	2507.974038
544.831953	2608.797115
545.191278	2500.412308
545.550548	2500.412308
545.909761	2472.685962
546.268918	2513.015192
546.628019	2518.056346
546.987064	2490.330000
547.346053	2535.700385
547.704986	2470.165385
548.063863	2485.288846
548.422684	2502.932885
548.781449	2560.906154
549.140158	2467.644808
549.498811	2596.194231
549.857408	2513.015192
550.215949	2455.041923
550.574434	2450.000769
550.932864	2482.768269
551.291237	2497.891731
551.649555	2480.247692
552.007817	2518.056346
552.366022	2480.247692
552.724173	2540.741538
553.082267	2462.603654
553.440305	2470.165385
553.798288	2502.932885
554.156215	2455.041923
554.514086	2450.000769
554.871902	2465.124231
555.229661	2490.330000
555.587365	2510.494615
555.945014	2462.603654
556.302606	2439.918462
556.660143	2397.068654
557.017625	2505.453462
557.375050	2450.000769
557.732421	2495.371154
558.089735	2505.453462
558.446994	2533.179808
558.804197	2457.562500
559.161345	2555.865000
559.518437	2417.233269
559.875474	2543.262115
560.232455	2490.330000
560.589381	2528.138654
560.946251	2492.850577
561.303065	2447.480192
561.659825	2515.535769
562.016528	2540.741538
562.373177	2477.727115
562.729770	2500.412308
563.086307	2412.192115
563.442789	2507.974038
563.799216	2439.918462
564.155587	2437.397885
564.511904	2581.070769
564.868164	2510.494615
565.224370	2457.562500
565.580520	2565.947308
565.936615	2598.714808
566.292654	2455.041923
566.648638	2455.041923
567.004567	2497.891731
567.360441	2513.015192
567.716260	2502.932885
568.072023	2462.603654
568.427732	2518.056346
568.783385	2507.974038
569.138982	2530.659231
569.494525	2495.371154
569.850013	2535.700385
570.205445	2548.303269
570.560823	2432.356731
570.916145	2505.453462
571.271412	2427.315577
571.626625	2507.974038
571.981782	2452.521346
572.336884	2490.330000
572.691931	2538.220962
573.046923	2497.891731
573.401860	2452.521346
573.756743	2520.576923
574.111570	2505.453462
574.466342	2528.138654
574.821059	2538.220962
575.175722	2520.576923
575.530330	2510.494615
575.884882	2432.356731
576.239380	2553.344423
576.593823	2523.097500
576.948211	2545.782692
577.302544	2545.782692
577.656823	2525.618077
578.011047	2540.741538
578.365216	2550.823846
578.719330	2477.727115
579.073389	2507.974038
579.427394	2482.768269
579.781344	2490.330000
580.135239	2419.753846
580.489080	2477.727115
580.842866	2492.850577
581.196597	2495.371154
581.550273	2490.330000
581.903895	2475.206538
582.257463	2412.192115
582.610975	2359.260000
582.964434	2432.356731
583.317837	2540.741538
583.671186	2492.850577
584.024481	2485.288846
584.377721	2475.206538
584.730906	2470.165385
585.084037	2470.165385
585.437113	2510.494615
585.790135	2533.179808
586.143103	2523.097500
586.496016	2455.041923
586.848874	2490.330000
587.201679	2414.712692
587.554428	2480.247692
587.907124	2460.083077
588.259765	2472.685962
588.612352	2515.535769
588.964884	2472.685962
589.317362	2520.576923
589.669786	2500.412308
590.022155	2450.000769
590.374470	2417.233269
590.726731	2510.494615
591.078937	2586.111923
591.431090	2565.947308
591.783188	2470.165385
592.135232	2492.850577
592.487222	2485.288846
592.839157	2513.015192
593.191038	2502.932885
593.542866	2495.371154
593.894639	2515.535769
594.246358	2513.015192
594.598022	2545.782692
594.949633	2450.000769
595.301190	2392.027500
595.652692	2507.974038
596.004141	2470.165385
596.355535	2482.768269
596.706876	2434.877308
597.058162	2565.947308
597.409395	2462.603654
597.760573	2525.618077
598.111698	2480.247692
598.462768	2497.891731
598.813785	2432.356731
599.164748	2485.288846
599.515657	2457.562500
599.866511	2510.494615
600.217312	2467.644808
600.568060	2424.795000
600.918753	2427.315577
601.269392	2487.809423
601.619978	2490.330000
601.970510	2507.974038
602.320988	2538.220962
602.671412	2502.932885
603.021783	2457.562500
603.372100	2505.453462
603.722363	2497.891731
604.072572	2497.891731
604.422728	2545.782692
604.772830	2573.509038
605.122878	2417.233269
605.472872	2518.056346
605.822813	2422.274423
606.172701	2472.685962
606.522534	2490.330000
606.872314	2462.603654
607.222041	2528.138654
607.571714	2545.782692
607.921333	2414.712692
608.270899	2505.453462
608.620411	2450.000769
608.969870	2528.138654
609.319276	2482.768269
609.668627	2447.480192
610.017926	2578.550192
610.367171	2525.618077
610.716362	2477.727115
611.065500	2565.947308
611.414585	2553.344423
611.763616	2507.974038
612.112594	2467.644808
612.461518	2523.097500
612.810389	2457.562500
613.159207	2495.371154
613.507971	2457.562500
613.856682	2543.262115
614.205340	2419.753846
614.553945	2538.220962
614.902496	2533.179808
615.250994	2523.097500
615.599439	2510.494615
615.947830	2555.865000
616.296169	2513.015192
616.644454	2455.041923
616.992686	2429.836154
617.340864	2530.659231
617.688990	2507.974038
618.037063	2460.083077
618.385082	2548.303269
618.733048	2394.548077
619.080961	2500.412308
619.428821	2487.809423
619.776628	2565.947308
620.124382	2477.727115
620.472083	2447.480192
620.819731	2525.618077
621.167326	2533.179808
621.514868	2492.850577
621.862357	2412.192115
622.209793	2518.056346
622.557176	2518.056346
622.904506	2495.371154
623.251783	2611.317692
623.599007	2460.083077
623.946179	2528.138654
624.293297	2452.521346
624.640363	2533.179808
624.987376	2535.700385
625.334336	2505.453462
625.681243	2548.303269
626.028097	2490.330000
626.374899	2434.877308
626.721647	2608.797115
627.068343	2376.904038
627.414987	2558.385577
627.761577	2450.000769
628.108115	2487.809423
628.454600	2507.974038
628.801032	2472.685962
629.147412	2472.685962
629.493739	2500.412308
629.840014	2502.932885
630.186236	2553.344423
630.532405	2470.165385
630.878521	2540.741538
631.224585	2470.165385
631.570597	2515.535769
631.916556	2545.782692
632.262462	2535.700385
632.608316	2515.535769
632.954117	2460.083077
633.299866	2462.603654
633.645562	2523.097500
633.991206	2427.315577
634.336797	2507.974038
634.682336	2520.576923
635.027823	2545.782692
635.373257	2490.330000
635.718639	2497.891731
636.063968	2558.385577
636.409245	2434.877308
636.754470	2432.356731
637.099642	2500.412308
637.444762	2507.974038
637.789829	2528.138654
638.134845	2548.303269
638.479808	2465.124231
638.824719	2515.535769
639.169577	2452.521346
639.514383	2513.015192
639.859137	2492.850577
640.203839	2548.303269
640.548489	2452.521346
640.893086	2570.988462
641.237632	2500.412308
641.582125	2530.659231
641.926566	2482.768269
642.270955	2525.618077
642.615292	2495.371154
642.959576	2560.906154
643.303809	2560.906154
643.647990	2444.959615
643.992118	2462.603654
644.336195	2563.426731
644.680219	2399.589231
645.024192	2485.288846
645.368112	2442.439038
645.711981	2490.330000
646.055797	2565.947308
646.399562	2455.041923
646.743274	2502.932885
647.086935	2460.083077
647.430544	2530.659231
647.774101	2502.932885
648.117606	2447.480192
648.461059	2545.782692
648.804460	2460.083077
649.147810	2444.959615
649.491108	2495.371154
649.834354	2543.262115
650.177548	2452.521346
650.520690	2505.453462
650.863781	2482.768269
651.206820	2548.303269
651.549807	2525.618077
651.892742	2505.453462
652.235626	2523.097500
652.578458	2540.741538
652.921238	2518.056346
653.263967	2528.138654
653.606644	2467.644808
653.949269	2470.165385
654.291843	2444.959615
654.634365	2361.780577
654.976836	2553.344423
655.319255	2457.562500
655.661622	2500.412308
656.003938	2482.768269
656.346203	2444.959615
656.688416	2525.618077
657.030577	2477.727115
657.372687	2525.618077
657.714746	2500.412308
658.056753	2447.480192
658.398708	2528.138654
658.740612	2462.603654
659.082465	2497.891731
659.424266	2480.247692
659.766016	2492.850577
660.107715	2553.344423
660.449362	2576.029615
660.790958	2482.768269
661.132503	2490.330000
661.473996	2450.000769
661.815438	2555.865000
662.156829	2432.356731
662.498168	2465.124231
662.839456	2455.041923
663.180693	2505.453462
663.521879	2528.138654
663.863013	2555.865000
664.204097	2422.274423
664.545129	2472.685962
664.886110	2518.056346
665.227040	2523.097500
665.567918	2518.056346
665.908746	2394.548077
666.249522	2434.877308
666.590248	2528.138654
666.930922	2540.741538
667.271545	2497.891731
667.612118	2563.426731
667.952639	2442.439038
668.293109	2477.727115
668.633528	2394.548077
668.973896	2402.109808
669.314213	2530.659231
669.654480	2565.947308
669.994695	2502.932885
670.334859	2518.056346
670.674973	2480.247692
671.015035	2525.618077
671.355047	2417.233269
671.695008	2570.988462
672.034918	2513.015192
672.374777	2545.782692
672.714585	2457.562500
673.054342	2422.274423
673.394049	2475.206538
673.733705	2611.317692
674.073310	2507.974038
674.412864	2492.850577
674.752368	2485.288846
675.091820	2482.768269
675.431223	2485.288846
675.770574	2477.727115
676.109875	2520.576923
676.449125	2407.150962
676.788324	2560.906154
677.127473	2467.644808
677.466571	2548.303269
677.805619	2480.247692
678.144616	2482.768269
678.483562	2530.659231
678.822458	2507.974038
679.161303	2528.138654
679.500098	2490.330000
679.838842	2545.782692
680.177535	2439.918462
680.516179	2538.220962
680.854771	2538.220962
681.193314	2480.247692
681.531805	2513.015192
681.870247	2490.330000
682.208638	2452.521346
682.546978	2492.850577
682.885268	2530.659231
683.223508	2535.700385
683.561697	2495.371154
683.899836	2515.535769
684.237925	2510.494615
684.575963	2550.823846
684.913951	2518.056346
685.251889	2467.644808
685.589776	2543.262115
685.927614	2540.741538
686.265401	2560.906154
686.603137	2543.262115
686.940824	2467.644808
687.278460	2505.453462
687.616046	2540.741538
687.953582	2480.247692
688.291068	2545.782692
688.628504	2528.138654
688.965889	2492.850577
689.303224	2510.494615
689.640510	2465.124231
689.977745	2457.562500
690.314930	2518.056346
690.652065	2419.753846
690.989150	2500.412308
691.326185	2513.015192
691.663170	2533.179808
692.000105	2462.603654
692.336990	2414.712692
692.673825	2520.576923
693.010610	2545.782692
693.347345	2439.918462
693.684030	2490.330000
694.020665	2487.809423
694.357251	2470.165385
694.693786	2513.015192
695.030272	2485.288846
695.366707	2500.412308
695.703093	2467.644808
696.039429	2389.506923
696.375716	2465.124231
696.711952	2502.932885
697.048139	2414.712692
697.384276	2523.097500
697.720363	2490.330000
698.056400	2583.591346
698.392388	2429.836154
698.728326	2462.603654
699.064214	2485.288846
699.400053	2525.618077
699.735842	2560.906154
700.071581	2424.795000
700.407270	2470.165385
700.742910	2583.591346
701.078501	2467.644808
701.414042	2535.700385
701.749533	2558.385577
702.084974	2465.124231
702.420366	2384.465769
702.755709	2548.303269
703.091002	2392.027500
703.426246	2462.603654
703.761440	2402.109808
704.096584	2492.850577
704.431679	2553.344423
704.766725	2470.165385
705.101721	2414.712692
705.436668	2510.494615
705.771565	2465.124231
706.106413	2505.453462
706.441212	2429.836154
706.775961	2533.179808
707.110661	2565.947308
707.445311	2467.644808
707.779913	2513.015192
708.114465	2475.206538
708.448967	2505.453462
708.783421	2553.344423
709.117825	2381.945192
709.452180	2475.206538
709.786485	2457.562500
710.120742	2497.891731
710.454949	2439.918462
710.789107	2470.165385
711.123216	2452.521346
711.457275	2497.891731
711.791286	2507.974038
712.125247	2475.206538
712.459159	2560.906154
712.793023	2535.700385
713.126837	2523.097500
713.460602	2467.644808
713.794318	2507.974038
714.127985	2591.153077
714.461602	2497.891731
714.795171	2480.247692
715.128691	2518.056346
715.462162	2528.138654
715.795584	2455.041923
716.128957	2518.056346
716.462281	2470.165385
716.795556	2538.220962
717.128782	2563.426731
717.461960	2432.356731
717.795088	2553.344423
718.128167	2470.165385
718.461198	2462.603654
718.794180	2560.906154
719.127113	2510.494615
719.459997	2510.494615
719.792833	2510.494615
720.125619	2495.371154
720.458357	2500.412308
720.791046	2510.494615
721.123686	2495.371154
721.456278	2444.959615
721.788821	2437.397885
722.121315	2540.741538
722.453761	2470.165385
722.786158	2407.150962
723.118506	2492.850577
723.450805	2487.809423
723.783056	2470.165385
724.115259	2535.700385
724.447412	2513.015192
724.779518	2485.288846
725.111574	2432.356731
725.443582	2414.712692
725.775542	2518.056346
726.107453	2475.206538
726.439315	2487.809423
726.771129	2475.206538
727.102895	2558.385577
727.434612	2482.768269
727.766281	2447.480192
728.097901	2548.303269
728.429473	2558.385577
728.760996	2412.192115
729.092471	2490.330000
729.423897	2472.685962
729.755276	2472.685962
730.086606	2477.727115
730.417887	2434.877308
730.749120	2470.165385
731.080305	2500.412308
731.411442	2439.918462
731.742530	2533.179808
732.073570	2583.591346
732.404562	2500.412308
732.735506	2530.659231
733.066401	2434.877308
733.397249	2560.906154
733.728048	2444.959615
734.058798	2495.371154
734.389501	2475.206538
734.720156	2472.685962
735.050762	2475.206538
735.381320	2588.632500
735.711831	2623.920577
736.042293	2442.439038
736.372707	2540.741538
736.703073	2492.850577
737.033391	2487.809423
737.363661	2510.494615
737.693883	2439.918462
738.024056	2505.453462
738.354182	2550.823846
738.684260	2462.603654
739.014290	2515.535769
739.344272	2565.947308
739.674207	2457.562500
740.004093	2535.700385
740.333931	2460.083077
740.663722	2528.138654
740.993464	2482.768269
741.323159	2497.891731
741.652806	2543.262115
741.982405	2510.494615
742.311956	2487.809423
742.641460	2515.535769
742.970915	2518.056346
743.300323	2470.165385
743.629683	2560.906154
743.958996	2437.397885
744.288260	2563.426731
744.617477	2467.644808
744.946647	2515.535769
745.275768	2465.124231
745.604842	2457.562500
745.933869	2535.700385
746.262847	2507.974038
746.591778	2523.097500
746.920662	2543.262115
747.249498	2507.974038
747.578286	2462.603654
747.907027	2477.727115
748.235720	2439.918462
748.564365	2520.576923
748.892963	2462.603654
749.221514	2434.877308
749.550017	2437.397885
749.878473	2480.247692
750.206881	2439.918462
750.535242	2500.412308
750.863555	2472.685962
751.191821	2558.385577
751.520039	2515.535769
751.848210	2500.412308
752.176334	2465.124231
752.504411	2460.083077
752.832440	2417.233269
753.160421	2528.138654
753.488356	2535.700385
753.816243	2502.932885
754.144082	2510.494615
754.471875	2467.644808
754.799620	2487.809423
755.127318	2563.426731
755.454969	2490.330000
755.782572	2525.618077
756.110129	2422.274423
756.437638	2482.768269
756.765100	2550.823846
757.092515	2434.877308
757.419882	2462.603654
757.747203	2520.576923
758.074477	2485.288846
758.401703	2500.412308
758.728882	2543.262115
759.056014	2465.124231
759.383099	2475.206538
759.710138	2442.439038
760.037129	2500.412308
760.364073	2505.453462
760.690970	2432.356731
761.017820	2563.426731
761.344623	2490.330000
761.671379	2525.618077
761.998088	2482.768269
762.324751	2505.453462
762.651366	2480.247692
762.977935	2515.535769
763.304456	2407.150962
763.630931	2455.041923
763.957359	2432.356731
764.283740	2460.083077
764.610074	2528.138654
764.936362	2477.727115
765.262602	2578.550192
765.588796	2455.041923
765.914943	2475.206538
766.241044	2467.644808
766.567097	2523.097500
766.893104	2457.562500
767.219064	2553.344423
767.544978	2467.644808
767.870845	2518.056346
768.196665	2455.041923
768.522438	2502.932885
768.848165	2520.576923
769.173846	2518.056346
769.499479	2523.097500
769.825066	2412.192115
770.150607	2510.494615
770.476101	2475.206538
770.801548	2351.698269
771.126949	2490.330000
771.452303	2450.000769
771.777611	2434.877308
772.102872	2392.027500
772.428087	2550.823846
772.753256	2545.782692
773.078378	2434.877308
773.403453	2507.974038
773.728482	2460.083077
774.053465	2495.371154
774.378401	2412.192115
774.703291	2442.439038
775.028135	2538.220962
775.352932	2591.153077
775.677683	2462.603654
776.002388	2470.165385
776.327046	2505.453462
776.651658	2497.891731
776.976224	2455.041923
777.300743	2460.083077
777.625216	2520.576923
777.949643	2588.632500
778.274024	2507.974038
778.598359	2452.521346
778.922647	2470.165385
779.246889	2535.700385
779.571086	2507.974038
779.895236	2558.385577
780.219339	2480.247692
780.543397	2510.494615
780.867409	2452.521346
781.191374	2467.644808
781.515294	2412.192115
781.839167	2485.288846
782.162995	2535.700385
782.486776	2465.124231
782.810511	2467.644808
783.134201	2419.753846
783.457844	2482.768269
783.781441	2583.591346
784.104993	2402.109808
784.428498	2472.685962
784.751958	2510.494615
785.075372	2545.782692
785.398739	2470.165385
785.722061	2545.782692
786.045337	2480.247692
786.368568	2414.712692
786.691752	2502.932885
787.014891	2419.753846
787.337983	2563.426731
787.661030	2530.659231
787.984031	2462.603654
788.306987	2470.165385
788.629897	2515.535769
788.952760	2570.988462
789.275579	2535.700385
789.598351	2500.412308
789.921078	2424.795000
790.243759	2492.850577
790.566395	2470.165385
790.888984	2482.768269
791.211529	2485.288846
791.534027	2507.974038
791.856480	2545.782692
792.178888	2399.589231
792.501249	2535.700385
792.823566	2482.768269
793.145836	2533.179808
793.468062	2573.509038
793.790241	2560.906154
794.112375	2477.727115
794.434464	2470.165385
794.756507	2455.041923
795.078505	2424.795000
795.400457	2414.712692
795.722364	2462.603654
796.044226	2535.700385
796.366042	2502.932885
796.687812	2543.262115
797.009538	2492.850577
797.331218	2530.659231
797.652852	2487.809423
797.974442	2540.741538
798.295986	2510.494615
798.617484	2520.576923
798.938938	2399.589231
799.260346	2492.850577
799.581709	2455.041923
799.903026	2510.494615
800.224299	2495.371154
800.545526	2550.823846
800.866708	2455.041923
801.187845	2472.685962
801.508936	2555.865000
801.829983	2533.179808
802.150984	2515.535769
802.471940	2492.850577
802.792851	2480.247692
803.113717	2427.315577
803.434538	2490.330000
803.755314	2477.727115
804.076045	2510.494615
804.396731	2444.959615
804.717372	2432.356731
805.037967	2475.206538
805.358518	2457.562500
805.679024	2460.083077
805.999485	2548.303269
806.319901	2424.795000
806.640272	2573.509038
806.960598	2437.397885
807.280879	2470.165385
807.601115	2573.509038
807.921306	2502.932885
808.241453	2510.494615
808.561554	2482.768269
808.881611	2500.412308
809.201623	2500.412308
809.521590	2460.083077
809.841513	2475.206538
810.161390	2404.630385
810.481223	2515.535769
810.801011	2510.494615
811.120755	2530.659231
811.440453	2513.015192
811.760107	2523.097500
812.079716	2533.179808
812.399281	2444.959615
812.718801	2555.865000
813.038276	2424.795000
813.357707	2495.371154
813.677093	2555.865000
813.996434	2477.727115
814.315731	2513.015192
814.634983	2487.809423
814.954191	2563.426731
815.273354	2568.467885
815.592473	2518.056346
815.911547	2545.782692
816.230577	2538.220962
816.549562	2596.194231
816.868502	2472.685962
817.187399	2492.850577
817.506250	2462.603654
817.825058	2482.768269
818.143821	2553.344423
818.462539	2500.412308
818.781213	2525.618077
819.099843	2444.959615
819.418429	2500.412308
819.736970	2439.918462
820.055466	2470.165385
820.373919	2407.150962
820.692327	2467.644808
821.010691	2434.877308
821.329011	2439.918462
821.647286	2465.124231
821.965517	2442.439038
822.283704	2442.439038
822.601847	2507.974038
822.919945	2530.659231
823.237999	2437.397885
823.556010	2505.453462
823.873976	2480.247692
824.191897	2553.344423
824.509775	2490.330000
824.827609	2518.056346
825.145398	2437.397885
825.463144	2515.535769
825.780845	2510.494615
826.098502	2550.823846
826.416116	2467.644808
826.733685	2563.426731
827.051210	2502.932885
827.368692	2510.494615
827.686129	2480.247692
828.003522	2442.439038
828.320872	2439.918462
828.638177	2485.288846
828.955439	2389.506923
829.272656	2505.453462
829.589830	2414.712692
829.906960	2465.124231
830.224046	2492.850577
830.541088	2515.535769
830.858086	2487.809423
831.175041	2553.344423
831.491952	2533.179808
831.808819	2480.247692
832.125642	2593.673654
832.442421	2472.685962
832.759157	2570.988462
833.075849	2560.906154
833.392497	2455.041923
833.709101	2505.453462
834.025662	2545.782692
834.342179	2439.918462
834.658653	2455.041923
834.975083	2487.809423
835.291469	2507.974038
835.607811	2513.015192
835.924110	2586.111923
836.240366	2533.179808
836.556578	2477.727115
836.872746	2492.850577
837.188871	2490.330000
837.504952	2518.056346
837.820990	2505.453462
838.136984	2477.727115
838.452935	2540.741538
838.768842	2540.741538
839.084706	2507.974038
839.400526	2568.467885
839.716303	2457.562500
840.032037	2535.700385
840.347727	2450.000769
840.663373	2583.591346
840.978977	2462.603654
841.294537	2482.768269
841.610054	2407.150962
841.925527	2495.371154
842.240957	2429.836154
842.556344	2530.659231
842.871687	2515.535769
843.186987	2442.439038
843.502244	2533.179808
843.817458	2500.412308
844.132629	2545.782692
844.447756	2487.809423
844.762840	2470.165385
845.077881	2480.247692
845.392879	2450.000769
845.707833	2502.932885
846.022745	2528.138654
846.337613	2490.330000
846.652438	2500.412308
846.967221	2505.453462
847.281960	2419.753846
847.596656	2543.262115
847.911309	2480.247692
848.225919	2515.535769
848.540485	2452.521346
848.855009	2520.576923
849.169490	2465.124231
849.483928	2550.823846
849.798323	2467.644808
850.112675	2525.618077
850.426984	2505.453462
850.741251	2412.192115
851.055474	2601.235385
851.369654	2442.439038
851.683792	2477.727115
851.997887	2442.439038
852.311938	2490.330000
852.625947	2455.041923
852.939914	2409.671538
853.253837	2477.727115
853.567718	2535.700385
853.881555	2485.288846
854.195350	2518.056346
854.509103	2434.877308
854.822812	2513.015192
855.136479	2472.685962
855.450103	2528.138654
855.763685	2427.315577
856.077224	2507.974038
856.390720	2455.041923
856.704173	2540.741538
857.017584	2467.644808
857.330953	2543.262115
857.644278	2452.521346
857.957561	2523.097500
858.270802	2550.823846
858.584000	2573.509038
858.897155	2475.206538
859.210268	2505.453462
859.523339	2475.206538
859.836367	2505.453462
860.149352	2470.165385
860.462295	2477.727115
860.775195	2482.768269
861.088054	2528.138654
861.400869	2477.727115
861.713642	2510.494615
862.026373	2492.850577
862.339062	2465.124231
862.651708	2482.768269
862.964312	2462.603654
863.276873	2505.453462
863.589392	2500.412308
863.901869	2467.644808
864.214303	2439.918462
864.526696	2444.959615
864.839045	2462.603654
865.151353	2455.041923
865.463619	2467.644808
865.775842	2500.412308
866.088023	2543.262115
866.400162	2450.000769
866.712258	2427.315577
867.024313	2412.192115
867.336325	2565.947308
867.648296	2500.412308
867.960224	2510.494615
868.272110	2568.467885
868.583954	2444.959615
868.895755	2513.015192
869.207515	2565.947308
869.519233	2424.795000
869.830909	2518.056346
870.142542	2477.727115
870.454134	2495.371154
870.765684	2533.179808
871.077191	2513.015192
871.388657	2523.097500
871.700081	2563.426731
872.011463	2533.179808
872.322803	2404.630385
872.634101	2545.782692
872.945357	2540.741538
873.256571	2490.330000
873.567744	2500.412308
873.878874	2457.562500
874.189963	2462.603654
874.501010	2550.823846
874.812015	2535.700385
875.122979	2414.712692
875.433900	2492.850577
875.744780	2525.618077
876.055618	2455.041923
876.366415	2427.315577
876.677169	2462.603654
876.987882	2505.453462
877.298554	2568.467885
877.609183	2472.685962
877.919771	2502.932885
878.230317	2450.000769
878.540822	2568.467885
878.851285	2467.644808
879.161707	2520.576923
879.472087	2419.753846
879.782425	2525.618077
880.092722	2523.097500
880.402977	2492.850577
880.713191	2470.165385
881.023363	2414.712692
881.333494	2477.727115
881.643583	2485.288846
881.953631	2409.671538
882.263637	2455.041923
882.573602	2447.480192
882.883526	2518.056346
883.193408	2482.768269
883.503248	2540.741538
883.813048	2497.891731
884.122806	2487.809423
884.432522	2487.809423
884.742197	2470.165385
885.051831	2439.918462
885.361424	2543.262115
885.670975	2442.439038
885.980485	2487.809423
886.289954	2409.671538
886.599382	2515.535769
886.908768	2586.111923
887.218113	2555.865000
887.527417	2422.274423
887.836680	2439.918462
888.145901	2381.945192
888.455082	2502.932885
888.764221	2472.685962
889.073319	2525.618077
889.382376	2535.700385
889.691392	2450.000769
890.000366	2520.576923
890.309300	2460.083077
890.618193	2507.974038
890.927044	2593.673654
891.235855	2500.412308
891.544625	2470.165385
891.853353	2409.671538
892.162041	2513.015192
892.470687	2485.288846
892.779293	2510.494615
893.087858	2475.206538
893.396381	2490.330000
893.704864	2444.959615
894.013306	2402.109808
894.321707	2439.918462
894.630068	2462.603654
894.938387	2480.247692
895.246665	2548.303269
895.554903	2505.453462
895.863100	2490.330000
896.171256	2480.247692
896.479371	2525.618077
896.787446	2573.509038
897.095480	2502.932885
897.403473	2490.330000
897.711425	2545.782692
898.019336	2487.809423
898.327207	2500.412308
898.635038	2545.782692
898.942827	2505.453462
899.250576	2543.262115
899.558284	2477.727115
899.865952	2540.741538
900.173579	2492.850577
900.481165	2432.356731
900.788711	2520.576923
901.096216	2538.220962
901.403681	2429.836154
901.711105	2505.453462
902.018489	2490.330000
902.325832	2490.330000
902.633135	2467.644808
902.940397	2560.906154
903.247619	2457.562500
903.554800	2525.618077
903.861941	2475.206538
904.169041	2412.192115
904.476101	2470.165385
904.783121	2523.097500
905.090100	2467.644808
905.397039	2528.138654
905.703938	2424.795000
906.010796	2495.371154
906.317614	2444.959615
906.624391	2553.344423
906.931129	2457.562500
907.237826	2533.179808
907.544483	2477.727115
907.851099	2543.262115
908.157675	2505.453462
908.464211	2452.521346
908.770707	2490.330000
909.077163	2467.644808
909.383578	2545.782692
909.689954	2497.891731
909.996289	2530.659231
910.302584	2485.288846
910.608839	2543.262115
910.915054	2392.027500
911.221229	2513.015192
911.527363	2450.000769
911.833458	2482.768269
912.139513	2510.494615
912.445527	2591.153077
912.751502	2475.206538
913.057436	2535.700385
913.363331	2540.741538
913.669186	2434.877308
913.975000	2480.247692
914.280775	2371.862885
914.586510	2513.015192
914.892205	2480.247692
915.197859	2513.015192
915.503475	2495.371154
915.809050	2515.535769
916.114585	2570.988462
916.420081	2500.412308
916.725536	2530.659231
917.030952	2477.727115
917.336328	2492.850577
917.641665	2525.618077
917.946961	2450.000769
918.252218	2565.947308
918.557435	2467.644808
918.862612	2495.371154
919.167750	2528.138654
919.472848	2500.412308
919.777906	2462.603654
920.082925	2477.727115
920.387904	2538.220962
920.692843	2502.932885
920.997743	2475.206538
921.302603	2490.330000
921.607423	2487.809423
921.912204	2558.385577
922.216946	2480.247692
922.521647	2462.603654
922.826310	2535.700385
923.130932	2452.521346
923.435516	2513.015192
923.740059	2429.836154
924.044564	2485.288846
924.349028	2533.179808
924.653454	2500.412308
924.957840	2500.412308
925.262186	2576.029615
925.566493	2452.521346
925.870761	2495.371154
926.174989	2490.330000
926.479178	2470.165385
926.783328	2447.480192
927.087438	2530.659231
927.391509	2467.644808
927.695541	2475.206538
927.999533	2490.330000
928.303486	2462.603654
928.607400	2475.206538
928.911275	2477.727115
929.215110	2513.015192
929.518906	2495.371154
929.822663	2495.371154
930.126381	2467.644808
930.430060	2472.685962
930.733699	2560.906154
931.037299	2467.644808
931.340861	2497.891731
931.644383	2412.192115
931.947866	2520.576923
932.251309	2374.383462
932.554714	2563.426731
932.858080	2492.850577
933.161407	2495.371154
933.464694	2505.453462
933.767943	2518.056346
934.071153	2450.000769
934.374323	2465.124231
934.677455	2528.138654
934.980548	2553.344423
935.283602	2457.562500
935.586617	2500.412308
935.889593	2447.480192
936.192530	2507.974038
936.495428	2505.453462
936.798287	2533.179808
937.101108	2409.671538
937.403890	2472.685962
937.706632	2538.220962
938.009336	2452.521346
938.312002	2485.288846
938.614628	2530.659231
938.917216	2465.124231
939.219765	2497.891731
939.522275	2434.877308
939.824747	2568.467885
940.127179	2510.494615
940.429573	2472.685962
940.731929	2432.356731
941.034246	2457.562500
941.336524	2528.138654
941.638763	2475.206538
941.940964	2455.041923
942.243126	2439.918462
942.545250	2502.932885
942.847335	2477.727115
943.149381	2472.685962
943.451389	2583.591346
943.753359	2540.741538
944.055290	2510.494615
944.357182	2472.685962
944.659036	2444.959615
944.960851	2480.247692
945.262628	2581.070769
945.564367	2470.165385
945.866067	2535.700385
946.167729	2432.356731
946.469352	2545.782692
946.770937	2480.247692
947.072484	2389.506923
947.373992	2482.768269
947.675462	2550.823846
947.976893	2553.344423
948.278286	2480.247692
948.579641	2475.206538
948.880958	2450.000769
949.182236	2500.412308
949.483476	2475.206538
949.784678	2434.877308
950.085841	2538.220962
950.386967	2450.000769
950.688054	2505.453462
950.989103	2528.138654
951.290114	2432.356731
951.591087	2548.303269
951.892021	2485.288846
952.192917	2523.097500
952.493776	2392.027500
952.794596	2475.206538
953.095378	2442.439038
953.396122	2462.603654
953.696828	2606.276538
953.997496	2550.823846
954.298126	2457.562500
954.598718	2515.535769
954.899272	2596.194231
955.199788	2452.521346
955.500266	2525.618077
955.800706	2528.138654
956.101108	2487.809423
956.401472	2533.179808
956.701798	2500.412308
957.002087	2533.179808
957.302337	2417.233269
957.602550	2487.809423
957.902724	2545.782692
958.202861	2485.288846
958.502960	2475.206538
958.803022	2558.385577
959.103045	2472.685962
959.403031	2457.562500
959.702979	2467.644808
960.002889	2437.397885
960.302762	2487.809423
960.602596	2424.795000
960.902393	2472.685962
961.202153	2447.480192
961.501875	2523.097500
961.801559	2523.097500
962.101205	2538.220962
962.400814	2475.206538
962.700385	2523.097500
962.999918	2450.000769
963.299414	2540.741538
963.598873	2462.603654
963.898293	2583.591346
964.197677	2460.083077
964.497022	2460.083077
964.796331	2555.865000
965.095601	2434.877308
965.394835	2424.795000
965.694030	2490.330000
965.993189	2465.124231
966.292309	2467.644808
966.591393	2523.097500
966.890439	2477.727115
967.189447	2495.371154
967.488419	2462.603654
967.787353	2548.303269
968.086249	2570.988462
968.385108	2507.974038
968.683930	2417.233269
968.982714	2439.918462
969.281462	2447.480192
969.580172	2581.070769
969.878844	2371.862885
970.177480	2507.974038
970.476078	2555.865000
970.774639	2487.809423
971.073162	2485.288846
971.371649	2470.165385
971.670098	2492.850577
971.968510	2502.932885
972.266885	2543.262115
972.565223	2487.809423
972.863524	2495.371154
973.161788	2606.276538
973.460014	2424.795000
973.758204	2515.535769
974.056356	2477.727115
974.354471	2507.974038
974.652550	2492.850577
974.950591	2422.274423
975.248595	2487.809423
975.546563	2477.727115
975.844493	2528.138654
976.142386	2550.823846
976.440243	2586.111923
976.738062	2457.562500
977.035845	2492.850577
977.333590	2452.521346
977.631299	2485.288846
977.928971	2502.932885
978.226606	2462.603654
978.524204	2550.823846
978.821765	2475.206538
979.119290	2432.356731
979.416777	2480.247692
979.714228	2429.836154
980.011642	2535.700385
980.309020	2457.562500
980.606360	2525.618077
980.903664	2555.865000
981.200931	2530.659231
981.498162	2523.097500
981.795356	2487.809423
982.092513	2361.780577
982.389633	2523.097500
982.686717	2429.836154
982.983764	2455.041923
983.280775	2497.891731
983.577749	2434.877308
983.874686	2429.836154
984.171587	2434.877308
984.468451	2548.303269
984.765279	2487.809423
985.062070	2513.015192
985.358824	2460.083077
985.655543	2507.974038
985.952224	2477.727115
986.248869	2492.850577
986.545478	2450.000769
986.842050	2500.412308
987.138586	2543.262115
987.435086	2407.150962
987.731549	2419.753846
988.027975	2450.000769
988.324366	2455.041923
988.620719	2495.371154
988.917037	2467.644808
989.213318	2520.576923
989.509563	2480.247692
989.805772	2563.426731
990.101944	2482.768269
990.398080	2533.179808
990.694180	2505.453462
990.990244	2505.453462
991.286271	2419.753846
991.582262	2520.576923
991.878217	2480.247692
992.174136	2507.974038
992.470019	2533.179808
992.765865	2414.712692
993.061676	2520.576923
993.357450	2490.330000
993.653188	2538.220962
993.948890	2460.083077
994.244556	2497.891731
994.540186	2444.959615
994.835780	2535.700385
995.131337	2472.685962
995.426859	2470.165385
995.722345	2482.768269
996.017795	2513.015192
996.313208	2502.932885
996.608586	2444.959615
996.903928	2505.453462
997.199234	2470.165385
997.494504	2510.494615
997.789738	2475.206538
998.084936	2442.439038
998.380099	2502.932885
998.675225	2480.247692
998.970316	2444.959615
999.265371	2482.768269
999.560390	2490.330000
999.855373	2444.959615
1000.150320	2485.288846
1000.445232	2507.974038
1000.740108	2500.412308
1001.034948	2495.371154
1001.329752	2523.097500
1001.624521	2513.015192
1001.919254	2462.603654
1002.213951	2439.918462
1002.508613	2487.809423
1002.803239	2535.700385
1003.097829	2510.494615
1003.392384	2460.083077
1003.686903	2515.535769
1003.981386	2472.685962
1004.275834	2487.809423
1004.570246	2555.865000
1004.864623	2475.206538
1005.158964	2432.356731
1005.453270	2621.400000
1005.747540	2477.727115
1006.041775	2608.797115
1006.335974	2518.056346
1006.630138	2460.083077
1006.924266	2540.741538
1007.218359	2472.685962
1007.512416	2477.727115
1007.806438	2452.521346
1008.100425	2465.124231
1008.394376	2409.671538
1008.688292	2404.630385
1008.982172	2442.439038
1009.276017	2500.412308
1009.569827	2518.056346
1009.863602	2480.247692
1010.157341	2487.809423
1010.451045	2505.453462
1010.744714	2550.823846
1011.038347	2437.397885
1011.331945	2460.083077
1011.625508	2472.685962
1011.919036	2482.768269
1012.212528	2485.288846
1012.505986	2462.603654
1012.799408	2399.589231
1013.092795	2520.576923
1013.386147	2450.000769
1013.679464	2563.426731
1013.972745	2510.494615
1014.265992	2495.371154
1014.559204	2409.671538
1014.852380	2530.659231
1015.145521	2419.753846
1015.438628	2460.083077
1015.731699	2447.480192
1016.024736	2535.700385
1016.317737	2545.782692
1016.610703	2550.823846
1016.903635	2475.206538
1017.196531	2578.550192
1017.489393	2467.644808
1017.782219	2442.439038
1018.075011	2455.041923
1018.367768	2523.097500
1018.660490	2563.426731
1018.953177	2563.426731
1019.245829	2563.426731
