Dividing Wavelength (nm)	Counts (n)	Blue Motor Position (mm): 7.700000	Red Motor Position (mm): 0.000000	
326.493990	2152.572692
326.888308	2152.572692
327.282561	2152.572692
327.676750	2132.408077
328.070874	2036.626154
328.464933	2074.434808
328.858929	2046.708462
329.252859	2036.626154
329.646726	2119.805192
330.040528	2076.955385
330.434265	2049.229038
330.827938	2117.284615
331.221547	2167.696154
331.615091	2142.490385
332.008571	2202.984231
332.401986	2202.984231
332.795338	2167.696154
333.188625	2228.190000
333.581847	2286.163269
333.975006	2215.587115
334.368100	2316.410192
334.761129	2344.136538
335.154095	2258.436923
335.546996	2306.327885
335.939833	2417.233269
336.332606	2417.233269
336.725315	2296.245577
337.117960	2369.342308
337.510540	2432.356731
337.903056	2346.657115
338.295508	2462.603654
338.687896	2487.809423
339.080220	2424.795000
339.472480	2515.535769
339.864676	2437.397885
340.256807	2460.083077
340.648875	2513.015192
341.040879	2452.521346
341.432818	2513.015192
341.824694	2452.521346
342.216506	2424.795000
342.608253	2500.412308
342.999937	2540.741538
343.391557	2485.288846
343.783113	2510.494615
344.174605	2467.644808
344.566033	2505.453462
344.957397	2520.576923
345.348697	2417.233269
345.739934	2510.494615
346.131106	2452.521346
346.522215	2407.150962
346.913260	2404.630385
347.304241	2502.932885
347.695159	2444.959615
348.086012	2409.671538
348.476802	2376.904038
348.867528	2492.850577
349.258191	2450.000769
349.648789	2502.932885
350.039324	2455.041923
350.429796	2447.480192
350.820203	2460.083077
351.210548	2394.548077
351.600828	2374.383462
351.991045	2447.480192
352.381198	2477.727115
352.771288	2409.671538
353.161314	2457.562500
353.551276	2427.315577
353.941175	2386.986346
354.331010	2371.862885
354.720782	2455.041923
355.110490	2467.644808
355.500135	2432.356731
355.889717	2447.480192
356.279235	2414.712692
356.668689	2442.439038
357.058080	2381.945192
357.447408	2379.424615
357.836672	2558.385577
358.225873	2412.192115
358.615010	2399.589231
359.004084	2460.083077
359.393095	2354.218846
359.782043	2386.986346
360.170927	2465.124231
360.559748	2520.576923
360.948505	2354.218846
361.337199	2442.439038
361.725830	2507.974038
362.114398	2376.904038
362.502903	2419.753846
362.891344	2361.780577
363.279722	2404.630385
363.668037	2407.150962
364.056289	2447.480192
364.444478	2465.124231
364.832603	2525.618077
365.220665	2528.138654
365.608665	2492.850577
365.996601	2452.521346
366.384474	2412.192115
366.772284	2457.562500
367.160031	2427.315577
367.547715	2450.000769
367.935336	2480.247692
368.322893	2510.494615
368.710388	2502.932885
369.097820	2513.015192
369.485189	2455.041923
369.872495	2419.753846
370.259738	2540.741538
370.646918	2424.795000
371.034035	2384.465769
371.421090	2402.109808
371.808081	2475.206538
372.195010	2409.671538
372.581875	2452.521346
372.968678	2457.562500
373.355418	2424.795000
373.742096	2386.986346
374.128710	2439.918462
374.515262	2460.083077
374.901751	2422.274423
375.288177	2462.603654
375.674540	2442.439038
376.060841	2465.124231
376.447079	2480.247692
376.833254	2500.412308
377.219367	2414.712692
377.605417	2545.782692
377.991404	2422.274423
378.377329	2424.795000
378.763191	2374.383462
379.148991	2518.056346
379.534727	2422.274423
379.920402	2525.618077
380.306013	2477.727115
380.691563	2502.932885
381.077049	2427.315577
381.462474	2384.465769
381.847835	2553.344423
382.233134	2442.439038
382.618371	2480.247692
383.003545	2472.685962
383.388657	2392.027500
383.773706	2475.206538
384.158693	2444.959615
384.543618	2470.165385
384.928480	2424.795000
385.313280	2465.124231
385.698017	2366.821731
386.082692	2472.685962
386.467305	2505.453462
386.851856	2346.657115
387.236344	2457.562500
387.620770	2553.344423
388.005133	2470.165385
388.389435	2376.904038
388.773674	2437.397885
389.157851	2447.480192
389.541965	2505.453462
389.926018	2424.795000
390.310008	2518.056346
390.693936	2452.521346
391.077802	2452.521346
391.461606	2457.562500
391.845348	2437.397885
392.229027	2492.850577
392.612645	2480.247692
392.996200	2555.865000
393.379694	2437.397885
393.763125	2507.974038
394.146494	2429.836154
394.529801	2520.576923
394.913047	2417.233269
395.296230	2497.891731
395.679351	2472.685962
396.062410	2490.330000
396.445408	2429.836154
396.828343	2417.233269
397.211217	2523.097500
397.594028	2439.918462
397.976778	2525.618077
398.359466	2485.288846
398.742092	2507.974038
399.124656	2490.330000
399.507158	2510.494615
399.889598	2518.056346
400.271977	2523.097500
400.654294	2518.056346
401.036549	2520.576923
401.418742	2475.206538
401.800874	2462.603654
402.182944	2399.589231
402.564952	2472.685962
402.946898	2450.000769
403.328783	2477.727115
403.710606	2460.083077
404.092367	2384.465769
404.474067	2490.330000
404.855705	2439.918462
405.237282	2462.603654
405.618797	2455.041923
406.000250	2407.150962
406.381642	2444.959615
406.762972	2530.659231
407.144240	2480.247692
407.525447	2513.015192
407.906593	2462.603654
408.287677	2417.233269
408.668700	2525.618077
409.049661	2429.836154
409.430560	2439.918462
409.811399	2500.412308
410.192176	2381.945192
410.572891	2427.315577
410.953545	2480.247692
411.334138	2616.358846
411.714669	2530.659231
412.095139	2495.371154
412.475547	2513.015192
412.855894	2490.330000
413.236180	2528.138654
413.616405	2450.000769
413.996568	2492.850577
414.376670	2530.659231
414.756711	2450.000769
415.136691	2482.768269
415.516609	2500.412308
415.896466	2500.412308
416.276262	2495.371154
416.655997	2470.165385
417.035670	2480.247692
417.415283	2475.206538
417.794834	2510.494615
418.174324	2482.768269
418.553753	2414.712692
418.933121	2470.165385
419.312428	2397.068654
419.691674	2460.083077
420.070859	2500.412308
420.449983	2513.015192
420.829045	2460.083077
421.208047	2477.727115
421.586988	2455.041923
421.965867	2434.877308
422.344686	2515.535769
422.723444	2480.247692
423.102141	2457.562500
423.480777	2497.891731
423.859352	2507.974038
424.237866	2548.303269
424.616319	2480.247692
424.994712	2528.138654
425.373044	2467.644808
425.751314	2437.397885
426.129524	2467.644808
426.507673	2485.288846
426.885762	2528.138654
427.263789	2467.644808
427.641756	2462.603654
428.019662	2472.685962
428.397508	2497.891731
428.775292	2543.262115
429.153016	2467.644808
429.530679	2429.836154
429.908282	2480.247692
430.285824	2543.262115
430.663305	2455.041923
431.040726	2513.015192
431.418086	2424.795000
431.795385	2495.371154
432.172624	2530.659231
432.549802	2457.562500
432.926920	2470.165385
433.303977	2507.974038
433.680974	2487.809423
434.057910	2550.823846
434.434786	2487.809423
434.811601	2434.877308
435.188355	2427.315577
435.565050	2568.467885
435.941683	2530.659231
436.318257	2502.932885
436.694770	2437.397885
437.071222	2528.138654
437.447614	2452.521346
437.823946	2510.494615
438.200218	2455.041923
438.576429	2502.932885
438.952580	2462.603654
439.328670	2455.041923
439.704700	2480.247692
440.080670	2487.809423
440.456580	2495.371154
440.832429	2535.700385
441.208218	2452.521346
441.583947	2530.659231
441.959616	2558.385577
442.335224	2477.727115
442.710773	2568.467885
443.086261	2515.535769
443.461689	2530.659231
443.837057	2518.056346
444.212365	2422.274423
444.587612	2452.521346
444.962800	2528.138654
445.337927	2470.165385
445.712995	2487.809423
446.088002	2520.576923
446.462949	2444.959615
446.837837	2457.562500
447.212664	2505.453462
447.587431	2507.974038
447.962139	2475.206538
448.336786	2412.192115
448.711374	2457.562500
449.085901	2472.685962
449.460369	2502.932885
449.834776	2513.015192
450.209124	2565.947308
450.583412	2482.768269
450.957640	2560.906154
451.331808	2465.124231
451.705917	2510.494615
452.079965	2417.233269
452.453954	2409.671538
452.827883	2495.371154
453.201752	2427.315577
453.575562	2424.795000
453.949311	2472.685962
454.323001	2460.083077
454.696632	2482.768269
455.070202	2366.821731
455.443713	2502.932885
455.817164	2424.795000
456.190556	2495.371154
456.563888	2450.000769
456.937160	2417.233269
457.310373	2480.247692
457.683526	2568.467885
458.056619	2523.097500
458.429653	2460.083077
458.802628	2538.220962
459.175542	2414.712692
459.548398	2497.891731
459.921194	2475.206538
460.293930	2550.823846
460.666607	2472.685962
461.039224	2432.356731
461.411782	2467.644808
461.784280	2533.179808
462.156719	2429.836154
462.529099	2399.589231
462.901419	2510.494615
463.273680	2452.521346
463.645882	2565.947308
464.018024	2581.070769
464.390106	2455.041923
464.762130	2535.700385
465.134094	2434.877308
465.505999	2492.850577
465.877845	2470.165385
466.249631	2543.262115
466.621358	2457.562500
466.993026	2497.891731
467.364634	2510.494615
467.736184	2460.083077
468.107674	2475.206538
468.479105	2523.097500
468.850477	2422.274423
469.221790	2490.330000
469.593043	2439.918462
469.964238	2497.891731
470.335373	2485.288846
470.706449	2490.330000
471.077467	2535.700385
471.448425	2525.618077
471.819324	2563.426731
472.190164	2457.562500
472.560945	2530.659231
472.931667	2548.303269
473.302330	2412.192115
473.672934	2591.153077
474.043479	2563.426731
474.413965	2520.576923
474.784393	2482.768269
475.154761	2480.247692
475.525070	2475.206538
475.895321	2460.083077
476.265513	2505.453462
476.635645	2505.453462
477.005719	2424.795000
477.375734	2422.274423
477.745691	2505.453462
478.115588	2513.015192
478.485427	2482.768269
478.855207	2447.480192
479.224928	2475.206538
479.594591	2467.644808
479.964194	2586.111923
480.333739	2434.877308
480.703226	2472.685962
481.072653	2462.603654
481.442022	2492.850577
481.811333	2417.233269
482.180584	2482.768269
482.549777	2495.371154
482.918912	2495.371154
483.287988	2434.877308
483.657005	2533.179808
484.025964	2495.371154
484.394864	2553.344423
484.763706	2447.480192
485.132489	2422.274423
485.501213	2419.753846
485.869879	2487.809423
486.238487	2560.906154
486.607036	2487.809423
486.975527	2505.453462
487.343959	2450.000769
487.712333	2472.685962
488.080648	2495.371154
488.448905	2487.809423
488.817104	2513.015192
489.185244	2450.000769
489.553326	2560.906154
489.921350	2452.521346
490.289315	2477.727115
490.657222	2439.918462
491.025070	2455.041923
491.392861	2510.494615
491.760593	2510.494615
492.128267	2427.315577
492.495883	2480.247692
492.863440	2502.932885
493.230939	2470.165385
493.598380	2495.371154
493.965763	2467.644808
494.333088	2505.453462
494.700354	2470.165385
495.067563	2515.535769
495.434713	2578.550192
495.801805	2482.768269
496.168839	2467.644808
496.535815	2490.330000
496.902733	2538.220962
497.269593	2492.850577
497.636395	2470.165385
498.003139	2548.303269
498.369825	2480.247692
498.736453	2558.385577
499.103023	2409.671538
499.469535	2490.330000
499.835989	2487.809423
500.202385	2586.111923
500.568723	2407.150962
500.935003	2525.618077
501.301226	2480.247692
501.667390	2543.262115
502.033497	2422.274423
502.399546	2502.932885
502.765537	2402.109808
503.131470	2535.700385
503.497345	2465.124231
503.863163	2424.795000
504.228923	2424.795000
504.594625	2540.741538
504.960269	2513.015192
505.325856	2553.344423
505.691385	2528.138654
506.056856	2598.714808
506.422270	2545.782692
506.787625	2500.412308
507.152924	2429.836154
507.518164	2528.138654
507.883347	2447.480192
508.248472	2523.097500
508.613540	2460.083077
508.978550	2475.206538
509.343503	2553.344423
509.708398	2513.015192
510.073236	2450.000769
510.438016	2424.795000
510.802738	2457.562500
511.167403	2439.918462
511.532010	2520.576923
511.896561	2480.247692
512.261053	2528.138654
512.625488	2543.262115
512.989866	2500.412308
513.354186	2540.741538
513.718449	2450.000769
514.082655	2432.356731
514.446803	2500.412308
514.810894	2550.823846
515.174927	2550.823846
515.538904	2576.029615
515.902822	2490.330000
516.266684	2555.865000
516.630488	2470.165385
516.994235	2565.947308
517.357925	2447.480192
517.721558	2505.453462
518.085133	2482.768269
518.448651	2530.659231
518.812112	2583.591346
519.175516	2467.644808
519.538863	2543.262115
519.902152	2439.918462
520.265385	2480.247692
520.628560	2545.782692
520.991678	2467.644808
521.354739	2460.083077
521.717743	2505.453462
522.080690	2545.782692
522.443580	2558.385577
522.806413	2457.562500
523.169189	2485.288846
523.531908	2472.685962
523.894569	2507.974038
524.257174	2533.179808
524.619722	2432.356731
524.982213	2513.015192
525.344647	2495.371154
525.707025	2482.768269
526.069345	2500.412308
526.431608	2520.576923
526.793815	2490.330000
527.155964	2523.097500
527.518057	2465.124231
527.880093	2545.782692
528.242072	2460.083077
528.603995	2460.083077
528.965860	2500.412308
529.327669	2518.056346
529.689421	2528.138654
530.051117	2505.453462
530.412755	2540.741538
530.774337	2465.124231
531.135862	2487.809423
531.497331	2523.097500
531.858743	2397.068654
532.220098	2510.494615
532.581396	2457.562500
532.942638	2573.509038
533.303824	2500.412308
533.664953	2447.480192
534.026025	2495.371154
534.387040	2412.192115
534.747999	2495.371154
535.108902	2424.795000
535.469748	2442.439038
535.830537	2523.097500
536.191270	2465.124231
536.551947	2482.768269
536.912567	2513.015192
537.273131	2560.906154
537.633638	2470.165385
537.994089	2533.179808
538.354483	2510.494615
538.714821	2455.041923
539.075103	2505.453462
539.435328	2424.795000
539.795497	2485.288846
540.155609	2409.671538
540.515665	2492.850577
540.875665	2533.179808
541.235609	2548.303269
541.595496	2528.138654
541.955328	2520.576923
542.315102	2495.371154
542.674821	2596.194231
543.034483	2477.727115
543.394090	2417.233269
543.753640	2530.659231
544.113134	2447.480192
544.472571	2477.727115
544.831953	2528.138654
545.191278	2442.439038
545.550548	2485.288846
545.909761	2497.891731
546.268918	2487.809423
546.628019	2543.262115
546.987064	2480.247692
547.346053	2502.932885
547.704986	2447.480192
548.063863	2442.439038
548.422684	2520.576923
548.781449	2500.412308
549.140158	2490.330000
549.498811	2502.932885
549.857408	2495.371154
550.215949	2444.959615
550.574434	2515.535769
550.932864	2470.165385
551.291237	2515.535769
551.649555	2502.932885
552.007817	2487.809423
552.366022	2447.480192
552.724173	2480.247692
553.082267	2432.356731
553.440305	2505.453462
553.798288	2548.303269
554.156215	2422.274423
554.514086	2500.412308
554.871902	2520.576923
555.229661	2392.027500
555.587365	2543.262115
555.945014	2515.535769
556.302606	2475.206538
556.660143	2560.906154
557.017625	2485.288846
557.375050	2576.029615
557.732421	2603.755962
558.089735	2482.768269
558.446994	2450.000769
558.804197	2553.344423
559.161345	2528.138654
559.518437	2500.412308
559.875474	2510.494615
560.232455	2515.535769
560.589381	2525.618077
560.946251	2553.344423
561.303065	2485.288846
561.659825	2520.576923
562.016528	2528.138654
562.373177	2472.685962
562.729770	2500.412308
563.086307	2497.891731
563.442789	2485.288846
563.799216	2543.262115
564.155587	2429.836154
564.511904	2495.371154
564.868164	2477.727115
565.224370	2457.562500
565.580520	2434.877308
565.936615	2611.317692
566.292654	2402.109808
566.648638	2487.809423
567.004567	2432.356731
567.360441	2467.644808
567.716260	2586.111923
568.072023	2495.371154
568.427732	2513.015192
568.783385	2495.371154
569.138982	2457.562500
569.494525	2472.685962
569.850013	2513.015192
570.205445	2520.576923
570.560823	2487.809423
570.916145	2528.138654
571.271412	2480.247692
571.626625	2505.453462
571.981782	2540.741538
572.336884	2548.303269
572.691931	2472.685962
573.046923	2480.247692
573.401860	2528.138654
573.756743	2480.247692
574.111570	2422.274423
574.466342	2455.041923
574.821059	2545.782692
575.175722	2432.356731
575.530330	2505.453462
575.884882	2560.906154
576.239380	2462.603654
576.593823	2437.397885
576.948211	2555.865000
577.302544	2447.480192
577.656823	2520.576923
578.011047	2490.330000
578.365216	2492.850577
578.719330	2513.015192
579.073389	2497.891731
579.427394	2545.782692
579.781344	2540.741538
580.135239	2490.330000
580.489080	2500.412308
580.842866	2477.727115
581.196597	2477.727115
581.550273	2515.535769
581.903895	2565.947308
582.257463	2505.453462
582.610975	2543.262115
582.964434	2497.891731
583.317837	2518.056346
583.671186	2432.356731
584.024481	2608.797115
584.377721	2465.124231
584.730906	2553.344423
585.084037	2472.685962
585.437113	2460.083077
585.790135	2442.439038
586.143103	2452.521346
586.496016	2555.865000
586.848874	2450.000769
587.201679	2470.165385
587.554428	2414.712692
587.907124	2510.494615
588.259765	2442.439038
588.612352	2439.918462
588.964884	2540.741538
589.317362	2533.179808
589.669786	2515.535769
590.022155	2485.288846
590.374470	2500.412308
590.726731	2535.700385
591.078937	2495.371154
591.431090	2427.315577
591.783188	2507.974038
592.135232	2555.865000
592.487222	2467.644808
592.839157	2402.109808
593.191038	2563.426731
593.542866	2477.727115
593.894639	2528.138654
594.246358	2492.850577
594.598022	2485.288846
594.949633	2475.206538
595.301190	2608.797115
595.652692	2487.809423
596.004141	2525.618077
596.355535	2472.685962
596.706876	2477.727115
597.058162	2477.727115
597.409395	2462.603654
597.760573	2533.179808
598.111698	2565.947308
598.462768	2507.974038
598.813785	2477.727115
599.164748	2560.906154
599.515657	2495.371154
599.866511	2457.562500
600.217312	2497.891731
600.568060	2553.344423
600.918753	2439.918462
601.269392	2487.809423
601.619978	2482.768269
601.970510	2457.562500
602.320988	2444.959615
602.671412	2455.041923
603.021783	2502.932885
603.372100	2424.795000
603.722363	2528.138654
604.072572	2533.179808
604.422728	2538.220962
604.772830	2505.453462
605.122878	2477.727115
605.472872	2432.356731
605.822813	2565.947308
606.172701	2472.685962
606.522534	2533.179808
606.872314	2482.768269
607.222041	2545.782692
607.571714	2447.480192
607.921333	2550.823846
608.270899	2520.576923
608.620411	2520.576923
608.969870	2578.550192
609.319276	2397.068654
609.668627	2490.330000
610.017926	2475.206538
610.367171	2450.000769
610.716362	2442.439038
611.065500	2487.809423
611.414585	2444.959615
611.763616	2447.480192
612.112594	2505.453462
612.461518	2535.700385
612.810389	2583.591346
613.159207	2573.509038
613.507971	2578.550192
613.856682	2502.932885
614.205340	2507.974038
614.553945	2480.247692
614.902496	2540.741538
615.250994	2533.179808
615.599439	2545.782692
615.947830	2422.274423
616.296169	2490.330000
616.644454	2439.918462
616.992686	2530.659231
617.340864	2507.974038
617.688990	2475.206538
618.037063	2510.494615
618.385082	2424.795000
618.733048	2565.947308
619.080961	2412.192115
619.428821	2502.932885
619.776628	2465.124231
620.124382	2457.562500
620.472083	2492.850577
620.819731	2550.823846
621.167326	2475.206538
621.514868	2558.385577
621.862357	2462.603654
622.209793	2480.247692
622.557176	2515.535769
622.904506	2442.439038
623.251783	2523.097500
623.599007	2424.795000
623.946179	2495.371154
624.293297	2553.344423
624.640363	2535.700385
624.987376	2490.330000
625.334336	2482.768269
625.681243	2518.056346
626.028097	2465.124231
626.374899	2447.480192
626.721647	2545.782692
627.068343	2540.741538
627.414987	2467.644808
627.761577	2462.603654
628.108115	2447.480192
628.454600	2583.591346
628.801032	2525.618077
629.147412	2563.426731
629.493739	2495.371154
629.840014	2472.685962
630.186236	2495.371154
630.532405	2518.056346
630.878521	2495.371154
631.224585	2497.891731
631.570597	2409.671538
631.916556	2507.974038
632.262462	2528.138654
632.608316	2482.768269
632.954117	2457.562500
633.299866	2596.194231
633.645562	2492.850577
633.991206	2553.344423
634.336797	2485.288846
634.682336	2513.015192
635.027823	2497.891731
635.373257	2480.247692
635.718639	2450.000769
636.063968	2533.179808
636.409245	2510.494615
636.754470	2442.439038
637.099642	2470.165385
637.444762	2480.247692
637.789829	2399.589231
638.134845	2434.877308
638.479808	2460.083077
638.824719	2596.194231
639.169577	2369.342308
639.514383	2465.124231
639.859137	2558.385577
640.203839	2485.288846
640.548489	2386.986346
640.893086	2465.124231
641.237632	2548.303269
641.582125	2472.685962
641.926566	2538.220962
642.270955	2487.809423
642.615292	2472.685962
642.959576	2543.262115
643.303809	2455.041923
643.647990	2462.603654
643.992118	2457.562500
644.336195	2515.535769
644.680219	2505.453462
645.024192	2518.056346
645.368112	2495.371154
645.711981	2573.509038
646.055797	2558.385577
646.399562	2432.356731
646.743274	2513.015192
647.086935	2573.509038
647.430544	2586.111923
647.774101	2462.603654
648.117606	2495.371154
648.461059	2485.288846
648.804460	2485.288846
649.147810	2432.356731
649.491108	2475.206538
649.834354	2467.644808
650.177548	2487.809423
650.520690	2573.509038
650.863781	2515.535769
651.206820	2548.303269
651.549807	2482.768269
651.892742	2427.315577
652.235626	2530.659231
652.578458	2447.480192
652.921238	2497.891731
653.263967	2550.823846
653.606644	2487.809423
653.949269	2439.918462
654.291843	2507.974038
654.634365	2442.439038
654.976836	2439.918462
655.319255	2507.974038
655.661622	2480.247692
656.003938	2538.220962
656.346203	2510.494615
656.688416	2520.576923
657.030577	2467.644808
657.372687	2475.206538
657.714746	2472.685962
658.056753	2500.412308
658.398708	2535.700385
658.740612	2477.727115
659.082465	2497.891731
659.424266	2495.371154
659.766016	2490.330000
660.107715	2543.262115
660.449362	2487.809423
660.790958	2528.138654
661.132503	2518.056346
661.473996	2530.659231
661.815438	2429.836154
662.156829	2533.179808
662.498168	2487.809423
662.839456	2487.809423
663.180693	2475.206538
663.521879	2450.000769
663.863013	2520.576923
664.204097	2497.891731
664.545129	2548.303269
664.886110	2523.097500
665.227040	2444.959615
665.567918	2439.918462
665.908746	2497.891731
666.249522	2442.439038
666.590248	2540.741538
666.930922	2477.727115
667.271545	2500.412308
667.612118	2533.179808
667.952639	2555.865000
668.293109	2520.576923
668.633528	2412.192115
668.973896	2500.412308
669.314213	2510.494615
669.654480	2442.439038
669.994695	2399.589231
670.334859	2470.165385
670.674973	2419.753846
671.015035	2490.330000
671.355047	2500.412308
671.695008	2565.947308
672.034918	2500.412308
672.374777	2444.959615
672.714585	2545.782692
673.054342	2439.918462
673.394049	2513.015192
673.733705	2510.494615
674.073310	2507.974038
674.412864	2467.644808
674.752368	2404.630385
675.091820	2505.453462
675.431223	2586.111923
675.770574	2437.397885
676.109875	2487.809423
676.449125	2472.685962
676.788324	2548.303269
677.127473	2507.974038
677.466571	2417.233269
677.805619	2518.056346
678.144616	2505.453462
678.483562	2467.644808
678.822458	2507.974038
679.161303	2553.344423
679.500098	2507.974038
679.838842	2533.179808
680.177535	2528.138654
680.516179	2477.727115
680.854771	2530.659231
681.193314	2603.755962
681.531805	2470.165385
681.870247	2502.932885
682.208638	2583.591346
682.546978	2555.865000
682.885268	2424.795000
683.223508	2586.111923
683.561697	2495.371154
683.899836	2520.576923
684.237925	2457.562500
684.575963	2447.480192
684.913951	2513.015192
685.251889	2477.727115
685.589776	2475.206538
685.927614	2548.303269
686.265401	2528.138654
686.603137	2470.165385
686.940824	2518.056346
687.278460	2543.262115
687.616046	2513.015192
687.953582	2487.809423
688.291068	2424.795000
688.628504	2523.097500
688.965889	2450.000769
689.303224	2555.865000
689.640510	2538.220962
689.977745	2482.768269
690.314930	2530.659231
690.652065	2460.083077
690.989150	2528.138654
691.326185	2462.603654
691.663170	2525.618077
692.000105	2505.453462
692.336990	2444.959615
692.673825	2497.891731
693.010610	2455.041923
693.347345	2412.192115
693.684030	2477.727115
694.020665	2482.768269
694.357251	2457.562500
694.693786	2533.179808
695.030272	2404.630385
695.366707	2528.138654
695.703093	2439.918462
696.039429	2518.056346
696.375716	2439.918462
696.711952	2497.891731
697.048139	2482.768269
697.384276	2505.453462
697.720363	2442.439038
698.056400	2500.412308
698.392388	2462.603654
698.728326	2525.618077
699.064214	2533.179808
699.400053	2535.700385
699.735842	2550.823846
700.071581	2455.041923
700.407270	2457.562500
700.742910	2490.330000
701.078501	2467.644808
701.414042	2510.494615
701.749533	2482.768269
702.084974	2523.097500
702.420366	2570.988462
702.755709	2588.632500
703.091002	2515.535769
703.426246	2475.206538
703.761440	2460.083077
704.096584	2520.576923
704.431679	2573.509038
704.766725	2553.344423
705.101721	2593.673654
705.436668	2495.371154
705.771565	2510.494615
706.106413	2520.576923
706.441212	2434.877308
706.775961	2591.153077
707.110661	2482.768269
707.445311	2450.000769
707.779913	2495.371154
708.114465	2467.644808
708.448967	2515.535769
708.783421	2540.741538
709.117825	2434.877308
709.452180	2442.439038
709.786485	2467.644808
710.120742	2533.179808
710.454949	2409.671538
710.789107	2422.274423
711.123216	2510.494615
711.457275	2563.426731
711.791286	2490.330000
712.125247	2485.288846
712.459159	2424.795000
712.793023	2500.412308
713.126837	2475.206538
713.460602	2455.041923
713.794318	2518.056346
714.127985	2548.303269
714.461602	2525.618077
714.795171	2543.262115
715.128691	2502.932885
715.462162	2482.768269
715.795584	2523.097500
716.128957	2513.015192
716.462281	2444.959615
716.795556	2480.247692
717.128782	2550.823846
717.461960	2530.659231
717.795088	2465.124231
718.128167	2533.179808
718.461198	2505.453462
718.794180	2414.712692
719.127113	2495.371154
719.459997	2412.192115
719.792833	2490.330000
720.125619	2538.220962
720.458357	2467.644808
720.791046	2477.727115
721.123686	2520.576923
721.456278	2535.700385
721.788821	2376.904038
722.121315	2543.262115
722.453761	2472.685962
722.786158	2439.918462
723.118506	2497.891731
723.450805	2497.891731
723.783056	2550.823846
724.115259	2565.947308
724.447412	2555.865000
724.779518	2452.521346
725.111574	2502.932885
725.443582	2455.041923
725.775542	2492.850577
726.107453	2467.644808
726.439315	2450.000769
726.771129	2470.165385
727.102895	2523.097500
727.434612	2495.371154
727.766281	2462.603654
728.097901	2490.330000
728.429473	2500.412308
728.760996	2515.535769
729.092471	2518.056346
729.423897	2505.453462
729.755276	2419.753846
730.086606	2540.741538
730.417887	2442.439038
730.749120	2513.015192
731.080305	2467.644808
731.411442	2525.618077
731.742530	2455.041923
732.073570	2404.630385
732.404562	2510.494615
732.735506	2548.303269
733.066401	2457.562500
733.397249	2492.850577
733.728048	2533.179808
734.058798	2475.206538
734.389501	2422.274423
734.720156	2492.850577
735.050762	2596.194231
735.381320	2424.795000
735.711831	2422.274423
736.042293	2530.659231
736.372707	2500.412308
736.703073	2573.509038
737.033391	2502.932885
737.363661	2520.576923
737.693883	2490.330000
738.024056	2424.795000
738.354182	2399.589231
738.684260	2560.906154
739.014290	2490.330000
739.344272	2414.712692
739.674207	2452.521346
740.004093	2384.465769
740.333931	2495.371154
740.663722	2465.124231
740.993464	2583.591346
741.323159	2444.959615
741.652806	2497.891731
741.982405	2487.809423
742.311956	2507.974038
742.641460	2409.671538
742.970915	2447.480192
743.300323	2533.179808
743.629683	2452.521346
743.958996	2548.303269
744.288260	2535.700385
744.617477	2447.480192
744.946647	2465.124231
745.275768	2510.494615
745.604842	2548.303269
745.933869	2538.220962
746.262847	2543.262115
746.591778	2523.097500
746.920662	2455.041923
747.249498	2513.015192
747.578286	2538.220962
747.907027	2470.165385
748.235720	2540.741538
748.564365	2447.480192
748.892963	2525.618077
749.221514	2462.603654
749.550017	2525.618077
749.878473	2439.918462
750.206881	2548.303269
750.535242	2553.344423
750.863555	2485.288846
751.191821	2518.056346
751.520039	2389.506923
751.848210	2482.768269
752.176334	2414.712692
752.504411	2472.685962
752.832440	2558.385577
753.160421	2545.782692
753.488356	2434.877308
753.816243	2482.768269
754.144082	2485.288846
754.471875	2447.480192
754.799620	2492.850577
755.127318	2452.521346
755.454969	2535.700385
755.782572	2427.315577
756.110129	2422.274423
756.437638	2525.618077
756.765100	2475.206538
757.092515	2452.521346
757.419882	2593.673654
757.747203	2480.247692
758.074477	2543.262115
758.401703	2507.974038
758.728882	2495.371154
759.056014	2490.330000
759.383099	2505.453462
759.710138	2535.700385
760.037129	2482.768269
760.364073	2477.727115
760.690970	2581.070769
761.017820	2533.179808
761.344623	2376.904038
761.671379	2455.041923
761.998088	2538.220962
762.324751	2560.906154
762.651366	2495.371154
762.977935	2533.179808
763.304456	2518.056346
763.630931	2487.809423
763.957359	2525.618077
764.283740	2447.480192
764.610074	2530.659231
764.936362	2543.262115
765.262602	2497.891731
765.588796	2513.015192
765.914943	2462.603654
766.241044	2455.041923
766.567097	2485.288846
766.893104	2477.727115
767.219064	2455.041923
767.544978	2455.041923
767.870845	2402.109808
768.196665	2507.974038
768.522438	2487.809423
768.848165	2513.015192
769.173846	2432.356731
769.499479	2500.412308
769.825066	2568.467885
770.150607	2553.344423
770.476101	2460.083077
770.801548	2455.041923
771.126949	2540.741538
771.452303	2558.385577
771.777611	2500.412308
772.102872	2490.330000
772.428087	2558.385577
772.753256	2485.288846
773.078378	2397.068654
773.403453	2444.959615
773.728482	2550.823846
774.053465	2472.685962
774.378401	2518.056346
774.703291	2518.056346
775.028135	2523.097500
775.352932	2485.288846
775.677683	2505.453462
776.002388	2518.056346
776.327046	2543.262115
776.651658	2550.823846
776.976224	2392.027500
777.300743	2507.974038
777.625216	2447.480192
777.949643	2475.206538
778.274024	2535.700385
778.598359	2530.659231
778.922647	2502.932885
779.246889	2548.303269
779.571086	2497.891731
779.895236	2402.109808
780.219339	2460.083077
780.543397	2505.453462
780.867409	2442.439038
781.191374	2523.097500
781.515294	2475.206538
781.839167	2480.247692
782.162995	2528.138654
782.486776	2515.535769
782.810511	2525.618077
783.134201	2462.603654
783.457844	2530.659231
783.781441	2543.262115
784.104993	2492.850577
784.428498	2492.850577
784.751958	2520.576923
785.075372	2470.165385
785.398739	2515.535769
785.722061	2399.589231
786.045337	2399.589231
786.368568	2475.206538
786.691752	2409.671538
787.014891	2528.138654
787.337983	2490.330000
787.661030	2565.947308
787.984031	2487.809423
788.306987	2505.453462
788.629897	2427.315577
788.952760	2505.453462
789.275579	2563.426731
789.598351	2507.974038
789.921078	2462.603654
790.243759	2502.932885
790.566395	2492.850577
790.888984	2570.988462
791.211529	2457.562500
791.534027	2545.782692
791.856480	2495.371154
792.178888	2525.618077
792.501249	2439.918462
792.823566	2487.809423
793.145836	2538.220962
793.468062	2487.809423
793.790241	2437.397885
794.112375	2429.836154
794.434464	2523.097500
794.756507	2513.015192
795.078505	2487.809423
795.400457	2472.685962
795.722364	2515.535769
796.044226	2545.782692
796.366042	2490.330000
796.687812	2457.562500
797.009538	2510.494615
797.331218	2518.056346
797.652852	2452.521346
797.974442	2384.465769
798.295986	2432.356731
798.617484	2581.070769
798.938938	2462.603654
799.260346	2495.371154
799.581709	2462.603654
799.903026	2525.618077
800.224299	2465.124231
800.545526	2540.741538
800.866708	2497.891731
801.187845	2480.247692
801.508936	2533.179808
801.829983	2462.603654
802.150984	2419.753846
802.471940	2477.727115
802.792851	2409.671538
803.113717	2545.782692
803.434538	2485.288846
803.755314	2495.371154
804.076045	2553.344423
804.396731	2530.659231
804.717372	2452.521346
805.037967	2513.015192
805.358518	2482.768269
805.679024	2414.712692
805.999485	2520.576923
806.319901	2500.412308
806.640272	2495.371154
806.960598	2439.918462
807.280879	2477.727115
807.601115	2465.124231
807.921306	2555.865000
808.241453	2553.344423
808.561554	2515.535769
808.881611	2472.685962
809.201623	2487.809423
809.521590	2452.521346
809.841513	2535.700385
810.161390	2472.685962
810.481223	2455.041923
810.801011	2412.192115
811.120755	2560.906154
811.440453	2462.603654
811.760107	2520.576923
812.079716	2528.138654
812.399281	2545.782692
812.718801	2480.247692
813.038276	2485.288846
813.357707	2475.206538
813.677093	2457.562500
813.996434	2538.220962
814.315731	2450.000769
814.634983	2487.809423
814.954191	2462.603654
815.273354	2543.262115
815.592473	2467.644808
815.911547	2470.165385
816.230577	2462.603654
816.549562	2500.412308
816.868502	2460.083077
817.187399	2422.274423
817.506250	2581.070769
817.825058	2480.247692
818.143821	2525.618077
818.462539	2490.330000
818.781213	2535.700385
819.099843	2460.083077
819.418429	2500.412308
819.736970	2447.480192
820.055466	2414.712692
820.373919	2558.385577
820.692327	2480.247692
821.010691	2586.111923
821.329011	2623.920577
821.647286	2598.714808
821.965517	2442.439038
822.283704	2495.371154
822.601847	2518.056346
822.919945	2535.700385
823.237999	2457.562500
823.556010	2439.918462
823.873976	2548.303269
824.191897	2518.056346
824.509775	2467.644808
824.827609	2457.562500
825.145398	2530.659231
825.463144	2457.562500
825.780845	2442.439038
826.098502	2543.262115
826.416116	2467.644808
826.733685	2545.782692
827.051210	2523.097500
827.368692	2470.165385
827.686129	2460.083077
828.003522	2477.727115
828.320872	2502.932885
828.638177	2439.918462
828.955439	2520.576923
829.272656	2490.330000
829.589830	2477.727115
829.906960	2429.836154
830.224046	2434.877308
830.541088	2450.000769
830.858086	2555.865000
831.175041	2407.150962
831.491952	2560.906154
831.808819	2507.974038
832.125642	2490.330000
832.442421	2407.150962
832.759157	2472.685962
833.075849	2344.136538
833.392497	2477.727115
833.709101	2480.247692
834.025662	2447.480192
834.342179	2520.576923
834.658653	2492.850577
834.975083	2442.439038
835.291469	2495.371154
835.607811	2467.644808
835.924110	2530.659231
836.240366	2505.453462
836.556578	2379.424615
836.872746	2538.220962
837.188871	2502.932885
837.504952	2429.836154
837.820990	2502.932885
838.136984	2555.865000
838.452935	2507.974038
838.768842	2394.548077
839.084706	2530.659231
839.400526	2439.918462
839.716303	2543.262115
840.032037	2452.521346
840.347727	2497.891731
840.663373	2495.371154
840.978977	2434.877308
841.294537	2460.083077
841.610054	2424.795000
841.925527	2523.097500
842.240957	2513.015192
842.556344	2543.262115
842.871687	2525.618077
843.186987	2447.480192
843.502244	2530.659231
843.817458	2490.330000
844.132629	2530.659231
844.447756	2477.727115
844.762840	2523.097500
845.077881	2520.576923
845.392879	2480.247692
845.707833	2429.836154
846.022745	2533.179808
846.337613	2419.753846
846.652438	2419.753846
846.967221	2485.288846
847.281960	2560.906154
847.596656	2470.165385
847.911309	2520.576923
848.225919	2520.576923
848.540485	2538.220962
848.855009	2460.083077
849.169490	2565.947308
849.483928	2480.247692
849.798323	2480.247692
850.112675	2533.179808
850.426984	2505.453462
850.741251	2492.850577
851.055474	2510.494615
851.369654	2500.412308
851.683792	2455.041923
851.997887	2538.220962
852.311938	2530.659231
852.625947	2455.041923
852.939914	2465.124231
853.253837	2437.397885
853.567718	2447.480192
853.881555	2591.153077
854.195350	2487.809423
854.509103	2447.480192
854.822812	2472.685962
855.136479	2447.480192
855.450103	2419.753846
855.763685	2467.644808
856.077224	2472.685962
856.390720	2470.165385
856.704173	2507.974038
857.017584	2379.424615
857.330953	2492.850577
857.644278	2444.959615
857.957561	2565.947308
858.270802	2523.097500
858.584000	2470.165385
858.897155	2530.659231
859.210268	2497.891731
859.523339	2417.233269
859.836367	2444.959615
860.149352	2460.083077
860.462295	2545.782692
860.775195	2472.685962
861.088054	2528.138654
861.400869	2487.809423
861.713642	2505.453462
862.026373	2427.315577
862.339062	2470.165385
862.651708	2482.768269
862.964312	2492.850577
863.276873	2588.632500
863.589392	2477.727115
863.901869	2404.630385
864.214303	2525.618077
864.526696	2485.288846
864.839045	2502.932885
865.151353	2588.632500
865.463619	2482.768269
865.775842	2462.603654
866.088023	2513.015192
866.400162	2470.165385
866.712258	2502.932885
867.024313	2520.576923
867.336325	2434.877308
867.648296	2480.247692
867.960224	2460.083077
868.272110	2515.535769
868.583954	2520.576923
868.895755	2417.233269
869.207515	2480.247692
869.519233	2490.330000
869.830909	2523.097500
870.142542	2490.330000
870.454134	2543.262115
870.765684	2490.330000
871.077191	2505.453462
871.388657	2545.782692
871.700081	2540.741538
872.011463	2444.959615
872.322803	2450.000769
872.634101	2477.727115
872.945357	2573.509038
873.256571	2495.371154
873.567744	2467.644808
873.878874	2475.206538
874.189963	2513.015192
874.501010	2444.959615
874.812015	2497.891731
875.122979	2497.891731
875.433900	2467.644808
875.744780	2470.165385
876.055618	2533.179808
876.366415	2477.727115
876.677169	2472.685962
876.987882	2518.056346
877.298554	2465.124231
877.609183	2485.288846
877.919771	2523.097500
878.230317	2460.083077
878.540822	2386.986346
878.851285	2447.480192
879.161707	2351.698269
879.472087	2500.412308
879.782425	2510.494615
880.092722	2533.179808
880.402977	2497.891731
880.713191	2540.741538
881.023363	2399.589231
881.333494	2515.535769
881.643583	2384.465769
881.953631	2502.932885
882.263637	2525.618077
882.573602	2560.906154
882.883526	2472.685962
883.193408	2568.467885
883.503248	2505.453462
883.813048	2482.768269
884.122806	2465.124231
884.432522	2510.494615
884.742197	2583.591346
885.051831	2472.685962
885.361424	2475.206538
885.670975	2472.685962
885.980485	2414.712692
886.289954	2510.494615
886.599382	2399.589231
886.908768	2518.056346
887.218113	2480.247692
887.527417	2487.809423
887.836680	2515.535769
888.145901	2465.124231
888.455082	2472.685962
888.764221	2485.288846
889.073319	2457.562500
889.382376	2513.015192
889.691392	2497.891731
890.000366	2525.618077
890.309300	2482.768269
890.618193	2548.303269
890.927044	2505.453462
891.235855	2543.262115
891.544625	2497.891731
891.853353	2450.000769
892.162041	2513.015192
892.470687	2417.233269
892.779293	2480.247692
893.087858	2482.768269
893.396381	2505.453462
893.704864	2515.535769
894.013306	2467.644808
894.321707	2510.494615
894.630068	2495.371154
894.938387	2482.768269
895.246665	2462.603654
895.554903	2518.056346
895.863100	2455.041923
896.171256	2538.220962
896.479371	2495.371154
896.787446	2505.453462
897.095480	2568.467885
897.403473	2457.562500
897.711425	2467.644808
898.019336	2386.986346
898.327207	2477.727115
898.635038	2482.768269
898.942827	2507.974038
899.250576	2568.467885
899.558284	2518.056346
899.865952	2366.821731
900.173579	2444.959615
900.481165	2502.932885
900.788711	2492.850577
901.096216	2442.439038
901.403681	2528.138654
901.711105	2432.356731
902.018489	2565.947308
902.325832	2495.371154
902.633135	2470.165385
902.940397	2482.768269
903.247619	2525.618077
903.554800	2477.727115
903.861941	2548.303269
904.169041	2465.124231
904.476101	2545.782692
904.783121	2528.138654
905.090100	2528.138654
905.397039	2402.109808
905.703938	2528.138654
906.010796	2538.220962
906.317614	2392.027500
906.624391	2417.233269
906.931129	2525.618077
907.237826	2462.603654
907.544483	2502.932885
907.851099	2530.659231
908.157675	2492.850577
908.464211	2457.562500
908.770707	2480.247692
909.077163	2485.288846
909.383578	2434.877308
909.689954	2500.412308
909.996289	2467.644808
910.302584	2399.589231
910.608839	2523.097500
910.915054	2477.727115
911.221229	2485.288846
911.527363	2487.809423
911.833458	2475.206538
912.139513	2500.412308
912.445527	2467.644808
912.751502	2427.315577
913.057436	2477.727115
913.363331	2507.974038
913.669186	2424.795000
913.975000	2518.056346
914.280775	2482.768269
914.586510	2533.179808
914.892205	2437.397885
915.197859	2533.179808
915.503475	2487.809423
915.809050	2470.165385
916.114585	2495.371154
916.420081	2447.480192
916.725536	2444.959615
917.030952	2472.685962
917.336328	2444.959615
917.641665	2548.303269
917.946961	2513.015192
918.252218	2442.439038
918.557435	2545.782692
918.862612	2502.932885
919.167750	2518.056346
919.472848	2525.618077
919.777906	2470.165385
920.082925	2568.467885
920.387904	2465.124231
920.692843	2507.974038
920.997743	2492.850577
921.302603	2450.000769
921.607423	2538.220962
921.912204	2507.974038
922.216946	2472.685962
922.521647	2530.659231
922.826310	2510.494615
923.130932	2447.480192
923.435516	2462.603654
923.740059	2450.000769
924.044564	2465.124231
924.349028	2434.877308
924.653454	2507.974038
924.957840	2490.330000
925.262186	2555.865000
925.566493	2477.727115
925.870761	2513.015192
926.174989	2447.480192
926.479178	2535.700385
926.783328	2487.809423
927.087438	2477.727115
927.391509	2409.671538
927.695541	2513.015192
927.999533	2482.768269
928.303486	2528.138654
928.607400	2563.426731
928.911275	2455.041923
929.215110	2520.576923
929.518906	2470.165385
929.822663	2523.097500
930.126381	2485.288846
930.430060	2467.644808
930.733699	2485.288846
931.037299	2550.823846
931.340861	2419.753846
931.644383	2513.015192
931.947866	2487.809423
932.251309	2548.303269
932.554714	2475.206538
932.858080	2515.535769
933.161407	2444.959615
933.464694	2472.685962
933.767943	2467.644808
934.071153	2502.932885
934.374323	2482.768269
934.677455	2593.673654
934.980548	2480.247692
935.283602	2467.644808
935.586617	2450.000769
935.889593	2470.165385
936.192530	2515.535769
936.495428	2399.589231
936.798287	2472.685962
937.101108	2439.918462
937.403890	2530.659231
937.706632	2492.850577
938.009336	2500.412308
938.312002	2439.918462
938.614628	2540.741538
938.917216	2450.000769
939.219765	2520.576923
939.522275	2535.700385
939.824747	2515.535769
940.127179	2520.576923
940.429573	2495.371154
940.731929	2560.906154
941.034246	2558.385577
941.336524	2553.344423
941.638763	2495.371154
941.940964	2523.097500
942.243126	2414.712692
942.545250	2447.480192
942.847335	2505.453462
943.149381	2477.727115
943.451389	2444.959615
943.753359	2452.521346
944.055290	2507.974038
944.357182	2477.727115
944.659036	2487.809423
944.960851	2457.562500
945.262628	2465.124231
945.564367	2477.727115
945.866067	2457.562500
946.167729	2422.274423
946.469352	2472.685962
946.770937	2477.727115
947.072484	2386.986346
947.373992	2482.768269
947.675462	2470.165385
947.976893	2480.247692
948.278286	2472.685962
948.579641	2513.015192
948.880958	2470.165385
949.182236	2414.712692
949.483476	2500.412308
949.784678	2475.206538
950.085841	2485.288846
950.386967	2450.000769
950.688054	2518.056346
950.989103	2505.453462
951.290114	2573.509038
951.591087	2447.480192
951.892021	2485.288846
952.192917	2427.315577
952.493776	2457.562500
952.794596	2540.741538
953.095378	2623.920577
953.396122	2457.562500
953.696828	2583.591346
953.997496	2457.562500
954.298126	2500.412308
954.598718	2540.741538
954.899272	2457.562500
955.199788	2505.453462
955.500266	2477.727115
955.800706	2470.165385
956.101108	2444.959615
956.401472	2513.015192
956.701798	2538.220962
957.002087	2528.138654
957.302337	2465.124231
957.602550	2528.138654
957.902724	2515.535769
958.202861	2467.644808
958.502960	2518.056346
958.803022	2513.015192
959.103045	2568.467885
959.403031	2502.932885
959.702979	2442.439038
960.002889	2518.056346
960.302762	2485.288846
960.602596	2523.097500
960.902393	2460.083077
961.202153	2525.618077
961.501875	2417.233269
961.801559	2533.179808
962.101205	2500.412308
962.400814	2520.576923
962.700385	2538.220962
962.999918	2442.439038
963.299414	2409.671538
963.598873	2475.206538
963.898293	2399.589231
964.197677	2457.562500
964.497022	2475.206538
964.796331	2374.383462
965.095601	2487.809423
965.394835	2439.918462
965.694030	2548.303269
965.993189	2482.768269
966.292309	2467.644808
966.591393	2507.974038
966.890439	2470.165385
967.189447	2407.150962
967.488419	2540.741538
967.787353	2518.056346
968.086249	2442.439038
968.385108	2545.782692
968.683930	2513.015192
968.982714	2450.000769
969.281462	2513.015192
969.580172	2444.959615
969.878844	2376.904038
970.177480	2384.465769
970.476078	2485.288846
970.774639	2450.000769
971.073162	2528.138654
971.371649	2462.603654
971.670098	2457.562500
971.968510	2513.015192
972.266885	2475.206538
972.565223	2482.768269
972.863524	2500.412308
973.161788	2538.220962
973.460014	2465.124231
973.758204	2568.467885
974.056356	2530.659231
974.354471	2450.000769
974.652550	2513.015192
974.950591	2482.768269
975.248595	2482.768269
975.546563	2455.041923
975.844493	2439.918462
976.142386	2490.330000
976.440243	2460.083077
976.738062	2450.000769
977.035845	2518.056346
977.333590	2530.659231
977.631299	2525.618077
977.928971	2530.659231
978.226606	2470.165385
978.524204	2613.838269
978.821765	2540.741538
979.119290	2533.179808
979.416777	2505.453462
979.714228	2404.630385
980.011642	2500.412308
980.309020	2490.330000
980.606360	2480.247692
980.903664	2381.945192
981.200931	2523.097500
981.498162	2404.630385
981.795356	2475.206538
982.092513	2570.988462
982.389633	2475.206538
982.686717	2485.288846
982.983764	2502.932885
983.280775	2528.138654
983.577749	2439.918462
983.874686	2518.056346
984.171587	2482.768269
984.468451	2510.494615
984.765279	2407.150962
985.062070	2530.659231
985.358824	2487.809423
985.655543	2505.453462
985.952224	2530.659231
986.248869	2482.768269
986.545478	2414.712692
986.842050	2502.932885
987.138586	2422.274423
987.435086	2545.782692
987.731549	2465.124231
988.027975	2553.344423
988.324366	2429.836154
988.620719	2424.795000
988.917037	2497.891731
989.213318	2518.056346
989.509563	2515.535769
989.805772	2475.206538
990.101944	2523.097500
990.398080	2452.521346
990.694180	2412.192115
990.990244	2457.562500
991.286271	2507.974038
991.582262	2505.453462
991.878217	2470.165385
992.174136	2485.288846
992.470019	2518.056346
992.765865	2513.015192
993.061676	2437.397885
993.357450	2404.630385
993.653188	2497.891731
993.948890	2467.644808
994.244556	2490.330000
994.540186	2497.891731
994.835780	2553.344423
995.131337	2507.974038
995.426859	2543.262115
995.722345	2510.494615
996.017795	2558.385577
996.313208	2485.288846
996.608586	2402.109808
996.903928	2490.330000
997.199234	2450.000769
997.494504	2553.344423
997.789738	2432.356731
998.084936	2500.412308
998.380099	2409.671538
998.675225	2535.700385
998.970316	2475.206538
999.265371	2414.712692
999.560390	2505.453462
999.855373	2455.041923
1000.150320	2472.685962
1000.445232	2467.644808
1000.740108	2533.179808
1001.034948	2477.727115
1001.329752	2502.932885
1001.624521	2581.070769
1001.919254	2492.850577
1002.213951	2545.782692
1002.508613	2507.974038
1002.803239	2550.823846
1003.097829	2455.041923
1003.392384	2359.260000
1003.686903	2502.932885
1003.981386	2497.891731
1004.275834	2515.535769
1004.570246	2497.891731
1004.864623	2495.371154
1005.158964	2530.659231
1005.453270	2492.850577
1005.747540	2482.768269
1006.041775	2497.891731
1006.335974	2477.727115
1006.630138	2439.918462
1006.924266	2535.700385
1007.218359	2540.741538
1007.512416	2513.015192
1007.806438	2422.274423
1008.100425	2565.947308
1008.394376	2452.521346
1008.688292	2460.083077
1008.982172	2490.330000
1009.276017	2535.700385
1009.569827	2487.809423
1009.863602	2550.823846
1010.157341	2434.877308
1010.451045	2424.795000
1010.744714	2583.591346
1011.038347	2462.603654
1011.331945	2475.206538
1011.625508	2523.097500
1011.919036	2523.097500
1012.212528	2490.330000
1012.505986	2470.165385
1012.799408	2412.192115
1013.092795	2596.194231
1013.386147	2515.535769
1013.679464	2399.589231
1013.972745	2394.548077
1014.265992	2490.330000
1014.559204	2412.192115
1014.852380	2457.562500
1015.145521	2465.124231
1015.438628	2412.192115
1015.731699	2439.918462
1016.024736	2439.918462
1016.317737	2457.562500
1016.610703	2578.550192
1016.903635	2475.206538
1017.196531	2455.041923
1017.489393	2480.247692
1017.782219	2427.315577
1018.075011	2457.562500
1018.367768	2497.891731
1018.660490	2492.850577
1018.953177	2492.850577
1019.245829	2492.850577
