Dividing Wavelength (nm)	Counts (n)	Blue Motor Position (mm): 8.900000	Red Motor Position (mm): 0.000000	
326.493990	2107.202308
326.888308	2107.202308
327.282561	2107.202308
327.676750	2107.202308
328.070874	2049.229038
328.464933	2001.338077
328.858929	2081.996538
329.252859	2076.955385
329.646726	2066.873077
330.040528	2112.243462
330.434265	2094.599423
330.827938	2119.805192
331.221547	2157.613846
331.615091	2182.819615
332.008571	2175.257885
332.401986	2220.628269
332.795338	2228.190000
333.188625	2243.313462
333.581847	2296.245577
333.975006	2351.698269
334.368100	2364.301154
334.761129	2318.930769
335.154095	2225.669423
335.546996	2296.245577
335.939833	2278.601538
336.332606	2386.986346
336.725315	2444.959615
337.117960	2341.615962
337.510540	2392.027500
337.903056	2495.371154
338.295508	2432.356731
338.687896	2417.233269
339.080220	2510.494615
339.472480	2465.124231
339.864676	2482.768269
340.256807	2495.371154
340.648875	2492.850577
341.040879	2455.041923
341.432818	2472.685962
341.824694	2455.041923
342.216506	2492.850577
342.608253	2414.712692
342.999937	2518.056346
343.391557	2429.836154
343.783113	2412.192115
344.174605	2465.124231
344.566033	2457.562500
344.957397	2457.562500
345.348697	2515.535769
345.739934	2505.453462
346.131106	2432.356731
346.522215	2487.809423
346.913260	2447.480192
347.304241	2432.356731
347.695159	2462.603654
348.086012	2480.247692
348.476802	2442.439038
348.867528	2482.768269
349.258191	2409.671538
349.648789	2520.576923
350.039324	2510.494615
350.429796	2450.000769
350.820203	2490.330000
351.210548	2510.494615
351.600828	2485.288846
351.991045	2525.618077
352.381198	2409.671538
352.771288	2485.288846
353.161314	2450.000769
353.551276	2422.274423
353.941175	2507.974038
354.331010	2455.041923
354.720782	2432.356731
355.110490	2424.795000
355.500135	2455.041923
355.889717	2447.480192
356.279235	2452.521346
356.668689	2460.083077
357.058080	2437.397885
357.447408	2407.150962
357.836672	2427.315577
358.225873	2424.795000
358.615010	2404.630385
359.004084	2477.727115
359.393095	2487.809423
359.782043	2417.233269
360.170927	2432.356731
360.559748	2513.015192
360.948505	2437.397885
361.337199	2467.644808
361.725830	2442.439038
362.114398	2394.548077
362.502903	2465.124231
362.891344	2523.097500
363.279722	2467.644808
363.668037	2465.124231
364.056289	2477.727115
364.444478	2513.015192
364.832603	2470.165385
365.220665	2492.850577
365.608665	2467.644808
365.996601	2533.179808
366.384474	2429.836154
366.772284	2434.877308
367.160031	2505.453462
367.547715	2437.397885
367.935336	2465.124231
368.322893	2434.877308
368.710388	2482.768269
369.097820	2351.698269
369.485189	2497.891731
369.872495	2492.850577
370.259738	2497.891731
370.646918	2444.959615
371.034035	2495.371154
371.421090	2447.480192
371.808081	2455.041923
372.195010	2407.150962
372.581875	2371.862885
372.968678	2442.439038
373.355418	2412.192115
373.742096	2533.179808
374.128710	2462.603654
374.515262	2495.371154
374.901751	2434.877308
375.288177	2515.535769
375.674540	2450.000769
376.060841	2399.589231
376.447079	2397.068654
376.833254	2407.150962
377.219367	2502.932885
377.605417	2490.330000
377.991404	2374.383462
378.377329	2477.727115
378.763191	2492.850577
379.148991	2404.630385
379.534727	2480.247692
379.920402	2427.315577
380.306013	2518.056346
380.691563	2485.288846
381.077049	2442.439038
381.462474	2439.918462
381.847835	2452.521346
382.233134	2497.891731
382.618371	2518.056346
383.003545	2460.083077
383.388657	2399.589231
383.773706	2520.576923
384.158693	2553.344423
384.543618	2371.862885
384.928480	2434.877308
385.313280	2429.836154
385.698017	2424.795000
386.082692	2581.070769
386.467305	2465.124231
386.851856	2502.932885
387.236344	2475.206538
387.620770	2437.397885
388.005133	2540.741538
388.389435	2502.932885
388.773674	2434.877308
389.157851	2432.356731
389.541965	2523.097500
389.926018	2439.918462
390.310008	2500.412308
390.693936	2452.521346
391.077802	2490.330000
391.461606	2465.124231
391.845348	2500.412308
392.229027	2530.659231
392.612645	2455.041923
392.996200	2475.206538
393.379694	2392.027500
393.763125	2475.206538
394.146494	2500.412308
394.529801	2563.426731
394.913047	2533.179808
395.296230	2500.412308
395.679351	2371.862885
396.062410	2434.877308
396.445408	2485.288846
396.828343	2500.412308
397.211217	2465.124231
397.594028	2515.535769
397.976778	2437.397885
398.359466	2452.521346
398.742092	2455.041923
399.124656	2457.562500
399.507158	2397.068654
399.889598	2533.179808
400.271977	2455.041923
400.654294	2588.632500
401.036549	2447.480192
401.418742	2502.932885
401.800874	2444.959615
402.182944	2417.233269
402.564952	2492.850577
402.946898	2457.562500
403.328783	2470.165385
403.710606	2447.480192
404.092367	2457.562500
404.474067	2480.247692
404.855705	2462.603654
405.237282	2525.618077
405.618797	2447.480192
406.000250	2477.727115
406.381642	2470.165385
406.762972	2429.836154
407.144240	2417.233269
407.525447	2457.562500
407.906593	2513.015192
408.287677	2439.918462
408.668700	2455.041923
409.049661	2467.644808
409.430560	2513.015192
409.811399	2570.988462
410.192176	2444.959615
410.572891	2497.891731
410.953545	2548.303269
411.334138	2465.124231
411.714669	2510.494615
412.095139	2432.356731
412.475547	2386.986346
412.855894	2518.056346
413.236180	2523.097500
413.616405	2485.288846
413.996568	2389.506923
414.376670	2492.850577
414.756711	2492.850577
415.136691	2470.165385
415.516609	2457.562500
415.896466	2439.918462
416.276262	2606.276538
416.655997	2480.247692
417.035670	2515.535769
417.415283	2513.015192
417.794834	2434.877308
418.174324	2462.603654
418.553753	2465.124231
418.933121	2513.015192
419.312428	2460.083077
419.691674	2417.233269
420.070859	2480.247692
420.449983	2523.097500
420.829045	2555.865000
421.208047	2520.576923
421.586988	2518.056346
421.965867	2535.700385
422.344686	2439.918462
422.723444	2538.220962
423.102141	2490.330000
423.480777	2487.809423
423.859352	2452.521346
424.237866	2535.700385
424.616319	2412.192115
424.994712	2369.342308
425.373044	2462.603654
425.751314	2530.659231
426.129524	2543.262115
426.507673	2510.494615
426.885762	2520.576923
427.263789	2520.576923
427.641756	2475.206538
428.019662	2475.206538
428.397508	2535.700385
428.775292	2465.124231
429.153016	2455.041923
429.530679	2487.809423
429.908282	2523.097500
430.285824	2477.727115
430.663305	2497.891731
431.040726	2427.315577
431.418086	2472.685962
431.795385	2450.000769
432.172624	2513.015192
432.549802	2492.850577
432.926920	2502.932885
433.303977	2434.877308
433.680974	2520.576923
434.057910	2475.206538
434.434786	2444.959615
434.811601	2424.795000
435.188355	2457.562500
435.565050	2475.206538
435.941683	2472.685962
436.318257	2432.356731
436.694770	2462.603654
437.071222	2477.727115
437.447614	2528.138654
437.823946	2465.124231
438.200218	2540.741538
438.576429	2485.288846
438.952580	2437.397885
439.328670	2381.945192
439.704700	2492.850577
440.080670	2419.753846
440.456580	2492.850577
440.832429	2427.315577
441.208218	2505.453462
441.583947	2480.247692
441.959616	2414.712692
442.335224	2530.659231
442.710773	2457.562500
443.086261	2533.179808
443.461689	2475.206538
443.837057	2447.480192
444.212365	2601.235385
444.587612	2513.015192
444.962800	2570.988462
445.337927	2533.179808
445.712995	2462.603654
446.088002	2530.659231
446.462949	2490.330000
446.837837	2485.288846
447.212664	2455.041923
447.587431	2455.041923
447.962139	2510.494615
448.336786	2490.330000
448.711374	2467.644808
449.085901	2563.426731
449.460369	2583.591346
449.834776	2485.288846
450.209124	2495.371154
450.583412	2543.262115
450.957640	2500.412308
451.331808	2409.671538
451.705917	2502.932885
452.079965	2487.809423
452.453954	2455.041923
452.827883	2450.000769
453.201752	2500.412308
453.575562	2505.453462
453.949311	2477.727115
454.323001	2487.809423
454.696632	2444.959615
455.070202	2409.671538
455.443713	2513.015192
455.817164	2472.685962
456.190556	2432.356731
456.563888	2533.179808
456.937160	2424.795000
457.310373	2495.371154
457.683526	2465.124231
458.056619	2545.782692
458.429653	2510.494615
458.802628	2457.562500
459.175542	2603.755962
459.548398	2533.179808
459.921194	2447.480192
460.293930	2480.247692
460.666607	2523.097500
461.039224	2394.548077
461.411782	2419.753846
461.784280	2538.220962
462.156719	2530.659231
462.529099	2480.247692
462.901419	2538.220962
463.273680	2490.330000
463.645882	2573.509038
464.018024	2560.906154
464.390106	2495.371154
464.762130	2528.138654
465.134094	2460.083077
465.505999	2460.083077
465.877845	2540.741538
466.249631	2447.480192
466.621358	2523.097500
466.993026	2565.947308
467.364634	2450.000769
467.736184	2455.041923
468.107674	2477.727115
468.479105	2596.194231
468.850477	2447.480192
469.221790	2455.041923
469.593043	2477.727115
469.964238	2492.850577
470.335373	2593.673654
470.706449	2427.315577
471.077467	2507.974038
471.448425	2457.562500
471.819324	2525.618077
472.190164	2480.247692
472.560945	2492.850577
472.931667	2523.097500
473.302330	2518.056346
473.672934	2502.932885
474.043479	2409.671538
474.413965	2429.836154
474.784393	2444.959615
475.154761	2492.850577
475.525070	2570.988462
475.895321	2439.918462
476.265513	2565.947308
476.635645	2502.932885
477.005719	2485.288846
477.375734	2606.276538
477.745691	2444.959615
478.115588	2452.521346
478.485427	2510.494615
478.855207	2477.727115
479.224928	2553.344423
479.594591	2523.097500
479.964194	2515.535769
480.333739	2490.330000
480.703226	2472.685962
481.072653	2460.083077
481.442022	2399.589231
481.811333	2497.891731
482.180584	2495.371154
482.549777	2419.753846
482.918912	2439.918462
483.287988	2475.206538
483.657005	2467.644808
484.025964	2482.768269
484.394864	2369.342308
484.763706	2485.288846
485.132489	2492.850577
485.501213	2518.056346
485.869879	2460.083077
486.238487	2560.906154
486.607036	2482.768269
486.975527	2545.782692
487.343959	2518.056346
487.712333	2414.712692
488.080648	2515.535769
488.448905	2525.618077
488.817104	2497.891731
489.185244	2472.685962
489.553326	2528.138654
489.921350	2523.097500
490.289315	2553.344423
490.657222	2538.220962
491.025070	2439.918462
491.392861	2518.056346
491.760593	2560.906154
492.128267	2495.371154
492.495883	2492.850577
492.863440	2525.618077
493.230939	2437.397885
493.598380	2389.506923
493.965763	2502.932885
494.333088	2485.288846
494.700354	2502.932885
495.067563	2462.603654
495.434713	2490.330000
495.801805	2510.494615
496.168839	2497.891731
496.535815	2535.700385
496.902733	2535.700385
497.269593	2530.659231
497.636395	2485.288846
498.003139	2513.015192
498.369825	2548.303269
498.736453	2538.220962
499.103023	2485.288846
499.469535	2502.932885
499.835989	2520.576923
500.202385	2472.685962
500.568723	2492.850577
500.935003	2432.356731
501.301226	2485.288846
501.667390	2495.371154
502.033497	2480.247692
502.399546	2535.700385
502.765537	2455.041923
503.131470	2497.891731
503.497345	2462.603654
503.863163	2545.782692
504.228923	2553.344423
504.594625	2462.603654
504.960269	2472.685962
505.325856	2470.165385
505.691385	2497.891731
506.056856	2429.836154
506.422270	2490.330000
506.787625	2465.124231
507.152924	2550.823846
507.518164	2492.850577
507.883347	2490.330000
508.248472	2470.165385
508.613540	2467.644808
508.978550	2525.618077
509.343503	2470.165385
509.708398	2530.659231
510.073236	2465.124231
510.438016	2548.303269
510.802738	2437.397885
511.167403	2530.659231
511.532010	2480.247692
511.896561	2548.303269
512.261053	2533.179808
512.625488	2518.056346
512.989866	2480.247692
513.354186	2495.371154
513.718449	2523.097500
514.082655	2505.453462
514.446803	2467.644808
514.810894	2535.700385
515.174927	2528.138654
515.538904	2505.453462
515.902822	2593.673654
516.266684	2487.809423
516.630488	2523.097500
516.994235	2482.768269
517.357925	2467.644808
517.721558	2429.836154
518.085133	2447.480192
518.448651	2480.247692
518.812112	2500.412308
519.175516	2381.945192
519.538863	2540.741538
519.902152	2497.891731
520.265385	2505.453462
520.628560	2510.494615
520.991678	2550.823846
521.354739	2439.918462
521.717743	2492.850577
522.080690	2523.097500
522.443580	2535.700385
522.806413	2480.247692
523.169189	2485.288846
523.531908	2444.959615
523.894569	2500.412308
524.257174	2538.220962
524.619722	2480.247692
524.982213	2518.056346
525.344647	2427.315577
525.707025	2495.371154
526.069345	2452.521346
526.431608	2510.494615
526.793815	2497.891731
527.155964	2523.097500
527.518057	2497.891731
527.880093	2450.000769
528.242072	2480.247692
528.603995	2437.397885
528.965860	2480.247692
529.327669	2492.850577
529.689421	2535.700385
530.051117	2505.453462
530.412755	2502.932885
530.774337	2465.124231
531.135862	2520.576923
531.497331	2487.809423
531.858743	2507.974038
532.220098	2555.865000
532.581396	2492.850577
532.942638	2560.906154
533.303824	2477.727115
533.664953	2553.344423
534.026025	2492.850577
534.387040	2450.000769
534.747999	2505.453462
535.108902	2497.891731
535.469748	2540.741538
535.830537	2490.330000
536.191270	2485.288846
536.551947	2578.550192
536.912567	2528.138654
537.273131	2586.111923
537.633638	2555.865000
537.994089	2482.768269
538.354483	2507.974038
538.714821	2558.385577
539.075103	2392.027500
539.435328	2573.509038
539.795497	2475.206538
540.155609	2472.685962
540.515665	2543.262115
540.875665	2409.671538
541.235609	2545.782692
541.595496	2528.138654
541.955328	2515.535769
542.315102	2560.906154
542.674821	2490.330000
543.034483	2513.015192
543.394090	2417.233269
543.753640	2533.179808
544.113134	2485.288846
544.472571	2520.576923
544.831953	2520.576923
545.191278	2628.961731
545.550548	2485.288846
545.909761	2492.850577
546.268918	2485.288846
546.628019	2505.453462
546.987064	2548.303269
547.346053	2482.768269
547.704986	2535.700385
548.063863	2518.056346
548.422684	2467.644808
548.781449	2502.932885
549.140158	2570.988462
549.498811	2402.109808
549.857408	2502.932885
550.215949	2432.356731
550.574434	2419.753846
550.932864	2550.823846
551.291237	2540.741538
551.649555	2586.111923
552.007817	2480.247692
552.366022	2570.988462
552.724173	2576.029615
553.082267	2424.795000
553.440305	2482.768269
553.798288	2495.371154
554.156215	2535.700385
554.514086	2568.467885
554.871902	2472.685962
555.229661	2480.247692
555.587365	2518.056346
555.945014	2447.480192
556.302606	2513.015192
556.660143	2450.000769
557.017625	2530.659231
557.375050	2402.109808
557.732421	2538.220962
558.089735	2485.288846
558.446994	2545.782692
558.804197	2444.959615
559.161345	2555.865000
559.518437	2492.850577
559.875474	2477.727115
560.232455	2457.562500
560.589381	2386.986346
560.946251	2452.521346
561.303065	2505.453462
561.659825	2618.879423
562.016528	2518.056346
562.373177	2583.591346
562.729770	2540.741538
563.086307	2523.097500
563.442789	2397.068654
563.799216	2553.344423
564.155587	2444.959615
564.511904	2500.412308
564.868164	2510.494615
565.224370	2548.303269
565.580520	2540.741538
565.936615	2432.356731
566.292654	2500.412308
566.648638	2404.630385
567.004567	2467.644808
567.360441	2520.576923
567.716260	2535.700385
568.072023	2404.630385
568.427732	2513.015192
568.783385	2513.015192
569.138982	2515.535769
569.494525	2487.809423
569.850013	2533.179808
570.205445	2480.247692
570.560823	2500.412308
570.916145	2563.426731
571.271412	2563.426731
571.626625	2535.700385
571.981782	2520.576923
572.336884	2530.659231
572.691931	2495.371154
573.046923	2505.453462
573.401860	2437.397885
573.756743	2485.288846
574.111570	2490.330000
574.466342	2553.344423
574.821059	2513.015192
575.175722	2487.809423
575.530330	2487.809423
575.884882	2475.206538
576.239380	2535.700385
576.593823	2550.823846
576.948211	2487.809423
577.302544	2583.591346
577.656823	2507.974038
578.011047	2482.768269
578.365216	2460.083077
578.719330	2568.467885
579.073389	2505.453462
579.427394	2492.850577
579.781344	2475.206538
580.135239	2525.618077
580.489080	2427.315577
580.842866	2492.850577
581.196597	2510.494615
581.550273	2507.974038
581.903895	2472.685962
582.257463	2533.179808
582.610975	2439.918462
582.964434	2500.412308
583.317837	2513.015192
583.671186	2460.083077
584.024481	2465.124231
584.377721	2480.247692
584.730906	2475.206538
585.084037	2470.165385
585.437113	2500.412308
585.790135	2573.509038
586.143103	2586.111923
586.496016	2528.138654
586.848874	2490.330000
587.201679	2525.618077
587.554428	2505.453462
587.907124	2558.385577
588.259765	2543.262115
588.612352	2520.576923
588.964884	2452.521346
589.317362	2518.056346
589.669786	2538.220962
590.022155	2374.383462
590.374470	2490.330000
590.726731	2485.288846
591.078937	2518.056346
591.431090	2477.727115
591.783188	2523.097500
592.135232	2465.124231
592.487222	2583.591346
592.839157	2583.591346
593.191038	2467.644808
593.542866	2450.000769
593.894639	2553.344423
594.246358	2450.000769
594.598022	2485.288846
594.949633	2487.809423
595.301190	2525.618077
595.652692	2480.247692
596.004141	2540.741538
596.355535	2432.356731
596.706876	2543.262115
597.058162	2452.521346
597.409395	2490.330000
597.760573	2450.000769
598.111698	2510.494615
598.462768	2525.618077
598.813785	2475.206538
599.164748	2540.741538
599.515657	2530.659231
599.866511	2414.712692
600.217312	2432.356731
600.568060	2467.644808
600.918753	2485.288846
601.269392	2525.618077
601.619978	2497.891731
601.970510	2520.576923
602.320988	2472.685962
602.671412	2533.179808
603.021783	2523.097500
603.372100	2472.685962
603.722363	2560.906154
604.072572	2510.494615
604.422728	2475.206538
604.772830	2475.206538
605.122878	2485.288846
605.472872	2495.371154
605.822813	2525.618077
606.172701	2472.685962
606.522534	2492.850577
606.872314	2538.220962
607.222041	2442.439038
607.571714	2548.303269
607.921333	2414.712692
608.270899	2460.083077
608.620411	2518.056346
608.969870	2470.165385
609.319276	2598.714808
609.668627	2462.603654
610.017926	2540.741538
610.367171	2452.521346
610.716362	2515.535769
611.065500	2578.550192
611.414585	2555.865000
611.763616	2576.029615
612.112594	2550.823846
612.461518	2513.015192
612.810389	2492.850577
613.159207	2528.138654
613.507971	2457.562500
613.856682	2570.988462
614.205340	2490.330000
614.553945	2475.206538
614.902496	2538.220962
615.250994	2452.521346
615.599439	2545.782692
615.947830	2555.865000
616.296169	2497.891731
616.644454	2462.603654
616.992686	2450.000769
617.340864	2452.521346
617.688990	2487.809423
618.037063	2412.192115
618.385082	2520.576923
618.733048	2560.906154
619.080961	2601.235385
619.428821	2538.220962
619.776628	2530.659231
620.124382	2500.412308
620.472083	2550.823846
620.819731	2540.741538
621.167326	2442.439038
621.514868	2606.276538
621.862357	2460.083077
622.209793	2515.535769
622.557176	2450.000769
622.904506	2495.371154
623.251783	2467.644808
623.599007	2485.288846
623.946179	2452.521346
624.293297	2450.000769
624.640363	2492.850577
624.987376	2452.521346
625.334336	2513.015192
625.681243	2455.041923
626.028097	2515.535769
626.374899	2480.247692
626.721647	2535.700385
627.068343	2540.741538
627.414987	2507.974038
627.761577	2507.974038
628.108115	2480.247692
628.454600	2538.220962
628.801032	2455.041923
629.147412	2543.262115
629.493739	2467.644808
629.840014	2510.494615
630.186236	2472.685962
630.532405	2513.015192
630.878521	2485.288846
631.224585	2482.768269
631.570597	2490.330000
631.916556	2439.918462
632.262462	2601.235385
632.608316	2497.891731
632.954117	2485.288846
633.299866	2560.906154
633.645562	2470.165385
633.991206	2555.865000
634.336797	2497.891731
634.682336	2533.179808
635.027823	2591.153077
635.373257	2475.206538
635.718639	2548.303269
636.063968	2507.974038
636.409245	2515.535769
636.754470	2495.371154
637.099642	2578.550192
637.444762	2502.932885
637.789829	2477.727115
638.134845	2502.932885
638.479808	2482.768269
638.824719	2437.397885
639.169577	2505.453462
639.514383	2482.768269
639.859137	2555.865000
640.203839	2591.153077
640.548489	2492.850577
640.893086	2497.891731
641.237632	2490.330000
641.582125	2497.891731
641.926566	2439.918462
642.270955	2495.371154
642.615292	2543.262115
642.959576	2525.618077
643.303809	2502.932885
643.647990	2570.988462
643.992118	2467.644808
644.336195	2525.618077
644.680219	2548.303269
645.024192	2389.506923
645.368112	2555.865000
645.711981	2462.603654
646.055797	2437.397885
646.399562	2497.891731
646.743274	2550.823846
647.086935	2437.397885
647.430544	2505.453462
647.774101	2482.768269
648.117606	2558.385577
648.461059	2535.700385
648.804460	2467.644808
649.147810	2442.439038
649.491108	2520.576923
649.834354	2543.262115
650.177548	2502.932885
650.520690	2543.262115
650.863781	2510.494615
651.206820	2505.453462
651.549807	2505.453462
651.892742	2490.330000
652.235626	2550.823846
652.578458	2429.836154
652.921238	2518.056346
653.263967	2513.015192
653.606644	2460.083077
653.949269	2465.124231
654.291843	2505.453462
654.634365	2548.303269
654.976836	2535.700385
655.319255	2545.782692
655.661622	2528.138654
656.003938	2467.644808
656.346203	2513.015192
656.688416	2361.780577
657.030577	2472.685962
657.372687	2432.356731
657.714746	2518.056346
658.056753	2485.288846
658.398708	2525.618077
658.740612	2550.823846
659.082465	2429.836154
659.424266	2528.138654
659.766016	2462.603654
660.107715	2533.179808
660.449362	2490.330000
660.790958	2384.465769
661.132503	2507.974038
661.473996	2495.371154
661.815438	2510.494615
662.156829	2429.836154
662.498168	2457.562500
662.839456	2538.220962
663.180693	2548.303269
663.521879	2444.959615
663.863013	2490.330000
664.204097	2442.439038
664.545129	2502.932885
664.886110	2528.138654
665.227040	2533.179808
665.567918	2490.330000
665.908746	2460.083077
666.249522	2439.918462
666.590248	2432.356731
666.930922	2495.371154
667.271545	2515.535769
667.612118	2414.712692
667.952639	2510.494615
668.293109	2460.083077
668.633528	2513.015192
668.973896	2573.509038
669.314213	2492.850577
669.654480	2530.659231
669.994695	2475.206538
670.334859	2510.494615
670.674973	2520.576923
671.015035	2495.371154
671.355047	2540.741538
671.695008	2513.015192
672.034918	2510.494615
672.374777	2429.836154
672.714585	2467.644808
673.054342	2535.700385
673.394049	2581.070769
673.733705	2495.371154
674.073310	2525.618077
674.412864	2502.932885
674.752368	2472.685962
675.091820	2500.412308
675.431223	2523.097500
675.770574	2422.274423
676.109875	2510.494615
676.449125	2495.371154
676.788324	2535.700385
677.127473	2485.288846
677.466571	2510.494615
677.805619	2465.124231
678.144616	2437.397885
678.483562	2467.644808
678.822458	2477.727115
679.161303	2555.865000
679.500098	2513.015192
679.838842	2457.562500
680.177535	2502.932885
680.516179	2492.850577
680.854771	2487.809423
681.193314	2545.782692
681.531805	2447.480192
681.870247	2515.535769
682.208638	2480.247692
682.546978	2523.097500
682.885268	2467.644808
683.223508	2558.385577
683.561697	2477.727115
683.899836	2490.330000
684.237925	2500.412308
684.575963	2482.768269
684.913951	2593.673654
685.251889	2528.138654
685.589776	2485.288846
685.927614	2429.836154
686.265401	2475.206538
686.603137	2515.535769
686.940824	2563.426731
687.278460	2548.303269
687.616046	2439.918462
687.953582	2558.385577
688.291068	2477.727115
688.628504	2480.247692
688.965889	2513.015192
689.303224	2515.535769
689.640510	2472.685962
689.977745	2502.932885
690.314930	2455.041923
690.652065	2550.823846
690.989150	2422.274423
691.326185	2450.000769
691.663170	2560.906154
692.000105	2583.591346
692.336990	2515.535769
692.673825	2470.165385
693.010610	2510.494615
693.347345	2495.371154
693.684030	2485.288846
694.020665	2447.480192
694.357251	2505.453462
694.693786	2455.041923
695.030272	2492.850577
695.366707	2422.274423
695.703093	2558.385577
696.039429	2558.385577
696.375716	2432.356731
696.711952	2515.535769
697.048139	2495.371154
697.384276	2507.974038
697.720363	2578.550192
698.056400	2545.782692
698.392388	2588.632500
698.728326	2563.426731
699.064214	2457.562500
699.400053	2497.891731
699.735842	2412.192115
700.071581	2487.809423
700.407270	2515.535769
700.742910	2548.303269
701.078501	2402.109808
701.414042	2510.494615
701.749533	2477.727115
702.084974	2578.550192
702.420366	2482.768269
702.755709	2490.330000
703.091002	2525.618077
703.426246	2482.768269
703.761440	2538.220962
704.096584	2565.947308
704.431679	2475.206538
704.766725	2482.768269
705.101721	2455.041923
705.436668	2518.056346
705.771565	2447.480192
706.106413	2523.097500
706.441212	2495.371154
706.775961	2467.644808
707.110661	2507.974038
707.445311	2528.138654
707.779913	2414.712692
708.114465	2492.850577
708.448967	2442.439038
708.783421	2563.426731
709.117825	2477.727115
709.452180	2583.591346
709.786485	2535.700385
710.120742	2500.412308
710.454949	2505.453462
710.789107	2598.714808
711.123216	2570.988462
711.457275	2447.480192
711.791286	2510.494615
712.125247	2563.426731
712.459159	2518.056346
712.793023	2565.947308
713.126837	2492.850577
713.460602	2490.330000
713.794318	2465.124231
714.127985	2548.303269
714.461602	2583.591346
714.795171	2555.865000
715.128691	2475.206538
715.462162	2523.097500
715.795584	2533.179808
716.128957	2419.753846
716.462281	2513.015192
716.795556	2548.303269
717.128782	2470.165385
717.461960	2490.330000
717.795088	2500.412308
718.128167	2515.535769
718.461198	2507.974038
718.794180	2485.288846
719.127113	2550.823846
719.459997	2475.206538
719.792833	2518.056346
720.125619	2482.768269
720.458357	2487.809423
720.791046	2450.000769
721.123686	2467.644808
721.456278	2422.274423
721.788821	2475.206538
722.121315	2487.809423
722.453761	2525.618077
722.786158	2397.068654
723.118506	2510.494615
723.450805	2432.356731
723.783056	2518.056346
724.115259	2472.685962
724.447412	2507.974038
724.779518	2444.959615
725.111574	2510.494615
725.443582	2482.768269
725.775542	2500.412308
726.107453	2452.521346
726.439315	2513.015192
726.771129	2525.618077
727.102895	2535.700385
727.434612	2485.288846
727.766281	2434.877308
728.097901	2540.741538
728.429473	2482.768269
728.760996	2513.015192
729.092471	2492.850577
729.423897	2477.727115
729.755276	2480.247692
730.086606	2475.206538
730.417887	2470.165385
730.749120	2490.330000
731.080305	2518.056346
731.411442	2565.947308
731.742530	2432.356731
732.073570	2535.700385
732.404562	2505.453462
732.735506	2492.850577
733.066401	2482.768269
733.397249	2485.288846
733.728048	2417.233269
734.058798	2513.015192
734.389501	2490.330000
734.720156	2429.836154
735.050762	2447.480192
735.381320	2543.262115
735.711831	2460.083077
736.042293	2490.330000
736.372707	2515.535769
736.703073	2523.097500
737.033391	2555.865000
737.363661	2490.330000
737.693883	2570.988462
738.024056	2467.644808
738.354182	2606.276538
738.684260	2402.109808
739.014290	2565.947308
739.344272	2525.618077
739.674207	2528.138654
740.004093	2487.809423
740.333931	2560.906154
740.663722	2558.385577
740.993464	2422.274423
741.323159	2437.397885
741.652806	2472.685962
741.982405	2439.918462
742.311956	2492.850577
742.641460	2465.124231
742.970915	2447.480192
743.300323	2409.671538
743.629683	2510.494615
743.958996	2465.124231
744.288260	2533.179808
744.617477	2563.426731
744.946647	2505.453462
745.275768	2485.288846
745.604842	2472.685962
745.933869	2475.206538
746.262847	2465.124231
746.591778	2437.397885
746.920662	2513.015192
747.249498	2465.124231
747.578286	2462.603654
747.907027	2437.397885
748.235720	2523.097500
748.564365	2460.083077
748.892963	2452.521346
749.221514	2515.535769
749.550017	2523.097500
749.878473	2490.330000
750.206881	2460.083077
750.535242	2394.548077
750.863555	2432.356731
751.191821	2424.795000
751.520039	2485.288846
751.848210	2485.288846
752.176334	2427.315577
752.504411	2520.576923
752.832440	2518.056346
753.160421	2548.303269
753.488356	2437.397885
753.816243	2492.850577
754.144082	2490.330000
754.471875	2497.891731
754.799620	2513.015192
755.127318	2523.097500
755.454969	2631.482308
755.782572	2505.453462
756.110129	2462.603654
756.437638	2429.836154
756.765100	2545.782692
757.092515	2495.371154
757.419882	2513.015192
757.747203	2581.070769
758.074477	2424.795000
758.401703	2573.509038
758.728882	2558.385577
759.056014	2540.741538
759.383099	2475.206538
759.710138	2492.850577
760.037129	2465.124231
760.364073	2518.056346
760.690970	2500.412308
761.017820	2502.932885
761.344623	2500.412308
761.671379	2538.220962
761.998088	2467.644808
762.324751	2455.041923
762.651366	2500.412308
762.977935	2460.083077
763.304456	2558.385577
763.630931	2467.644808
763.957359	2558.385577
764.283740	2460.083077
764.610074	2586.111923
764.936362	2583.591346
765.262602	2518.056346
765.588796	2477.727115
765.914943	2510.494615
766.241044	2442.439038
766.567097	2520.576923
766.893104	2533.179808
767.219064	2543.262115
767.544978	2535.700385
767.870845	2485.288846
768.196665	2460.083077
768.522438	2480.247692
768.848165	2540.741538
769.173846	2462.603654
769.499479	2553.344423
769.825066	2490.330000
770.150607	2490.330000
770.476101	2394.548077
770.801548	2500.412308
771.126949	2540.741538
771.452303	2470.165385
771.777611	2485.288846
772.102872	2513.015192
772.428087	2550.823846
772.753256	2394.548077
773.078378	2465.124231
773.403453	2442.439038
773.728482	2450.000769
774.053465	2444.959615
774.378401	2518.056346
774.703291	2422.274423
775.028135	2490.330000
775.352932	2485.288846
775.677683	2502.932885
776.002388	2452.521346
776.327046	2525.618077
776.651658	2475.206538
776.976224	2467.644808
777.300743	2394.548077
777.625216	2520.576923
777.949643	2538.220962
778.274024	2467.644808
778.598359	2492.850577
778.922647	2533.179808
779.246889	2424.795000
779.571086	2548.303269
779.895236	2497.891731
780.219339	2450.000769
780.543397	2525.618077
780.867409	2381.945192
781.191374	2507.974038
781.515294	2412.192115
781.839167	2565.947308
782.162995	2573.509038
782.486776	2535.700385
782.810511	2518.056346
783.134201	2505.453462
783.457844	2598.714808
783.781441	2480.247692
784.104993	2452.521346
784.428498	2467.644808
784.751958	2513.015192
785.075372	2528.138654
785.398739	2545.782692
785.722061	2525.618077
786.045337	2392.027500
786.368568	2545.782692
786.691752	2513.015192
787.014891	2482.768269
787.337983	2482.768269
787.661030	2444.959615
787.984031	2482.768269
788.306987	2480.247692
788.629897	2399.589231
788.952760	2490.330000
789.275579	2543.262115
789.598351	2480.247692
789.921078	2545.782692
790.243759	2530.659231
790.566395	2404.630385
790.888984	2520.576923
791.211529	2419.753846
791.534027	2497.891731
791.856480	2505.453462
792.178888	2553.344423
792.501249	2565.947308
792.823566	2419.753846
793.145836	2523.097500
793.468062	2437.397885
793.790241	2520.576923
794.112375	2487.809423
794.434464	2570.988462
794.756507	2520.576923
795.078505	2457.562500
795.400457	2444.959615
795.722364	2563.426731
796.044226	2434.877308
796.366042	2424.795000
796.687812	2397.068654
797.009538	2573.509038
797.331218	2465.124231
797.652852	2513.015192
797.974442	2442.439038
798.295986	2447.480192
798.617484	2586.111923
798.938938	2523.097500
799.260346	2515.535769
799.581709	2545.782692
799.903026	2442.439038
800.224299	2507.974038
800.545526	2455.041923
800.866708	2528.138654
801.187845	2472.685962
801.508936	2520.576923
801.829983	2528.138654
802.150984	2437.397885
802.471940	2523.097500
802.792851	2525.618077
803.113717	2535.700385
803.434538	2507.974038
803.755314	2472.685962
804.076045	2419.753846
804.396731	2518.056346
804.717372	2462.603654
805.037967	2558.385577
805.358518	2515.535769
805.679024	2500.412308
805.999485	2497.891731
806.319901	2535.700385
806.640272	2507.974038
806.960598	2467.644808
807.280879	2455.041923
807.601115	2467.644808
807.921306	2563.426731
808.241453	2472.685962
808.561554	2523.097500
808.881611	2477.727115
809.201623	2502.932885
809.521590	2414.712692
809.841513	2495.371154
810.161390	2434.877308
810.481223	2452.521346
810.801011	2460.083077
811.120755	2553.344423
811.440453	2568.467885
811.760107	2528.138654
812.079716	2480.247692
812.399281	2525.618077
812.718801	2525.618077
813.038276	2397.068654
813.357707	2497.891731
813.677093	2460.083077
813.996434	2407.150962
814.315731	2538.220962
814.634983	2467.644808
814.954191	2533.179808
815.273354	2470.165385
815.592473	2462.603654
815.911547	2543.262115
816.230577	2548.303269
816.549562	2520.576923
816.868502	2485.288846
817.187399	2500.412308
817.506250	2530.659231
817.825058	2523.097500
818.143821	2460.083077
818.462539	2462.603654
818.781213	2530.659231
819.099843	2505.453462
819.418429	2434.877308
819.736970	2434.877308
820.055466	2520.576923
820.373919	2505.453462
820.692327	2623.920577
821.010691	2497.891731
821.329011	2477.727115
821.647286	2429.836154
821.965517	2432.356731
822.283704	2570.988462
822.601847	2502.932885
822.919945	2477.727115
823.237999	2540.741538
823.556010	2485.288846
823.873976	2510.494615
824.191897	2510.494615
824.509775	2568.467885
824.827609	2540.741538
825.145398	2427.315577
825.463144	2505.453462
825.780845	2394.548077
826.098502	2513.015192
826.416116	2450.000769
826.733685	2462.603654
827.051210	2452.521346
827.368692	2467.644808
827.686129	2470.165385
828.003522	2500.412308
828.320872	2465.124231
828.638177	2394.548077
828.955439	2543.262115
829.272656	2460.083077
829.589830	2465.124231
829.906960	2482.768269
830.224046	2558.385577
830.541088	2439.918462
830.858086	2530.659231
831.175041	2467.644808
831.491952	2424.795000
831.808819	2477.727115
832.125642	2500.412308
832.442421	2515.535769
832.759157	2533.179808
833.075849	2502.932885
833.392497	2543.262115
833.709101	2490.330000
834.025662	2507.974038
834.342179	2530.659231
834.658653	2465.124231
834.975083	2515.535769
835.291469	2455.041923
835.607811	2523.097500
835.924110	2535.700385
836.240366	2412.192115
836.556578	2477.727115
836.872746	2407.150962
837.188871	2460.083077
837.504952	2462.603654
837.820990	2535.700385
838.136984	2467.644808
838.452935	2513.015192
838.768842	2550.823846
839.084706	2510.494615
839.400526	2497.891731
839.716303	2513.015192
840.032037	2505.453462
840.347727	2439.918462
840.663373	2495.371154
840.978977	2502.932885
841.294537	2455.041923
841.610054	2462.603654
841.925527	2465.124231
842.240957	2442.439038
842.556344	2480.247692
842.871687	2477.727115
843.186987	2510.494615
843.502244	2452.521346
843.817458	2505.453462
844.132629	2424.795000
844.447756	2502.932885
844.762840	2525.618077
845.077881	2480.247692
845.392879	2437.397885
845.707833	2492.850577
846.022745	2460.083077
846.337613	2452.521346
846.652438	2505.453462
846.967221	2502.932885
847.281960	2450.000769
847.596656	2520.576923
847.911309	2450.000769
848.225919	2462.603654
848.540485	2510.494615
848.855009	2530.659231
849.169490	2540.741538
849.483928	2414.712692
849.798323	2576.029615
850.112675	2525.618077
850.426984	2434.877308
850.741251	2515.535769
851.055474	2472.685962
851.369654	2507.974038
851.683792	2427.315577
851.997887	2502.932885
852.311938	2402.109808
852.625947	2490.330000
852.939914	2588.632500
853.253837	2482.768269
853.567718	2530.659231
853.881555	2455.041923
854.195350	2545.782692
854.509103	2533.179808
854.822812	2444.959615
855.136479	2525.618077
855.450103	2467.644808
855.763685	2528.138654
856.077224	2515.535769
856.390720	2482.768269
856.704173	2452.521346
857.017584	2513.015192
857.330953	2477.727115
857.644278	2497.891731
857.957561	2470.165385
858.270802	2525.618077
858.584000	2424.795000
858.897155	2538.220962
859.210268	2462.603654
859.523339	2520.576923
859.836367	2492.850577
860.149352	2487.809423
860.462295	2528.138654
860.775195	2394.548077
861.088054	2419.753846
861.400869	2465.124231
861.713642	2467.644808
862.026373	2528.138654
862.339062	2462.603654
862.651708	2444.959615
862.964312	2538.220962
863.276873	2462.603654
863.589392	2523.097500
863.901869	2470.165385
864.214303	2442.439038
864.526696	2492.850577
864.839045	2475.206538
865.151353	2414.712692
865.463619	2465.124231
865.775842	2460.083077
866.088023	2399.589231
866.400162	2472.685962
866.712258	2502.932885
867.024313	2603.755962
867.336325	2500.412308
867.648296	2490.330000
867.960224	2419.753846
868.272110	2485.288846
868.583954	2404.630385
868.895755	2591.153077
869.207515	2480.247692
869.519233	2525.618077
869.830909	2417.233269
870.142542	2548.303269
870.454134	2429.836154
870.765684	2490.330000
871.077191	2538.220962
871.388657	2487.809423
871.700081	2533.179808
872.011463	2369.342308
872.322803	2480.247692
872.634101	2513.015192
872.945357	2563.426731
873.256571	2500.412308
873.567744	2515.535769
873.878874	2434.877308
874.189963	2545.782692
874.501010	2606.276538
874.812015	2525.618077
875.122979	2523.097500
875.433900	2492.850577
875.744780	2548.303269
876.055618	2492.850577
876.366415	2518.056346
876.677169	2389.506923
876.987882	2490.330000
877.298554	2472.685962
877.609183	2480.247692
877.919771	2427.315577
878.230317	2520.576923
878.540822	2485.288846
878.851285	2470.165385
879.161707	2540.741538
879.472087	2507.974038
879.782425	2505.453462
880.092722	2528.138654
880.402977	2460.083077
880.713191	2570.988462
881.023363	2442.439038
881.333494	2457.562500
881.643583	2487.809423
881.953631	2540.741538
882.263637	2520.576923
882.573602	2465.124231
882.883526	2518.056346
883.193408	2402.109808
883.503248	2379.424615
883.813048	2505.453462
884.122806	2402.109808
884.432522	2407.150962
884.742197	2480.247692
885.051831	2495.371154
885.361424	2412.192115
885.670975	2500.412308
885.980485	2477.727115
886.289954	2596.194231
886.599382	2462.603654
886.908768	2510.494615
887.218113	2450.000769
887.527417	2533.179808
887.836680	2432.356731
888.145901	2480.247692
888.455082	2480.247692
888.764221	2535.700385
889.073319	2409.671538
889.382376	2495.371154
889.691392	2550.823846
890.000366	2455.041923
890.309300	2523.097500
890.618193	2485.288846
890.927044	2538.220962
891.235855	2450.000769
891.544625	2492.850577
891.853353	2470.165385
892.162041	2502.932885
892.470687	2457.562500
892.779293	2475.206538
893.087858	2530.659231
893.396381	2475.206538
893.704864	2460.083077
894.013306	2492.850577
894.321707	2447.480192
894.630068	2515.535769
894.938387	2558.385577
895.246665	2485.288846
895.554903	2480.247692
895.863100	2507.974038
896.171256	2452.521346
896.479371	2462.603654
896.787446	2563.426731
897.095480	2550.823846
897.403473	2502.932885
897.711425	2434.877308
898.019336	2555.865000
898.327207	2470.165385
898.635038	2520.576923
898.942827	2434.877308
899.250576	2502.932885
899.558284	2442.439038
899.865952	2545.782692
900.173579	2565.947308
900.481165	2513.015192
900.788711	2384.465769
901.096216	2535.700385
901.403681	2482.768269
901.711105	2492.850577
902.018489	2465.124231
902.325832	2563.426731
902.633135	2447.480192
902.940397	2510.494615
903.247619	2424.795000
903.554800	2543.262115
903.861941	2555.865000
904.169041	2487.809423
904.476101	2490.330000
904.783121	2492.850577
905.090100	2495.371154
905.397039	2482.768269
905.703938	2558.385577
906.010796	2495.371154
906.317614	2455.041923
906.624391	2487.809423
906.931129	2480.247692
907.237826	2397.068654
907.544483	2447.480192
907.851099	2548.303269
908.157675	2447.480192
908.464211	2530.659231
908.770707	2568.467885
909.077163	2457.562500
909.383578	2472.685962
909.689954	2482.768269
909.996289	2419.753846
910.302584	2402.109808
910.608839	2502.932885
910.915054	2495.371154
911.221229	2515.535769
911.527363	2520.576923
911.833458	2505.453462
912.139513	2394.548077
912.445527	2482.768269
912.751502	2467.644808
913.057436	2490.330000
913.363331	2487.809423
913.669186	2502.932885
913.975000	2505.453462
914.280775	2538.220962
914.586510	2470.165385
914.892205	2507.974038
915.197859	2500.412308
915.503475	2467.644808
915.809050	2507.974038
916.114585	2535.700385
916.420081	2502.932885
916.725536	2530.659231
917.030952	2598.714808
917.336328	2558.385577
917.641665	2452.521346
917.946961	2480.247692
918.252218	2515.535769
918.557435	2538.220962
918.862612	2437.397885
919.167750	2364.301154
919.472848	2434.877308
919.777906	2452.521346
920.082925	2593.673654
920.387904	2502.932885
920.692843	2553.344423
920.997743	2487.809423
921.302603	2555.865000
921.607423	2495.371154
921.912204	2520.576923
922.216946	2480.247692
922.521647	2548.303269
922.826310	2482.768269
923.130932	2553.344423
923.435516	2460.083077
923.740059	2424.795000
924.044564	2513.015192
924.349028	2424.795000
924.653454	2460.083077
924.957840	2465.124231
925.262186	2513.015192
925.566493	2470.165385
925.870761	2558.385577
926.174989	2545.782692
926.479178	2543.262115
926.783328	2470.165385
927.087438	2510.494615
927.391509	2538.220962
927.695541	2482.768269
927.999533	2470.165385
928.303486	2359.260000
928.607400	2460.083077
928.911275	2502.932885
929.215110	2475.206538
929.518906	2485.288846
929.822663	2384.465769
930.126381	2510.494615
930.430060	2490.330000
930.733699	2507.974038
931.037299	2472.685962
931.340861	2533.179808
931.644383	2500.412308
931.947866	2450.000769
932.251309	2467.644808
932.554714	2455.041923
932.858080	2429.836154
933.161407	2515.535769
933.464694	2439.918462
933.767943	2513.015192
934.071153	2523.097500
934.374323	2475.206538
934.677455	2538.220962
934.980548	2480.247692
935.283602	2475.206538
935.586617	2465.124231
935.889593	2573.509038
936.192530	2472.685962
936.495428	2389.506923
936.798287	2543.262115
937.101108	2523.097500
937.403890	2475.206538
937.706632	2515.535769
938.009336	2455.041923
938.312002	2510.494615
938.614628	2424.795000
938.917216	2593.673654
939.219765	2392.027500
939.522275	2457.562500
939.824747	2515.535769
940.127179	2513.015192
940.429573	2384.465769
940.731929	2460.083077
941.034246	2422.274423
941.336524	2452.521346
941.638763	2525.618077
941.940964	2558.385577
942.243126	2545.782692
942.545250	2495.371154
942.847335	2490.330000
943.149381	2412.192115
943.451389	2568.467885
943.753359	2447.480192
944.055290	2513.015192
944.357182	2530.659231
944.659036	2530.659231
944.960851	2442.439038
945.262628	2487.809423
945.564367	2470.165385
945.866067	2424.795000
946.167729	2444.959615
946.469352	2470.165385
946.770937	2457.562500
947.072484	2475.206538
947.373992	2432.356731
947.675462	2427.315577
947.976893	2500.412308
948.278286	2523.097500
948.579641	2553.344423
948.880958	2560.906154
949.182236	2548.303269
949.483476	2560.906154
949.784678	2480.247692
950.085841	2444.959615
950.386967	2510.494615
950.688054	2407.150962
950.989103	2540.741538
951.290114	2490.330000
951.591087	2497.891731
951.892021	2460.083077
952.192917	2578.550192
952.493776	2510.494615
952.794596	2545.782692
953.095378	2417.233269
953.396122	2505.453462
953.696828	2507.974038
953.997496	2545.782692
954.298126	2467.644808
954.598718	2482.768269
954.899272	2497.891731
955.199788	2462.603654
955.500266	2437.397885
955.800706	2482.768269
956.101108	2586.111923
956.401472	2497.891731
956.701798	2545.782692
957.002087	2487.809423
957.302337	2480.247692
957.602550	2482.768269
957.902724	2568.467885
958.202861	2548.303269
958.502960	2518.056346
958.803022	2460.083077
959.103045	2409.671538
959.403031	2563.426731
959.702979	2518.056346
960.002889	2472.685962
960.302762	2475.206538
960.602596	2394.548077
960.902393	2515.535769
961.202153	2432.356731
961.501875	2495.371154
961.801559	2482.768269
962.101205	2482.768269
962.400814	2462.603654
962.700385	2510.494615
962.999918	2477.727115
963.299414	2450.000769
963.598873	2465.124231
963.898293	2460.083077
964.197677	2460.083077
964.497022	2507.974038
964.796331	2450.000769
965.095601	2492.850577
965.394835	2470.165385
965.694030	2480.247692
965.993189	2492.850577
966.292309	2520.576923
966.591393	2485.288846
966.890439	2530.659231
967.189447	2525.618077
967.488419	2550.823846
967.787353	2530.659231
968.086249	2487.809423
968.385108	2439.918462
968.683930	2507.974038
968.982714	2530.659231
969.281462	2525.618077
969.580172	2513.015192
969.878844	2465.124231
970.177480	2553.344423
970.476078	2470.165385
970.774639	2518.056346
971.073162	2465.124231
971.371649	2507.974038
971.670098	2495.371154
971.968510	2510.494615
972.266885	2417.233269
972.565223	2447.480192
972.863524	2427.315577
973.161788	2492.850577
973.460014	2455.041923
973.758204	2392.027500
974.056356	2533.179808
974.354471	2528.138654
974.652550	2485.288846
974.950591	2417.233269
975.248595	2581.070769
975.546563	2450.000769
975.844493	2523.097500
976.142386	2563.426731
976.440243	2462.603654
976.738062	2480.247692
977.035845	2555.865000
977.333590	2515.535769
977.631299	2550.823846
977.928971	2470.165385
978.226606	2515.535769
978.524204	2432.356731
978.821765	2487.809423
979.119290	2525.618077
979.416777	2540.741538
979.714228	2492.850577
980.011642	2525.618077
980.309020	2492.850577
980.606360	2477.727115
980.903664	2505.453462
981.200931	2460.083077
981.498162	2462.603654
981.795356	2520.576923
982.092513	2452.521346
982.389633	2513.015192
982.686717	2485.288846
982.983764	2545.782692
983.280775	2525.618077
983.577749	2450.000769
983.874686	2490.330000
984.171587	2487.809423
984.468451	2492.850577
984.765279	2507.974038
985.062070	2424.795000
985.358824	2500.412308
985.655543	2467.644808
985.952224	2505.453462
986.248869	2392.027500
986.545478	2528.138654
986.842050	2505.453462
987.138586	2563.426731
987.435086	2507.974038
987.731549	2525.618077
988.027975	2523.097500
988.324366	2543.262115
988.620719	2495.371154
988.917037	2477.727115
989.213318	2482.768269
989.509563	2470.165385
989.805772	2510.494615
990.101944	2452.521346
990.398080	2492.850577
990.694180	2444.959615
990.990244	2525.618077
991.286271	2470.165385
991.582262	2515.535769
991.878217	2404.630385
992.174136	2467.644808
992.470019	2518.056346
992.765865	2505.453462
993.061676	2487.809423
993.357450	2457.562500
993.653188	2507.974038
993.948890	2538.220962
994.244556	2467.644808
994.540186	2518.056346
994.835780	2432.356731
995.131337	2518.056346
995.426859	2523.097500
995.722345	2528.138654
996.017795	2442.439038
996.313208	2450.000769
996.608586	2457.562500
996.903928	2485.288846
997.199234	2523.097500
997.494504	2500.412308
997.789738	2505.453462
998.084936	2487.809423
998.380099	2497.891731
998.675225	2500.412308
998.970316	2515.535769
999.265371	2467.644808
999.560390	2487.809423
999.855373	2447.480192
1000.150320	2485.288846
1000.445232	2376.904038
1000.740108	2518.056346
1001.034948	2477.727115
1001.329752	2452.521346
1001.624521	2477.727115
1001.919254	2523.097500
1002.213951	2432.356731
1002.508613	2402.109808
1002.803239	2515.535769
1003.097829	2558.385577
1003.392384	2470.165385
1003.686903	2565.947308
1003.981386	2450.000769
1004.275834	2467.644808
1004.570246	2553.344423
1004.864623	2460.083077
1005.158964	2482.768269
1005.453270	2414.712692
1005.747540	2447.480192
1006.041775	2409.671538
1006.335974	2434.877308
1006.630138	2455.041923
1006.924266	2507.974038
1007.218359	2497.891731
1007.512416	2485.288846
1007.806438	2502.932885
1008.100425	2447.480192
1008.394376	2492.850577
1008.688292	2477.727115
1008.982172	2513.015192
1009.276017	2560.906154
1009.569827	2492.850577
1009.863602	2505.453462
1010.157341	2417.233269
1010.451045	2510.494615
1010.744714	2530.659231
1011.038347	2470.165385
1011.331945	2447.480192
1011.625508	2502.932885
1011.919036	2450.000769
1012.212528	2570.988462
1012.505986	2515.535769
1012.799408	2588.632500
1013.092795	2465.124231
1013.386147	2399.589231
1013.679464	2495.371154
1013.972745	2437.397885
1014.265992	2472.685962
1014.559204	2497.891731
1014.852380	2439.918462
1015.145521	2523.097500
1015.438628	2432.356731
1015.731699	2535.700385
1016.024736	2452.521346
1016.317737	2470.165385
1016.610703	2570.988462
1016.903635	2475.206538
1017.196531	2492.850577
1017.489393	2480.247692
1017.782219	2450.000769
1018.075011	2475.206538
1018.367768	2507.974038
1018.660490	2480.247692
1018.953177	2480.247692
1019.245829	2480.247692
