Dividing Wavelength (nm)	Counts (n)	Blue Motor Position (mm): 4.300000	Red Motor Position (mm): 0.000000	
326.493990	2087.037692
326.888308	2087.037692
327.282561	2087.037692
327.676750	2049.229038
328.070874	2046.708462
328.464933	2066.873077
328.858929	2079.475962
329.252859	2034.105577
329.646726	2177.778462
330.040528	2036.626154
330.434265	2157.613846
330.827938	2071.914231
331.221547	2124.846346
331.615091	2162.655000
332.008571	2208.025385
332.401986	2187.860769
332.795338	2165.175577
333.188625	2210.545962
333.581847	2291.204423
333.975006	2313.889615
334.368100	2248.354615
334.761129	2321.451346
335.154095	2344.136538
335.546996	2323.971923
335.939833	2381.945192
336.332606	2354.218846
336.725315	2389.506923
337.117960	2442.439038
337.510540	2477.727115
337.903056	2419.753846
338.295508	2336.574808
338.687896	2414.712692
339.080220	2379.424615
339.472480	2422.274423
339.864676	2419.753846
340.256807	2472.685962
340.648875	2492.850577
341.040879	2500.412308
341.432818	2465.124231
341.824694	2505.453462
342.216506	2525.618077
342.608253	2505.453462
342.999937	2465.124231
343.391557	2528.138654
343.783113	2447.480192
344.174605	2472.685962
344.566033	2548.303269
344.957397	2427.315577
345.348697	2543.262115
345.739934	2477.727115
346.131106	2424.795000
346.522215	2386.986346
346.913260	2432.356731
347.304241	2465.124231
347.695159	2507.974038
348.086012	2482.768269
348.476802	2452.521346
348.867528	2455.041923
349.258191	2457.562500
349.648789	2528.138654
350.039324	2460.083077
350.429796	2460.083077
350.820203	2381.945192
351.210548	2366.821731
351.600828	2447.480192
351.991045	2465.124231
352.381198	2465.124231
352.771288	2439.918462
353.161314	2457.562500
353.551276	2397.068654
353.941175	2417.233269
354.331010	2457.562500
354.720782	2434.877308
355.110490	2482.768269
355.500135	2321.451346
355.889717	2376.904038
356.279235	2407.150962
356.668689	2427.315577
357.058080	2409.671538
357.447408	2434.877308
357.836672	2432.356731
358.225873	2452.521346
358.615010	2452.521346
359.004084	2450.000769
359.393095	2371.862885
359.782043	2490.330000
360.170927	2480.247692
360.559748	2450.000769
360.948505	2414.712692
361.337199	2470.165385
361.725830	2485.288846
362.114398	2485.288846
362.502903	2429.836154
362.891344	2518.056346
363.279722	2424.795000
363.668037	2432.356731
364.056289	2523.097500
364.444478	2475.206538
364.832603	2482.768269
365.220665	2462.603654
365.608665	2470.165385
365.996601	2465.124231
366.384474	2502.932885
366.772284	2394.548077
367.160031	2419.753846
367.547715	2424.795000
367.935336	2437.397885
368.322893	2424.795000
368.710388	2376.904038
369.097820	2515.535769
369.485189	2523.097500
369.872495	2447.480192
370.259738	2442.439038
370.646918	2528.138654
371.034035	2528.138654
371.421090	2455.041923
371.808081	2427.315577
372.195010	2465.124231
372.581875	2442.439038
372.968678	2477.727115
373.355418	2437.397885
373.742096	2548.303269
374.128710	2422.274423
374.515262	2540.741538
374.901751	2568.467885
375.288177	2472.685962
375.674540	2422.274423
376.060841	2439.918462
376.447079	2485.288846
376.833254	2412.192115
377.219367	2444.959615
377.605417	2424.795000
377.991404	2369.342308
378.377329	2467.644808
378.763191	2429.836154
379.148991	2462.603654
379.534727	2477.727115
379.920402	2450.000769
380.306013	2507.974038
380.691563	2455.041923
381.077049	2460.083077
381.462474	2437.397885
381.847835	2414.712692
382.233134	2502.932885
382.618371	2442.439038
383.003545	2439.918462
383.388657	2497.891731
383.773706	2447.480192
384.158693	2414.712692
384.543618	2439.918462
384.928480	2500.412308
385.313280	2437.397885
385.698017	2482.768269
386.082692	2477.727115
386.467305	2485.288846
386.851856	2384.465769
387.236344	2472.685962
387.620770	2485.288846
388.005133	2467.644808
388.389435	2407.150962
388.773674	2452.521346
389.157851	2525.618077
389.541965	2477.727115
389.926018	2477.727115
390.310008	2518.056346
390.693936	2465.124231
391.077802	2452.521346
391.461606	2452.521346
391.845348	2502.932885
392.229027	2442.439038
392.612645	2523.097500
392.996200	2419.753846
393.379694	2510.494615
393.763125	2515.535769
394.146494	2515.535769
394.529801	2530.659231
394.913047	2565.947308
395.296230	2480.247692
395.679351	2492.850577
396.062410	2437.397885
396.445408	2485.288846
396.828343	2482.768269
397.211217	2570.988462
397.594028	2485.288846
397.976778	2467.644808
398.359466	2422.274423
398.742092	2404.630385
399.124656	2555.865000
399.507158	2462.603654
399.889598	2472.685962
400.271977	2439.918462
400.654294	2477.727115
401.036549	2397.068654
401.418742	2495.371154
401.800874	2505.453462
402.182944	2470.165385
402.564952	2472.685962
402.946898	2548.303269
403.328783	2437.397885
403.710606	2442.439038
404.092367	2525.618077
404.474067	2455.041923
404.855705	2392.027500
405.237282	2437.397885
405.618797	2419.753846
406.000250	2518.056346
406.381642	2492.850577
406.762972	2434.877308
407.144240	2497.891731
407.525447	2495.371154
407.906593	2437.397885
408.287677	2460.083077
408.668700	2523.097500
409.049661	2462.603654
409.430560	2523.097500
409.811399	2442.439038
410.192176	2475.206538
410.572891	2470.165385
410.953545	2409.671538
411.334138	2455.041923
411.714669	2480.247692
412.095139	2518.056346
412.475547	2394.548077
412.855894	2495.371154
413.236180	2447.480192
413.616405	2545.782692
413.996568	2462.603654
414.376670	2523.097500
414.756711	2412.192115
415.136691	2462.603654
415.516609	2437.397885
415.896466	2470.165385
416.276262	2465.124231
416.655997	2490.330000
417.035670	2470.165385
417.415283	2432.356731
417.794834	2495.371154
418.174324	2366.821731
418.553753	2560.906154
418.933121	2424.795000
419.312428	2444.959615
419.691674	2447.480192
420.070859	2518.056346
420.449983	2460.083077
420.829045	2447.480192
421.208047	2492.850577
421.586988	2437.397885
421.965867	2467.644808
422.344686	2450.000769
422.723444	2432.356731
423.102141	2490.330000
423.480777	2427.315577
423.859352	2432.356731
424.237866	2374.383462
424.616319	2470.165385
424.994712	2520.576923
425.373044	2437.397885
425.751314	2480.247692
426.129524	2492.850577
426.507673	2460.083077
426.885762	2485.288846
427.263789	2417.233269
427.641756	2475.206538
428.019662	2530.659231
428.397508	2525.618077
428.775292	2432.356731
429.153016	2548.303269
429.530679	2422.274423
429.908282	2540.741538
430.285824	2437.397885
430.663305	2485.288846
431.040726	2452.521346
431.418086	2419.753846
431.795385	2470.165385
432.172624	2457.562500
432.549802	2492.850577
432.926920	2480.247692
433.303977	2535.700385
433.680974	2525.618077
434.057910	2538.220962
434.434786	2485.288846
434.811601	2520.576923
435.188355	2412.192115
435.565050	2502.932885
435.941683	2462.603654
436.318257	2543.262115
436.694770	2576.029615
437.071222	2470.165385
437.447614	2510.494615
437.823946	2439.918462
438.200218	2515.535769
438.576429	2467.644808
438.952580	2500.412308
439.328670	2434.877308
439.704700	2460.083077
440.080670	2422.274423
440.456580	2472.685962
440.832429	2455.041923
441.208218	2538.220962
441.583947	2465.124231
441.959616	2520.576923
442.335224	2460.083077
442.710773	2497.891731
443.086261	2513.015192
443.461689	2472.685962
443.837057	2510.494615
444.212365	2505.453462
444.587612	2477.727115
444.962800	2520.576923
445.337927	2505.453462
445.712995	2465.124231
446.088002	2361.780577
446.462949	2523.097500
446.837837	2450.000769
447.212664	2497.891731
447.587431	2487.809423
447.962139	2500.412308
448.336786	2444.959615
448.711374	2500.412308
449.085901	2472.685962
449.460369	2502.932885
449.834776	2439.918462
450.209124	2492.850577
450.583412	2520.576923
450.957640	2465.124231
451.331808	2505.453462
451.705917	2475.206538
452.079965	2470.165385
452.453954	2581.070769
452.827883	2452.521346
453.201752	2558.385577
453.575562	2548.303269
453.949311	2394.548077
454.323001	2475.206538
454.696632	2490.330000
455.070202	2523.097500
455.443713	2462.603654
455.817164	2472.685962
456.190556	2467.644808
456.563888	2515.535769
456.937160	2500.412308
457.310373	2465.124231
457.683526	2429.836154
458.056619	2507.974038
458.429653	2457.562500
458.802628	2505.453462
459.175542	2462.603654
459.548398	2500.412308
459.921194	2502.932885
460.293930	2482.768269
460.666607	2432.356731
461.039224	2520.576923
461.411782	2470.165385
461.784280	2500.412308
462.156719	2581.070769
462.529099	2475.206538
462.901419	2500.412308
463.273680	2460.083077
463.645882	2460.083077
464.018024	2515.535769
464.390106	2492.850577
464.762130	2490.330000
465.134094	2465.124231
465.505999	2465.124231
465.877845	2492.850577
466.249631	2530.659231
466.621358	2475.206538
466.993026	2462.603654
467.364634	2452.521346
467.736184	2510.494615
468.107674	2419.753846
468.479105	2467.644808
468.850477	2545.782692
469.221790	2465.124231
469.593043	2475.206538
469.964238	2465.124231
470.335373	2467.644808
470.706449	2462.603654
471.077467	2477.727115
471.448425	2487.809423
471.819324	2583.591346
472.190164	2513.015192
472.560945	2576.029615
472.931667	2447.480192
473.302330	2538.220962
473.672934	2540.741538
474.043479	2475.206538
474.413965	2533.179808
474.784393	2518.056346
475.154761	2477.727115
475.525070	2525.618077
475.895321	2523.097500
476.265513	2576.029615
476.635645	2482.768269
477.005719	2432.356731
477.375734	2392.027500
477.745691	2515.535769
478.115588	2497.891731
478.485427	2515.535769
478.855207	2540.741538
479.224928	2374.383462
479.594591	2457.562500
479.964194	2467.644808
480.333739	2553.344423
480.703226	2495.371154
481.072653	2523.097500
481.442022	2462.603654
481.811333	2472.685962
482.180584	2465.124231
482.549777	2513.015192
482.918912	2540.741538
483.287988	2495.371154
483.657005	2550.823846
484.025964	2502.932885
484.394864	2475.206538
484.763706	2429.836154
485.132489	2497.891731
485.501213	2460.083077
485.869879	2480.247692
486.238487	2543.262115
486.607036	2460.083077
486.975527	2573.509038
487.343959	2485.288846
487.712333	2444.959615
488.080648	2460.083077
488.448905	2540.741538
488.817104	2444.959615
489.185244	2442.439038
489.553326	2528.138654
489.921350	2429.836154
490.289315	2570.988462
490.657222	2568.467885
491.025070	2444.959615
491.392861	2487.809423
491.760593	2455.041923
492.128267	2515.535769
492.495883	2477.727115
492.863440	2507.974038
493.230939	2502.932885
493.598380	2593.673654
493.965763	2447.480192
494.333088	2502.932885
494.700354	2477.727115
495.067563	2505.453462
495.434713	2460.083077
495.801805	2553.344423
496.168839	2505.453462
496.535815	2462.603654
496.902733	2558.385577
497.269593	2475.206538
497.636395	2460.083077
498.003139	2472.685962
498.369825	2495.371154
498.736453	2437.397885
499.103023	2482.768269
499.469535	2520.576923
499.835989	2505.453462
500.202385	2507.974038
500.568723	2618.879423
500.935003	2485.288846
501.301226	2490.330000
501.667390	2402.109808
502.033497	2417.233269
502.399546	2518.056346
502.765537	2513.015192
503.131470	2485.288846
503.497345	2495.371154
503.863163	2492.850577
504.228923	2437.397885
504.594625	2515.535769
504.960269	2513.015192
505.325856	2507.974038
505.691385	2515.535769
506.056856	2472.685962
506.422270	2518.056346
506.787625	2500.412308
507.152924	2558.385577
507.518164	2472.685962
507.883347	2505.453462
508.248472	2553.344423
508.613540	2470.165385
508.978550	2598.714808
509.343503	2450.000769
509.708398	2613.838269
510.073236	2515.535769
510.438016	2510.494615
510.802738	2477.727115
511.167403	2495.371154
511.532010	2475.206538
511.896561	2578.550192
512.261053	2465.124231
512.625488	2518.056346
512.989866	2457.562500
513.354186	2518.056346
513.718449	2447.480192
514.082655	2528.138654
514.446803	2477.727115
514.810894	2523.097500
515.174927	2462.603654
515.538904	2543.262115
515.902822	2543.262115
516.266684	2502.932885
516.630488	2505.453462
516.994235	2505.453462
517.357925	2586.111923
517.721558	2485.288846
518.085133	2495.371154
518.448651	2437.397885
518.812112	2462.603654
519.175516	2457.562500
519.538863	2482.768269
519.902152	2528.138654
520.265385	2507.974038
520.628560	2555.865000
520.991678	2528.138654
521.354739	2565.947308
521.717743	2467.644808
522.080690	2487.809423
522.443580	2457.562500
522.806413	2492.850577
523.169189	2513.015192
523.531908	2623.920577
523.894569	2507.974038
524.257174	2497.891731
524.619722	2550.823846
524.982213	2429.836154
525.344647	2530.659231
525.707025	2457.562500
526.069345	2497.891731
526.431608	2495.371154
526.793815	2560.906154
527.155964	2424.795000
527.518057	2502.932885
527.880093	2502.932885
528.242072	2528.138654
528.603995	2510.494615
528.965860	2437.397885
529.327669	2505.453462
529.689421	2455.041923
530.051117	2467.644808
530.412755	2485.288846
530.774337	2482.768269
531.135862	2462.603654
531.497331	2502.932885
531.858743	2543.262115
532.220098	2422.274423
532.581396	2565.947308
532.942638	2581.070769
533.303824	2450.000769
533.664953	2480.247692
534.026025	2429.836154
534.387040	2523.097500
534.747999	2470.165385
535.108902	2515.535769
535.469748	2560.906154
535.830537	2505.453462
536.191270	2545.782692
536.551947	2495.371154
536.912567	2553.344423
537.273131	2424.795000
537.633638	2351.698269
537.994089	2528.138654
538.354483	2487.809423
538.714821	2510.494615
539.075103	2482.768269
539.435328	2570.988462
539.795497	2477.727115
540.155609	2538.220962
540.515665	2470.165385
540.875665	2485.288846
541.235609	2515.535769
541.595496	2482.768269
541.955328	2447.480192
542.315102	2545.782692
542.674821	2487.809423
543.034483	2502.932885
543.394090	2384.465769
543.753640	2523.097500
544.113134	2477.727115
544.472571	2482.768269
544.831953	2480.247692
545.191278	2507.974038
545.550548	2550.823846
545.909761	2472.685962
546.268918	2465.124231
546.628019	2555.865000
546.987064	2402.109808
547.346053	2450.000769
547.704986	2581.070769
548.063863	2472.685962
548.422684	2477.727115
548.781449	2535.700385
549.140158	2434.877308
549.498811	2545.782692
549.857408	2485.288846
550.215949	2548.303269
550.574434	2553.344423
550.932864	2563.426731
551.291237	2538.220962
551.649555	2502.932885
552.007817	2422.274423
552.366022	2450.000769
552.724173	2515.535769
553.082267	2447.480192
553.440305	2495.371154
553.798288	2545.782692
554.156215	2434.877308
554.514086	2432.356731
554.871902	2578.550192
555.229661	2462.603654
555.587365	2593.673654
555.945014	2518.056346
556.302606	2510.494615
556.660143	2492.850577
557.017625	2520.576923
557.375050	2515.535769
557.732421	2497.891731
558.089735	2424.795000
558.446994	2621.400000
558.804197	2480.247692
559.161345	2487.809423
559.518437	2467.644808
559.875474	2588.632500
560.232455	2429.836154
560.589381	2560.906154
560.946251	2462.603654
561.303065	2513.015192
561.659825	2507.974038
562.016528	2565.947308
562.373177	2480.247692
562.729770	2505.453462
563.086307	2399.589231
563.442789	2507.974038
563.799216	2518.056346
564.155587	2485.288846
564.511904	2497.891731
564.868164	2591.153077
565.224370	2472.685962
565.580520	2543.262115
565.936615	2442.439038
566.292654	2492.850577
566.648638	2480.247692
567.004567	2475.206538
567.360441	2530.659231
567.716260	2460.083077
568.072023	2429.836154
568.427732	2439.918462
568.783385	2523.097500
569.138982	2455.041923
569.494525	2490.330000
569.850013	2439.918462
570.205445	2565.947308
570.560823	2475.206538
570.916145	2543.262115
571.271412	2520.576923
571.626625	2475.206538
571.981782	2472.685962
572.336884	2457.562500
572.691931	2540.741538
573.046923	2429.836154
573.401860	2543.262115
573.756743	2444.959615
574.111570	2497.891731
574.466342	2475.206538
574.821059	2439.918462
575.175722	2475.206538
575.530330	2427.315577
575.884882	2543.262115
576.239380	2427.315577
576.593823	2515.535769
576.948211	2533.179808
577.302544	2497.891731
577.656823	2485.288846
578.011047	2507.974038
578.365216	2462.603654
578.719330	2525.618077
579.073389	2432.356731
579.427394	2568.467885
579.781344	2467.644808
580.135239	2550.823846
580.489080	2492.850577
580.842866	2485.288846
581.196597	2492.850577
581.550273	2452.521346
581.903895	2510.494615
582.257463	2439.918462
582.610975	2462.603654
582.964434	2465.124231
583.317837	2555.865000
583.671186	2535.700385
584.024481	2455.041923
584.377721	2505.453462
584.730906	2437.397885
585.084037	2467.644808
585.437113	2528.138654
585.790135	2502.932885
586.143103	2492.850577
586.496016	2417.233269
586.848874	2432.356731
587.201679	2432.356731
587.554428	2545.782692
587.907124	2465.124231
588.259765	2422.274423
588.612352	2485.288846
588.964884	2535.700385
589.317362	2487.809423
589.669786	2462.603654
590.022155	2525.618077
590.374470	2518.056346
590.726731	2492.850577
591.078937	2553.344423
591.431090	2450.000769
591.783188	2477.727115
592.135232	2467.644808
592.487222	2535.700385
592.839157	2434.877308
593.191038	2545.782692
593.542866	2533.179808
593.894639	2472.685962
594.246358	2568.467885
594.598022	2548.303269
594.949633	2497.891731
595.301190	2515.535769
595.652692	2450.000769
596.004141	2477.727115
596.355535	2507.974038
596.706876	2477.727115
597.058162	2502.932885
597.409395	2460.083077
597.760573	2497.891731
598.111698	2507.974038
598.462768	2497.891731
598.813785	2399.589231
599.164748	2530.659231
599.515657	2422.274423
599.866511	2502.932885
600.217312	2523.097500
600.568060	2525.618077
600.918753	2586.111923
601.269392	2480.247692
601.619978	2540.741538
601.970510	2495.371154
602.320988	2502.932885
602.671412	2452.521346
603.021783	2535.700385
603.372100	2480.247692
603.722363	2467.644808
604.072572	2515.535769
604.422728	2480.247692
604.772830	2502.932885
605.122878	2510.494615
605.472872	2558.385577
605.822813	2482.768269
606.172701	2540.741538
606.522534	2560.906154
606.872314	2540.741538
607.222041	2482.768269
607.571714	2535.700385
607.921333	2475.206538
608.270899	2581.070769
608.620411	2500.412308
608.969870	2586.111923
609.319276	2452.521346
609.668627	2528.138654
610.017926	2485.288846
610.367171	2455.041923
610.716362	2558.385577
611.065500	2475.206538
611.414585	2452.521346
611.763616	2528.138654
612.112594	2538.220962
612.461518	2412.192115
612.810389	2502.932885
613.159207	2409.671538
613.507971	2457.562500
613.856682	2528.138654
614.205340	2409.671538
614.553945	2525.618077
614.902496	2576.029615
615.250994	2452.521346
615.599439	2533.179808
615.947830	2455.041923
616.296169	2502.932885
616.644454	2507.974038
616.992686	2465.124231
617.340864	2419.753846
617.688990	2467.644808
618.037063	2470.165385
618.385082	2558.385577
618.733048	2497.891731
619.080961	2490.330000
619.428821	2427.315577
619.776628	2475.206538
620.124382	2548.303269
620.472083	2533.179808
620.819731	2520.576923
621.167326	2482.768269
621.514868	2482.768269
621.862357	2528.138654
622.209793	2576.029615
622.557176	2485.288846
622.904506	2505.453462
623.251783	2480.247692
623.599007	2548.303269
623.946179	2518.056346
624.293297	2472.685962
624.640363	2447.480192
624.987376	2525.618077
625.334336	2417.233269
625.681243	2412.192115
626.028097	2540.741538
626.374899	2538.220962
626.721647	2457.562500
627.068343	2538.220962
627.414987	2434.877308
627.761577	2439.918462
628.108115	2553.344423
628.454600	2482.768269
628.801032	2543.262115
629.147412	2558.385577
629.493739	2550.823846
629.840014	2439.918462
630.186236	2470.165385
630.532405	2485.288846
630.878521	2523.097500
631.224585	2475.206538
631.570597	2565.947308
631.916556	2505.453462
632.262462	2528.138654
632.608316	2565.947308
632.954117	2492.850577
633.299866	2502.932885
633.645562	2523.097500
633.991206	2487.809423
634.336797	2553.344423
634.682336	2490.330000
635.027823	2485.288846
635.373257	2550.823846
635.718639	2523.097500
636.063968	2500.412308
636.409245	2434.877308
636.754470	2492.850577
637.099642	2555.865000
637.444762	2475.206538
637.789829	2419.753846
638.134845	2422.274423
638.479808	2505.453462
638.824719	2422.274423
639.169577	2477.727115
639.514383	2530.659231
639.859137	2505.453462
640.203839	2507.974038
640.548489	2480.247692
640.893086	2502.932885
641.237632	2480.247692
641.582125	2513.015192
641.926566	2467.644808
642.270955	2555.865000
642.615292	2475.206538
642.959576	2505.453462
643.303809	2495.371154
643.647990	2533.179808
643.992118	2553.344423
644.336195	2538.220962
644.680219	2513.015192
645.024192	2487.809423
645.368112	2475.206538
645.711981	2570.988462
646.055797	2528.138654
646.399562	2576.029615
646.743274	2492.850577
647.086935	2543.262115
647.430544	2490.330000
647.774101	2518.056346
648.117606	2417.233269
648.461059	2540.741538
648.804460	2460.083077
649.147810	2505.453462
649.491108	2472.685962
649.834354	2553.344423
650.177548	2429.836154
650.520690	2455.041923
650.863781	2417.233269
651.206820	2379.424615
651.549807	2520.576923
651.892742	2505.453462
652.235626	2497.891731
652.578458	2472.685962
652.921238	2475.206538
653.263967	2505.453462
653.606644	2467.644808
653.949269	2558.385577
654.291843	2525.618077
654.634365	2442.439038
654.976836	2523.097500
655.319255	2442.439038
655.661622	2422.274423
656.003938	2568.467885
656.346203	2460.083077
656.688416	2525.618077
657.030577	2475.206538
657.372687	2495.371154
657.714746	2402.109808
658.056753	2550.823846
658.398708	2492.850577
658.740612	2528.138654
659.082465	2492.850577
659.424266	2535.700385
659.766016	2601.235385
660.107715	2434.877308
660.449362	2477.727115
660.790958	2505.453462
661.132503	2412.192115
661.473996	2505.453462
661.815438	2538.220962
662.156829	2553.344423
662.498168	2533.179808
662.839456	2460.083077
663.180693	2467.644808
663.521879	2472.685962
663.863013	2424.795000
664.204097	2510.494615
664.545129	2475.206538
664.886110	2563.426731
665.227040	2470.165385
665.567918	2523.097500
665.908746	2490.330000
666.249522	2422.274423
666.590248	2535.700385
666.930922	2560.906154
667.271545	2470.165385
667.612118	2460.083077
667.952639	2515.535769
668.293109	2442.439038
668.633528	2490.330000
668.973896	2475.206538
669.314213	2505.453462
669.654480	2538.220962
669.994695	2399.589231
670.334859	2510.494615
670.674973	2432.356731
671.015035	2457.562500
671.355047	2533.179808
671.695008	2530.659231
672.034918	2611.317692
672.374777	2460.083077
672.714585	2477.727115
673.054342	2429.836154
673.394049	2434.877308
673.733705	2465.124231
674.073310	2470.165385
674.412864	2487.809423
674.752368	2505.453462
675.091820	2432.356731
675.431223	2513.015192
675.770574	2414.712692
676.109875	2507.974038
676.449125	2477.727115
676.788324	2490.330000
677.127473	2439.918462
677.466571	2482.768269
677.805619	2502.932885
678.144616	2513.015192
678.483562	2419.753846
678.822458	2555.865000
679.161303	2515.535769
679.500098	2510.494615
679.838842	2535.700385
680.177535	2439.918462
680.516179	2538.220962
680.854771	2452.521346
681.193314	2455.041923
681.531805	2548.303269
681.870247	2444.959615
682.208638	2487.809423
682.546978	2465.124231
682.885268	2583.591346
683.223508	2497.891731
683.561697	2513.015192
683.899836	2523.097500
684.237925	2553.344423
684.575963	2490.330000
684.913951	2502.932885
685.251889	2465.124231
685.589776	2424.795000
685.927614	2576.029615
686.265401	2470.165385
686.603137	2460.083077
686.940824	2548.303269
687.278460	2427.315577
687.616046	2502.932885
687.953582	2520.576923
688.291068	2520.576923
688.628504	2492.850577
688.965889	2528.138654
689.303224	2500.412308
689.640510	2495.371154
689.977745	2525.618077
690.314930	2570.988462
690.652065	2457.562500
690.989150	2500.412308
691.326185	2487.809423
691.663170	2492.850577
692.000105	2525.618077
692.336990	2447.480192
692.673825	2490.330000
693.010610	2452.521346
693.347345	2429.836154
693.684030	2432.356731
694.020665	2553.344423
694.357251	2404.630385
694.693786	2540.741538
695.030272	2465.124231
695.366707	2480.247692
695.703093	2460.083077
696.039429	2548.303269
696.375716	2480.247692
696.711952	2497.891731
697.048139	2439.918462
697.384276	2535.700385
697.720363	2447.480192
698.056400	2545.782692
698.392388	2502.932885
698.728326	2550.823846
699.064214	2502.932885
699.400053	2553.344423
699.735842	2467.644808
700.071581	2424.795000
700.407270	2560.906154
700.742910	2470.165385
701.078501	2505.453462
701.414042	2467.644808
701.749533	2523.097500
702.084974	2475.206538
702.420366	2500.412308
702.755709	2462.603654
703.091002	2528.138654
703.426246	2495.371154
703.761440	2518.056346
704.096584	2460.083077
704.431679	2460.083077
704.766725	2442.439038
705.101721	2518.056346
705.436668	2402.109808
705.771565	2550.823846
706.106413	2530.659231
706.441212	2591.153077
706.775961	2598.714808
707.110661	2439.918462
707.445311	2540.741538
707.779913	2495.371154
708.114465	2470.165385
708.448967	2487.809423
708.783421	2470.165385
709.117825	2394.548077
709.452180	2477.727115
709.786485	2450.000769
710.120742	2497.891731
710.454949	2525.618077
710.789107	2492.850577
711.123216	2442.439038
711.457275	2500.412308
711.791286	2482.768269
712.125247	2533.179808
712.459159	2500.412308
712.793023	2354.218846
713.126837	2485.288846
713.460602	2439.918462
713.794318	2525.618077
714.127985	2409.671538
714.461602	2528.138654
714.795171	2518.056346
715.128691	2485.288846
715.462162	2467.644808
715.795584	2520.576923
716.128957	2422.274423
716.462281	2502.932885
716.795556	2528.138654
717.128782	2518.056346
717.461960	2404.630385
717.795088	2465.124231
718.128167	2414.712692
718.461198	2482.768269
718.794180	2523.097500
719.127113	2427.315577
719.459997	2507.974038
719.792833	2457.562500
720.125619	2500.412308
720.458357	2470.165385
720.791046	2497.891731
721.123686	2518.056346
721.456278	2432.356731
721.788821	2570.988462
722.121315	2434.877308
722.453761	2442.439038
722.786158	2467.644808
723.118506	2550.823846
723.450805	2550.823846
723.783056	2533.179808
724.115259	2490.330000
724.447412	2502.932885
724.779518	2419.753846
725.111574	2555.865000
725.443582	2485.288846
725.775542	2480.247692
726.107453	2480.247692
726.439315	2515.535769
726.771129	2513.015192
727.102895	2523.097500
727.434612	2510.494615
727.766281	2470.165385
728.097901	2437.397885
728.429473	2450.000769
728.760996	2475.206538
729.092471	2470.165385
729.423897	2475.206538
729.755276	2568.467885
730.086606	2550.823846
730.417887	2482.768269
730.749120	2465.124231
731.080305	2472.685962
731.411442	2497.891731
731.742530	2475.206538
732.073570	2434.877308
732.404562	2573.509038
732.735506	2520.576923
733.066401	2467.644808
733.397249	2472.685962
733.728048	2518.056346
734.058798	2535.700385
734.389501	2545.782692
734.720156	2482.768269
735.050762	2414.712692
735.381320	2462.603654
735.711831	2497.891731
736.042293	2513.015192
736.372707	2490.330000
736.703073	2533.179808
737.033391	2495.371154
737.363661	2507.974038
737.693883	2460.083077
738.024056	2414.712692
738.354182	2515.535769
738.684260	2482.768269
739.014290	2507.974038
739.344272	2520.576923
739.674207	2492.850577
740.004093	2482.768269
740.333931	2515.535769
740.663722	2447.480192
740.993464	2520.576923
741.323159	2485.288846
741.652806	2550.823846
741.982405	2482.768269
742.311956	2477.727115
742.641460	2601.235385
742.970915	2472.685962
743.300323	2591.153077
743.629683	2495.371154
743.958996	2492.850577
744.288260	2520.576923
744.617477	2480.247692
744.946647	2485.288846
745.275768	2518.056346
745.604842	2525.618077
745.933869	2485.288846
746.262847	2444.959615
746.591778	2563.426731
746.920662	2497.891731
747.249498	2452.521346
747.578286	2492.850577
747.907027	2553.344423
748.235720	2424.795000
748.564365	2568.467885
748.892963	2591.153077
749.221514	2455.041923
749.550017	2515.535769
749.878473	2608.797115
750.206881	2467.644808
750.535242	2520.576923
750.863555	2523.097500
751.191821	2397.068654
751.520039	2538.220962
751.848210	2482.768269
752.176334	2550.823846
752.504411	2490.330000
752.832440	2513.015192
753.160421	2507.974038
753.488356	2455.041923
753.816243	2460.083077
754.144082	2444.959615
754.471875	2470.165385
754.799620	2487.809423
755.127318	2492.850577
755.454969	2581.070769
755.782572	2472.685962
756.110129	2515.535769
756.437638	2477.727115
756.765100	2475.206538
757.092515	2480.247692
757.419882	2495.371154
757.747203	2523.097500
758.074477	2482.768269
758.401703	2568.467885
758.728882	2560.906154
759.056014	2568.467885
759.383099	2490.330000
759.710138	2460.083077
760.037129	2487.809423
760.364073	2560.906154
760.690970	2513.015192
761.017820	2455.041923
761.344623	2515.535769
761.671379	2533.179808
761.998088	2500.412308
762.324751	2470.165385
762.651366	2467.644808
762.977935	2533.179808
763.304456	2520.576923
763.630931	2510.494615
763.957359	2490.330000
764.283740	2583.591346
764.610074	2515.535769
764.936362	2470.165385
765.262602	2495.371154
765.588796	2515.535769
765.914943	2475.206538
766.241044	2583.591346
766.567097	2470.165385
766.893104	2497.891731
767.219064	2437.397885
767.544978	2538.220962
767.870845	2515.535769
768.196665	2545.782692
768.522438	2523.097500
768.848165	2528.138654
769.173846	2523.097500
769.499479	2492.850577
769.825066	2513.015192
770.150607	2444.959615
770.476101	2477.727115
770.801548	2510.494615
771.126949	2515.535769
771.452303	2424.795000
771.777611	2412.192115
772.102872	2457.562500
772.428087	2480.247692
772.753256	2437.397885
773.078378	2553.344423
773.403453	2470.165385
773.728482	2482.768269
774.053465	2495.371154
774.378401	2482.768269
774.703291	2510.494615
775.028135	2555.865000
775.352932	2465.124231
775.677683	2452.521346
776.002388	2545.782692
776.327046	2500.412308
776.651658	2497.891731
776.976224	2502.932885
777.300743	2530.659231
777.625216	2492.850577
777.949643	2565.947308
778.274024	2518.056346
778.598359	2495.371154
778.922647	2555.865000
779.246889	2525.618077
779.571086	2523.097500
779.895236	2482.768269
780.219339	2462.603654
780.543397	2477.727115
780.867409	2462.603654
781.191374	2450.000769
781.515294	2555.865000
781.839167	2465.124231
782.162995	2497.891731
782.486776	2439.918462
782.810511	2485.288846
783.134201	2447.480192
783.457844	2482.768269
783.781441	2553.344423
784.104993	2510.494615
784.428498	2538.220962
784.751958	2523.097500
785.075372	2480.247692
785.398739	2520.576923
785.722061	2510.494615
786.045337	2487.809423
786.368568	2515.535769
786.691752	2510.494615
787.014891	2500.412308
787.337983	2470.165385
787.661030	2502.932885
787.984031	2437.397885
788.306987	2465.124231
788.629897	2515.535769
788.952760	2520.576923
789.275579	2510.494615
789.598351	2492.850577
789.921078	2487.809423
790.243759	2568.467885
790.566395	2455.041923
790.888984	2530.659231
791.211529	2480.247692
791.534027	2462.603654
791.856480	2548.303269
792.178888	2568.467885
792.501249	2550.823846
792.823566	2485.288846
793.145836	2560.906154
793.468062	2593.673654
793.790241	2487.809423
794.112375	2530.659231
794.434464	2462.603654
794.756507	2565.947308
795.078505	2550.823846
795.400457	2543.262115
795.722364	2439.918462
796.044226	2500.412308
796.366042	2502.932885
796.687812	2591.153077
797.009538	2460.083077
797.331218	2520.576923
797.652852	2560.906154
797.974442	2409.671538
798.295986	2550.823846
798.617484	2419.753846
798.938938	2581.070769
799.260346	2520.576923
799.581709	2515.535769
799.903026	2525.618077
800.224299	2450.000769
800.545526	2475.206538
800.866708	2515.535769
801.187845	2538.220962
801.508936	2477.727115
801.829983	2424.795000
802.150984	2538.220962
802.471940	2548.303269
802.792851	2502.932885
803.113717	2528.138654
803.434538	2548.303269
803.755314	2507.974038
804.076045	2487.809423
804.396731	2545.782692
804.717372	2518.056346
805.037967	2538.220962
805.358518	2578.550192
805.679024	2497.891731
805.999485	2507.974038
806.319901	2548.303269
806.640272	2502.932885
806.960598	2523.097500
807.280879	2558.385577
807.601115	2518.056346
807.921306	2538.220962
808.241453	2510.494615
808.561554	2505.453462
808.881611	2427.315577
809.201623	2487.809423
809.521590	2457.562500
809.841513	2510.494615
810.161390	2477.727115
810.481223	2578.550192
810.801011	2492.850577
811.120755	2558.385577
811.440453	2485.288846
811.760107	2507.974038
812.079716	2437.397885
812.399281	2576.029615
812.718801	2507.974038
813.038276	2457.562500
813.357707	2457.562500
813.677093	2543.262115
813.996434	2502.932885
814.315731	2497.891731
814.634983	2613.838269
814.954191	2583.591346
815.273354	2490.330000
815.592473	2505.453462
815.911547	2427.315577
816.230577	2500.412308
816.549562	2444.959615
816.868502	2550.823846
817.187399	2507.974038
817.506250	2518.056346
817.825058	2465.124231
818.143821	2356.739423
818.462539	2485.288846
818.781213	2482.768269
819.099843	2558.385577
819.418429	2467.644808
819.736970	2507.974038
820.055466	2487.809423
820.373919	2434.877308
820.692327	2533.179808
821.010691	2462.603654
821.329011	2528.138654
821.647286	2497.891731
821.965517	2507.974038
822.283704	2460.083077
822.601847	2480.247692
822.919945	2442.439038
823.237999	2507.974038
823.556010	2417.233269
823.873976	2550.823846
824.191897	2450.000769
824.509775	2444.959615
824.827609	2502.932885
825.145398	2487.809423
825.463144	2525.618077
825.780845	2601.235385
826.098502	2386.986346
826.416116	2515.535769
826.733685	2422.274423
827.051210	2397.068654
827.368692	2525.618077
827.686129	2422.274423
828.003522	2472.685962
828.320872	2465.124231
828.638177	2442.439038
828.955439	2553.344423
829.272656	2439.918462
829.589830	2510.494615
829.906960	2623.920577
830.224046	2450.000769
830.541088	2470.165385
830.858086	2455.041923
831.175041	2540.741538
831.491952	2565.947308
831.808819	2515.535769
832.125642	2460.083077
832.442421	2578.550192
832.759157	2444.959615
833.075849	2477.727115
833.392497	2518.056346
833.709101	2525.618077
834.025662	2467.644808
834.342179	2467.644808
834.658653	2447.480192
834.975083	2573.509038
835.291469	2457.562500
835.607811	2467.644808
835.924110	2507.974038
836.240366	2442.439038
836.556578	2434.877308
836.872746	2397.068654
837.188871	2467.644808
837.504952	2528.138654
837.820990	2409.671538
838.136984	2477.727115
838.452935	2351.698269
838.768842	2507.974038
839.084706	2397.068654
839.400526	2515.535769
839.716303	2437.397885
840.032037	2500.412308
840.347727	2417.233269
840.663373	2477.727115
840.978977	2487.809423
841.294537	2538.220962
841.610054	2515.535769
841.925527	2523.097500
842.240957	2437.397885
842.556344	2497.891731
842.871687	2482.768269
843.186987	2402.109808
843.502244	2485.288846
843.817458	2588.632500
844.132629	2513.015192
844.447756	2455.041923
844.762840	2480.247692
845.077881	2578.550192
845.392879	2432.356731
845.707833	2480.247692
846.022745	2558.385577
846.337613	2450.000769
846.652438	2477.727115
846.967221	2530.659231
847.281960	2485.288846
847.596656	2548.303269
847.911309	2510.494615
848.225919	2497.891731
848.540485	2495.371154
848.855009	2492.850577
849.169490	2447.480192
849.483928	2465.124231
849.798323	2497.891731
850.112675	2563.426731
850.426984	2525.618077
850.741251	2513.015192
851.055474	2507.974038
851.369654	2417.233269
851.683792	2480.247692
851.997887	2502.932885
852.311938	2530.659231
852.625947	2477.727115
852.939914	2397.068654
853.253837	2465.124231
853.567718	2470.165385
853.881555	2480.247692
854.195350	2472.685962
854.509103	2467.644808
854.822812	2467.644808
855.136479	2555.865000
855.450103	2485.288846
855.763685	2455.041923
856.077224	2467.644808
856.390720	2528.138654
856.704173	2482.768269
857.017584	2603.755962
857.330953	2427.315577
857.644278	2553.344423
857.957561	2462.603654
858.270802	2475.206538
858.584000	2545.782692
858.897155	2472.685962
859.210268	2550.823846
859.523339	2621.400000
859.836367	2523.097500
860.149352	2523.097500
860.462295	2490.330000
860.775195	2500.412308
861.088054	2550.823846
861.400869	2490.330000
861.713642	2480.247692
862.026373	2470.165385
862.339062	2475.206538
862.651708	2525.618077
862.964312	2485.288846
863.276873	2495.371154
863.589392	2429.836154
863.901869	2523.097500
864.214303	2477.727115
864.526696	2528.138654
864.839045	2457.562500
865.151353	2515.535769
865.463619	2530.659231
865.775842	2427.315577
866.088023	2523.097500
866.400162	2482.768269
866.712258	2558.385577
867.024313	2444.959615
867.336325	2467.644808
867.648296	2515.535769
867.960224	2515.535769
868.272110	2528.138654
868.583954	2507.974038
868.895755	2497.891731
869.207515	2442.439038
869.519233	2583.591346
869.830909	2533.179808
870.142542	2548.303269
870.454134	2482.768269
870.765684	2490.330000
871.077191	2606.276538
871.388657	2439.918462
871.700081	2492.850577
872.011463	2515.535769
872.322803	2550.823846
872.634101	2467.644808
872.945357	2560.906154
873.256571	2455.041923
873.567744	2507.974038
873.878874	2460.083077
874.189963	2533.179808
874.501010	2505.453462
874.812015	2507.974038
875.122979	2507.974038
875.433900	2495.371154
875.744780	2465.124231
876.055618	2432.356731
876.366415	2472.685962
876.677169	2482.768269
876.987882	2452.521346
877.298554	2497.891731
877.609183	2444.959615
877.919771	2434.877308
878.230317	2525.618077
878.540822	2465.124231
878.851285	2427.315577
879.161707	2477.727115
879.472087	2432.356731
879.782425	2492.850577
880.092722	2573.509038
880.402977	2548.303269
880.713191	2538.220962
881.023363	2439.918462
881.333494	2495.371154
881.643583	2510.494615
881.953631	2432.356731
882.263637	2457.562500
882.573602	2424.795000
882.883526	2442.439038
883.193408	2520.576923
883.503248	2409.671538
883.813048	2477.727115
884.122806	2543.262115
884.432522	2470.165385
884.742197	2520.576923
885.051831	2505.453462
885.361424	2558.385577
885.670975	2434.877308
885.980485	2444.959615
886.289954	2439.918462
886.599382	2523.097500
886.908768	2482.768269
887.218113	2523.097500
887.527417	2452.521346
887.836680	2555.865000
888.145901	2394.548077
888.455082	2490.330000
888.764221	2535.700385
889.073319	2545.782692
889.382376	2452.521346
889.691392	2538.220962
890.000366	2490.330000
890.309300	2543.262115
890.618193	2472.685962
890.927044	2485.288846
891.235855	2507.974038
891.544625	2591.153077
891.853353	2490.330000
892.162041	2500.412308
892.470687	2533.179808
892.779293	2437.397885
893.087858	2490.330000
893.396381	2389.506923
893.704864	2530.659231
894.013306	2384.465769
894.321707	2548.303269
894.630068	2550.823846
894.938387	2560.906154
895.246665	2485.288846
895.554903	2447.480192
895.863100	2457.562500
896.171256	2505.453462
896.479371	2515.535769
896.787446	2472.685962
897.095480	2477.727115
897.403473	2462.603654
897.711425	2523.097500
898.019336	2492.850577
898.327207	2515.535769
898.635038	2442.439038
898.942827	2490.330000
899.250576	2485.288846
899.558284	2540.741538
899.865952	2447.480192
900.173579	2545.782692
900.481165	2581.070769
900.788711	2452.521346
901.096216	2470.165385
901.403681	2417.233269
901.711105	2533.179808
902.018489	2485.288846
902.325832	2500.412308
902.633135	2560.906154
902.940397	2477.727115
903.247619	2505.453462
903.554800	2543.262115
903.861941	2404.630385
904.169041	2530.659231
904.476101	2417.233269
904.783121	2492.850577
905.090100	2470.165385
905.397039	2507.974038
905.703938	2525.618077
906.010796	2518.056346
906.317614	2364.301154
906.624391	2530.659231
906.931129	2497.891731
907.237826	2487.809423
907.544483	2422.274423
907.851099	2452.521346
908.157675	2510.494615
908.464211	2558.385577
908.770707	2432.356731
909.077163	2470.165385
909.383578	2434.877308
909.689954	2485.288846
909.996289	2442.439038
910.302584	2485.288846
910.608839	2495.371154
910.915054	2482.768269
911.221229	2462.603654
911.527363	2570.988462
911.833458	2457.562500
912.139513	2518.056346
912.445527	2570.988462
912.751502	2480.247692
913.057436	2545.782692
913.363331	2513.015192
913.669186	2507.974038
913.975000	2475.206538
914.280775	2525.618077
914.586510	2482.768269
914.892205	2520.576923
915.197859	2523.097500
915.503475	2538.220962
915.809050	2467.644808
916.114585	2555.865000
916.420081	2470.165385
916.725536	2505.453462
917.030952	2417.233269
917.336328	2538.220962
917.641665	2386.986346
917.946961	2480.247692
918.252218	2502.932885
918.557435	2412.192115
918.862612	2492.850577
919.167750	2457.562500
919.472848	2560.906154
919.777906	2525.618077
920.082925	2495.371154
920.387904	2500.412308
920.692843	2518.056346
920.997743	2480.247692
921.302603	2432.356731
921.607423	2422.274423
921.912204	2510.494615
922.216946	2543.262115
922.521647	2490.330000
922.826310	2530.659231
923.130932	2460.083077
923.435516	2495.371154
923.740059	2444.959615
924.044564	2429.836154
924.349028	2505.453462
924.653454	2450.000769
924.957840	2492.850577
925.262186	2462.603654
925.566493	2485.288846
925.870761	2492.850577
926.174989	2424.795000
926.479178	2460.083077
926.783328	2455.041923
927.087438	2487.809423
927.391509	2485.288846
927.695541	2543.262115
927.999533	2535.700385
928.303486	2422.274423
928.607400	2497.891731
928.911275	2447.480192
929.215110	2545.782692
929.518906	2417.233269
929.822663	2515.535769
930.126381	2462.603654
930.430060	2543.262115
930.733699	2528.138654
931.037299	2417.233269
931.340861	2533.179808
931.644383	2485.288846
931.947866	2439.918462
932.251309	2543.262115
932.554714	2507.974038
932.858080	2460.083077
933.161407	2472.685962
933.464694	2480.247692
933.767943	2495.371154
934.071153	2563.426731
934.374323	2570.988462
934.677455	2525.618077
934.980548	2560.906154
935.283602	2412.192115
935.586617	2475.206538
935.889593	2439.918462
936.192530	2518.056346
936.495428	2465.124231
936.798287	2520.576923
937.101108	2442.439038
937.403890	2475.206538
937.706632	2502.932885
938.009336	2497.891731
938.312002	2505.453462
938.614628	2581.070769
938.917216	2477.727115
939.219765	2465.124231
939.522275	2487.809423
939.824747	2528.138654
940.127179	2460.083077
940.429573	2502.932885
940.731929	2487.809423
941.034246	2548.303269
941.336524	2497.891731
941.638763	2555.865000
941.940964	2465.124231
942.243126	2518.056346
942.545250	2528.138654
942.847335	2533.179808
943.149381	2507.974038
943.451389	2518.056346
943.753359	2472.685962
944.055290	2507.974038
944.357182	2424.795000
944.659036	2492.850577
944.960851	2447.480192
945.262628	2495.371154
945.564367	2507.974038
945.866067	2507.974038
946.167729	2470.165385
946.469352	2427.315577
946.770937	2472.685962
947.072484	2482.768269
947.373992	2427.315577
947.675462	2379.424615
947.976893	2442.439038
948.278286	2465.124231
948.579641	2555.865000
948.880958	2427.315577
949.182236	2475.206538
949.483476	2530.659231
949.784678	2518.056346
950.085841	2447.480192
950.386967	2507.974038
950.688054	2417.233269
950.989103	2525.618077
951.290114	2376.904038
951.591087	2467.644808
951.892021	2437.397885
952.192917	2523.097500
952.493776	2528.138654
952.794596	2533.179808
953.095378	2487.809423
953.396122	2422.274423
953.696828	2465.124231
953.997496	2548.303269
954.298126	2434.877308
954.598718	2568.467885
954.899272	2444.959615
955.199788	2492.850577
955.500266	2533.179808
955.800706	2467.644808
956.101108	2492.850577
956.401472	2447.480192
956.701798	2586.111923
957.002087	2560.906154
957.302337	2407.150962
957.602550	2444.959615
957.902724	2437.397885
958.202861	2528.138654
958.502960	2444.959615
958.803022	2502.932885
959.103045	2417.233269
959.403031	2432.356731
959.702979	2452.521346
960.002889	2492.850577
960.302762	2379.424615
960.602596	2507.974038
960.902393	2450.000769
961.202153	2495.371154
961.501875	2374.383462
961.801559	2500.412308
962.101205	2533.179808
962.400814	2444.959615
962.700385	2518.056346
962.999918	2513.015192
963.299414	2535.700385
963.598873	2535.700385
963.898293	2467.644808
964.197677	2558.385577
964.497022	2560.906154
964.796331	2518.056346
965.095601	2507.974038
965.394835	2492.850577
965.694030	2397.068654
965.993189	2510.494615
966.292309	2447.480192
966.591393	2553.344423
966.890439	2485.288846
967.189447	2472.685962
967.488419	2444.959615
967.787353	2492.850577
968.086249	2505.453462
968.385108	2538.220962
968.683930	2480.247692
968.982714	2507.974038
969.281462	2510.494615
969.580172	2477.727115
969.878844	2417.233269
970.177480	2475.206538
970.476078	2472.685962
970.774639	2455.041923
971.073162	2533.179808
971.371649	2528.138654
971.670098	2447.480192
971.968510	2545.782692
972.266885	2497.891731
972.565223	2510.494615
972.863524	2492.850577
973.161788	2502.932885
973.460014	2492.850577
973.758204	2553.344423
974.056356	2480.247692
974.354471	2490.330000
974.652550	2520.576923
974.950591	2455.041923
975.248595	2485.288846
975.546563	2444.959615
975.844493	2540.741538
976.142386	2510.494615
976.440243	2477.727115
976.738062	2553.344423
977.035845	2422.274423
977.333590	2576.029615
977.631299	2510.494615
977.928971	2432.356731
978.226606	2414.712692
978.524204	2470.165385
978.821765	2437.397885
979.119290	2490.330000
979.416777	2530.659231
979.714228	2523.097500
980.011642	2515.535769
980.309020	2528.138654
980.606360	2465.124231
980.903664	2434.877308
981.200931	2475.206538
981.498162	2432.356731
981.795356	2523.097500
982.092513	2472.685962
982.389633	2513.015192
982.686717	2543.262115
982.983764	2525.618077
983.280775	2444.959615
983.577749	2525.618077
983.874686	2485.288846
984.171587	2505.453462
984.468451	2447.480192
984.765279	2507.974038
985.062070	2467.644808
985.358824	2533.179808
985.655543	2462.603654
985.952224	2568.467885
986.248869	2472.685962
986.545478	2452.521346
986.842050	2480.247692
987.138586	2460.083077
987.435086	2558.385577
987.731549	2424.795000
988.027975	2500.412308
988.324366	2500.412308
988.620719	2500.412308
988.917037	2447.480192
989.213318	2507.974038
989.509563	2560.906154
989.805772	2520.576923
990.101944	2530.659231
990.398080	2407.150962
990.694180	2548.303269
990.990244	2545.782692
991.286271	2586.111923
991.582262	2586.111923
991.878217	2502.932885
992.174136	2371.862885
992.470019	2497.891731
992.765865	2477.727115
993.061676	2528.138654
993.357450	2490.330000
993.653188	2485.288846
993.948890	2573.509038
994.244556	2492.850577
994.540186	2497.891731
994.835780	2429.836154
995.131337	2482.768269
995.426859	2470.165385
995.722345	2500.412308
996.017795	2538.220962
996.313208	2409.671538
996.608586	2540.741538
996.903928	2601.235385
997.199234	2530.659231
997.494504	2543.262115
997.789738	2555.865000
998.084936	2455.041923
998.380099	2570.988462
998.675225	2460.083077
998.970316	2505.453462
999.265371	2462.603654
999.560390	2492.850577
999.855373	2490.330000
1000.150320	2495.371154
1000.445232	2462.603654
1000.740108	2515.535769
1001.034948	2414.712692
1001.329752	2424.795000
1001.624521	2487.809423
1001.919254	2439.918462
1002.213951	2518.056346
1002.508613	2472.685962
1002.803239	2457.562500
1003.097829	2497.891731
1003.392384	2550.823846
1003.686903	2457.562500
1003.981386	2434.877308
1004.275834	2442.439038
1004.570246	2472.685962
1004.864623	2475.206538
1005.158964	2523.097500
1005.453270	2558.385577
1005.747540	2535.700385
1006.041775	2545.782692
1006.335974	2543.262115
1006.630138	2429.836154
1006.924266	2518.056346
1007.218359	2492.850577
1007.512416	2487.809423
1007.806438	2510.494615
1008.100425	2495.371154
1008.394376	2442.439038
1008.688292	2576.029615
1008.982172	2492.850577
1009.276017	2490.330000
1009.569827	2397.068654
1009.863602	2555.865000
1010.157341	2417.233269
1010.451045	2475.206538
1010.744714	2485.288846
1011.038347	2533.179808
1011.331945	2467.644808
1011.625508	2427.315577
1011.919036	2513.015192
1012.212528	2497.891731
1012.505986	2399.589231
1012.799408	2502.932885
1013.092795	2523.097500
1013.386147	2555.865000
1013.679464	2548.303269
1013.972745	2520.576923
1014.265992	2429.836154
1014.559204	2480.247692
1014.852380	2513.015192
1015.145521	2462.603654
1015.438628	2520.576923
1015.731699	2414.712692
1016.024736	2444.959615
1016.317737	2409.671538
1016.610703	2510.494615
1016.903635	2495.371154
1017.196531	2507.974038
1017.489393	2502.932885
1017.782219	2485.288846
1018.075011	2495.371154
1018.367768	2467.644808
1018.660490	2417.233269
1018.953177	2417.233269
1019.245829	2417.233269
