Dividing Wavelength (nm)	Counts (n)	Blue Motor Position (mm): 9.600000	Red Motor Position (mm): 0.000000	
326.493990	2177.778462
326.888308	2177.778462
327.282561	2177.778462
327.676750	2094.599423
328.070874	2129.887500
328.464933	2097.120000
328.858929	2039.146731
329.252859	2074.434808
329.646726	2074.434808
330.040528	2112.243462
330.434265	2117.284615
330.827938	2157.613846
331.221547	2155.093269
331.615091	2114.764038
332.008571	2165.175577
332.401986	2167.696154
332.795338	2197.943077
333.188625	2230.710577
333.581847	2260.957500
333.975006	2311.369038
334.368100	2268.519231
334.761129	2298.766154
335.154095	2404.630385
335.546996	2334.054231
335.939833	2364.301154
336.332606	2419.753846
336.725315	2329.013077
337.117960	2381.945192
337.510540	2381.945192
337.903056	2462.603654
338.295508	2450.000769
338.687896	2419.753846
339.080220	2409.671538
339.472480	2450.000769
339.864676	2364.301154
340.256807	2500.412308
340.648875	2490.330000
341.040879	2450.000769
341.432818	2450.000769
341.824694	2392.027500
342.216506	2434.877308
342.608253	2505.453462
342.999937	2424.795000
343.391557	2444.959615
343.783113	2480.247692
344.174605	2502.932885
344.566033	2513.015192
344.957397	2442.439038
345.348697	2543.262115
345.739934	2480.247692
346.131106	2444.959615
346.522215	2475.206538
346.913260	2505.453462
347.304241	2455.041923
347.695159	2485.288846
348.086012	2417.233269
348.476802	2472.685962
348.867528	2427.315577
349.258191	2528.138654
349.648789	2513.015192
350.039324	2487.809423
350.429796	2475.206538
350.820203	2402.109808
351.210548	2472.685962
351.600828	2460.083077
351.991045	2417.233269
352.381198	2442.439038
352.771288	2480.247692
353.161314	2510.494615
353.551276	2505.453462
353.941175	2397.068654
354.331010	2455.041923
354.720782	2419.753846
355.110490	2470.165385
355.500135	2381.945192
355.889717	2376.904038
356.279235	2487.809423
356.668689	2414.712692
357.058080	2439.918462
357.447408	2465.124231
357.836672	2407.150962
358.225873	2366.821731
358.615010	2457.562500
359.004084	2424.795000
359.393095	2417.233269
359.782043	2462.603654
360.170927	2432.356731
360.559748	2432.356731
360.948505	2477.727115
361.337199	2497.891731
361.725830	2510.494615
362.114398	2389.506923
362.502903	2450.000769
362.891344	2442.439038
363.279722	2371.862885
363.668037	2490.330000
364.056289	2439.918462
364.444478	2450.000769
364.832603	2409.671538
365.220665	2450.000769
365.608665	2429.836154
365.996601	2444.959615
366.384474	2444.959615
366.772284	2429.836154
367.160031	2434.877308
367.547715	2555.865000
367.935336	2447.480192
368.322893	2462.603654
368.710388	2460.083077
369.097820	2472.685962
369.485189	2412.192115
369.872495	2452.521346
370.259738	2505.453462
370.646918	2419.753846
371.034035	2439.918462
371.421090	2495.371154
371.808081	2485.288846
372.195010	2487.809423
372.581875	2384.465769
372.968678	2495.371154
373.355418	2507.974038
373.742096	2417.233269
374.128710	2487.809423
374.515262	2422.274423
374.901751	2533.179808
375.288177	2427.315577
375.674540	2417.233269
376.060841	2437.397885
376.447079	2510.494615
376.833254	2409.671538
377.219367	2371.862885
377.605417	2402.109808
377.991404	2497.891731
378.377329	2394.548077
378.763191	2419.753846
379.148991	2475.206538
379.534727	2404.630385
379.920402	2417.233269
380.306013	2492.850577
380.691563	2419.753846
381.077049	2407.150962
381.462474	2407.150962
381.847835	2457.562500
382.233134	2404.630385
382.618371	2465.124231
383.003545	2402.109808
383.388657	2513.015192
383.773706	2407.150962
384.158693	2482.768269
384.543618	2402.109808
384.928480	2530.659231
385.313280	2500.412308
385.698017	2432.356731
386.082692	2485.288846
386.467305	2450.000769
386.851856	2450.000769
387.236344	2475.206538
387.620770	2455.041923
388.005133	2497.891731
388.389435	2389.506923
388.773674	2470.165385
389.157851	2472.685962
389.541965	2538.220962
389.926018	2462.603654
390.310008	2419.753846
390.693936	2444.959615
391.077802	2515.535769
391.461606	2492.850577
391.845348	2389.506923
392.229027	2505.453462
392.612645	2457.562500
392.996200	2457.562500
393.379694	2490.330000
393.763125	2475.206538
394.146494	2437.397885
394.529801	2442.439038
394.913047	2407.150962
395.296230	2465.124231
395.679351	2376.904038
396.062410	2422.274423
396.445408	2409.671538
396.828343	2543.262115
397.211217	2492.850577
397.594028	2402.109808
397.976778	2450.000769
398.359466	2424.795000
398.742092	2475.206538
399.124656	2485.288846
399.507158	2500.412308
399.889598	2424.795000
400.271977	2523.097500
400.654294	2467.644808
401.036549	2462.603654
401.418742	2419.753846
401.800874	2482.768269
402.182944	2485.288846
402.564952	2467.644808
402.946898	2495.371154
403.328783	2525.618077
403.710606	2424.795000
404.092367	2502.932885
404.474067	2442.439038
404.855705	2502.932885
405.237282	2502.932885
405.618797	2487.809423
406.000250	2455.041923
406.381642	2475.206538
406.762972	2560.906154
407.144240	2429.836154
407.525447	2482.768269
407.906593	2523.097500
408.287677	2487.809423
408.668700	2460.083077
409.049661	2500.412308
409.430560	2399.589231
409.811399	2505.453462
410.192176	2472.685962
410.572891	2399.589231
410.953545	2460.083077
411.334138	2470.165385
411.714669	2467.644808
412.095139	2485.288846
412.475547	2450.000769
412.855894	2500.412308
413.236180	2500.412308
413.616405	2417.233269
413.996568	2452.521346
414.376670	2450.000769
414.756711	2520.576923
415.136691	2450.000769
415.516609	2553.344423
415.896466	2439.918462
416.276262	2465.124231
416.655997	2419.753846
417.035670	2505.453462
417.415283	2444.959615
417.794834	2520.576923
418.174324	2432.356731
418.553753	2465.124231
418.933121	2437.397885
419.312428	2371.862885
419.691674	2606.276538
420.070859	2520.576923
420.449983	2502.932885
420.829045	2397.068654
421.208047	2490.330000
421.586988	2452.521346
421.965867	2439.918462
422.344686	2495.371154
422.723444	2407.150962
423.102141	2510.494615
423.480777	2374.383462
423.859352	2535.700385
424.237866	2417.233269
424.616319	2402.109808
424.994712	2475.206538
425.373044	2533.179808
425.751314	2467.644808
426.129524	2447.480192
426.507673	2490.330000
426.885762	2437.397885
427.263789	2530.659231
427.641756	2427.315577
428.019662	2507.974038
428.397508	2480.247692
428.775292	2467.644808
429.153016	2475.206538
429.530679	2558.385577
429.908282	2457.562500
430.285824	2510.494615
430.663305	2422.274423
431.040726	2533.179808
431.418086	2467.644808
431.795385	2457.562500
432.172624	2424.795000
432.549802	2480.247692
432.926920	2490.330000
433.303977	2487.809423
433.680974	2422.274423
434.057910	2533.179808
434.434786	2414.712692
434.811601	2444.959615
435.188355	2548.303269
435.565050	2480.247692
435.941683	2500.412308
436.318257	2497.891731
436.694770	2447.480192
437.071222	2457.562500
437.447614	2404.630385
437.823946	2419.753846
438.200218	2507.974038
438.576429	2533.179808
438.952580	2513.015192
439.328670	2492.850577
439.704700	2470.165385
440.080670	2513.015192
440.456580	2419.753846
440.832429	2480.247692
441.208218	2490.330000
441.583947	2485.288846
441.959616	2424.795000
442.335224	2505.453462
442.710773	2475.206538
443.086261	2439.918462
443.461689	2432.356731
443.837057	2472.685962
444.212365	2472.685962
444.587612	2447.480192
444.962800	2540.741538
445.337927	2500.412308
445.712995	2555.865000
446.088002	2490.330000
446.462949	2538.220962
446.837837	2540.741538
447.212664	2515.535769
447.587431	2492.850577
447.962139	2525.618077
448.336786	2507.974038
448.711374	2495.371154
449.085901	2507.974038
449.460369	2495.371154
449.834776	2442.439038
450.209124	2513.015192
450.583412	2543.262115
450.957640	2467.644808
451.331808	2492.850577
451.705917	2419.753846
452.079965	2500.412308
452.453954	2384.465769
452.827883	2502.932885
453.201752	2576.029615
453.575562	2404.630385
453.949311	2475.206538
454.323001	2477.727115
454.696632	2480.247692
455.070202	2573.509038
455.443713	2452.521346
455.817164	2412.192115
456.190556	2492.850577
456.563888	2495.371154
456.937160	2540.741538
457.310373	2495.371154
457.683526	2384.465769
458.056619	2460.083077
458.429653	2432.356731
458.802628	2450.000769
459.175542	2381.945192
459.548398	2467.644808
459.921194	2455.041923
460.293930	2550.823846
460.666607	2500.412308
461.039224	2414.712692
461.411782	2472.685962
461.784280	2497.891731
462.156719	2510.494615
462.529099	2414.712692
462.901419	2523.097500
463.273680	2480.247692
463.645882	2452.521346
464.018024	2525.618077
464.390106	2437.397885
464.762130	2540.741538
465.134094	2424.795000
465.505999	2500.412308
465.877845	2548.303269
466.249631	2497.891731
466.621358	2500.412308
466.993026	2442.439038
467.364634	2444.959615
467.736184	2492.850577
468.107674	2472.685962
468.479105	2485.288846
468.850477	2460.083077
469.221790	2497.891731
469.593043	2505.453462
469.964238	2520.576923
470.335373	2492.850577
470.706449	2429.836154
471.077467	2492.850577
471.448425	2558.385577
471.819324	2450.000769
472.190164	2500.412308
472.560945	2419.753846
472.931667	2465.124231
473.302330	2477.727115
473.672934	2470.165385
474.043479	2500.412308
474.413965	2475.206538
474.784393	2507.974038
475.154761	2412.192115
475.525070	2465.124231
475.895321	2444.959615
476.265513	2558.385577
476.635645	2457.562500
477.005719	2525.618077
477.375734	2502.932885
477.745691	2427.315577
478.115588	2427.315577
478.485427	2452.521346
478.855207	2502.932885
479.224928	2515.535769
479.594591	2533.179808
479.964194	2407.150962
480.333739	2404.630385
480.703226	2490.330000
481.072653	2513.015192
481.442022	2490.330000
481.811333	2497.891731
482.180584	2482.768269
482.549777	2515.535769
482.918912	2510.494615
483.287988	2485.288846
483.657005	2467.644808
484.025964	2495.371154
484.394864	2422.274423
484.763706	2485.288846
485.132489	2548.303269
485.501213	2452.521346
485.869879	2467.644808
486.238487	2394.548077
486.607036	2427.315577
486.975527	2502.932885
487.343959	2555.865000
487.712333	2518.056346
488.080648	2492.850577
488.448905	2437.397885
488.817104	2525.618077
489.185244	2412.192115
489.553326	2523.097500
489.921350	2490.330000
490.289315	2588.632500
490.657222	2563.426731
491.025070	2500.412308
491.392861	2540.741538
491.760593	2545.782692
492.128267	2482.768269
492.495883	2480.247692
492.863440	2475.206538
493.230939	2485.288846
493.598380	2507.974038
493.965763	2485.288846
494.333088	2525.618077
494.700354	2482.768269
495.067563	2462.603654
495.434713	2477.727115
495.801805	2507.974038
496.168839	2528.138654
496.535815	2515.535769
496.902733	2475.206538
497.269593	2487.809423
497.636395	2452.521346
498.003139	2502.932885
498.369825	2452.521346
498.736453	2447.480192
499.103023	2477.727115
499.469535	2601.235385
499.835989	2399.589231
500.202385	2475.206538
500.568723	2437.397885
500.935003	2477.727115
501.301226	2550.823846
501.667390	2439.918462
502.033497	2507.974038
502.399546	2477.727115
502.765537	2482.768269
503.131470	2460.083077
503.497345	2444.959615
503.863163	2492.850577
504.228923	2563.426731
504.594625	2515.535769
504.960269	2414.712692
505.325856	2518.056346
505.691385	2520.576923
506.056856	2540.741538
506.422270	2502.932885
506.787625	2442.439038
507.152924	2573.509038
507.518164	2515.535769
507.883347	2480.247692
508.248472	2495.371154
508.613540	2530.659231
508.978550	2520.576923
509.343503	2452.521346
509.708398	2550.823846
510.073236	2467.644808
510.438016	2409.671538
510.802738	2505.453462
511.167403	2450.000769
511.532010	2475.206538
511.896561	2558.385577
512.261053	2535.700385
512.625488	2507.974038
512.989866	2490.330000
513.354186	2472.685962
513.718449	2553.344423
514.082655	2452.521346
514.446803	2502.932885
514.810894	2576.029615
515.174927	2505.453462
515.538904	2530.659231
515.902822	2374.383462
516.266684	2399.589231
516.630488	2513.015192
516.994235	2548.303269
517.357925	2419.753846
517.721558	2507.974038
518.085133	2470.165385
518.448651	2465.124231
518.812112	2613.838269
519.175516	2490.330000
519.538863	2543.262115
519.902152	2576.029615
520.265385	2412.192115
520.628560	2525.618077
520.991678	2490.330000
521.354739	2510.494615
521.717743	2482.768269
522.080690	2414.712692
522.443580	2518.056346
522.806413	2480.247692
523.169189	2470.165385
523.531908	2475.206538
523.894569	2518.056346
524.257174	2523.097500
524.619722	2505.453462
524.982213	2444.959615
525.344647	2528.138654
525.707025	2482.768269
526.069345	2490.330000
526.431608	2502.932885
526.793815	2563.426731
527.155964	2538.220962
527.518057	2470.165385
527.880093	2480.247692
528.242072	2515.535769
528.603995	2480.247692
528.965860	2533.179808
529.327669	2455.041923
529.689421	2419.753846
530.051117	2523.097500
530.412755	2570.988462
530.774337	2576.029615
531.135862	2543.262115
531.497331	2485.288846
531.858743	2530.659231
532.220098	2515.535769
532.581396	2538.220962
532.942638	2535.700385
533.303824	2533.179808
533.664953	2520.576923
534.026025	2513.015192
534.387040	2513.015192
534.747999	2507.974038
535.108902	2460.083077
535.469748	2424.795000
535.830537	2434.877308
536.191270	2424.795000
536.551947	2507.974038
536.912567	2465.124231
537.273131	2528.138654
537.633638	2487.809423
537.994089	2477.727115
538.354483	2432.356731
538.714821	2452.521346
539.075103	2417.233269
539.435328	2492.850577
539.795497	2513.015192
540.155609	2460.083077
540.515665	2535.700385
540.875665	2492.850577
541.235609	2520.576923
541.595496	2480.247692
541.955328	2601.235385
542.315102	2608.797115
542.674821	2500.412308
543.034483	2424.795000
543.394090	2460.083077
543.753640	2525.618077
544.113134	2482.768269
544.472571	2515.535769
544.831953	2437.397885
545.191278	2465.124231
545.550548	2507.974038
545.909761	2434.877308
546.268918	2442.439038
546.628019	2523.097500
546.987064	2497.891731
547.346053	2457.562500
547.704986	2518.056346
548.063863	2540.741538
548.422684	2570.988462
548.781449	2487.809423
549.140158	2477.727115
549.498811	2482.768269
549.857408	2485.288846
550.215949	2540.741538
550.574434	2437.397885
550.932864	2502.932885
551.291237	2520.576923
551.649555	2513.015192
552.007817	2480.247692
552.366022	2452.521346
552.724173	2495.371154
553.082267	2520.576923
553.440305	2586.111923
553.798288	2505.453462
554.156215	2490.330000
554.514086	2533.179808
554.871902	2444.959615
555.229661	2523.097500
555.587365	2482.768269
555.945014	2450.000769
556.302606	2480.247692
556.660143	2497.891731
557.017625	2439.918462
557.375050	2455.041923
557.732421	2515.535769
558.089735	2560.906154
558.446994	2563.426731
558.804197	2510.494615
559.161345	2548.303269
559.518437	2543.262115
559.875474	2485.288846
560.232455	2495.371154
560.589381	2450.000769
560.946251	2588.632500
561.303065	2470.165385
561.659825	2497.891731
562.016528	2568.467885
562.373177	2530.659231
562.729770	2487.809423
563.086307	2515.535769
563.442789	2507.974038
563.799216	2543.262115
564.155587	2485.288846
564.511904	2502.932885
564.868164	2447.480192
565.224370	2523.097500
565.580520	2455.041923
565.936615	2487.809423
566.292654	2560.906154
566.648638	2472.685962
567.004567	2480.247692
567.360441	2507.974038
567.716260	2533.179808
568.072023	2545.782692
568.427732	2465.124231
568.783385	2455.041923
569.138982	2492.850577
569.494525	2389.506923
569.850013	2376.904038
570.205445	2518.056346
570.560823	2487.809423
570.916145	2465.124231
571.271412	2601.235385
571.626625	2573.509038
571.981782	2457.562500
572.336884	2583.591346
572.691931	2432.356731
573.046923	2500.412308
573.401860	2550.823846
573.756743	2558.385577
574.111570	2565.947308
574.466342	2470.165385
574.821059	2490.330000
575.175722	2490.330000
575.530330	2467.644808
575.884882	2472.685962
576.239380	2495.371154
576.593823	2439.918462
576.948211	2399.589231
577.302544	2482.768269
577.656823	2525.618077
578.011047	2482.768269
578.365216	2540.741538
578.719330	2545.782692
579.073389	2550.823846
579.427394	2513.015192
579.781344	2535.700385
580.135239	2455.041923
580.489080	2437.397885
580.842866	2570.988462
581.196597	2485.288846
581.550273	2462.603654
581.903895	2432.356731
582.257463	2467.644808
582.610975	2409.671538
582.964434	2593.673654
583.317837	2419.753846
583.671186	2495.371154
584.024481	2583.591346
584.377721	2540.741538
584.730906	2455.041923
585.084037	2510.494615
585.437113	2482.768269
585.790135	2656.688077
586.143103	2525.618077
586.496016	2548.303269
586.848874	2414.712692
587.201679	2424.795000
587.554428	2487.809423
587.907124	2513.015192
588.259765	2482.768269
588.612352	2573.509038
588.964884	2507.974038
589.317362	2442.439038
589.669786	2495.371154
590.022155	2455.041923
590.374470	2535.700385
590.726731	2437.397885
591.078937	2520.576923
591.431090	2492.850577
591.783188	2447.480192
592.135232	2528.138654
592.487222	2568.467885
592.839157	2485.288846
593.191038	2465.124231
593.542866	2457.562500
593.894639	2472.685962
594.246358	2472.685962
594.598022	2528.138654
594.949633	2538.220962
595.301190	2518.056346
595.652692	2490.330000
596.004141	2510.494615
596.355535	2634.002885
596.706876	2442.439038
597.058162	2548.303269
597.409395	2470.165385
597.760573	2475.206538
598.111698	2419.753846
598.462768	2515.535769
598.813785	2462.603654
599.164748	2480.247692
599.515657	2487.809423
599.866511	2470.165385
600.217312	2442.439038
600.568060	2525.618077
600.918753	2475.206538
601.269392	2528.138654
601.619978	2480.247692
601.970510	2510.494615
602.320988	2487.809423
602.671412	2482.768269
603.021783	2442.439038
603.372100	2520.576923
603.722363	2570.988462
604.072572	2472.685962
604.422728	2515.535769
604.772830	2450.000769
605.122878	2444.959615
605.472872	2450.000769
605.822813	2480.247692
606.172701	2502.932885
606.522534	2429.836154
606.872314	2548.303269
607.222041	2465.124231
607.571714	2525.618077
607.921333	2404.630385
608.270899	2475.206538
608.620411	2482.768269
608.969870	2543.262115
609.319276	2553.344423
609.668627	2492.850577
610.017926	2457.562500
610.367171	2545.782692
610.716362	2565.947308
611.065500	2460.083077
611.414585	2626.441154
611.763616	2437.397885
612.112594	2452.521346
612.461518	2528.138654
612.810389	2470.165385
613.159207	2482.768269
613.507971	2477.727115
613.856682	2480.247692
614.205340	2497.891731
614.553945	2480.247692
614.902496	2480.247692
615.250994	2523.097500
615.599439	2515.535769
615.947830	2558.385577
616.296169	2540.741538
616.644454	2570.988462
616.992686	2510.494615
617.340864	2568.467885
617.688990	2533.179808
618.037063	2480.247692
618.385082	2500.412308
618.733048	2439.918462
619.080961	2507.974038
619.428821	2475.206538
619.776628	2455.041923
620.124382	2515.535769
620.472083	2439.918462
620.819731	2538.220962
621.167326	2467.644808
621.514868	2598.714808
621.862357	2533.179808
622.209793	2389.506923
622.557176	2477.727115
622.904506	2523.097500
623.251783	2513.015192
623.599007	2540.741538
623.946179	2444.959615
624.293297	2482.768269
624.640363	2570.988462
624.987376	2490.330000
625.334336	2535.700385
625.681243	2497.891731
626.028097	2520.576923
626.374899	2505.453462
626.721647	2490.330000
627.068343	2482.768269
627.414987	2472.685962
627.761577	2465.124231
628.108115	2462.603654
628.454600	2515.535769
628.801032	2495.371154
629.147412	2500.412308
629.493739	2533.179808
629.840014	2570.988462
630.186236	2457.562500
630.532405	2538.220962
630.878521	2485.288846
631.224585	2500.412308
631.570597	2591.153077
631.916556	2538.220962
632.262462	2427.315577
632.608316	2513.015192
632.954117	2540.741538
633.299866	2429.836154
633.645562	2487.809423
633.991206	2538.220962
634.336797	2429.836154
634.682336	2414.712692
635.027823	2409.671538
635.373257	2523.097500
635.718639	2497.891731
636.063968	2460.083077
636.409245	2467.644808
636.754470	2505.453462
637.099642	2500.412308
637.444762	2472.685962
637.789829	2500.412308
638.134845	2513.015192
638.479808	2543.262115
638.824719	2560.906154
639.169577	2470.165385
639.514383	2525.618077
639.859137	2510.494615
640.203839	2455.041923
640.548489	2530.659231
640.893086	2399.589231
641.237632	2553.344423
641.582125	2530.659231
641.926566	2507.974038
642.270955	2455.041923
642.615292	2450.000769
642.959576	2485.288846
643.303809	2555.865000
643.647990	2618.879423
643.992118	2482.768269
644.336195	2515.535769
644.680219	2518.056346
645.024192	2513.015192
645.368112	2472.685962
645.711981	2485.288846
646.055797	2487.809423
646.399562	2538.220962
646.743274	2455.041923
647.086935	2530.659231
647.430544	2447.480192
647.774101	2452.521346
648.117606	2422.274423
648.461059	2518.056346
648.804460	2490.330000
649.147810	2558.385577
649.491108	2530.659231
649.834354	2540.741538
650.177548	2407.150962
650.520690	2384.465769
650.863781	2528.138654
651.206820	2530.659231
651.549807	2460.083077
651.892742	2608.797115
652.235626	2457.562500
652.578458	2477.727115
652.921238	2591.153077
653.263967	2505.453462
653.606644	2452.521346
653.949269	2472.685962
654.291843	2457.562500
654.634365	2570.988462
654.976836	2477.727115
655.319255	2480.247692
655.661622	2515.535769
656.003938	2386.986346
656.346203	2475.206538
656.688416	2553.344423
657.030577	2550.823846
657.372687	2497.891731
657.714746	2507.974038
658.056753	2472.685962
658.398708	2490.330000
658.740612	2460.083077
659.082465	2492.850577
659.424266	2467.644808
659.766016	2480.247692
660.107715	2490.330000
660.449362	2490.330000
660.790958	2465.124231
661.132503	2533.179808
661.473996	2444.959615
661.815438	2616.358846
662.156829	2555.865000
662.498168	2502.932885
662.839456	2480.247692
663.180693	2553.344423
663.521879	2467.644808
663.863013	2452.521346
664.204097	2530.659231
664.545129	2460.083077
664.886110	2596.194231
665.227040	2573.509038
665.567918	2515.535769
665.908746	2540.741538
666.249522	2389.506923
666.590248	2528.138654
666.930922	2500.412308
667.271545	2528.138654
667.612118	2485.288846
667.952639	2470.165385
668.293109	2553.344423
668.633528	2455.041923
668.973896	2492.850577
669.314213	2558.385577
669.654480	2490.330000
669.994695	2530.659231
670.334859	2402.109808
670.674973	2530.659231
671.015035	2593.673654
671.355047	2495.371154
671.695008	2475.206538
672.034918	2480.247692
672.374777	2470.165385
672.714585	2444.959615
673.054342	2432.356731
673.394049	2402.109808
673.733705	2505.453462
674.073310	2576.029615
674.412864	2487.809423
674.752368	2510.494615
675.091820	2495.371154
675.431223	2437.397885
675.770574	2482.768269
676.109875	2437.397885
676.449125	2555.865000
676.788324	2462.603654
677.127473	2543.262115
677.466571	2434.877308
677.805619	2412.192115
678.144616	2538.220962
678.483562	2505.453462
678.822458	2470.165385
679.161303	2482.768269
679.500098	2455.041923
679.838842	2593.673654
680.177535	2447.480192
680.516179	2485.288846
680.854771	2545.782692
681.193314	2568.467885
681.531805	2510.494615
681.870247	2422.274423
682.208638	2583.591346
682.546978	2497.891731
682.885268	2386.986346
683.223508	2505.453462
683.561697	2505.453462
683.899836	2475.206538
684.237925	2437.397885
684.575963	2472.685962
684.913951	2467.644808
685.251889	2467.644808
685.589776	2482.768269
685.927614	2528.138654
686.265401	2434.877308
686.603137	2432.356731
686.940824	2518.056346
687.278460	2475.206538
687.616046	2462.603654
687.953582	2518.056346
688.291068	2439.918462
688.628504	2568.467885
688.965889	2543.262115
689.303224	2450.000769
689.640510	2533.179808
689.977745	2510.494615
690.314930	2492.850577
690.652065	2510.494615
690.989150	2455.041923
691.326185	2424.795000
691.663170	2565.947308
692.000105	2460.083077
692.336990	2394.548077
692.673825	2437.397885
693.010610	2548.303269
693.347345	2497.891731
693.684030	2515.535769
694.020665	2497.891731
694.357251	2518.056346
694.693786	2497.891731
695.030272	2487.809423
695.366707	2497.891731
695.703093	2523.097500
696.039429	2502.932885
696.375716	2563.426731
696.711952	2457.562500
697.048139	2502.932885
697.384276	2505.453462
697.720363	2485.288846
698.056400	2576.029615
698.392388	2462.603654
698.728326	2540.741538
699.064214	2583.591346
699.400053	2482.768269
699.735842	2507.974038
700.071581	2444.959615
700.407270	2500.412308
700.742910	2505.453462
701.078501	2525.618077
701.414042	2487.809423
701.749533	2568.467885
702.084974	2495.371154
702.420366	2477.727115
702.755709	2447.480192
703.091002	2523.097500
703.426246	2523.097500
703.761440	2472.685962
704.096584	2563.426731
704.431679	2447.480192
704.766725	2480.247692
705.101721	2535.700385
705.436668	2409.671538
705.771565	2550.823846
706.106413	2533.179808
706.441212	2470.165385
706.775961	2447.480192
707.110661	2439.918462
707.445311	2560.906154
707.779913	2495.371154
708.114465	2505.453462
708.448967	2518.056346
708.783421	2540.741538
709.117825	2545.782692
709.452180	2447.480192
709.786485	2467.644808
710.120742	2507.974038
710.454949	2470.165385
710.789107	2432.356731
711.123216	2472.685962
711.457275	2447.480192
711.791286	2432.356731
712.125247	2414.712692
712.459159	2510.494615
712.793023	2419.753846
713.126837	2507.974038
713.460602	2429.836154
713.794318	2487.809423
714.127985	2500.412308
714.461602	2475.206538
714.795171	2518.056346
715.128691	2424.795000
715.462162	2462.603654
715.795584	2419.753846
716.128957	2502.932885
716.462281	2507.974038
716.795556	2528.138654
717.128782	2450.000769
717.461960	2495.371154
717.795088	2560.906154
718.128167	2472.685962
718.461198	2543.262115
718.794180	2480.247692
719.127113	2386.986346
719.459997	2510.494615
719.792833	2480.247692
720.125619	2505.453462
720.458357	2515.535769
720.791046	2497.891731
721.123686	2510.494615
721.456278	2601.235385
721.788821	2341.615962
722.121315	2477.727115
722.453761	2422.274423
722.786158	2510.494615
723.118506	2530.659231
723.450805	2510.494615
723.783056	2432.356731
724.115259	2540.741538
724.447412	2455.041923
724.779518	2455.041923
725.111574	2570.988462
725.443582	2505.453462
725.775542	2470.165385
726.107453	2507.974038
726.439315	2623.920577
726.771129	2485.288846
727.102895	2558.385577
727.434612	2565.947308
727.766281	2472.685962
728.097901	2409.671538
728.429473	2482.768269
728.760996	2462.603654
729.092471	2563.426731
729.423897	2460.083077
729.755276	2444.959615
730.086606	2515.535769
730.417887	2510.494615
730.749120	2515.535769
731.080305	2535.700385
731.411442	2457.562500
731.742530	2523.097500
732.073570	2429.836154
732.404562	2477.727115
732.735506	2568.467885
733.066401	2513.015192
733.397249	2520.576923
733.728048	2490.330000
734.058798	2553.344423
734.389501	2538.220962
734.720156	2530.659231
735.050762	2490.330000
735.381320	2500.412308
735.711831	2480.247692
736.042293	2497.891731
736.372707	2424.795000
736.703073	2525.618077
737.033391	2500.412308
737.363661	2470.165385
737.693883	2507.974038
738.024056	2437.397885
738.354182	2568.467885
738.684260	2439.918462
739.014290	2490.330000
739.344272	2462.603654
739.674207	2487.809423
740.004093	2513.015192
740.333931	2586.111923
740.663722	2470.165385
740.993464	2540.741538
741.323159	2558.385577
741.652806	2550.823846
741.982405	2487.809423
742.311956	2485.288846
742.641460	2460.083077
742.970915	2518.056346
743.300323	2520.576923
743.629683	2513.015192
743.958996	2553.344423
744.288260	2510.494615
744.617477	2462.603654
744.946647	2555.865000
745.275768	2480.247692
745.604842	2409.671538
745.933869	2460.083077
746.262847	2480.247692
746.591778	2593.673654
746.920662	2439.918462
747.249498	2565.947308
747.578286	2550.823846
747.907027	2480.247692
748.235720	2565.947308
748.564365	2444.959615
748.892963	2528.138654
749.221514	2450.000769
749.550017	2485.288846
749.878473	2447.480192
750.206881	2457.562500
750.535242	2472.685962
750.863555	2485.288846
751.191821	2502.932885
751.520039	2497.891731
751.848210	2518.056346
752.176334	2490.330000
752.504411	2598.714808
752.832440	2505.453462
753.160421	2472.685962
753.488356	2568.467885
753.816243	2545.782692
754.144082	2487.809423
754.471875	2492.850577
754.799620	2434.877308
755.127318	2507.974038
755.454969	2497.891731
755.782572	2422.274423
756.110129	2500.412308
756.437638	2492.850577
756.765100	2477.727115
757.092515	2568.467885
757.419882	2560.906154
757.747203	2480.247692
758.074477	2565.947308
758.401703	2422.274423
758.728882	2553.344423
759.056014	2545.782692
759.383099	2535.700385
759.710138	2447.480192
760.037129	2475.206538
760.364073	2434.877308
760.690970	2538.220962
761.017820	2538.220962
761.344623	2442.439038
761.671379	2563.426731
761.998088	2578.550192
762.324751	2457.562500
762.651366	2472.685962
762.977935	2560.906154
763.304456	2419.753846
763.630931	2492.850577
763.957359	2492.850577
764.283740	2530.659231
764.610074	2485.288846
764.936362	2450.000769
765.262602	2475.206538
765.588796	2576.029615
765.914943	2515.535769
766.241044	2538.220962
766.567097	2470.165385
766.893104	2412.192115
767.219064	2447.480192
767.544978	2477.727115
767.870845	2497.891731
768.196665	2495.371154
768.522438	2530.659231
768.848165	2502.932885
769.173846	2538.220962
769.499479	2472.685962
769.825066	2507.974038
770.150607	2490.330000
770.476101	2490.330000
770.801548	2417.233269
771.126949	2485.288846
771.452303	2447.480192
771.777611	2510.494615
772.102872	2555.865000
772.428087	2523.097500
772.753256	2507.974038
773.078378	2502.932885
773.403453	2485.288846
773.728482	2553.344423
774.053465	2510.494615
774.378401	2477.727115
774.703291	2500.412308
775.028135	2533.179808
775.352932	2525.618077
775.677683	2439.918462
776.002388	2563.426731
776.327046	2455.041923
776.651658	2444.959615
776.976224	2533.179808
777.300743	2601.235385
777.625216	2455.041923
777.949643	2497.891731
778.274024	2573.509038
778.598359	2460.083077
778.922647	2409.671538
779.246889	2487.809423
779.571086	2523.097500
779.895236	2480.247692
780.219339	2490.330000
780.543397	2510.494615
780.867409	2482.768269
781.191374	2515.535769
781.515294	2485.288846
781.839167	2565.947308
782.162995	2515.535769
782.486776	2485.288846
782.810511	2507.974038
783.134201	2538.220962
783.457844	2518.056346
783.781441	2492.850577
784.104993	2477.727115
784.428498	2492.850577
784.751958	2457.562500
785.075372	2523.097500
785.398739	2545.782692
785.722061	2482.768269
786.045337	2450.000769
786.368568	2553.344423
786.691752	2455.041923
787.014891	2477.727115
787.337983	2450.000769
787.661030	2475.206538
787.984031	2505.453462
788.306987	2593.673654
788.629897	2502.932885
788.952760	2540.741538
789.275579	2477.727115
789.598351	2417.233269
789.921078	2535.700385
790.243759	2475.206538
790.566395	2485.288846
790.888984	2513.015192
791.211529	2528.138654
791.534027	2513.015192
791.856480	2381.945192
792.178888	2482.768269
792.501249	2520.576923
792.823566	2563.426731
793.145836	2444.959615
793.468062	2500.412308
793.790241	2530.659231
794.112375	2480.247692
794.434464	2515.535769
794.756507	2487.809423
795.078505	2515.535769
795.400457	2555.865000
795.722364	2510.494615
796.044226	2502.932885
796.366042	2452.521346
796.687812	2533.179808
797.009538	2452.521346
797.331218	2475.206538
797.652852	2465.124231
797.974442	2500.412308
798.295986	2535.700385
798.617484	2480.247692
798.938938	2467.644808
799.260346	2513.015192
799.581709	2475.206538
799.903026	2538.220962
800.224299	2450.000769
800.545526	2467.644808
800.866708	2515.535769
801.187845	2563.426731
801.508936	2553.344423
801.829983	2520.576923
802.150984	2462.603654
802.471940	2477.727115
802.792851	2520.576923
803.113717	2500.412308
803.434538	2510.494615
803.755314	2455.041923
804.076045	2507.974038
804.396731	2500.412308
804.717372	2439.918462
805.037967	2495.371154
805.358518	2427.315577
805.679024	2452.521346
805.999485	2520.576923
806.319901	2540.741538
806.640272	2502.932885
806.960598	2427.315577
807.280879	2475.206538
807.601115	2485.288846
807.921306	2495.371154
808.241453	2515.535769
808.561554	2513.015192
808.881611	2502.932885
809.201623	2427.315577
809.521590	2523.097500
809.841513	2477.727115
810.161390	2505.453462
810.481223	2500.412308
810.801011	2432.356731
811.120755	2560.906154
811.440453	2366.821731
811.760107	2442.439038
812.079716	2505.453462
812.399281	2460.083077
812.718801	2455.041923
813.038276	2432.356731
813.357707	2470.165385
813.677093	2427.315577
813.996434	2520.576923
814.315731	2462.603654
814.634983	2530.659231
814.954191	2444.959615
815.273354	2437.397885
815.592473	2490.330000
815.911547	2540.741538
816.230577	2515.535769
816.549562	2477.727115
816.868502	2543.262115
817.187399	2515.535769
817.506250	2565.947308
817.825058	2573.509038
818.143821	2422.274423
818.462539	2560.906154
818.781213	2437.397885
819.099843	2513.015192
819.418429	2419.753846
819.736970	2480.247692
820.055466	2460.083077
820.373919	2507.974038
820.692327	2475.206538
821.010691	2505.453462
821.329011	2495.371154
821.647286	2651.646923
821.965517	2502.932885
822.283704	2452.521346
822.601847	2558.385577
822.919945	2492.850577
823.237999	2444.959615
823.556010	2530.659231
823.873976	2434.877308
824.191897	2507.974038
824.509775	2495.371154
824.827609	2477.727115
825.145398	2550.823846
825.463144	2502.932885
825.780845	2442.439038
826.098502	2568.467885
826.416116	2538.220962
826.733685	2520.576923
827.051210	2465.124231
827.368692	2550.823846
827.686129	2472.685962
828.003522	2523.097500
828.320872	2455.041923
828.638177	2513.015192
828.955439	2409.671538
829.272656	2520.576923
829.589830	2399.589231
829.906960	2467.644808
830.224046	2450.000769
830.541088	2439.918462
830.858086	2540.741538
831.175041	2455.041923
831.491952	2482.768269
831.808819	2485.288846
832.125642	2439.918462
832.442421	2500.412308
832.759157	2533.179808
833.075849	2460.083077
833.392497	2472.685962
833.709101	2545.782692
834.025662	2455.041923
834.342179	2480.247692
834.658653	2434.877308
834.975083	2530.659231
835.291469	2432.356731
835.607811	2538.220962
835.924110	2455.041923
836.240366	2502.932885
836.556578	2465.124231
836.872746	2470.165385
837.188871	2477.727115
837.504952	2507.974038
837.820990	2470.165385
838.136984	2553.344423
838.452935	2475.206538
838.768842	2492.850577
839.084706	2432.356731
839.400526	2505.453462
839.716303	2540.741538
840.032037	2538.220962
840.347727	2505.453462
840.663373	2530.659231
840.978977	2452.521346
841.294537	2525.618077
841.610054	2507.974038
841.925527	2472.685962
842.240957	2485.288846
842.556344	2404.630385
842.871687	2482.768269
843.186987	2497.891731
843.502244	2465.124231
843.817458	2613.838269
844.132629	2482.768269
844.447756	2505.453462
844.762840	2487.809423
845.077881	2472.685962
845.392879	2475.206538
845.707833	2576.029615
846.022745	2497.891731
846.337613	2558.385577
846.652438	2444.959615
846.967221	2442.439038
847.281960	2356.739423
847.596656	2487.809423
847.911309	2603.755962
848.225919	2477.727115
848.540485	2520.576923
848.855009	2487.809423
849.169490	2528.138654
849.483928	2475.206538
849.798323	2417.233269
850.112675	2525.618077
850.426984	2447.480192
850.741251	2487.809423
851.055474	2371.862885
851.369654	2528.138654
851.683792	2523.097500
851.997887	2497.891731
852.311938	2578.550192
852.625947	2444.959615
852.939914	2432.356731
853.253837	2535.700385
853.567718	2568.467885
853.881555	2402.109808
854.195350	2457.562500
854.509103	2465.124231
854.822812	2457.562500
855.136479	2487.809423
855.450103	2550.823846
855.763685	2533.179808
856.077224	2558.385577
856.390720	2392.027500
856.704173	2467.644808
857.017584	2444.959615
857.330953	2515.535769
857.644278	2487.809423
857.957561	2490.330000
858.270802	2578.550192
858.584000	2452.521346
858.897155	2361.780577
859.210268	2457.562500
859.523339	2419.753846
859.836367	2502.932885
860.149352	2424.795000
860.462295	2444.959615
860.775195	2457.562500
861.088054	2455.041923
861.400869	2515.535769
861.713642	2462.603654
862.026373	2457.562500
862.339062	2502.932885
862.651708	2442.439038
862.964312	2538.220962
863.276873	2455.041923
863.589392	2533.179808
863.901869	2495.371154
864.214303	2500.412308
864.526696	2487.809423
864.839045	2523.097500
865.151353	2444.959615
865.463619	2553.344423
865.775842	2475.206538
866.088023	2528.138654
866.400162	2495.371154
866.712258	2447.480192
867.024313	2495.371154
867.336325	2563.426731
867.648296	2563.426731
867.960224	2507.974038
868.272110	2538.220962
868.583954	2492.850577
868.895755	2525.618077
869.207515	2530.659231
869.519233	2518.056346
869.830909	2608.797115
870.142542	2510.494615
870.454134	2528.138654
870.765684	2515.535769
871.077191	2442.439038
871.388657	2502.932885
871.700081	2520.576923
872.011463	2523.097500
872.322803	2573.509038
872.634101	2500.412308
872.945357	2576.029615
873.256571	2540.741538
873.567744	2465.124231
873.878874	2424.795000
874.189963	2490.330000
874.501010	2462.603654
874.812015	2525.618077
875.122979	2492.850577
875.433900	2457.562500
875.744780	2455.041923
876.055618	2550.823846
876.366415	2513.015192
876.677169	2465.124231
876.987882	2507.974038
877.298554	2578.550192
877.609183	2565.947308
877.919771	2475.206538
878.230317	2502.932885
878.540822	2553.344423
878.851285	2528.138654
879.161707	2487.809423
879.472087	2417.233269
879.782425	2540.741538
880.092722	2424.795000
880.402977	2442.439038
880.713191	2507.974038
881.023363	2447.480192
881.333494	2500.412308
881.643583	2548.303269
881.953631	2444.959615
882.263637	2513.015192
882.573602	2538.220962
882.883526	2475.206538
883.193408	2533.179808
883.503248	2528.138654
883.813048	2490.330000
884.122806	2402.109808
884.432522	2558.385577
884.742197	2505.453462
885.051831	2543.262115
885.361424	2439.918462
885.670975	2495.371154
885.980485	2462.603654
886.289954	2513.015192
886.599382	2510.494615
886.908768	2475.206538
887.218113	2412.192115
887.527417	2480.247692
887.836680	2485.288846
888.145901	2545.782692
888.455082	2457.562500
888.764221	2444.959615
889.073319	2465.124231
889.382376	2447.480192
889.691392	2538.220962
890.000366	2507.974038
890.309300	2518.056346
890.618193	2492.850577
890.927044	2497.891731
891.235855	2507.974038
891.544625	2452.521346
891.853353	2457.562500
892.162041	2500.412308
892.470687	2507.974038
892.779293	2457.562500
893.087858	2535.700385
893.396381	2502.932885
893.704864	2520.576923
894.013306	2558.385577
894.321707	2598.714808
894.630068	2447.480192
894.938387	2470.165385
895.246665	2419.753846
895.554903	2467.644808
895.863100	2477.727115
896.171256	2558.385577
896.479371	2495.371154
896.787446	2465.124231
897.095480	2487.809423
897.403473	2573.509038
897.711425	2528.138654
898.019336	2366.821731
898.327207	2528.138654
898.635038	2528.138654
898.942827	2540.741538
899.250576	2502.932885
899.558284	2548.303269
899.865952	2412.192115
900.173579	2442.439038
900.481165	2500.412308
900.788711	2475.206538
901.096216	2452.521346
901.403681	2530.659231
901.711105	2429.836154
902.018489	2520.576923
902.325832	2477.727115
902.633135	2510.494615
902.940397	2480.247692
903.247619	2545.782692
903.554800	2525.618077
903.861941	2538.220962
904.169041	2460.083077
904.476101	2616.358846
904.783121	2447.480192
905.090100	2432.356731
905.397039	2507.974038
905.703938	2460.083077
906.010796	2492.850577
906.317614	2487.809423
906.624391	2525.618077
906.931129	2477.727115
907.237826	2540.741538
907.544483	2540.741538
907.851099	2518.056346
908.157675	2538.220962
908.464211	2502.932885
908.770707	2475.206538
909.077163	2500.412308
909.383578	2528.138654
909.689954	2457.562500
909.996289	2455.041923
910.302584	2502.932885
910.608839	2450.000769
910.915054	2492.850577
911.221229	2437.397885
911.527363	2407.150962
911.833458	2394.548077
912.139513	2495.371154
912.445527	2530.659231
912.751502	2518.056346
913.057436	2457.562500
913.363331	2533.179808
913.669186	2533.179808
913.975000	2500.412308
914.280775	2462.603654
914.586510	2548.303269
914.892205	2450.000769
915.197859	2485.288846
915.503475	2565.947308
915.809050	2429.836154
916.114585	2492.850577
916.420081	2485.288846
916.725536	2442.439038
917.030952	2533.179808
917.336328	2500.412308
917.641665	2490.330000
917.946961	2533.179808
918.252218	2429.836154
918.557435	2450.000769
918.862612	2424.795000
919.167750	2530.659231
919.472848	2545.782692
919.777906	2515.535769
920.082925	2495.371154
920.387904	2492.850577
920.692843	2510.494615
920.997743	2518.056346
921.302603	2543.262115
921.607423	2487.809423
921.912204	2500.412308
922.216946	2455.041923
922.521647	2528.138654
922.826310	2500.412308
923.130932	2487.809423
923.435516	2424.795000
923.740059	2528.138654
924.044564	2432.356731
924.349028	2485.288846
924.653454	2497.891731
924.957840	2457.562500
925.262186	2507.974038
925.566493	2550.823846
925.870761	2467.644808
926.174989	2492.850577
926.479178	2487.809423
926.783328	2482.768269
927.087438	2540.741538
927.391509	2513.015192
927.695541	2485.288846
927.999533	2497.891731
928.303486	2429.836154
928.607400	2510.494615
928.911275	2480.247692
929.215110	2507.974038
929.518906	2507.974038
929.822663	2455.041923
930.126381	2485.288846
930.430060	2520.576923
930.733699	2472.685962
931.037299	2467.644808
931.340861	2457.562500
931.644383	2533.179808
931.947866	2535.700385
932.251309	2429.836154
932.554714	2558.385577
932.858080	2462.603654
933.161407	2480.247692
933.464694	2543.262115
933.767943	2374.383462
934.071153	2442.439038
934.374323	2450.000769
934.677455	2510.494615
934.980548	2424.795000
935.283602	2583.591346
935.586617	2439.918462
935.889593	2520.576923
936.192530	2520.576923
936.495428	2502.932885
936.798287	2475.206538
937.101108	2550.823846
937.403890	2470.165385
937.706632	2455.041923
938.009336	2530.659231
938.312002	2497.891731
938.614628	2424.795000
938.917216	2510.494615
939.219765	2502.932885
939.522275	2530.659231
939.824747	2487.809423
940.127179	2442.439038
940.429573	2540.741538
940.731929	2444.959615
941.034246	2535.700385
941.336524	2442.439038
941.638763	2540.741538
941.940964	2515.535769
942.243126	2558.385577
942.545250	2452.521346
942.847335	2475.206538
943.149381	2475.206538
943.451389	2523.097500
943.753359	2558.385577
944.055290	2404.630385
944.357182	2548.303269
944.659036	2507.974038
944.960851	2540.741538
945.262628	2487.809423
945.564367	2538.220962
945.866067	2513.015192
946.167729	2513.015192
946.469352	2500.412308
946.770937	2467.644808
947.072484	2518.056346
947.373992	2455.041923
947.675462	2530.659231
947.976893	2565.947308
948.278286	2452.521346
948.579641	2457.562500
948.880958	2462.603654
949.182236	2495.371154
949.483476	2578.550192
949.784678	2555.865000
950.085841	2477.727115
950.386967	2434.877308
950.688054	2457.562500
950.989103	2472.685962
951.290114	2558.385577
951.591087	2432.356731
951.892021	2427.315577
952.192917	2397.068654
952.493776	2525.618077
952.794596	2422.274423
953.095378	2399.589231
953.396122	2482.768269
953.696828	2492.850577
953.997496	2553.344423
954.298126	2560.906154
954.598718	2455.041923
954.899272	2470.165385
955.199788	2439.918462
955.500266	2510.494615
955.800706	2560.906154
956.101108	2417.233269
956.401472	2419.753846
956.701798	2525.618077
957.002087	2485.288846
957.302337	2455.041923
957.602550	2523.097500
957.902724	2444.959615
958.202861	2412.192115
958.502960	2432.356731
958.803022	2518.056346
959.103045	2611.317692
959.403031	2462.603654
959.702979	2470.165385
960.002889	2530.659231
960.302762	2487.809423
960.602596	2515.535769
960.902393	2475.206538
961.202153	2510.494615
961.501875	2505.453462
961.801559	2477.727115
962.101205	2533.179808
962.400814	2507.974038
962.700385	2520.576923
962.999918	2427.315577
963.299414	2482.768269
963.598873	2424.795000
963.898293	2543.262115
964.197677	2460.083077
964.497022	2497.891731
964.796331	2500.412308
965.095601	2538.220962
965.394835	2475.206538
965.694030	2545.782692
965.993189	2528.138654
966.292309	2480.247692
966.591393	2477.727115
966.890439	2462.603654
967.189447	2462.603654
967.488419	2462.603654
967.787353	2510.494615
968.086249	2487.809423
968.385108	2495.371154
968.683930	2505.453462
968.982714	2515.535769
969.281462	2470.165385
969.580172	2513.015192
969.878844	2502.932885
970.177480	2523.097500
970.476078	2563.426731
970.774639	2535.700385
971.073162	2475.206538
971.371649	2505.453462
971.670098	2490.330000
971.968510	2525.618077
972.266885	2462.603654
972.565223	2487.809423
972.863524	2472.685962
973.161788	2515.535769
973.460014	2492.850577
973.758204	2404.630385
974.056356	2472.685962
974.354471	2455.041923
974.652550	2462.603654
974.950591	2540.741538
975.248595	2472.685962
975.546563	2455.041923
975.844493	2603.755962
976.142386	2439.918462
976.440243	2439.918462
976.738062	2374.383462
977.035845	2538.220962
977.333590	2490.330000
977.631299	2460.083077
977.928971	2550.823846
978.226606	2442.439038
978.524204	2477.727115
978.821765	2601.235385
979.119290	2460.083077
979.416777	2530.659231
979.714228	2480.247692
980.011642	2533.179808
980.309020	2581.070769
980.606360	2439.918462
980.903664	2570.988462
981.200931	2560.906154
981.498162	2535.700385
981.795356	2439.918462
982.092513	2550.823846
982.389633	2465.124231
982.686717	2606.276538
982.983764	2442.439038
983.280775	2470.165385
983.577749	2470.165385
983.874686	2507.974038
984.171587	2402.109808
984.468451	2611.317692
984.765279	2525.618077
985.062070	2460.083077
985.358824	2407.150962
985.655543	2545.782692
985.952224	2480.247692
986.248869	2417.233269
986.545478	2525.618077
986.842050	2417.233269
987.138586	2497.891731
987.435086	2495.371154
987.731549	2437.397885
988.027975	2442.439038
988.324366	2518.056346
988.620719	2477.727115
988.917037	2447.480192
989.213318	2381.945192
989.509563	2465.124231
989.805772	2422.274423
990.101944	2502.932885
990.398080	2442.439038
990.694180	2475.206538
990.990244	2457.562500
991.286271	2465.124231
991.582262	2485.288846
991.878217	2460.083077
992.174136	2487.809423
992.470019	2447.480192
992.765865	2487.809423
993.061676	2487.809423
993.357450	2470.165385
993.653188	2507.974038
993.948890	2528.138654
994.244556	2427.315577
994.540186	2513.015192
994.835780	2555.865000
995.131337	2558.385577
995.426859	2513.015192
995.722345	2472.685962
996.017795	2485.288846
996.313208	2513.015192
996.608586	2518.056346
996.903928	2500.412308
997.199234	2550.823846
997.494504	2482.768269
997.789738	2399.589231
998.084936	2477.727115
998.380099	2500.412308
998.675225	2455.041923
998.970316	2485.288846
999.265371	2480.247692
999.560390	2477.727115
999.855373	2490.330000
1000.150320	2467.644808
1000.445232	2497.891731
1000.740108	2460.083077
1001.034948	2482.768269
1001.329752	2495.371154
1001.624521	2497.891731
1001.919254	2487.809423
1002.213951	2550.823846
1002.508613	2475.206538
1002.803239	2467.644808
1003.097829	2452.521346
1003.392384	2432.356731
1003.686903	2475.206538
1003.981386	2482.768269
1004.275834	2427.315577
1004.570246	2540.741538
1004.864623	2434.877308
1005.158964	2523.097500
1005.453270	2465.124231
1005.747540	2518.056346
1006.041775	2525.618077
1006.335974	2462.603654
1006.630138	2591.153077
1006.924266	2386.986346
1007.218359	2497.891731
1007.512416	2543.262115
1007.806438	2485.288846
1008.100425	2450.000769
1008.394376	2482.768269
1008.688292	2492.850577
1008.982172	2535.700385
1009.276017	2487.809423
1009.569827	2515.535769
1009.863602	2450.000769
1010.157341	2505.453462
1010.451045	2447.480192
1010.744714	2422.274423
1011.038347	2513.015192
1011.331945	2560.906154
1011.625508	2533.179808
1011.919036	2472.685962
1012.212528	2434.877308
1012.505986	2480.247692
1012.799408	2460.083077
1013.092795	2470.165385
1013.386147	2495.371154
1013.679464	2442.439038
1013.972745	2475.206538
1014.265992	2465.124231
1014.559204	2490.330000
1014.852380	2487.809423
1015.145521	2581.070769
1015.438628	2523.097500
1015.731699	2402.109808
1016.024736	2520.576923
1016.317737	2513.015192
1016.610703	2465.124231
1016.903635	2495.371154
1017.196531	2495.371154
1017.489393	2490.330000
1017.782219	2510.494615
1018.075011	2487.809423
1018.367768	2507.974038
1018.660490	2442.439038
1018.953177	2442.439038
1019.245829	2442.439038
