Dividing Wavelength (nm)	Counts (n)	Blue Motor Position (mm): 7.100000	Red Motor Position (mm): 0.000000	
326.493990	2046.708462
326.888308	2046.708462
327.282561	2046.708462
327.676750	2001.338077
328.070874	2041.667308
328.464933	2102.161154
328.858929	2071.914231
329.252859	2024.023269
329.646726	2114.764038
330.040528	2104.681731
330.434265	2170.216731
330.827938	2134.928654
331.221547	2104.681731
331.615091	2160.134423
332.008571	2205.504808
332.401986	2228.190000
332.795338	2255.916346
333.188625	2286.163269
333.581847	2197.943077
333.975006	2331.533654
334.368100	2334.054231
334.761129	2331.533654
335.154095	2346.657115
335.546996	2313.889615
335.939833	2339.095385
336.332606	2432.356731
336.725315	2429.836154
337.117960	2447.480192
337.510540	2437.397885
337.903056	2394.548077
338.295508	2374.383462
338.687896	2485.288846
339.080220	2513.015192
339.472480	2407.150962
339.864676	2417.233269
340.256807	2427.315577
340.648875	2437.397885
341.040879	2470.165385
341.432818	2513.015192
341.824694	2447.480192
342.216506	2487.809423
342.608253	2482.768269
342.999937	2485.288846
343.391557	2555.865000
343.783113	2482.768269
344.174605	2407.150962
344.566033	2465.124231
344.957397	2432.356731
345.348697	2502.932885
345.739934	2500.412308
346.131106	2452.521346
346.522215	2412.192115
346.913260	2404.630385
347.304241	2475.206538
347.695159	2490.330000
348.086012	2434.877308
348.476802	2394.548077
348.867528	2482.768269
349.258191	2437.397885
349.648789	2359.260000
350.039324	2472.685962
350.429796	2437.397885
350.820203	2500.412308
351.210548	2447.480192
351.600828	2434.877308
351.991045	2344.136538
352.381198	2417.233269
352.771288	2404.630385
353.161314	2386.986346
353.551276	2386.986346
353.941175	2472.685962
354.331010	2351.698269
354.720782	2467.644808
355.110490	2417.233269
355.500135	2432.356731
355.889717	2429.836154
356.279235	2414.712692
356.668689	2487.809423
357.058080	2477.727115
357.447408	2414.712692
357.836672	2485.288846
358.225873	2442.439038
358.615010	2457.562500
359.004084	2366.821731
359.393095	2407.150962
359.782043	2412.192115
360.170927	2394.548077
360.559748	2523.097500
360.948505	2427.315577
361.337199	2437.397885
361.725830	2485.288846
362.114398	2467.644808
362.502903	2520.576923
362.891344	2432.356731
363.279722	2437.397885
363.668037	2361.780577
364.056289	2386.986346
364.444478	2450.000769
364.832603	2485.288846
365.220665	2351.698269
365.608665	2429.836154
365.996601	2417.233269
366.384474	2495.371154
366.772284	2442.439038
367.160031	2364.301154
367.547715	2434.877308
367.935336	2371.862885
368.322893	2381.945192
368.710388	2424.795000
369.097820	2442.439038
369.485189	2422.274423
369.872495	2444.959615
370.259738	2510.494615
370.646918	2477.727115
371.034035	2520.576923
371.421090	2480.247692
371.808081	2407.150962
372.195010	2434.877308
372.581875	2472.685962
372.968678	2349.177692
373.355418	2419.753846
373.742096	2432.356731
374.128710	2487.809423
374.515262	2495.371154
374.901751	2470.165385
375.288177	2384.465769
375.674540	2485.288846
376.060841	2407.150962
376.447079	2386.986346
376.833254	2419.753846
377.219367	2507.974038
377.605417	2477.727115
377.991404	2528.138654
378.377329	2376.904038
378.763191	2344.136538
379.148991	2472.685962
379.534727	2422.274423
379.920402	2467.644808
380.306013	2487.809423
380.691563	2371.862885
381.077049	2434.877308
381.462474	2369.342308
381.847835	2523.097500
382.233134	2487.809423
382.618371	2450.000769
383.003545	2523.097500
383.388657	2455.041923
383.773706	2535.700385
384.158693	2407.150962
384.543618	2510.494615
384.928480	2455.041923
385.313280	2482.768269
385.698017	2437.397885
386.082692	2477.727115
386.467305	2409.671538
386.851856	2507.974038
387.236344	2444.959615
387.620770	2412.192115
388.005133	2482.768269
388.389435	2414.712692
388.773674	2462.603654
389.157851	2447.480192
389.541965	2576.029615
389.926018	2399.589231
390.310008	2487.809423
390.693936	2404.630385
391.077802	2477.727115
391.461606	2457.562500
391.845348	2535.700385
392.229027	2492.850577
392.612645	2432.356731
392.996200	2412.192115
393.379694	2507.974038
393.763125	2432.356731
394.146494	2520.576923
394.529801	2455.041923
394.913047	2444.959615
395.296230	2376.904038
395.679351	2495.371154
396.062410	2424.795000
396.445408	2513.015192
396.828343	2437.397885
397.211217	2538.220962
397.594028	2492.850577
397.976778	2437.397885
398.359466	2555.865000
398.742092	2457.562500
399.124656	2467.644808
399.507158	2419.753846
399.889598	2578.550192
400.271977	2477.727115
400.654294	2371.862885
401.036549	2371.862885
401.418742	2500.412308
401.800874	2462.603654
402.182944	2397.068654
402.564952	2465.124231
402.946898	2475.206538
403.328783	2450.000769
403.710606	2540.741538
404.092367	2497.891731
404.474067	2538.220962
404.855705	2462.603654
405.237282	2455.041923
405.618797	2414.712692
406.000250	2538.220962
406.381642	2497.891731
406.762972	2495.371154
407.144240	2381.945192
407.525447	2518.056346
407.906593	2462.603654
408.287677	2538.220962
408.668700	2407.150962
409.049661	2465.124231
409.430560	2492.850577
409.811399	2450.000769
410.192176	2528.138654
410.572891	2482.768269
410.953545	2472.685962
411.334138	2490.330000
411.714669	2570.988462
412.095139	2563.426731
412.475547	2424.795000
412.855894	2369.342308
413.236180	2434.877308
413.616405	2505.453462
413.996568	2465.124231
414.376670	2432.356731
414.756711	2444.959615
415.136691	2538.220962
415.516609	2523.097500
415.896466	2538.220962
416.276262	2500.412308
416.655997	2381.945192
417.035670	2548.303269
417.415283	2480.247692
417.794834	2472.685962
418.174324	2530.659231
418.553753	2424.795000
418.933121	2487.809423
419.312428	2465.124231
419.691674	2409.671538
420.070859	2565.947308
420.449983	2558.385577
420.829045	2472.685962
421.208047	2497.891731
421.586988	2429.836154
421.965867	2407.150962
422.344686	2553.344423
422.723444	2450.000769
423.102141	2528.138654
423.480777	2455.041923
423.859352	2467.644808
424.237866	2515.535769
424.616319	2480.247692
424.994712	2366.821731
425.373044	2457.562500
425.751314	2447.480192
426.129524	2477.727115
426.507673	2490.330000
426.885762	2472.685962
427.263789	2573.509038
427.641756	2513.015192
428.019662	2482.768269
428.397508	2565.947308
428.775292	2485.288846
429.153016	2475.206538
429.530679	2505.453462
429.908282	2581.070769
430.285824	2502.932885
430.663305	2502.932885
431.040726	2528.138654
431.418086	2538.220962
431.795385	2419.753846
432.172624	2520.576923
432.549802	2384.465769
432.926920	2543.262115
433.303977	2507.974038
433.680974	2555.865000
434.057910	2470.165385
434.434786	2518.056346
434.811601	2450.000769
435.188355	2422.274423
435.565050	2452.521346
435.941683	2455.041923
436.318257	2477.727115
436.694770	2520.576923
437.071222	2490.330000
437.447614	2480.247692
437.823946	2467.644808
438.200218	2502.932885
438.576429	2500.412308
438.952580	2540.741538
439.328670	2530.659231
439.704700	2472.685962
440.080670	2465.124231
440.456580	2470.165385
440.832429	2394.548077
441.208218	2485.288846
441.583947	2550.823846
441.959616	2467.644808
442.335224	2465.124231
442.710773	2457.562500
443.086261	2472.685962
443.461689	2465.124231
443.837057	2533.179808
444.212365	2543.262115
444.587612	2371.862885
444.962800	2515.535769
445.337927	2402.109808
445.712995	2490.330000
446.088002	2480.247692
446.462949	2606.276538
446.837837	2528.138654
447.212664	2450.000769
447.587431	2475.206538
447.962139	2495.371154
448.336786	2482.768269
448.711374	2507.974038
449.085901	2480.247692
449.460369	2518.056346
449.834776	2487.809423
450.209124	2565.947308
450.583412	2457.562500
450.957640	2409.671538
451.331808	2472.685962
451.705917	2548.303269
452.079965	2502.932885
452.453954	2518.056346
452.827883	2480.247692
453.201752	2530.659231
453.575562	2578.550192
453.949311	2414.712692
454.323001	2543.262115
454.696632	2490.330000
455.070202	2500.412308
455.443713	2518.056346
455.817164	2528.138654
456.190556	2434.877308
456.563888	2576.029615
456.937160	2505.453462
457.310373	2513.015192
457.683526	2472.685962
458.056619	2497.891731
458.429653	2533.179808
458.802628	2487.809423
459.175542	2429.836154
459.548398	2500.412308
459.921194	2477.727115
460.293930	2576.029615
460.666607	2523.097500
461.039224	2490.330000
461.411782	2525.618077
461.784280	2497.891731
462.156719	2472.685962
462.529099	2465.124231
462.901419	2480.247692
463.273680	2523.097500
463.645882	2442.439038
464.018024	2450.000769
464.390106	2462.603654
464.762130	2525.618077
465.134094	2465.124231
465.505999	2439.918462
465.877845	2480.247692
466.249631	2525.618077
466.621358	2417.233269
466.993026	2472.685962
467.364634	2450.000769
467.736184	2444.959615
468.107674	2477.727115
468.479105	2442.439038
468.850477	2455.041923
469.221790	2520.576923
469.593043	2477.727115
469.964238	2502.932885
470.335373	2455.041923
470.706449	2507.974038
471.077467	2560.906154
471.448425	2558.385577
471.819324	2560.906154
472.190164	2507.974038
472.560945	2497.891731
472.931667	2520.576923
473.302330	2462.603654
473.672934	2525.618077
474.043479	2442.439038
474.413965	2487.809423
474.784393	2520.576923
475.154761	2576.029615
475.525070	2482.768269
475.895321	2465.124231
476.265513	2462.603654
476.635645	2444.959615
477.005719	2477.727115
477.375734	2490.330000
477.745691	2603.755962
478.115588	2439.918462
478.485427	2502.932885
478.855207	2417.233269
479.224928	2455.041923
479.594591	2444.959615
479.964194	2550.823846
480.333739	2399.589231
480.703226	2447.480192
481.072653	2487.809423
481.442022	2513.015192
481.811333	2404.630385
482.180584	2495.371154
482.549777	2502.932885
482.918912	2472.685962
483.287988	2409.671538
483.657005	2452.521346
484.025964	2452.521346
484.394864	2439.918462
484.763706	2450.000769
485.132489	2475.206538
485.501213	2485.288846
485.869879	2470.165385
486.238487	2520.576923
486.607036	2475.206538
486.975527	2553.344423
487.343959	2452.521346
487.712333	2570.988462
488.080648	2500.412308
488.448905	2492.850577
488.817104	2465.124231
489.185244	2450.000769
489.553326	2525.618077
489.921350	2525.618077
490.289315	2495.371154
490.657222	2487.809423
491.025070	2480.247692
491.392861	2553.344423
491.760593	2558.385577
492.128267	2467.644808
492.495883	2477.727115
492.863440	2495.371154
493.230939	2520.576923
493.598380	2462.603654
493.965763	2457.562500
494.333088	2553.344423
494.700354	2427.315577
495.067563	2535.700385
495.434713	2465.124231
495.801805	2543.262115
496.168839	2505.453462
496.535815	2477.727115
496.902733	2452.521346
497.269593	2467.644808
497.636395	2540.741538
498.003139	2558.385577
498.369825	2573.509038
498.736453	2455.041923
499.103023	2492.850577
499.469535	2550.823846
499.835989	2538.220962
500.202385	2540.741538
500.568723	2623.920577
500.935003	2485.288846
501.301226	2510.494615
501.667390	2392.027500
502.033497	2545.782692
502.399546	2364.301154
502.765537	2462.603654
503.131470	2475.206538
503.497345	2490.330000
503.863163	2513.015192
504.228923	2437.397885
504.594625	2525.618077
504.960269	2386.986346
505.325856	2505.453462
505.691385	2490.330000
506.056856	2492.850577
506.422270	2422.274423
506.787625	2533.179808
507.152924	2492.850577
507.518164	2515.535769
507.883347	2515.535769
508.248472	2455.041923
508.613540	2475.206538
508.978550	2465.124231
509.343503	2397.068654
509.708398	2497.891731
510.073236	2548.303269
510.438016	2472.685962
510.802738	2437.397885
511.167403	2497.891731
511.532010	2482.768269
511.896561	2487.809423
512.261053	2495.371154
512.625488	2452.521346
512.989866	2462.603654
513.354186	2475.206538
513.718449	2452.521346
514.082655	2502.932885
514.446803	2510.494615
514.810894	2475.206538
515.174927	2518.056346
515.538904	2490.330000
515.902822	2581.070769
516.266684	2500.412308
516.630488	2507.974038
516.994235	2457.562500
517.357925	2485.288846
517.721558	2495.371154
518.085133	2455.041923
518.448651	2523.097500
518.812112	2487.809423
519.175516	2427.315577
519.538863	2497.891731
519.902152	2447.480192
520.265385	2525.618077
520.628560	2507.974038
520.991678	2442.439038
521.354739	2528.138654
521.717743	2427.315577
522.080690	2447.480192
522.443580	2472.685962
522.806413	2490.330000
523.169189	2392.027500
523.531908	2588.632500
523.894569	2583.591346
524.257174	2611.317692
524.619722	2591.153077
524.982213	2530.659231
525.344647	2593.673654
525.707025	2555.865000
526.069345	2515.535769
526.431608	2490.330000
526.793815	2455.041923
527.155964	2505.453462
527.518057	2502.932885
527.880093	2507.974038
528.242072	2515.535769
528.603995	2528.138654
528.965860	2502.932885
529.327669	2525.618077
529.689421	2467.644808
530.051117	2452.521346
530.412755	2402.109808
530.774337	2470.165385
531.135862	2523.097500
531.497331	2452.521346
531.858743	2495.371154
532.220098	2505.453462
532.581396	2550.823846
532.942638	2455.041923
533.303824	2475.206538
533.664953	2442.439038
534.026025	2543.262115
534.387040	2565.947308
534.747999	2548.303269
535.108902	2477.727115
535.469748	2455.041923
535.830537	2505.453462
536.191270	2518.056346
536.551947	2553.344423
536.912567	2452.521346
537.273131	2518.056346
537.633638	2427.315577
537.994089	2518.056346
538.354483	2490.330000
538.714821	2520.576923
539.075103	2538.220962
539.435328	2568.467885
539.795497	2543.262115
540.155609	2570.988462
540.515665	2404.630385
540.875665	2558.385577
541.235609	2507.974038
541.595496	2515.535769
541.955328	2611.317692
542.315102	2477.727115
542.674821	2432.356731
543.034483	2583.591346
543.394090	2538.220962
543.753640	2586.111923
544.113134	2467.644808
544.472571	2500.412308
544.831953	2480.247692
545.191278	2487.809423
545.550548	2482.768269
545.909761	2513.015192
546.268918	2409.671538
546.628019	2429.836154
546.987064	2487.809423
547.346053	2470.165385
547.704986	2424.795000
548.063863	2480.247692
548.422684	2505.453462
548.781449	2482.768269
549.140158	2520.576923
549.498811	2467.644808
549.857408	2510.494615
550.215949	2538.220962
550.574434	2409.671538
550.932864	2515.535769
551.291237	2457.562500
551.649555	2450.000769
552.007817	2492.850577
552.366022	2510.494615
552.724173	2422.274423
553.082267	2548.303269
553.440305	2465.124231
553.798288	2424.795000
554.156215	2460.083077
554.514086	2444.959615
554.871902	2361.780577
555.229661	2497.891731
555.587365	2533.179808
555.945014	2520.576923
556.302606	2462.603654
556.660143	2510.494615
557.017625	2477.727115
557.375050	2475.206538
557.732421	2535.700385
558.089735	2470.165385
558.446994	2550.823846
558.804197	2432.356731
559.161345	2608.797115
559.518437	2487.809423
559.875474	2450.000769
560.232455	2560.906154
560.589381	2455.041923
560.946251	2472.685962
561.303065	2492.850577
561.659825	2500.412308
562.016528	2591.153077
562.373177	2477.727115
562.729770	2369.342308
563.086307	2399.589231
563.442789	2480.247692
563.799216	2465.124231
564.155587	2513.015192
564.511904	2545.782692
564.868164	2490.330000
565.224370	2560.906154
565.580520	2442.439038
565.936615	2550.823846
566.292654	2462.603654
566.648638	2470.165385
567.004567	2550.823846
567.360441	2530.659231
567.716260	2495.371154
568.072023	2581.070769
568.427732	2485.288846
568.783385	2525.618077
569.138982	2424.795000
569.494525	2513.015192
569.850013	2495.371154
570.205445	2462.603654
570.560823	2477.727115
570.916145	2528.138654
571.271412	2419.753846
571.626625	2482.768269
571.981782	2485.288846
572.336884	2553.344423
572.691931	2462.603654
573.046923	2505.453462
573.401860	2399.589231
573.756743	2558.385577
574.111570	2475.206538
574.466342	2525.618077
574.821059	2397.068654
575.175722	2515.535769
575.530330	2553.344423
575.884882	2538.220962
576.239380	2452.521346
576.593823	2447.480192
576.948211	2502.932885
577.302544	2409.671538
577.656823	2518.056346
578.011047	2490.330000
578.365216	2603.755962
578.719330	2495.371154
579.073389	2515.535769
579.427394	2482.768269
579.781344	2465.124231
580.135239	2525.618077
580.489080	2487.809423
580.842866	2457.562500
581.196597	2414.712692
581.550273	2502.932885
581.903895	2578.550192
582.257463	2553.344423
582.610975	2457.562500
582.964434	2497.891731
583.317837	2450.000769
583.671186	2548.303269
584.024481	2500.412308
584.377721	2523.097500
584.730906	2482.768269
585.084037	2515.535769
585.437113	2588.632500
585.790135	2485.288846
586.143103	2555.865000
586.496016	2465.124231
586.848874	2482.768269
587.201679	2457.562500
587.554428	2497.891731
587.907124	2477.727115
588.259765	2502.932885
588.612352	2475.206538
588.964884	2548.303269
589.317362	2442.439038
589.669786	2558.385577
590.022155	2560.906154
590.374470	2472.685962
590.726731	2477.727115
591.078937	2394.548077
591.431090	2497.891731
591.783188	2480.247692
592.135232	2535.700385
592.487222	2482.768269
592.839157	2502.932885
593.191038	2472.685962
593.542866	2439.918462
593.894639	2507.974038
594.246358	2404.630385
594.598022	2520.576923
594.949633	2475.206538
595.301190	2495.371154
595.652692	2543.262115
596.004141	2472.685962
596.355535	2545.782692
596.706876	2487.809423
597.058162	2548.303269
597.409395	2495.371154
597.760573	2510.494615
598.111698	2427.315577
598.462768	2477.727115
598.813785	2523.097500
599.164748	2593.673654
599.515657	2470.165385
599.866511	2487.809423
600.217312	2563.426731
600.568060	2515.535769
600.918753	2419.753846
601.269392	2475.206538
601.619978	2492.850577
601.970510	2500.412308
602.320988	2457.562500
602.671412	2555.865000
603.021783	2467.644808
603.372100	2515.535769
603.722363	2480.247692
604.072572	2386.986346
604.422728	2492.850577
604.772830	2553.344423
605.122878	2548.303269
605.472872	2540.741538
605.822813	2477.727115
606.172701	2455.041923
606.522534	2535.700385
606.872314	2472.685962
607.222041	2480.247692
607.571714	2412.192115
607.921333	2578.550192
608.270899	2502.932885
608.620411	2550.823846
608.969870	2490.330000
609.319276	2470.165385
609.668627	2588.632500
610.017926	2505.453462
610.367171	2560.906154
610.716362	2460.083077
611.065500	2505.453462
611.414585	2502.932885
611.763616	2497.891731
612.112594	2581.070769
612.461518	2525.618077
612.810389	2507.974038
613.159207	2525.618077
613.507971	2482.768269
613.856682	2455.041923
614.205340	2462.603654
614.553945	2553.344423
614.902496	2482.768269
615.250994	2500.412308
615.599439	2452.521346
615.947830	2525.618077
616.296169	2525.618077
616.644454	2460.083077
616.992686	2485.288846
617.340864	2560.906154
617.688990	2482.768269
618.037063	2497.891731
618.385082	2520.576923
618.733048	2507.974038
619.080961	2444.959615
619.428821	2480.247692
619.776628	2462.603654
620.124382	2460.083077
620.472083	2538.220962
620.819731	2492.850577
621.167326	2550.823846
621.514868	2646.605769
621.862357	2439.918462
622.209793	2487.809423
622.557176	2480.247692
622.904506	2485.288846
623.251783	2487.809423
623.599007	2460.083077
623.946179	2492.850577
624.293297	2475.206538
624.640363	2507.974038
624.987376	2472.685962
625.334336	2465.124231
625.681243	2424.795000
626.028097	2437.397885
626.374899	2563.426731
626.721647	2424.795000
627.068343	2507.974038
627.414987	2472.685962
627.761577	2482.768269
628.108115	2470.165385
628.454600	2548.303269
628.801032	2578.550192
629.147412	2525.618077
629.493739	2545.782692
629.840014	2500.412308
630.186236	2523.097500
630.532405	2472.685962
630.878521	2507.974038
631.224585	2447.480192
631.570597	2500.412308
631.916556	2475.206538
632.262462	2510.494615
632.608316	2477.727115
632.954117	2568.467885
633.299866	2545.782692
633.645562	2482.768269
633.991206	2460.083077
634.336797	2427.315577
634.682336	2528.138654
635.027823	2497.891731
635.373257	2480.247692
635.718639	2550.823846
636.063968	2533.179808
636.409245	2492.850577
636.754470	2533.179808
637.099642	2535.700385
637.444762	2480.247692
637.789829	2429.836154
638.134845	2520.576923
638.479808	2450.000769
638.824719	2442.439038
639.169577	2505.453462
639.514383	2465.124231
639.859137	2520.576923
640.203839	2550.823846
640.548489	2545.782692
640.893086	2513.015192
641.237632	2442.439038
641.582125	2520.576923
641.926566	2465.124231
642.270955	2513.015192
642.615292	2510.494615
642.959576	2510.494615
643.303809	2450.000769
643.647990	2482.768269
643.992118	2515.535769
644.336195	2555.865000
644.680219	2560.906154
645.024192	2475.206538
645.368112	2465.124231
645.711981	2482.768269
646.055797	2518.056346
646.399562	2455.041923
646.743274	2492.850577
647.086935	2442.439038
647.430544	2505.453462
647.774101	2502.932885
648.117606	2487.809423
648.461059	2555.865000
648.804460	2465.124231
649.147810	2462.603654
649.491108	2500.412308
649.834354	2528.138654
650.177548	2467.644808
650.520690	2482.768269
650.863781	2414.712692
651.206820	2414.712692
651.549807	2492.850577
651.892742	2472.685962
652.235626	2485.288846
652.578458	2588.632500
652.921238	2457.562500
653.263967	2525.618077
653.606644	2434.877308
653.949269	2487.809423
654.291843	2467.644808
654.634365	2482.768269
654.976836	2417.233269
655.319255	2518.056346
655.661622	2492.850577
656.003938	2477.727115
656.346203	2530.659231
656.688416	2502.932885
657.030577	2523.097500
657.372687	2505.453462
657.714746	2462.603654
658.056753	2505.453462
658.398708	2515.535769
658.740612	2525.618077
659.082465	2437.397885
659.424266	2470.165385
659.766016	2487.809423
660.107715	2502.932885
660.449362	2381.945192
660.790958	2497.891731
661.132503	2555.865000
661.473996	2497.891731
661.815438	2515.535769
662.156829	2530.659231
662.498168	2518.056346
662.839456	2507.974038
663.180693	2568.467885
663.521879	2477.727115
663.863013	2510.494615
664.204097	2437.397885
664.545129	2492.850577
664.886110	2533.179808
665.227040	2548.303269
665.567918	2480.247692
665.908746	2447.480192
666.249522	2570.988462
666.590248	2465.124231
666.930922	2513.015192
667.271545	2565.947308
667.612118	2513.015192
667.952639	2576.029615
668.293109	2518.056346
668.633528	2470.165385
668.973896	2563.426731
669.314213	2475.206538
669.654480	2513.015192
669.994695	2447.480192
670.334859	2576.029615
670.674973	2510.494615
671.015035	2497.891731
671.355047	2550.823846
671.695008	2437.397885
672.034918	2543.262115
672.374777	2545.782692
672.714585	2528.138654
673.054342	2495.371154
673.394049	2492.850577
673.733705	2490.330000
674.073310	2502.932885
674.412864	2502.932885
674.752368	2563.426731
675.091820	2470.165385
675.431223	2530.659231
675.770574	2535.700385
676.109875	2505.453462
676.449125	2490.330000
676.788324	2485.288846
677.127473	2565.947308
677.466571	2492.850577
677.805619	2477.727115
678.144616	2495.371154
678.483562	2558.385577
678.822458	2513.015192
679.161303	2530.659231
679.500098	2533.179808
679.838842	2523.097500
680.177535	2447.480192
680.516179	2520.576923
680.854771	2460.083077
681.193314	2530.659231
681.531805	2540.741538
681.870247	2487.809423
682.208638	2495.371154
682.546978	2434.877308
682.885268	2576.029615
683.223508	2429.836154
683.561697	2502.932885
683.899836	2457.562500
684.237925	2518.056346
684.575963	2417.233269
684.913951	2414.712692
685.251889	2455.041923
685.589776	2538.220962
685.927614	2533.179808
686.265401	2502.932885
686.603137	2533.179808
686.940824	2462.603654
687.278460	2528.138654
687.616046	2470.165385
687.953582	2475.206538
688.291068	2455.041923
688.628504	2460.083077
688.965889	2437.397885
689.303224	2570.988462
689.640510	2543.262115
689.977745	2543.262115
690.314930	2555.865000
690.652065	2513.015192
690.989150	2540.741538
691.326185	2455.041923
691.663170	2490.330000
692.000105	2583.591346
692.336990	2424.795000
692.673825	2535.700385
693.010610	2528.138654
693.347345	2510.494615
693.684030	2540.741538
694.020665	2513.015192
694.357251	2457.562500
694.693786	2492.850577
695.030272	2515.535769
695.366707	2419.753846
695.703093	2515.535769
696.039429	2477.727115
696.375716	2475.206538
696.711952	2543.262115
697.048139	2525.618077
697.384276	2502.932885
697.720363	2442.439038
698.056400	2457.562500
698.392388	2455.041923
698.728326	2477.727115
699.064214	2495.371154
699.400053	2455.041923
699.735842	2528.138654
700.071581	2462.603654
700.407270	2513.015192
700.742910	2442.439038
701.078501	2523.097500
701.414042	2492.850577
701.749533	2399.589231
702.084974	2505.453462
702.420366	2439.918462
702.755709	2500.412308
703.091002	2439.918462
703.426246	2535.700385
703.761440	2513.015192
704.096584	2419.753846
704.431679	2455.041923
704.766725	2460.083077
705.101721	2437.397885
705.436668	2535.700385
705.771565	2530.659231
706.106413	2563.426731
706.441212	2465.124231
706.775961	2518.056346
707.110661	2487.809423
707.445311	2550.823846
707.779913	2470.165385
708.114465	2513.015192
708.448967	2568.467885
708.783421	2407.150962
709.117825	2475.206538
709.452180	2550.823846
709.786485	2444.959615
710.120742	2538.220962
710.454949	2452.521346
710.789107	2492.850577
711.123216	2455.041923
711.457275	2507.974038
711.791286	2558.385577
712.125247	2475.206538
712.459159	2480.247692
712.793023	2528.138654
713.126837	2497.891731
713.460602	2492.850577
713.794318	2487.809423
714.127985	2540.741538
714.461602	2573.509038
714.795171	2513.015192
715.128691	2560.906154
715.462162	2502.932885
715.795584	2510.494615
716.128957	2480.247692
716.462281	2540.741538
716.795556	2470.165385
717.128782	2465.124231
717.461960	2555.865000
717.795088	2475.206538
718.128167	2439.918462
718.461198	2535.700385
718.794180	2502.932885
719.127113	2513.015192
719.459997	2518.056346
719.792833	2601.235385
720.125619	2457.562500
720.458357	2545.782692
720.791046	2505.453462
721.123686	2497.891731
721.456278	2419.753846
721.788821	2518.056346
722.121315	2523.097500
722.453761	2568.467885
722.786158	2457.562500
723.118506	2505.453462
723.450805	2518.056346
723.783056	2485.288846
724.115259	2437.397885
724.447412	2482.768269
724.779518	2462.603654
725.111574	2583.591346
725.443582	2462.603654
725.775542	2507.974038
726.107453	2480.247692
726.439315	2465.124231
726.771129	2505.453462
727.102895	2465.124231
727.434612	2482.768269
727.766281	2535.700385
728.097901	2472.685962
728.429473	2518.056346
728.760996	2392.027500
729.092471	2455.041923
729.423897	2573.509038
729.755276	2500.412308
730.086606	2518.056346
730.417887	2530.659231
730.749120	2487.809423
731.080305	2525.618077
731.411442	2495.371154
731.742530	2462.603654
732.073570	2490.330000
732.404562	2533.179808
732.735506	2467.644808
733.066401	2432.356731
733.397249	2525.618077
733.728048	2419.753846
734.058798	2515.535769
734.389501	2462.603654
734.720156	2500.412308
735.050762	2518.056346
735.381320	2490.330000
735.711831	2482.768269
736.042293	2429.836154
736.372707	2480.247692
736.703073	2523.097500
737.033391	2545.782692
737.363661	2465.124231
737.693883	2495.371154
738.024056	2540.741538
738.354182	2525.618077
738.684260	2482.768269
739.014290	2462.603654
739.344272	2472.685962
739.674207	2530.659231
740.004093	2533.179808
740.333931	2535.700385
740.663722	2510.494615
740.993464	2480.247692
741.323159	2460.083077
741.652806	2500.412308
741.982405	2507.974038
742.311956	2354.218846
742.641460	2434.877308
742.970915	2525.618077
743.300323	2429.836154
743.629683	2528.138654
743.958996	2457.562500
744.288260	2482.768269
744.617477	2502.932885
744.946647	2520.576923
745.275768	2462.603654
745.604842	2558.385577
745.933869	2530.659231
746.262847	2535.700385
746.591778	2490.330000
746.920662	2485.288846
747.249498	2477.727115
747.578286	2530.659231
747.907027	2467.644808
748.235720	2485.288846
748.564365	2513.015192
748.892963	2568.467885
749.221514	2409.671538
749.550017	2452.521346
749.878473	2452.521346
750.206881	2475.206538
750.535242	2492.850577
750.863555	2525.618077
751.191821	2465.124231
751.520039	2424.795000
751.848210	2533.179808
752.176334	2570.988462
752.504411	2467.644808
752.832440	2563.426731
753.160421	2467.644808
753.488356	2520.576923
753.816243	2510.494615
754.144082	2513.015192
754.471875	2485.288846
754.799620	2447.480192
755.127318	2565.947308
755.454969	2505.453462
755.782572	2515.535769
756.110129	2548.303269
756.437638	2553.344423
756.765100	2447.480192
757.092515	2502.932885
757.419882	2422.274423
757.747203	2477.727115
758.074477	2480.247692
758.401703	2507.974038
758.728882	2530.659231
759.056014	2500.412308
759.383099	2533.179808
759.710138	2515.535769
760.037129	2568.467885
760.364073	2460.083077
760.690970	2520.576923
761.017820	2485.288846
761.344623	2513.015192
761.671379	2502.932885
761.998088	2510.494615
762.324751	2540.741538
762.651366	2437.397885
762.977935	2525.618077
763.304456	2505.453462
763.630931	2450.000769
763.957359	2545.782692
764.283740	2402.109808
764.610074	2518.056346
764.936362	2497.891731
765.262602	2465.124231
765.588796	2492.850577
765.914943	2581.070769
766.241044	2578.550192
766.567097	2452.521346
766.893104	2502.932885
767.219064	2450.000769
767.544978	2465.124231
767.870845	2513.015192
768.196665	2485.288846
768.522438	2576.029615
768.848165	2465.124231
769.173846	2502.932885
769.499479	2485.288846
769.825066	2502.932885
770.150607	2452.521346
770.476101	2452.521346
770.801548	2439.918462
771.126949	2497.891731
771.452303	2500.412308
771.777611	2510.494615
772.102872	2525.618077
772.428087	2439.918462
772.753256	2523.097500
773.078378	2460.083077
773.403453	2394.548077
773.728482	2407.150962
774.053465	2475.206538
774.378401	2429.836154
774.703291	2480.247692
775.028135	2437.397885
775.352932	2482.768269
775.677683	2487.809423
776.002388	2550.823846
776.327046	2480.247692
776.651658	2477.727115
776.976224	2500.412308
777.300743	2538.220962
777.625216	2450.000769
777.949643	2515.535769
778.274024	2452.521346
778.598359	2535.700385
778.922647	2467.644808
779.246889	2424.795000
779.571086	2518.056346
779.895236	2525.618077
780.219339	2452.521346
780.543397	2502.932885
780.867409	2482.768269
781.191374	2432.356731
781.515294	2543.262115
781.839167	2450.000769
782.162995	2495.371154
782.486776	2455.041923
782.810511	2460.083077
783.134201	2470.165385
783.457844	2465.124231
783.781441	2467.644808
784.104993	2427.315577
784.428498	2510.494615
784.751958	2540.741538
785.075372	2533.179808
785.398739	2603.755962
785.722061	2573.509038
786.045337	2515.535769
786.368568	2490.330000
786.691752	2485.288846
787.014891	2525.618077
787.337983	2399.589231
787.661030	2432.356731
787.984031	2490.330000
788.306987	2457.562500
788.629897	2497.891731
788.952760	2495.371154
789.275579	2490.330000
789.598351	2439.918462
789.921078	2457.562500
790.243759	2442.439038
790.566395	2548.303269
790.888984	2510.494615
791.211529	2490.330000
791.534027	2513.015192
791.856480	2530.659231
792.178888	2513.015192
792.501249	2505.453462
792.823566	2465.124231
793.145836	2490.330000
793.468062	2424.795000
793.790241	2460.083077
794.112375	2507.974038
794.434464	2487.809423
794.756507	2540.741538
795.078505	2402.109808
795.400457	2470.165385
795.722364	2402.109808
796.044226	2472.685962
796.366042	2460.083077
796.687812	2470.165385
797.009538	2505.453462
797.331218	2485.288846
797.652852	2460.083077
797.974442	2439.918462
798.295986	2444.959615
798.617484	2502.932885
798.938938	2487.809423
799.260346	2525.618077
799.581709	2409.671538
799.903026	2523.097500
800.224299	2545.782692
800.545526	2487.809423
800.866708	2472.685962
801.187845	2439.918462
801.508936	2444.959615
801.829983	2528.138654
802.150984	2492.850577
802.471940	2480.247692
802.792851	2465.124231
803.113717	2477.727115
803.434538	2407.150962
803.755314	2515.535769
804.076045	2510.494615
804.396731	2533.179808
804.717372	2497.891731
805.037967	2492.850577
805.358518	2568.467885
805.679024	2505.453462
805.999485	2460.083077
806.319901	2518.056346
806.640272	2505.453462
806.960598	2533.179808
807.280879	2487.809423
807.601115	2540.741538
807.921306	2568.467885
808.241453	2502.932885
808.561554	2505.453462
808.881611	2492.850577
809.201623	2545.782692
809.521590	2442.439038
809.841513	2505.453462
810.161390	2482.768269
810.481223	2500.412308
810.801011	2427.315577
811.120755	2480.247692
811.440453	2492.850577
811.760107	2465.124231
812.079716	2414.712692
812.399281	2533.179808
812.718801	2434.877308
813.038276	2374.383462
813.357707	2538.220962
813.677093	2477.727115
813.996434	2455.041923
814.315731	2457.562500
814.634983	2492.850577
814.954191	2472.685962
815.273354	2563.426731
815.592473	2472.685962
815.911547	2543.262115
816.230577	2560.906154
816.549562	2530.659231
816.868502	2510.494615
817.187399	2500.412308
817.506250	2495.371154
817.825058	2515.535769
818.143821	2505.453462
818.462539	2535.700385
818.781213	2505.453462
819.099843	2462.603654
819.418429	2427.315577
819.736970	2538.220962
820.055466	2477.727115
820.373919	2502.932885
820.692327	2414.712692
821.010691	2528.138654
821.329011	2467.644808
821.647286	2472.685962
821.965517	2450.000769
822.283704	2523.097500
822.601847	2437.397885
822.919945	2437.397885
823.237999	2394.548077
823.556010	2485.288846
823.873976	2535.700385
824.191897	2528.138654
824.509775	2502.932885
824.827609	2492.850577
825.145398	2482.768269
825.463144	2487.809423
825.780845	2487.809423
826.098502	2490.330000
826.416116	2555.865000
826.733685	2596.194231
827.051210	2472.685962
827.368692	2402.109808
827.686129	2515.535769
828.003522	2386.986346
828.320872	2442.439038
828.638177	2439.918462
828.955439	2520.576923
829.272656	2492.850577
829.589830	2502.932885
829.906960	2520.576923
830.224046	2570.988462
830.541088	2475.206538
830.858086	2525.618077
831.175041	2545.782692
831.491952	2510.494615
831.808819	2470.165385
832.125642	2452.521346
832.442421	2482.768269
832.759157	2492.850577
833.075849	2485.288846
833.392497	2495.371154
833.709101	2505.453462
834.025662	2414.712692
834.342179	2490.330000
834.658653	2548.303269
834.975083	2502.932885
835.291469	2507.974038
835.607811	2583.591346
835.924110	2540.741538
836.240366	2487.809423
836.556578	2596.194231
836.872746	2477.727115
837.188871	2505.453462
837.504952	2490.330000
837.820990	2523.097500
838.136984	2432.356731
838.452935	2492.850577
838.768842	2442.439038
839.084706	2530.659231
839.400526	2525.618077
839.716303	2515.535769
840.032037	2540.741538
840.347727	2429.836154
840.663373	2530.659231
840.978977	2528.138654
841.294537	2513.015192
841.610054	2515.535769
841.925527	2520.576923
842.240957	2409.671538
842.556344	2492.850577
842.871687	2565.947308
843.186987	2467.644808
843.502244	2460.083077
843.817458	2429.836154
844.132629	2485.288846
844.447756	2442.439038
844.762840	2502.932885
845.077881	2450.000769
845.392879	2495.371154
845.707833	2507.974038
846.022745	2555.865000
846.337613	2439.918462
846.652438	2500.412308
846.967221	2477.727115
847.281960	2563.426731
847.596656	2432.356731
847.911309	2409.671538
848.225919	2515.535769
848.540485	2573.509038
848.855009	2480.247692
849.169490	2495.371154
849.483928	2480.247692
849.798323	2533.179808
850.112675	2480.247692
850.426984	2505.453462
850.741251	2402.109808
851.055474	2505.453462
851.369654	2495.371154
851.683792	2485.288846
851.997887	2502.932885
852.311938	2399.589231
852.625947	2482.768269
852.939914	2422.274423
853.253837	2513.015192
853.567718	2530.659231
853.881555	2586.111923
854.195350	2555.865000
854.509103	2444.959615
854.822812	2460.083077
855.136479	2450.000769
855.450103	2477.727115
855.763685	2497.891731
856.077224	2457.562500
856.390720	2525.618077
856.704173	2505.453462
857.017584	2513.015192
857.330953	2492.850577
857.644278	2427.315577
857.957561	2432.356731
858.270802	2528.138654
858.584000	2490.330000
858.897155	2480.247692
859.210268	2472.685962
859.523339	2520.576923
859.836367	2467.644808
860.149352	2434.877308
860.462295	2535.700385
860.775195	2450.000769
861.088054	2510.494615
861.400869	2523.097500
861.713642	2492.850577
862.026373	2492.850577
862.339062	2555.865000
862.651708	2470.165385
862.964312	2460.083077
863.276873	2444.959615
863.589392	2495.371154
863.901869	2523.097500
864.214303	2460.083077
864.526696	2475.206538
864.839045	2437.397885
865.151353	2492.850577
865.463619	2490.330000
865.775842	2535.700385
866.088023	2452.521346
866.400162	2548.303269
866.712258	2530.659231
867.024313	2490.330000
867.336325	2502.932885
867.648296	2470.165385
867.960224	2513.015192
868.272110	2419.753846
868.583954	2485.288846
868.895755	2576.029615
869.207515	2570.988462
869.519233	2444.959615
869.830909	2555.865000
870.142542	2427.315577
870.454134	2513.015192
870.765684	2555.865000
871.077191	2502.932885
871.388657	2538.220962
871.700081	2543.262115
872.011463	2505.453462
872.322803	2563.426731
872.634101	2485.288846
872.945357	2538.220962
873.256571	2460.083077
873.567744	2492.850577
873.878874	2424.795000
874.189963	2543.262115
874.501010	2528.138654
874.812015	2525.618077
875.122979	2475.206538
875.433900	2573.509038
875.744780	2470.165385
876.055618	2497.891731
876.366415	2518.056346
876.677169	2457.562500
876.987882	2510.494615
877.298554	2490.330000
877.609183	2477.727115
877.919771	2452.521346
878.230317	2502.932885
878.540822	2530.659231
878.851285	2439.918462
879.161707	2513.015192
879.472087	2570.988462
879.782425	2576.029615
880.092722	2495.371154
880.402977	2490.330000
880.713191	2485.288846
881.023363	2434.877308
881.333494	2492.850577
881.643583	2507.974038
881.953631	2500.412308
882.263637	2361.780577
882.573602	2432.356731
882.883526	2455.041923
883.193408	2442.439038
883.503248	2530.659231
883.813048	2500.412308
884.122806	2439.918462
884.432522	2548.303269
884.742197	2465.124231
885.051831	2424.795000
885.361424	2520.576923
885.670975	2485.288846
885.980485	2447.480192
886.289954	2477.727115
886.599382	2482.768269
886.908768	2550.823846
887.218113	2548.303269
887.527417	2518.056346
887.836680	2497.891731
888.145901	2495.371154
888.455082	2455.041923
888.764221	2502.932885
889.073319	2487.809423
889.382376	2442.439038
889.691392	2472.685962
890.000366	2497.891731
890.309300	2465.124231
890.618193	2442.439038
890.927044	2444.959615
891.235855	2510.494615
891.544625	2492.850577
891.853353	2502.932885
892.162041	2520.576923
892.470687	2497.891731
892.779293	2444.959615
893.087858	2520.576923
893.396381	2480.247692
893.704864	2500.412308
894.013306	2497.891731
894.321707	2502.932885
894.630068	2470.165385
894.938387	2424.795000
895.246665	2475.206538
895.554903	2452.521346
895.863100	2414.712692
896.171256	2540.741538
896.479371	2568.467885
896.787446	2427.315577
897.095480	2480.247692
897.403473	2578.550192
897.711425	2444.959615
898.019336	2553.344423
898.327207	2538.220962
898.635038	2460.083077
898.942827	2427.315577
899.250576	2502.932885
899.558284	2460.083077
899.865952	2548.303269
900.173579	2530.659231
900.481165	2573.509038
900.788711	2500.412308
901.096216	2475.206538
901.403681	2457.562500
901.711105	2555.865000
902.018489	2419.753846
902.325832	2485.288846
902.633135	2437.397885
902.940397	2523.097500
903.247619	2533.179808
903.554800	2434.877308
903.861941	2386.986346
904.169041	2477.727115
904.476101	2465.124231
904.783121	2485.288846
905.090100	2548.303269
905.397039	2553.344423
905.703938	2452.521346
906.010796	2422.274423
906.317614	2457.562500
906.624391	2417.233269
906.931129	2586.111923
907.237826	2495.371154
907.544483	2500.412308
907.851099	2502.932885
908.157675	2381.945192
908.464211	2492.850577
908.770707	2502.932885
909.077163	2535.700385
909.383578	2465.124231
909.689954	2485.288846
909.996289	2550.823846
910.302584	2495.371154
910.608839	2563.426731
910.915054	2482.768269
911.221229	2578.550192
911.527363	2485.288846
911.833458	2548.303269
912.139513	2460.083077
912.445527	2520.576923
912.751502	2482.768269
913.057436	2462.603654
913.363331	2502.932885
913.669186	2510.494615
913.975000	2374.383462
914.280775	2470.165385
914.586510	2560.906154
914.892205	2470.165385
915.197859	2495.371154
915.503475	2507.974038
915.809050	2480.247692
916.114585	2490.330000
916.420081	2470.165385
916.725536	2472.685962
917.030952	2477.727115
917.336328	2490.330000
917.641665	2565.947308
917.946961	2545.782692
918.252218	2470.165385
918.557435	2563.426731
918.862612	2510.494615
919.167750	2462.603654
919.472848	2482.768269
919.777906	2495.371154
920.082925	2394.548077
920.387904	2424.795000
920.692843	2510.494615
920.997743	2444.959615
921.302603	2528.138654
921.607423	2553.344423
921.912204	2502.932885
922.216946	2560.906154
922.521647	2528.138654
922.826310	2523.097500
923.130932	2470.165385
923.435516	2414.712692
923.740059	2510.494615
924.044564	2487.809423
924.349028	2520.576923
924.653454	2495.371154
924.957840	2457.562500
925.262186	2439.918462
925.566493	2553.344423
925.870761	2404.630385
926.174989	2477.727115
926.479178	2462.603654
926.783328	2500.412308
927.087438	2480.247692
927.391509	2593.673654
927.695541	2487.809423
927.999533	2475.206538
928.303486	2485.288846
928.607400	2581.070769
928.911275	2439.918462
929.215110	2462.603654
929.518906	2467.644808
929.822663	2538.220962
930.126381	2565.947308
930.430060	2545.782692
930.733699	2500.412308
931.037299	2563.426731
931.340861	2422.274423
931.644383	2558.385577
931.947866	2487.809423
932.251309	2399.589231
932.554714	2495.371154
932.858080	2439.918462
933.161407	2497.891731
933.464694	2492.850577
933.767943	2450.000769
934.071153	2487.809423
934.374323	2480.247692
934.677455	2533.179808
934.980548	2470.165385
935.283602	2540.741538
935.586617	2462.603654
935.889593	2540.741538
936.192530	2520.576923
936.495428	2530.659231
936.798287	2450.000769
937.101108	2475.206538
937.403890	2460.083077
937.706632	2439.918462
938.009336	2520.576923
938.312002	2450.000769
938.614628	2502.932885
938.917216	2495.371154
939.219765	2545.782692
939.522275	2490.330000
939.824747	2500.412308
940.127179	2409.671538
940.429573	2538.220962
940.731929	2487.809423
941.034246	2515.535769
941.336524	2414.712692
941.638763	2419.753846
941.940964	2487.809423
942.243126	2447.480192
942.545250	2538.220962
942.847335	2447.480192
943.149381	2455.041923
943.451389	2507.974038
943.753359	2432.356731
944.055290	2538.220962
944.357182	2568.467885
944.659036	2513.015192
944.960851	2518.056346
945.262628	2424.795000
945.564367	2543.262115
945.866067	2392.027500
946.167729	2525.618077
946.469352	2472.685962
946.770937	2462.603654
947.072484	2581.070769
947.373992	2409.671538
947.675462	2462.603654
947.976893	2525.618077
948.278286	2439.918462
948.579641	2485.288846
948.880958	2485.288846
949.182236	2490.330000
949.483476	2538.220962
949.784678	2414.712692
950.085841	2507.974038
950.386967	2492.850577
950.688054	2515.535769
950.989103	2457.562500
951.290114	2447.480192
951.591087	2447.480192
951.892021	2414.712692
952.192917	2457.562500
952.493776	2412.192115
952.794596	2568.467885
953.095378	2457.562500
953.396122	2497.891731
953.696828	2523.097500
953.997496	2535.700385
954.298126	2497.891731
954.598718	2513.015192
954.899272	2568.467885
955.199788	2510.494615
955.500266	2507.974038
955.800706	2437.397885
956.101108	2515.535769
956.401472	2507.974038
956.701798	2429.836154
957.002087	2381.945192
957.302337	2487.809423
957.602550	2386.986346
957.902724	2462.603654
958.202861	2475.206538
958.502960	2465.124231
958.803022	2437.397885
959.103045	2573.509038
959.403031	2535.700385
959.702979	2548.303269
960.002889	2502.932885
960.302762	2472.685962
960.602596	2545.782692
960.902393	2397.068654
961.202153	2457.562500
961.501875	2455.041923
961.801559	2520.576923
962.101205	2502.932885
962.400814	2528.138654
962.700385	2482.768269
962.999918	2487.809423
963.299414	2500.412308
963.598873	2460.083077
963.898293	2538.220962
964.197677	2540.741538
964.497022	2528.138654
964.796331	2495.371154
965.095601	2455.041923
965.394835	2492.850577
965.694030	2591.153077
965.993189	2507.974038
966.292309	2487.809423
966.591393	2497.891731
966.890439	2530.659231
967.189447	2424.795000
967.488419	2492.850577
967.787353	2452.521346
968.086249	2528.138654
968.385108	2490.330000
968.683930	2482.768269
968.982714	2555.865000
969.281462	2495.371154
969.580172	2432.356731
969.878844	2470.165385
970.177480	2424.795000
970.476078	2457.562500
970.774639	2497.891731
971.073162	2389.506923
971.371649	2555.865000
971.670098	2603.755962
971.968510	2462.603654
972.266885	2523.097500
972.565223	2495.371154
972.863524	2452.521346
973.161788	2500.412308
973.460014	2460.083077
973.758204	2465.124231
974.056356	2462.603654
974.354471	2535.700385
974.652550	2535.700385
974.950591	2535.700385
975.248595	2528.138654
975.546563	2565.947308
975.844493	2412.192115
976.142386	2467.644808
976.440243	2482.768269
976.738062	2467.644808
977.035845	2513.015192
977.333590	2480.247692
977.631299	2462.603654
977.928971	2444.959615
978.226606	2553.344423
978.524204	2555.865000
978.821765	2611.317692
979.119290	2490.330000
979.416777	2538.220962
979.714228	2495.371154
980.011642	2523.097500
980.309020	2520.576923
980.606360	2565.947308
980.903664	2492.850577
981.200931	2457.562500
981.498162	2470.165385
981.795356	2444.959615
982.092513	2538.220962
982.389633	2409.671538
982.686717	2548.303269
982.983764	2470.165385
983.280775	2502.932885
983.577749	2422.274423
983.874686	2485.288846
984.171587	2462.603654
984.468451	2520.576923
984.765279	2565.947308
985.062070	2570.988462
985.358824	2502.932885
985.655543	2495.371154
985.952224	2444.959615
986.248869	2442.439038
986.545478	2545.782692
986.842050	2470.165385
987.138586	2447.480192
987.435086	2507.974038
987.731549	2450.000769
988.027975	2492.850577
988.324366	2450.000769
988.620719	2477.727115
988.917037	2477.727115
989.213318	2475.206538
989.509563	2560.906154
989.805772	2455.041923
990.101944	2482.768269
990.398080	2482.768269
990.694180	2487.809423
990.990244	2475.206538
991.286271	2518.056346
991.582262	2515.535769
991.878217	2404.630385
992.174136	2477.727115
992.470019	2462.603654
992.765865	2558.385577
993.061676	2477.727115
993.357450	2432.356731
993.653188	2412.192115
993.948890	2424.795000
994.244556	2528.138654
994.540186	2533.179808
994.835780	2439.918462
995.131337	2490.330000
995.426859	2472.685962
995.722345	2543.262115
996.017795	2450.000769
996.313208	2434.877308
996.608586	2550.823846
996.903928	2424.795000
997.199234	2535.700385
997.494504	2560.906154
997.789738	2432.356731
998.084936	2495.371154
998.380099	2497.891731
998.675225	2568.467885
998.970316	2480.247692
999.265371	2414.712692
999.560390	2497.891731
999.855373	2487.809423
1000.150320	2553.344423
1000.445232	2485.288846
1000.740108	2513.015192
1001.034948	2447.480192
1001.329752	2563.426731
1001.624521	2460.083077
1001.919254	2427.315577
1002.213951	2475.206538
1002.508613	2528.138654
1002.803239	2490.330000
1003.097829	2475.206538
1003.392384	2392.027500
1003.686903	2497.891731
1003.981386	2437.397885
1004.275834	2490.330000
1004.570246	2487.809423
1004.864623	2490.330000
1005.158964	2502.932885
1005.453270	2452.521346
1005.747540	2465.124231
1006.041775	2487.809423
1006.335974	2470.165385
1006.630138	2480.247692
1006.924266	2485.288846
1007.218359	2452.521346
1007.512416	2452.521346
1007.806438	2490.330000
1008.100425	2455.041923
1008.394376	2477.727115
1008.688292	2480.247692
1008.982172	2439.918462
1009.276017	2520.576923
1009.569827	2427.315577
1009.863602	2543.262115
1010.157341	2530.659231
1010.451045	2515.535769
1010.744714	2525.618077
1011.038347	2487.809423
1011.331945	2429.836154
1011.625508	2495.371154
1011.919036	2523.097500
1012.212528	2482.768269
1012.505986	2412.192115
1012.799408	2495.371154
1013.092795	2482.768269
1013.386147	2545.782692
1013.679464	2434.877308
1013.972745	2515.535769
1014.265992	2432.356731
1014.559204	2570.988462
1014.852380	2462.603654
1015.145521	2447.480192
1015.438628	2432.356731
1015.731699	2490.330000
1016.024736	2500.412308
1016.317737	2495.371154
1016.610703	2477.727115
1016.903635	2495.371154
1017.196531	2439.918462
1017.489393	2530.659231
1017.782219	2492.850577
1018.075011	2518.056346
1018.367768	2462.603654
1018.660490	2465.124231
1018.953177	2465.124231
1019.245829	2465.124231
