Dividing Wavelength (nm)	Counts (n)	Blue Motor Position (mm): 6.000000	Red Motor Position (mm): 0.000000	
326.493990	2099.640577
326.888308	2099.640577
327.282561	2099.640577
327.676750	2079.475962
328.070874	2167.696154
328.464933	2076.955385
328.858929	2054.270192
329.252859	2102.161154
329.646726	2006.379231
330.040528	2142.490385
330.434265	2117.284615
330.827938	2129.887500
331.221547	2109.722885
331.615091	2087.037692
332.008571	2190.381346
332.401986	2182.819615
332.795338	2238.272308
333.188625	2213.066538
333.581847	2248.354615
333.975006	2369.342308
334.368100	2215.587115
334.761129	2308.848462
335.154095	2316.410192
335.546996	2384.465769
335.939833	2434.877308
336.332606	2397.068654
336.725315	2399.589231
337.117960	2336.574808
337.510540	2281.122115
337.903056	2432.356731
338.295508	2397.068654
338.687896	2515.535769
339.080220	2392.027500
339.472480	2485.288846
339.864676	2379.424615
340.256807	2376.904038
340.648875	2497.891731
341.040879	2450.000769
341.432818	2407.150962
341.824694	2419.753846
342.216506	2492.850577
342.608253	2467.644808
342.999937	2434.877308
343.391557	2487.809423
343.783113	2480.247692
344.174605	2434.877308
344.566033	2563.426731
344.957397	2427.315577
345.348697	2341.615962
345.739934	2444.959615
346.131106	2412.192115
346.522215	2485.288846
346.913260	2447.480192
347.304241	2439.918462
347.695159	2548.303269
348.086012	2495.371154
348.476802	2533.179808
348.867528	2502.932885
349.258191	2525.618077
349.648789	2548.303269
350.039324	2507.974038
350.429796	2409.671538
350.820203	2374.383462
351.210548	2467.644808
351.600828	2442.439038
351.991045	2533.179808
352.381198	2419.753846
352.771288	2477.727115
353.161314	2422.274423
353.551276	2510.494615
353.941175	2439.918462
354.331010	2500.412308
354.720782	2523.097500
355.110490	2439.918462
355.500135	2444.959615
355.889717	2434.877308
356.279235	2404.630385
356.668689	2475.206538
357.058080	2424.795000
357.447408	2432.356731
357.836672	2427.315577
358.225873	2452.521346
358.615010	2442.439038
359.004084	2341.615962
359.393095	2364.301154
359.782043	2457.562500
360.170927	2384.465769
360.559748	2349.177692
360.948505	2389.506923
361.337199	2482.768269
361.725830	2356.739423
362.114398	2376.904038
362.502903	2470.165385
362.891344	2434.877308
363.279722	2545.782692
363.668037	2376.904038
364.056289	2422.274423
364.444478	2439.918462
364.832603	2462.603654
365.220665	2467.644808
365.608665	2437.397885
365.996601	2409.671538
366.384474	2475.206538
366.772284	2419.753846
367.160031	2487.809423
367.547715	2492.850577
367.935336	2450.000769
368.322893	2472.685962
368.710388	2450.000769
369.097820	2472.685962
369.485189	2369.342308
369.872495	2450.000769
370.259738	2490.330000
370.646918	2520.576923
371.034035	2525.618077
371.421090	2465.124231
371.808081	2465.124231
372.195010	2520.576923
372.581875	2450.000769
372.968678	2482.768269
373.355418	2402.109808
373.742096	2513.015192
374.128710	2450.000769
374.515262	2404.630385
374.901751	2404.630385
375.288177	2460.083077
375.674540	2399.589231
376.060841	2460.083077
376.447079	2417.233269
376.833254	2492.850577
377.219367	2444.959615
377.605417	2505.453462
377.991404	2475.206538
378.377329	2386.986346
378.763191	2434.877308
379.148991	2417.233269
379.534727	2452.521346
379.920402	2462.603654
380.306013	2482.768269
380.691563	2472.685962
381.077049	2492.850577
381.462474	2520.576923
381.847835	2525.618077
382.233134	2455.041923
382.618371	2455.041923
383.003545	2439.918462
383.388657	2419.753846
383.773706	2518.056346
384.158693	2422.274423
384.543618	2422.274423
384.928480	2439.918462
385.313280	2424.795000
385.698017	2492.850577
386.082692	2424.795000
386.467305	2490.330000
386.851856	2475.206538
387.236344	2407.150962
387.620770	2505.453462
388.005133	2462.603654
388.389435	2500.412308
388.773674	2402.109808
389.157851	2336.574808
389.541965	2538.220962
389.926018	2455.041923
390.310008	2439.918462
390.693936	2369.342308
391.077802	2402.109808
391.461606	2462.603654
391.845348	2543.262115
392.229027	2424.795000
392.612645	2434.877308
392.996200	2434.877308
393.379694	2500.412308
393.763125	2500.412308
394.146494	2578.550192
394.529801	2533.179808
394.913047	2462.603654
395.296230	2439.918462
395.679351	2455.041923
396.062410	2412.192115
396.445408	2470.165385
396.828343	2490.330000
397.211217	2409.671538
397.594028	2482.768269
397.976778	2480.247692
398.359466	2439.918462
398.742092	2460.083077
399.124656	2460.083077
399.507158	2460.083077
399.889598	2384.465769
400.271977	2465.124231
400.654294	2439.918462
401.036549	2419.753846
401.418742	2480.247692
401.800874	2502.932885
402.182944	2513.015192
402.564952	2485.288846
402.946898	2505.453462
403.328783	2475.206538
403.710606	2460.083077
404.092367	2389.506923
404.474067	2447.480192
404.855705	2507.974038
405.237282	2472.685962
405.618797	2404.630385
406.000250	2465.124231
406.381642	2447.480192
406.762972	2467.644808
407.144240	2394.548077
407.525447	2457.562500
407.906593	2407.150962
408.287677	2452.521346
408.668700	2502.932885
409.049661	2417.233269
409.430560	2492.850577
409.811399	2472.685962
410.192176	2485.288846
410.572891	2495.371154
410.953545	2492.850577
411.334138	2490.330000
411.714669	2480.247692
412.095139	2462.603654
412.475547	2502.932885
412.855894	2444.959615
413.236180	2409.671538
413.616405	2475.206538
413.996568	2434.877308
414.376670	2475.206538
414.756711	2472.685962
415.136691	2485.288846
415.516609	2518.056346
415.896466	2437.397885
416.276262	2477.727115
416.655997	2510.494615
417.035670	2533.179808
417.415283	2467.644808
417.794834	2518.056346
418.174324	2467.644808
418.553753	2465.124231
418.933121	2450.000769
419.312428	2528.138654
419.691674	2513.015192
420.070859	2432.356731
420.449983	2457.562500
420.829045	2505.453462
421.208047	2392.027500
421.586988	2444.959615
421.965867	2470.165385
422.344686	2507.974038
422.723444	2543.262115
423.102141	2389.506923
423.480777	2427.315577
423.859352	2444.959615
424.237866	2492.850577
424.616319	2485.288846
424.994712	2500.412308
425.373044	2482.768269
425.751314	2558.385577
426.129524	2490.330000
426.507673	2472.685962
426.885762	2444.959615
427.263789	2439.918462
427.641756	2467.644808
428.019662	2540.741538
428.397508	2444.959615
428.775292	2497.891731
429.153016	2480.247692
429.530679	2528.138654
429.908282	2455.041923
430.285824	2492.850577
430.663305	2412.192115
431.040726	2439.918462
431.418086	2417.233269
431.795385	2437.397885
432.172624	2470.165385
432.549802	2505.453462
432.926920	2545.782692
433.303977	2422.274423
433.680974	2366.821731
434.057910	2545.782692
434.434786	2457.562500
434.811601	2507.974038
435.188355	2475.206538
435.565050	2467.644808
435.941683	2482.768269
436.318257	2381.945192
436.694770	2482.768269
437.071222	2447.480192
437.447614	2507.974038
437.823946	2495.371154
438.200218	2465.124231
438.576429	2505.453462
438.952580	2492.850577
439.328670	2462.603654
439.704700	2462.603654
440.080670	2472.685962
440.456580	2467.644808
440.832429	2545.782692
441.208218	2495.371154
441.583947	2404.630385
441.959616	2455.041923
442.335224	2447.480192
442.710773	2472.685962
443.086261	2467.644808
443.461689	2477.727115
443.837057	2497.891731
444.212365	2502.932885
444.587612	2560.906154
444.962800	2523.097500
445.337927	2432.356731
445.712995	2502.932885
446.088002	2510.494615
446.462949	2414.712692
446.837837	2505.453462
447.212664	2570.988462
447.587431	2570.988462
447.962139	2450.000769
448.336786	2507.974038
448.711374	2513.015192
449.085901	2601.235385
449.460369	2520.576923
449.834776	2485.288846
450.209124	2467.644808
450.583412	2434.877308
450.957640	2540.741538
451.331808	2475.206538
451.705917	2497.891731
452.079965	2502.932885
452.453954	2502.932885
452.827883	2560.906154
453.201752	2533.179808
453.575562	2477.727115
453.949311	2485.288846
454.323001	2485.288846
454.696632	2439.918462
455.070202	2540.741538
455.443713	2497.891731
455.817164	2462.603654
456.190556	2502.932885
456.563888	2560.906154
456.937160	2414.712692
457.310373	2528.138654
457.683526	2470.165385
458.056619	2429.836154
458.429653	2510.494615
458.802628	2462.603654
459.175542	2543.262115
459.548398	2475.206538
459.921194	2455.041923
460.293930	2515.535769
460.666607	2460.083077
461.039224	2429.836154
461.411782	2457.562500
461.784280	2513.015192
462.156719	2523.097500
462.529099	2460.083077
462.901419	2530.659231
463.273680	2492.850577
463.645882	2525.618077
464.018024	2565.947308
464.390106	2475.206538
464.762130	2500.412308
465.134094	2470.165385
465.505999	2482.768269
465.877845	2437.397885
466.249631	2523.097500
466.621358	2419.753846
466.993026	2424.795000
467.364634	2565.947308
467.736184	2452.521346
468.107674	2510.494615
468.479105	2500.412308
468.850477	2442.439038
469.221790	2623.920577
469.593043	2545.782692
469.964238	2525.618077
470.335373	2596.194231
470.706449	2480.247692
471.077467	2455.041923
471.448425	2518.056346
471.819324	2482.768269
472.190164	2412.192115
472.560945	2500.412308
472.931667	2472.685962
473.302330	2412.192115
473.672934	2520.576923
474.043479	2429.836154
474.413965	2455.041923
474.784393	2465.124231
475.154761	2485.288846
475.525070	2510.494615
475.895321	2565.947308
476.265513	2472.685962
476.635645	2573.509038
477.005719	2457.562500
477.375734	2525.618077
477.745691	2462.603654
478.115588	2510.494615
478.485427	2409.671538
478.855207	2452.521346
479.224928	2487.809423
479.594591	2535.700385
479.964194	2545.782692
480.333739	2530.659231
480.703226	2560.906154
481.072653	2497.891731
481.442022	2477.727115
481.811333	2518.056346
482.180584	2535.700385
482.549777	2439.918462
482.918912	2543.262115
483.287988	2392.027500
483.657005	2492.850577
484.025964	2477.727115
484.394864	2570.988462
484.763706	2535.700385
485.132489	2475.206538
485.501213	2500.412308
485.869879	2447.480192
486.238487	2540.741538
486.607036	2533.179808
486.975527	2497.891731
487.343959	2540.741538
487.712333	2502.932885
488.080648	2460.083077
488.448905	2399.589231
488.817104	2472.685962
489.185244	2525.618077
489.553326	2470.165385
489.921350	2530.659231
490.289315	2505.453462
490.657222	2530.659231
491.025070	2482.768269
491.392861	2550.823846
491.760593	2515.535769
492.128267	2432.356731
492.495883	2545.782692
492.863440	2540.741538
493.230939	2444.959615
493.598380	2528.138654
493.965763	2515.535769
494.333088	2553.344423
494.700354	2555.865000
495.067563	2528.138654
495.434713	2528.138654
495.801805	2558.385577
496.168839	2560.906154
496.535815	2457.562500
496.902733	2568.467885
497.269593	2472.685962
497.636395	2487.809423
498.003139	2424.795000
498.369825	2538.220962
498.736453	2538.220962
499.103023	2596.194231
499.469535	2573.509038
499.835989	2513.015192
500.202385	2447.480192
500.568723	2492.850577
500.935003	2492.850577
501.301226	2500.412308
501.667390	2455.041923
502.033497	2523.097500
502.399546	2439.918462
502.765537	2475.206538
503.131470	2545.782692
503.497345	2513.015192
503.863163	2535.700385
504.228923	2490.330000
504.594625	2507.974038
504.960269	2497.891731
505.325856	2576.029615
505.691385	2538.220962
506.056856	2475.206538
506.422270	2492.850577
506.787625	2427.315577
507.152924	2518.056346
507.518164	2472.685962
507.883347	2502.932885
508.248472	2525.618077
508.613540	2417.233269
508.978550	2538.220962
509.343503	2470.165385
509.708398	2550.823846
510.073236	2487.809423
510.438016	2477.727115
510.802738	2467.644808
511.167403	2480.247692
511.532010	2515.535769
511.896561	2558.385577
512.261053	2563.426731
512.625488	2533.179808
512.989866	2475.206538
513.354186	2472.685962
513.718449	2447.480192
514.082655	2576.029615
514.446803	2530.659231
514.810894	2487.809423
515.174927	2535.700385
515.538904	2568.467885
515.902822	2432.356731
516.266684	2444.959615
516.630488	2533.179808
516.994235	2452.521346
517.357925	2452.521346
517.721558	2550.823846
518.085133	2497.891731
518.448651	2450.000769
518.812112	2399.589231
519.175516	2510.494615
519.538863	2455.041923
519.902152	2437.397885
520.265385	2424.795000
520.628560	2500.412308
520.991678	2495.371154
521.354739	2538.220962
521.717743	2482.768269
522.080690	2518.056346
522.443580	2525.618077
522.806413	2528.138654
523.169189	2518.056346
523.531908	2490.330000
523.894569	2533.179808
524.257174	2477.727115
524.619722	2492.850577
524.982213	2427.315577
525.344647	2540.741538
525.707025	2485.288846
526.069345	2442.439038
526.431608	2485.288846
526.793815	2568.467885
527.155964	2510.494615
527.518057	2583.591346
527.880093	2450.000769
528.242072	2432.356731
528.603995	2502.932885
528.965860	2555.865000
529.327669	2475.206538
529.689421	2465.124231
530.051117	2495.371154
530.412755	2495.371154
530.774337	2351.698269
531.135862	2497.891731
531.497331	2462.603654
531.858743	2543.262115
532.220098	2497.891731
532.581396	2485.288846
532.942638	2482.768269
533.303824	2450.000769
533.664953	2480.247692
534.026025	2513.015192
534.387040	2442.439038
534.747999	2545.782692
535.108902	2505.453462
535.469748	2490.330000
535.830537	2439.918462
536.191270	2515.535769
536.551947	2447.480192
536.912567	2482.768269
537.273131	2439.918462
537.633638	2510.494615
537.994089	2588.632500
538.354483	2467.644808
538.714821	2540.741538
539.075103	2515.535769
539.435328	2439.918462
539.795497	2528.138654
540.155609	2528.138654
540.515665	2490.330000
540.875665	2467.644808
541.235609	2601.235385
541.595496	2583.591346
541.955328	2558.385577
542.315102	2465.124231
542.674821	2442.439038
543.034483	2490.330000
543.394090	2576.029615
543.753640	2553.344423
544.113134	2528.138654
544.472571	2520.576923
544.831953	2495.371154
545.191278	2502.932885
545.550548	2530.659231
545.909761	2523.097500
546.268918	2460.083077
546.628019	2487.809423
546.987064	2545.782692
547.346053	2540.741538
547.704986	2490.330000
548.063863	2596.194231
548.422684	2497.891731
548.781449	2548.303269
549.140158	2540.741538
549.498811	2535.700385
549.857408	2487.809423
550.215949	2513.015192
550.574434	2538.220962
550.932864	2550.823846
551.291237	2628.961731
551.649555	2487.809423
552.007817	2480.247692
552.366022	2432.356731
552.724173	2439.918462
553.082267	2502.932885
553.440305	2437.397885
553.798288	2470.165385
554.156215	2525.618077
554.514086	2520.576923
554.871902	2611.317692
555.229661	2588.632500
555.587365	2409.671538
555.945014	2548.303269
556.302606	2500.412308
556.660143	2480.247692
557.017625	2502.932885
557.375050	2495.371154
557.732421	2538.220962
558.089735	2505.453462
558.446994	2465.124231
558.804197	2510.494615
559.161345	2533.179808
559.518437	2548.303269
559.875474	2457.562500
560.232455	2462.603654
560.589381	2560.906154
560.946251	2475.206538
561.303065	2634.002885
561.659825	2457.562500
562.016528	2500.412308
562.373177	2560.906154
562.729770	2538.220962
563.086307	2525.618077
563.442789	2538.220962
563.799216	2500.412308
564.155587	2520.576923
564.511904	2447.480192
564.868164	2523.097500
565.224370	2563.426731
565.580520	2530.659231
565.936615	2419.753846
566.292654	2578.550192
566.648638	2419.753846
567.004567	2480.247692
567.360441	2535.700385
567.716260	2520.576923
568.072023	2538.220962
568.427732	2429.836154
568.783385	2414.712692
569.138982	2467.644808
569.494525	2500.412308
569.850013	2553.344423
570.205445	2495.371154
570.560823	2467.644808
570.916145	2482.768269
571.271412	2510.494615
571.626625	2470.165385
571.981782	2543.262115
572.336884	2487.809423
572.691931	2475.206538
573.046923	2444.959615
573.401860	2470.165385
573.756743	2475.206538
574.111570	2583.591346
574.466342	2497.891731
574.821059	2518.056346
575.175722	2505.453462
575.530330	2518.056346
575.884882	2439.918462
576.239380	2523.097500
576.593823	2513.015192
576.948211	2518.056346
577.302544	2518.056346
577.656823	2530.659231
578.011047	2434.877308
578.365216	2510.494615
578.719330	2528.138654
579.073389	2402.109808
579.427394	2429.836154
579.781344	2497.891731
580.135239	2470.165385
580.489080	2553.344423
580.842866	2429.836154
581.196597	2490.330000
581.550273	2568.467885
581.903895	2490.330000
582.257463	2520.576923
582.610975	2565.947308
582.964434	2419.753846
583.317837	2528.138654
583.671186	2530.659231
584.024481	2530.659231
584.377721	2402.109808
584.730906	2490.330000
585.084037	2502.932885
585.437113	2515.535769
585.790135	2444.959615
586.143103	2560.906154
586.496016	2480.247692
586.848874	2510.494615
587.201679	2588.632500
587.554428	2447.480192
587.907124	2525.618077
588.259765	2525.618077
588.612352	2470.165385
588.964884	2477.727115
589.317362	2523.097500
589.669786	2528.138654
590.022155	2568.467885
590.374470	2505.453462
590.726731	2518.056346
591.078937	2500.412308
591.431090	2513.015192
591.783188	2528.138654
592.135232	2523.097500
592.487222	2497.891731
592.839157	2586.111923
593.191038	2480.247692
593.542866	2513.015192
593.894639	2444.959615
594.246358	2402.109808
594.598022	2472.685962
594.949633	2540.741538
595.301190	2419.753846
595.652692	2543.262115
596.004141	2515.535769
596.355535	2500.412308
596.706876	2495.371154
597.058162	2530.659231
597.409395	2419.753846
597.760573	2437.397885
598.111698	2450.000769
598.462768	2467.644808
598.813785	2540.741538
599.164748	2530.659231
599.515657	2497.891731
599.866511	2475.206538
600.217312	2482.768269
600.568060	2576.029615
600.918753	2465.124231
601.269392	2482.768269
601.619978	2497.891731
601.970510	2444.959615
602.320988	2497.891731
602.671412	2472.685962
603.021783	2555.865000
603.372100	2477.727115
603.722363	2543.262115
604.072572	2568.467885
604.422728	2460.083077
604.772830	2482.768269
605.122878	2407.150962
605.472872	2495.371154
605.822813	2477.727115
606.172701	2581.070769
606.522534	2460.083077
606.872314	2548.303269
607.222041	2598.714808
607.571714	2533.179808
607.921333	2455.041923
608.270899	2525.618077
608.620411	2507.974038
608.969870	2417.233269
609.319276	2555.865000
609.668627	2407.150962
610.017926	2472.685962
610.367171	2502.932885
610.716362	2518.056346
611.065500	2528.138654
611.414585	2538.220962
611.763616	2475.206538
612.112594	2409.671538
612.461518	2518.056346
612.810389	2477.727115
613.159207	2502.932885
613.507971	2472.685962
613.856682	2520.576923
614.205340	2482.768269
614.553945	2528.138654
614.902496	2460.083077
615.250994	2555.865000
615.599439	2525.618077
615.947830	2495.371154
616.296169	2402.109808
616.644454	2455.041923
616.992686	2397.068654
617.340864	2598.714808
617.688990	2432.356731
618.037063	2510.494615
618.385082	2427.315577
618.733048	2432.356731
619.080961	2533.179808
619.428821	2465.124231
619.776628	2470.165385
620.124382	2477.727115
620.472083	2495.371154
620.819731	2434.877308
621.167326	2573.509038
621.514868	2550.823846
621.862357	2447.480192
622.209793	2472.685962
622.557176	2507.974038
622.904506	2470.165385
623.251783	2434.877308
623.599007	2502.932885
623.946179	2419.753846
624.293297	2477.727115
624.640363	2455.041923
624.987376	2482.768269
625.334336	2470.165385
625.681243	2510.494615
626.028097	2497.891731
626.374899	2437.397885
626.721647	2465.124231
627.068343	2576.029615
627.414987	2525.618077
627.761577	2472.685962
628.108115	2447.480192
628.454600	2513.015192
628.801032	2462.603654
629.147412	2452.521346
629.493739	2646.605769
629.840014	2437.397885
630.186236	2510.494615
630.532405	2399.589231
630.878521	2510.494615
631.224585	2502.932885
631.570597	2528.138654
631.916556	2485.288846
632.262462	2560.906154
632.608316	2475.206538
632.954117	2510.494615
633.299866	2452.521346
633.645562	2482.768269
633.991206	2500.412308
634.336797	2543.262115
634.682336	2485.288846
635.027823	2565.947308
635.373257	2480.247692
635.718639	2424.795000
636.063968	2540.741538
636.409245	2518.056346
636.754470	2412.192115
637.099642	2540.741538
637.444762	2482.768269
637.789829	2515.535769
638.134845	2452.521346
638.479808	2510.494615
638.824719	2475.206538
639.169577	2560.906154
639.514383	2502.932885
639.859137	2555.865000
640.203839	2455.041923
640.548489	2553.344423
640.893086	2465.124231
641.237632	2470.165385
641.582125	2427.315577
641.926566	2376.904038
642.270955	2480.247692
642.615292	2523.097500
642.959576	2455.041923
643.303809	2497.891731
643.647990	2432.356731
643.992118	2540.741538
644.336195	2520.576923
644.680219	2427.315577
645.024192	2533.179808
645.368112	2540.741538
645.711981	2545.782692
646.055797	2505.453462
646.399562	2578.550192
646.743274	2535.700385
647.086935	2424.795000
647.430544	2578.550192
647.774101	2482.768269
648.117606	2507.974038
648.461059	2457.562500
648.804460	2452.521346
649.147810	2533.179808
649.491108	2475.206538
649.834354	2397.068654
650.177548	2482.768269
650.520690	2485.288846
650.863781	2520.576923
651.206820	2528.138654
651.549807	2573.509038
651.892742	2510.494615
652.235626	2482.768269
652.578458	2455.041923
652.921238	2538.220962
653.263967	2465.124231
653.606644	2490.330000
653.949269	2450.000769
654.291843	2528.138654
654.634365	2447.480192
654.976836	2467.644808
655.319255	2500.412308
655.661622	2475.206538
656.003938	2568.467885
656.346203	2528.138654
656.688416	2482.768269
657.030577	2565.947308
657.372687	2452.521346
657.714746	2538.220962
658.056753	2467.644808
658.398708	2530.659231
658.740612	2442.439038
659.082465	2520.576923
659.424266	2487.809423
659.766016	2502.932885
660.107715	2520.576923
660.449362	2510.494615
660.790958	2460.083077
661.132503	2442.439038
661.473996	2540.741538
661.815438	2444.959615
662.156829	2450.000769
662.498168	2450.000769
662.839456	2510.494615
663.180693	2465.124231
663.521879	2477.727115
663.863013	2490.330000
664.204097	2490.330000
664.545129	2485.288846
664.886110	2563.426731
665.227040	2462.603654
665.567918	2555.865000
665.908746	2525.618077
666.249522	2523.097500
666.590248	2490.330000
666.930922	2470.165385
667.271545	2457.562500
667.612118	2477.727115
667.952639	2490.330000
668.293109	2434.877308
668.633528	2576.029615
668.973896	2588.632500
669.314213	2553.344423
669.654480	2455.041923
669.994695	2568.467885
670.334859	2543.262115
670.674973	2502.932885
671.015035	2540.741538
671.355047	2457.562500
671.695008	2573.509038
672.034918	2596.194231
672.374777	2555.865000
672.714585	2505.453462
673.054342	2507.974038
673.394049	2480.247692
673.733705	2487.809423
674.073310	2422.274423
674.412864	2563.426731
674.752368	2513.015192
675.091820	2470.165385
675.431223	2518.056346
675.770574	2485.288846
676.109875	2424.795000
676.449125	2450.000769
676.788324	2480.247692
677.127473	2487.809423
677.466571	2538.220962
677.805619	2467.644808
678.144616	2500.412308
678.483562	2490.330000
678.822458	2523.097500
679.161303	2518.056346
679.500098	2553.344423
679.838842	2535.700385
680.177535	2490.330000
680.516179	2495.371154
680.854771	2482.768269
681.193314	2606.276538
681.531805	2513.015192
681.870247	2495.371154
682.208638	2492.850577
682.546978	2495.371154
682.885268	2422.274423
683.223508	2560.906154
683.561697	2482.768269
683.899836	2540.741538
684.237925	2422.274423
684.575963	2485.288846
684.913951	2510.494615
685.251889	2530.659231
685.589776	2480.247692
685.927614	2530.659231
686.265401	2502.932885
686.603137	2540.741538
686.940824	2525.618077
687.278460	2500.412308
687.616046	2540.741538
687.953582	2490.330000
688.291068	2500.412308
688.628504	2452.521346
688.965889	2530.659231
689.303224	2470.165385
689.640510	2480.247692
689.977745	2500.412308
690.314930	2520.576923
690.652065	2515.535769
690.989150	2520.576923
691.326185	2515.535769
691.663170	2444.959615
692.000105	2419.753846
692.336990	2528.138654
692.673825	2434.877308
693.010610	2543.262115
693.347345	2528.138654
693.684030	2485.288846
694.020665	2507.974038
694.357251	2462.603654
694.693786	2505.453462
695.030272	2417.233269
695.366707	2492.850577
695.703093	2467.644808
696.039429	2475.206538
696.375716	2437.397885
696.711952	2538.220962
697.048139	2515.535769
697.384276	2487.809423
697.720363	2497.891731
698.056400	2422.274423
698.392388	2558.385577
698.728326	2482.768269
699.064214	2578.550192
699.400053	2477.727115
699.735842	2515.535769
700.071581	2558.385577
700.407270	2485.288846
700.742910	2457.562500
701.078501	2497.891731
701.414042	2543.262115
701.749533	2502.932885
702.084974	2467.644808
702.420366	2467.644808
702.755709	2447.480192
703.091002	2394.548077
703.426246	2485.288846
703.761440	2523.097500
704.096584	2467.644808
704.431679	2497.891731
704.766725	2548.303269
705.101721	2507.974038
705.436668	2439.918462
705.771565	2507.974038
706.106413	2482.768269
706.441212	2492.850577
706.775961	2558.385577
707.110661	2470.165385
707.445311	2427.315577
707.779913	2525.618077
708.114465	2596.194231
708.448967	2457.562500
708.783421	2419.753846
709.117825	2442.439038
709.452180	2417.233269
709.786485	2432.356731
710.120742	2422.274423
710.454949	2545.782692
710.789107	2485.288846
711.123216	2553.344423
711.457275	2525.618077
711.791286	2535.700385
712.125247	2392.027500
712.459159	2447.480192
712.793023	2439.918462
713.126837	2437.397885
713.460602	2462.603654
713.794318	2565.947308
714.127985	2477.727115
714.461602	2475.206538
714.795171	2472.685962
715.128691	2465.124231
715.462162	2432.356731
715.795584	2538.220962
716.128957	2462.603654
716.462281	2520.576923
716.795556	2437.397885
717.128782	2455.041923
717.461960	2507.974038
717.795088	2586.111923
718.128167	2540.741538
718.461198	2558.385577
718.794180	2397.068654
719.127113	2497.891731
719.459997	2467.644808
719.792833	2495.371154
720.125619	2452.521346
720.458357	2452.521346
720.791046	2502.932885
721.123686	2482.768269
721.456278	2548.303269
721.788821	2520.576923
722.121315	2490.330000
722.453761	2485.288846
722.786158	2450.000769
723.118506	2502.932885
723.450805	2510.494615
723.783056	2545.782692
724.115259	2467.644808
724.447412	2450.000769
724.779518	2570.988462
725.111574	2475.206538
725.443582	2462.603654
725.775542	2528.138654
726.107453	2505.453462
726.439315	2581.070769
726.771129	2538.220962
727.102895	2455.041923
727.434612	2432.356731
727.766281	2533.179808
728.097901	2520.576923
728.429473	2497.891731
728.760996	2412.192115
729.092471	2485.288846
729.423897	2535.700385
729.755276	2616.358846
730.086606	2467.644808
730.417887	2505.453462
730.749120	2502.932885
731.080305	2543.262115
731.411442	2523.097500
731.742530	2528.138654
732.073570	2563.426731
732.404562	2475.206538
732.735506	2495.371154
733.066401	2470.165385
733.397249	2427.315577
733.728048	2505.453462
734.058798	2437.397885
734.389501	2568.467885
734.720156	2535.700385
735.050762	2492.850577
735.381320	2533.179808
735.711831	2523.097500
736.042293	2447.480192
736.372707	2492.850577
736.703073	2465.124231
737.033391	2490.330000
737.363661	2475.206538
737.693883	2487.809423
738.024056	2480.247692
738.354182	2502.932885
738.684260	2520.576923
739.014290	2573.509038
739.344272	2497.891731
739.674207	2480.247692
740.004093	2404.630385
740.333931	2495.371154
740.663722	2505.453462
740.993464	2507.974038
741.323159	2510.494615
741.652806	2588.632500
741.982405	2497.891731
742.311956	2533.179808
742.641460	2472.685962
742.970915	2540.741538
743.300323	2573.509038
743.629683	2588.632500
743.958996	2540.741538
744.288260	2510.494615
744.617477	2581.070769
744.946647	2465.124231
745.275768	2477.727115
745.604842	2419.753846
745.933869	2460.083077
746.262847	2495.371154
746.591778	2492.850577
746.920662	2538.220962
747.249498	2591.153077
747.578286	2565.947308
747.907027	2513.015192
748.235720	2505.453462
748.564365	2492.850577
748.892963	2424.795000
749.221514	2518.056346
749.550017	2465.124231
749.878473	2533.179808
750.206881	2439.918462
750.535242	2507.974038
750.863555	2462.603654
751.191821	2487.809423
751.520039	2525.618077
751.848210	2419.753846
752.176334	2462.603654
752.504411	2470.165385
752.832440	2427.315577
753.160421	2502.932885
753.488356	2525.618077
753.816243	2555.865000
754.144082	2490.330000
754.471875	2472.685962
754.799620	2540.741538
755.127318	2583.591346
755.454969	2482.768269
755.782572	2550.823846
756.110129	2470.165385
756.437638	2565.947308
756.765100	2540.741538
757.092515	2490.330000
757.419882	2450.000769
757.747203	2535.700385
758.074477	2447.480192
758.401703	2520.576923
758.728882	2465.124231
759.056014	2515.535769
759.383099	2422.274423
759.710138	2523.097500
760.037129	2500.412308
760.364073	2457.562500
760.690970	2523.097500
761.017820	2555.865000
761.344623	2505.453462
761.671379	2530.659231
761.998088	2513.015192
762.324751	2505.453462
762.651366	2467.644808
762.977935	2518.056346
763.304456	2404.630385
763.630931	2470.165385
763.957359	2518.056346
764.283740	2507.974038
764.610074	2513.015192
764.936362	2513.015192
765.262602	2480.247692
765.588796	2548.303269
765.914943	2518.056346
766.241044	2535.700385
766.567097	2465.124231
766.893104	2399.589231
767.219064	2573.509038
767.544978	2492.850577
767.870845	2467.644808
768.196665	2462.603654
768.522438	2565.947308
768.848165	2525.618077
769.173846	2480.247692
769.499479	2447.480192
769.825066	2530.659231
770.150607	2462.603654
770.476101	2487.809423
770.801548	2510.494615
771.126949	2568.467885
771.452303	2455.041923
771.777611	2455.041923
772.102872	2492.850577
772.428087	2520.576923
772.753256	2482.768269
773.078378	2553.344423
773.403453	2432.356731
773.728482	2455.041923
774.053465	2540.741538
774.378401	2470.165385
774.703291	2510.494615
775.028135	2490.330000
775.352932	2518.056346
775.677683	2460.083077
776.002388	2535.700385
776.327046	2404.630385
776.651658	2505.453462
776.976224	2523.097500
777.300743	2444.959615
777.625216	2487.809423
777.949643	2497.891731
778.274024	2442.439038
778.598359	2465.124231
778.922647	2492.850577
779.246889	2492.850577
779.571086	2492.850577
779.895236	2550.823846
780.219339	2558.385577
780.543397	2495.371154
780.867409	2399.589231
781.191374	2525.618077
781.515294	2434.877308
781.839167	2472.685962
782.162995	2528.138654
782.486776	2470.165385
782.810511	2477.727115
783.134201	2452.521346
783.457844	2495.371154
783.781441	2502.932885
784.104993	2490.330000
784.428498	2477.727115
784.751958	2465.124231
785.075372	2482.768269
785.398739	2419.753846
785.722061	2475.206538
786.045337	2482.768269
786.368568	2518.056346
786.691752	2581.070769
787.014891	2505.453462
787.337983	2422.274423
787.661030	2460.083077
787.984031	2538.220962
788.306987	2525.618077
788.629897	2497.891731
788.952760	2505.453462
789.275579	2525.618077
789.598351	2482.768269
789.921078	2553.344423
790.243759	2533.179808
790.566395	2492.850577
790.888984	2502.932885
791.211529	2485.288846
791.534027	2495.371154
791.856480	2560.906154
792.178888	2515.535769
792.501249	2560.906154
792.823566	2427.315577
793.145836	2538.220962
793.468062	2560.906154
793.790241	2543.262115
794.112375	2500.412308
794.434464	2553.344423
794.756507	2417.233269
795.078505	2424.795000
795.400457	2530.659231
795.722364	2510.494615
796.044226	2596.194231
796.366042	2487.809423
796.687812	2543.262115
797.009538	2520.576923
797.331218	2460.083077
797.652852	2457.562500
797.974442	2568.467885
798.295986	2409.671538
798.617484	2530.659231
798.938938	2535.700385
799.260346	2487.809423
799.581709	2533.179808
799.903026	2450.000769
800.224299	2485.288846
800.545526	2487.809423
800.866708	2533.179808
801.187845	2500.412308
801.508936	2535.700385
801.829983	2573.509038
802.150984	2412.192115
802.471940	2495.371154
802.792851	2500.412308
803.113717	2477.727115
803.434538	2429.836154
803.755314	2505.453462
804.076045	2502.932885
804.396731	2490.330000
804.717372	2533.179808
805.037967	2450.000769
805.358518	2326.492500
805.679024	2399.589231
805.999485	2555.865000
806.319901	2419.753846
806.640272	2535.700385
806.960598	2502.932885
807.280879	2545.782692
807.601115	2432.356731
807.921306	2394.548077
808.241453	2492.850577
808.561554	2565.947308
808.881611	2497.891731
809.201623	2555.865000
809.521590	2437.397885
809.841513	2596.194231
810.161390	2513.015192
810.481223	2543.262115
810.801011	2482.768269
811.120755	2543.262115
811.440453	2417.233269
811.760107	2500.412308
812.079716	2555.865000
812.399281	2480.247692
812.718801	2515.535769
813.038276	2543.262115
813.357707	2500.412308
813.677093	2563.426731
813.996434	2500.412308
814.315731	2553.344423
814.634983	2570.988462
814.954191	2460.083077
815.273354	2490.330000
815.592473	2540.741538
815.911547	2565.947308
816.230577	2439.918462
816.549562	2455.041923
816.868502	2505.453462
817.187399	2439.918462
817.506250	2533.179808
817.825058	2500.412308
818.143821	2588.632500
818.462539	2412.192115
818.781213	2465.124231
819.099843	2450.000769
819.418429	2520.576923
819.736970	2492.850577
820.055466	2480.247692
820.373919	2457.562500
820.692327	2530.659231
821.010691	2444.959615
821.329011	2434.877308
821.647286	2535.700385
821.965517	2528.138654
822.283704	2505.453462
822.601847	2397.068654
822.919945	2482.768269
823.237999	2386.986346
823.556010	2513.015192
823.873976	2477.727115
824.191897	2578.550192
824.509775	2520.576923
824.827609	2502.932885
825.145398	2510.494615
825.463144	2467.644808
825.780845	2462.603654
826.098502	2490.330000
826.416116	2525.618077
826.733685	2450.000769
827.051210	2437.397885
827.368692	2419.753846
827.686129	2495.371154
828.003522	2472.685962
828.320872	2535.700385
828.638177	2482.768269
828.955439	2525.618077
829.272656	2568.467885
829.589830	2485.288846
829.906960	2402.109808
830.224046	2515.535769
830.541088	2462.603654
830.858086	2492.850577
831.175041	2507.974038
831.491952	2485.288846
831.808819	2452.521346
832.125642	2500.412308
832.442421	2409.671538
832.759157	2507.974038
833.075849	2457.562500
833.392497	2525.618077
833.709101	2465.124231
834.025662	2480.247692
834.342179	2502.932885
834.658653	2422.274423
834.975083	2402.109808
835.291469	2513.015192
835.607811	2570.988462
835.924110	2581.070769
836.240366	2455.041923
836.556578	2470.165385
836.872746	2550.823846
837.188871	2455.041923
837.504952	2530.659231
837.820990	2487.809423
838.136984	2475.206538
838.452935	2500.412308
838.768842	2507.974038
839.084706	2439.918462
839.400526	2502.932885
839.716303	2543.262115
840.032037	2520.576923
840.347727	2553.344423
840.663373	2465.124231
840.978977	2550.823846
841.294537	2429.836154
841.610054	2510.494615
841.925527	2475.206538
842.240957	2558.385577
842.556344	2444.959615
842.871687	2535.700385
843.186987	2591.153077
843.502244	2497.891731
843.817458	2518.056346
844.132629	2497.891731
844.447756	2467.644808
844.762840	2621.400000
845.077881	2447.480192
845.392879	2548.303269
845.707833	2538.220962
846.022745	2442.439038
846.337613	2465.124231
846.652438	2462.603654
846.967221	2457.562500
847.281960	2447.480192
847.596656	2450.000769
847.911309	2467.644808
848.225919	2404.630385
848.540485	2452.521346
848.855009	2371.862885
849.169490	2490.330000
849.483928	2492.850577
849.798323	2447.480192
850.112675	2510.494615
850.426984	2384.465769
850.741251	2394.548077
851.055474	2570.988462
851.369654	2528.138654
851.683792	2490.330000
851.997887	2518.056346
852.311938	2417.233269
852.625947	2570.988462
852.939914	2482.768269
853.253837	2545.782692
853.567718	2442.439038
853.881555	2482.768269
854.195350	2525.618077
854.509103	2404.630385
854.822812	2518.056346
855.136479	2505.453462
855.450103	2495.371154
855.763685	2492.850577
856.077224	2462.603654
856.390720	2407.150962
856.704173	2513.015192
857.017584	2497.891731
857.330953	2490.330000
857.644278	2485.288846
857.957561	2487.809423
858.270802	2495.371154
858.584000	2452.521346
858.897155	2480.247692
859.210268	2497.891731
859.523339	2497.891731
859.836367	2543.262115
860.149352	2515.535769
860.462295	2455.041923
860.775195	2487.809423
861.088054	2467.644808
861.400869	2601.235385
861.713642	2452.521346
862.026373	2477.727115
862.339062	2548.303269
862.651708	2513.015192
862.964312	2510.494615
863.276873	2424.795000
863.589392	2467.644808
863.901869	2492.850577
864.214303	2439.918462
864.526696	2510.494615
864.839045	2467.644808
865.151353	2482.768269
865.463619	2540.741538
865.775842	2480.247692
866.088023	2545.782692
866.400162	2543.262115
866.712258	2444.959615
867.024313	2455.041923
867.336325	2545.782692
867.648296	2492.850577
867.960224	2404.630385
868.272110	2432.356731
868.583954	2513.015192
868.895755	2427.315577
869.207515	2460.083077
869.519233	2518.056346
869.830909	2409.671538
870.142542	2505.453462
870.454134	2543.262115
870.765684	2535.700385
871.077191	2442.439038
871.388657	2460.083077
871.700081	2422.274423
872.011463	2515.535769
872.322803	2477.727115
872.634101	2560.906154
872.945357	2520.576923
873.256571	2475.206538
873.567744	2573.509038
873.878874	2447.480192
874.189963	2460.083077
874.501010	2560.906154
874.812015	2467.644808
875.122979	2560.906154
875.433900	2528.138654
875.744780	2465.124231
876.055618	2485.288846
876.366415	2563.426731
876.677169	2429.836154
876.987882	2502.932885
877.298554	2502.932885
877.609183	2563.426731
877.919771	2490.330000
878.230317	2525.618077
878.540822	2399.589231
878.851285	2510.494615
879.161707	2460.083077
879.472087	2404.630385
879.782425	2492.850577
880.092722	2444.959615
880.402977	2505.453462
880.713191	2419.753846
881.023363	2523.097500
881.333494	2414.712692
881.643583	2457.562500
881.953631	2487.809423
882.263637	2560.906154
882.573602	2475.206538
882.883526	2452.521346
883.193408	2472.685962
883.503248	2553.344423
883.813048	2550.823846
884.122806	2487.809423
884.432522	2565.947308
884.742197	2535.700385
885.051831	2480.247692
885.361424	2485.288846
885.670975	2487.809423
885.980485	2472.685962
886.289954	2543.262115
886.599382	2525.618077
886.908768	2472.685962
887.218113	2417.233269
887.527417	2475.206538
887.836680	2490.330000
888.145901	2538.220962
888.455082	2581.070769
888.764221	2392.027500
889.073319	2523.097500
889.382376	2606.276538
889.691392	2472.685962
890.000366	2525.618077
890.309300	2530.659231
890.618193	2455.041923
890.927044	2533.179808
891.235855	2470.165385
891.544625	2543.262115
891.853353	2439.918462
892.162041	2548.303269
892.470687	2545.782692
892.779293	2495.371154
893.087858	2520.576923
893.396381	2444.959615
893.704864	2518.056346
894.013306	2452.521346
894.321707	2538.220962
894.630068	2576.029615
894.938387	2477.727115
895.246665	2523.097500
895.554903	2475.206538
895.863100	2492.850577
896.171256	2442.439038
896.479371	2487.809423
896.787446	2460.083077
897.095480	2442.439038
897.403473	2409.671538
897.711425	2500.412308
898.019336	2477.727115
898.327207	2480.247692
898.635038	2465.124231
898.942827	2510.494615
899.250576	2460.083077
899.558284	2523.097500
899.865952	2470.165385
900.173579	2548.303269
900.481165	2465.124231
900.788711	2555.865000
901.096216	2505.453462
901.403681	2565.947308
901.711105	2482.768269
902.018489	2583.591346
902.325832	2467.644808
902.633135	2492.850577
902.940397	2467.644808
903.247619	2455.041923
903.554800	2485.288846
903.861941	2467.644808
904.169041	2500.412308
904.476101	2477.727115
904.783121	2482.768269
905.090100	2477.727115
905.397039	2422.274423
905.703938	2550.823846
906.010796	2497.891731
906.317614	2570.988462
906.624391	2518.056346
906.931129	2450.000769
907.237826	2530.659231
907.544483	2543.262115
907.851099	2475.206538
908.157675	2528.138654
908.464211	2439.918462
908.770707	2540.741538
909.077163	2455.041923
909.383578	2487.809423
909.689954	2462.603654
909.996289	2565.947308
910.302584	2439.918462
910.608839	2518.056346
910.915054	2442.439038
911.221229	2444.959615
911.527363	2533.179808
911.833458	2349.177692
912.139513	2543.262115
912.445527	2495.371154
912.751502	2558.385577
913.057436	2565.947308
913.363331	2429.836154
913.669186	2530.659231
913.975000	2467.644808
914.280775	2513.015192
914.586510	2472.685962
914.892205	2480.247692
915.197859	2455.041923
915.503475	2442.439038
915.809050	2525.618077
916.114585	2540.741538
916.420081	2434.877308
916.725536	2487.809423
917.030952	2530.659231
917.336328	2533.179808
917.641665	2520.576923
917.946961	2533.179808
918.252218	2442.439038
918.557435	2495.371154
918.862612	2450.000769
919.167750	2470.165385
919.472848	2500.412308
919.777906	2419.753846
920.082925	2553.344423
920.387904	2490.330000
920.692843	2515.535769
920.997743	2475.206538
921.302603	2444.959615
921.607423	2480.247692
921.912204	2439.918462
922.216946	2538.220962
922.521647	2482.768269
922.826310	2492.850577
923.130932	2520.576923
923.435516	2545.782692
923.740059	2427.315577
924.044564	2500.412308
924.349028	2480.247692
924.653454	2535.700385
924.957840	2427.315577
925.262186	2492.850577
925.566493	2505.453462
925.870761	2455.041923
926.174989	2543.262115
926.479178	2548.303269
926.783328	2495.371154
927.087438	2578.550192
927.391509	2502.932885
927.695541	2480.247692
927.999533	2513.015192
928.303486	2533.179808
928.607400	2563.426731
928.911275	2535.700385
929.215110	2434.877308
929.518906	2485.288846
929.822663	2530.659231
930.126381	2500.412308
930.430060	2502.932885
930.733699	2558.385577
931.037299	2442.439038
931.340861	2455.041923
931.644383	2560.906154
931.947866	2455.041923
932.251309	2487.809423
932.554714	2465.124231
932.858080	2518.056346
933.161407	2465.124231
933.464694	2568.467885
933.767943	2482.768269
934.071153	2412.192115
934.374323	2482.768269
934.677455	2573.509038
934.980548	2467.644808
935.283602	2545.782692
935.586617	2490.330000
935.889593	2460.083077
936.192530	2480.247692
936.495428	2492.850577
936.798287	2502.932885
937.101108	2480.247692
937.403890	2470.165385
937.706632	2525.618077
938.009336	2510.494615
938.312002	2450.000769
938.614628	2480.247692
938.917216	2525.618077
939.219765	2573.509038
939.522275	2475.206538
939.824747	2495.371154
940.127179	2545.782692
940.429573	2492.850577
940.731929	2550.823846
941.034246	2462.603654
941.336524	2497.891731
941.638763	2482.768269
941.940964	2450.000769
942.243126	2475.206538
942.545250	2409.671538
942.847335	2462.603654
943.149381	2535.700385
943.451389	2535.700385
943.753359	2397.068654
944.055290	2545.782692
944.357182	2490.330000
944.659036	2528.138654
944.960851	2457.562500
945.262628	2533.179808
945.564367	2482.768269
945.866067	2495.371154
946.167729	2422.274423
946.469352	2507.974038
946.770937	2530.659231
947.072484	2520.576923
947.373992	2472.685962
947.675462	2591.153077
947.976893	2432.356731
948.278286	2515.535769
948.579641	2424.795000
948.880958	2535.700385
949.182236	2465.124231
949.483476	2485.288846
949.784678	2588.632500
950.085841	2492.850577
950.386967	2442.439038
950.688054	2528.138654
950.989103	2533.179808
951.290114	2497.891731
951.591087	2475.206538
951.892021	2505.453462
952.192917	2513.015192
952.493776	2475.206538
952.794596	2477.727115
953.095378	2513.015192
953.396122	2533.179808
953.696828	2434.877308
953.997496	2442.439038
954.298126	2487.809423
954.598718	2505.453462
954.899272	2530.659231
955.199788	2432.356731
955.500266	2530.659231
955.800706	2497.891731
956.101108	2497.891731
956.401472	2465.124231
956.701798	2419.753846
957.002087	2460.083077
957.302337	2397.068654
957.602550	2507.974038
957.902724	2442.439038
958.202861	2555.865000
958.502960	2500.412308
958.803022	2553.344423
959.103045	2507.974038
959.403031	2555.865000
959.702979	2497.891731
960.002889	2429.836154
960.302762	2505.453462
960.602596	2487.809423
960.902393	2462.603654
961.202153	2507.974038
961.501875	2475.206538
961.801559	2462.603654
962.101205	2583.591346
962.400814	2530.659231
962.700385	2543.262115
962.999918	2422.274423
963.299414	2520.576923
963.598873	2550.823846
963.898293	2565.947308
964.197677	2450.000769
964.497022	2444.959615
964.796331	2565.947308
965.095601	2439.918462
965.394835	2538.220962
965.694030	2475.206538
965.993189	2543.262115
966.292309	2392.027500
966.591393	2500.412308
966.890439	2457.562500
967.189447	2487.809423
967.488419	2485.288846
967.787353	2535.700385
968.086249	2495.371154
968.385108	2528.138654
968.683930	2422.274423
968.982714	2482.768269
969.281462	2457.562500
969.580172	2487.809423
969.878844	2487.809423
970.177480	2505.453462
970.476078	2470.165385
970.774639	2457.562500
971.073162	2381.945192
971.371649	2487.809423
971.670098	2477.727115
971.968510	2565.947308
972.266885	2407.150962
972.565223	2495.371154
972.863524	2422.274423
973.161788	2442.439038
973.460014	2543.262115
973.758204	2452.521346
974.056356	2553.344423
974.354471	2535.700385
974.652550	2555.865000
974.950591	2565.947308
975.248595	2470.165385
975.546563	2490.330000
975.844493	2477.727115
976.142386	2442.439038
976.440243	2462.603654
976.738062	2434.877308
977.035845	2550.823846
977.333590	2518.056346
977.631299	2490.330000
977.928971	2480.247692
978.226606	2507.974038
978.524204	2550.823846
978.821765	2457.562500
979.119290	2555.865000
979.416777	2480.247692
979.714228	2583.591346
980.011642	2409.671538
980.309020	2467.644808
980.606360	2467.644808
980.903664	2601.235385
981.200931	2490.330000
981.498162	2520.576923
981.795356	2422.274423
982.092513	2482.768269
982.389633	2465.124231
982.686717	2505.453462
982.983764	2434.877308
983.280775	2525.618077
983.577749	2525.618077
983.874686	2563.426731
984.171587	2462.603654
984.468451	2457.562500
984.765279	2538.220962
985.062070	2518.056346
985.358824	2439.918462
985.655543	2525.618077
985.952224	2457.562500
986.248869	2583.591346
986.545478	2432.356731
986.842050	2500.412308
987.138586	2513.015192
987.435086	2487.809423
987.731549	2450.000769
988.027975	2460.083077
988.324366	2444.959615
988.620719	2495.371154
988.917037	2583.591346
989.213318	2460.083077
989.509563	2510.494615
989.805772	2518.056346
990.101944	2477.727115
990.398080	2570.988462
990.694180	2439.918462
990.990244	2515.535769
991.286271	2492.850577
991.582262	2412.192115
991.878217	2480.247692
992.174136	2455.041923
992.470019	2578.550192
992.765865	2465.124231
993.061676	2530.659231
993.357450	2450.000769
993.653188	2558.385577
993.948890	2513.015192
994.244556	2538.220962
994.540186	2465.124231
994.835780	2465.124231
995.131337	2492.850577
995.426859	2495.371154
995.722345	2492.850577
996.017795	2482.768269
996.313208	2553.344423
996.608586	2480.247692
996.903928	2457.562500
997.199234	2460.083077
997.494504	2535.700385
997.789738	2565.947308
998.084936	2485.288846
998.380099	2573.509038
998.675225	2409.671538
998.970316	2442.439038
999.265371	2513.015192
999.560390	2432.356731
999.855373	2601.235385
1000.150320	2465.124231
1000.445232	2485.288846
1000.740108	2409.671538
1001.034948	2485.288846
1001.329752	2520.576923
1001.624521	2432.356731
1001.919254	2467.644808
1002.213951	2550.823846
1002.508613	2497.891731
1002.803239	2460.083077
1003.097829	2495.371154
1003.392384	2492.850577
1003.686903	2545.782692
1003.981386	2502.932885
1004.275834	2485.288846
1004.570246	2392.027500
1004.864623	2490.330000
1005.158964	2482.768269
1005.453270	2480.247692
1005.747540	2507.974038
1006.041775	2505.453462
1006.335974	2485.288846
1006.630138	2470.165385
1006.924266	2510.494615
1007.218359	2477.727115
1007.512416	2427.315577
1007.806438	2452.521346
1008.100425	2576.029615
1008.394376	2485.288846
1008.688292	2487.809423
1008.982172	2523.097500
1009.276017	2530.659231
1009.569827	2452.521346
1009.863602	2513.015192
1010.157341	2482.768269
1010.451045	2510.494615
1010.744714	2500.412308
1011.038347	2520.576923
1011.331945	2495.371154
1011.625508	2480.247692
1011.919036	2455.041923
1012.212528	2460.083077
1012.505986	2520.576923
1012.799408	2462.603654
1013.092795	2530.659231
1013.386147	2472.685962
1013.679464	2545.782692
1013.972745	2460.083077
1014.265992	2555.865000
1014.559204	2414.712692
1014.852380	2515.535769
1015.145521	2472.685962
1015.438628	2460.083077
1015.731699	2462.603654
1016.024736	2482.768269
1016.317737	2497.891731
1016.610703	2444.959615
1016.903635	2515.535769
1017.196531	2485.288846
1017.489393	2424.795000
1017.782219	2412.192115
1018.075011	2497.891731
1018.367768	2442.439038
1018.660490	2593.673654
1018.953177	2593.673654
1019.245829	2593.673654
