Dividing Wavelength (nm)	Counts (n)	Blue Motor Position (mm): 1.500000	Red Motor Position (mm): 0.000000	
326.493990	2150.052115
326.888308	2150.052115
327.282561	2150.052115
327.676750	2059.311346
328.070874	2097.120000
328.464933	2152.572692
328.858929	2109.722885
329.252859	2160.134423
329.646726	2041.667308
330.040528	2066.873077
330.434265	2114.764038
330.827938	2097.120000
331.221547	2097.120000
331.615091	2155.093269
332.008571	2182.819615
332.401986	2200.463654
332.795338	2238.272308
333.188625	2263.478077
333.581847	2301.286731
333.975006	2265.998654
334.368100	2213.066538
334.761129	2364.301154
335.154095	2346.657115
335.546996	2293.725000
335.939833	2341.615962
336.332606	2376.904038
336.725315	2361.780577
337.117960	2507.974038
337.510540	2356.739423
337.903056	2444.959615
338.295508	2417.233269
338.687896	2394.548077
339.080220	2462.603654
339.472480	2412.192115
339.864676	2447.480192
340.256807	2376.904038
340.648875	2543.262115
341.040879	2465.124231
341.432818	2450.000769
341.824694	2457.562500
342.216506	2457.562500
342.608253	2409.671538
342.999937	2427.315577
343.391557	2429.836154
343.783113	2497.891731
344.174605	2407.150962
344.566033	2540.741538
344.957397	2437.397885
345.348697	2480.247692
345.739934	2492.850577
346.131106	2518.056346
346.522215	2490.330000
346.913260	2457.562500
347.304241	2444.959615
347.695159	2439.918462
348.086012	2472.685962
348.476802	2404.630385
348.867528	2452.521346
349.258191	2376.904038
349.648789	2485.288846
350.039324	2470.165385
350.429796	2502.932885
350.820203	2444.959615
351.210548	2497.891731
351.600828	2427.315577
351.991045	2369.342308
352.381198	2480.247692
352.771288	2397.068654
353.161314	2397.068654
353.551276	2417.233269
353.941175	2470.165385
354.331010	2434.877308
354.720782	2437.397885
355.110490	2417.233269
355.500135	2422.274423
355.889717	2434.877308
356.279235	2417.233269
356.668689	2361.780577
357.058080	2397.068654
357.447408	2485.288846
357.836672	2482.768269
358.225873	2417.233269
358.615010	2434.877308
359.004084	2462.603654
359.393095	2437.397885
359.782043	2389.506923
360.170927	2432.356731
360.559748	2442.439038
360.948505	2399.589231
361.337199	2386.986346
361.725830	2490.330000
362.114398	2470.165385
362.502903	2490.330000
362.891344	2455.041923
363.279722	2497.891731
363.668037	2460.083077
364.056289	2460.083077
364.444478	2465.124231
364.832603	2417.233269
365.220665	2437.397885
365.608665	2404.630385
365.996601	2414.712692
366.384474	2447.480192
366.772284	2437.397885
367.160031	2467.644808
367.547715	2457.562500
367.935336	2487.809423
368.322893	2422.274423
368.710388	2437.397885
369.097820	2482.768269
369.485189	2417.233269
369.872495	2513.015192
370.259738	2444.959615
370.646918	2457.562500
371.034035	2399.589231
371.421090	2402.109808
371.808081	2399.589231
372.195010	2417.233269
372.581875	2442.439038
372.968678	2424.795000
373.355418	2450.000769
373.742096	2450.000769
374.128710	2407.150962
374.515262	2495.371154
374.901751	2437.397885
375.288177	2384.465769
375.674540	2444.959615
376.060841	2447.480192
376.447079	2477.727115
376.833254	2513.015192
377.219367	2437.397885
377.605417	2432.356731
377.991404	2502.932885
378.377329	2482.768269
378.763191	2510.494615
379.148991	2487.809423
379.534727	2444.959615
379.920402	2490.330000
380.306013	2450.000769
380.691563	2470.165385
381.077049	2467.644808
381.462474	2492.850577
381.847835	2470.165385
382.233134	2455.041923
382.618371	2455.041923
383.003545	2513.015192
383.388657	2500.412308
383.773706	2495.371154
384.158693	2457.562500
384.543618	2467.644808
384.928480	2525.618077
385.313280	2480.247692
385.698017	2397.068654
386.082692	2492.850577
386.467305	2457.562500
386.851856	2442.439038
387.236344	2525.618077
387.620770	2442.439038
388.005133	2460.083077
388.389435	2407.150962
388.773674	2399.589231
389.157851	2472.685962
389.541965	2450.000769
389.926018	2404.630385
390.310008	2397.068654
390.693936	2455.041923
391.077802	2470.165385
391.461606	2505.453462
391.845348	2432.356731
392.229027	2437.397885
392.612645	2452.521346
392.996200	2429.836154
393.379694	2467.644808
393.763125	2520.576923
394.146494	2397.068654
394.529801	2429.836154
394.913047	2460.083077
395.296230	2543.262115
395.679351	2470.165385
396.062410	2442.439038
396.445408	2465.124231
396.828343	2475.206538
397.211217	2465.124231
397.594028	2455.041923
397.976778	2409.671538
398.359466	2462.603654
398.742092	2422.274423
399.124656	2543.262115
399.507158	2502.932885
399.889598	2424.795000
400.271977	2490.330000
400.654294	2429.836154
401.036549	2419.753846
401.418742	2495.371154
401.800874	2507.974038
402.182944	2495.371154
402.564952	2460.083077
402.946898	2540.741538
403.328783	2548.303269
403.710606	2472.685962
404.092367	2477.727115
404.474067	2485.288846
404.855705	2530.659231
405.237282	2502.932885
405.618797	2490.330000
406.000250	2497.891731
406.381642	2523.097500
406.762972	2540.741538
407.144240	2429.836154
407.525447	2505.453462
407.906593	2447.480192
408.287677	2439.918462
408.668700	2455.041923
409.049661	2495.371154
409.430560	2381.945192
409.811399	2502.932885
410.192176	2460.083077
410.572891	2472.685962
410.953545	2502.932885
411.334138	2470.165385
411.714669	2455.041923
412.095139	2485.288846
412.475547	2550.823846
412.855894	2455.041923
413.236180	2515.535769
413.616405	2472.685962
413.996568	2462.603654
414.376670	2470.165385
414.756711	2386.986346
415.136691	2608.797115
415.516609	2470.165385
415.896466	2520.576923
416.276262	2510.494615
416.655997	2497.891731
417.035670	2497.891731
417.415283	2475.206538
417.794834	2525.618077
418.174324	2500.412308
418.553753	2422.274423
418.933121	2427.315577
419.312428	2437.397885
419.691674	2518.056346
420.070859	2470.165385
420.449983	2439.918462
420.829045	2487.809423
421.208047	2588.632500
421.586988	2407.150962
421.965867	2424.795000
422.344686	2470.165385
422.723444	2472.685962
423.102141	2583.591346
423.480777	2442.439038
423.859352	2507.974038
424.237866	2520.576923
424.616319	2399.589231
424.994712	2570.988462
425.373044	2520.576923
425.751314	2472.685962
426.129524	2455.041923
426.507673	2530.659231
426.885762	2540.741538
427.263789	2455.041923
427.641756	2490.330000
428.019662	2381.945192
428.397508	2480.247692
428.775292	2480.247692
429.153016	2417.233269
429.530679	2429.836154
429.908282	2460.083077
430.285824	2475.206538
430.663305	2470.165385
431.040726	2533.179808
431.418086	2450.000769
431.795385	2545.782692
432.172624	2422.274423
432.549802	2485.288846
432.926920	2495.371154
433.303977	2439.918462
433.680974	2507.974038
434.057910	2434.877308
434.434786	2553.344423
434.811601	2457.562500
435.188355	2485.288846
435.565050	2417.233269
435.941683	2507.974038
436.318257	2444.959615
436.694770	2533.179808
437.071222	2467.644808
437.447614	2523.097500
437.823946	2447.480192
438.200218	2538.220962
438.576429	2475.206538
438.952580	2568.467885
439.328670	2475.206538
439.704700	2351.698269
440.080670	2452.521346
440.456580	2437.397885
440.832429	2472.685962
441.208218	2477.727115
441.583947	2394.548077
441.959616	2444.959615
442.335224	2497.891731
442.710773	2444.959615
443.086261	2548.303269
443.461689	2467.644808
443.837057	2533.179808
444.212365	2447.480192
444.587612	2548.303269
444.962800	2412.192115
445.337927	2467.644808
445.712995	2500.412308
446.088002	2462.603654
446.462949	2497.891731
446.837837	2500.412308
447.212664	2518.056346
447.587431	2455.041923
447.962139	2510.494615
448.336786	2432.356731
448.711374	2495.371154
449.085901	2507.974038
449.460369	2533.179808
449.834776	2555.865000
450.209124	2470.165385
450.583412	2518.056346
450.957640	2487.809423
451.331808	2555.865000
451.705917	2447.480192
452.079965	2500.412308
452.453954	2528.138654
452.827883	2457.562500
453.201752	2497.891731
453.575562	2548.303269
453.949311	2530.659231
454.323001	2487.809423
454.696632	2548.303269
455.070202	2487.809423
455.443713	2492.850577
455.817164	2475.206538
456.190556	2538.220962
456.563888	2502.932885
456.937160	2538.220962
457.310373	2480.247692
457.683526	2548.303269
458.056619	2518.056346
458.429653	2560.906154
458.802628	2502.932885
459.175542	2455.041923
459.548398	2513.015192
459.921194	2507.974038
460.293930	2550.823846
460.666607	2455.041923
461.039224	2457.562500
461.411782	2470.165385
461.784280	2487.809423
462.156719	2550.823846
462.529099	2497.891731
462.901419	2528.138654
463.273680	2460.083077
463.645882	2462.603654
464.018024	2475.206538
464.390106	2467.644808
464.762130	2538.220962
465.134094	2485.288846
465.505999	2450.000769
465.877845	2402.109808
466.249631	2497.891731
466.621358	2487.809423
466.993026	2392.027500
467.364634	2535.700385
467.736184	2505.453462
468.107674	2492.850577
468.479105	2472.685962
468.850477	2480.247692
469.221790	2528.138654
469.593043	2558.385577
469.964238	2465.124231
470.335373	2520.576923
470.706449	2460.083077
471.077467	2528.138654
471.448425	2407.150962
471.819324	2452.521346
472.190164	2525.618077
472.560945	2439.918462
472.931667	2533.179808
473.302330	2507.974038
473.672934	2439.918462
474.043479	2492.850577
474.413965	2465.124231
474.784393	2429.836154
475.154761	2467.644808
475.525070	2525.618077
475.895321	2394.548077
476.265513	2376.904038
476.635645	2490.330000
477.005719	2543.262115
477.375734	2482.768269
477.745691	2492.850577
478.115588	2502.932885
478.485427	2480.247692
478.855207	2520.576923
479.224928	2515.535769
479.594591	2409.671538
479.964194	2444.959615
480.333739	2535.700385
480.703226	2470.165385
481.072653	2477.727115
481.442022	2545.782692
481.811333	2487.809423
482.180584	2578.550192
482.549777	2545.782692
482.918912	2457.562500
483.287988	2523.097500
483.657005	2437.397885
484.025964	2623.920577
484.394864	2477.727115
484.763706	2462.603654
485.132489	2480.247692
485.501213	2543.262115
485.869879	2495.371154
486.238487	2477.727115
486.607036	2404.630385
486.975527	2495.371154
487.343959	2480.247692
487.712333	2518.056346
488.080648	2472.685962
488.448905	2538.220962
488.817104	2507.974038
489.185244	2455.041923
489.553326	2558.385577
489.921350	2439.918462
490.289315	2518.056346
490.657222	2447.480192
491.025070	2528.138654
491.392861	2432.356731
491.760593	2495.371154
492.128267	2472.685962
492.495883	2533.179808
492.863440	2513.015192
493.230939	2455.041923
493.598380	2462.603654
493.965763	2490.330000
494.333088	2450.000769
494.700354	2520.576923
495.067563	2548.303269
495.434713	2490.330000
495.801805	2525.618077
496.168839	2480.247692
496.535815	2460.083077
496.902733	2538.220962
497.269593	2510.494615
497.636395	2538.220962
498.003139	2460.083077
498.369825	2505.453462
498.736453	2477.727115
499.103023	2510.494615
499.469535	2452.521346
499.835989	2505.453462
500.202385	2573.509038
500.568723	2437.397885
500.935003	2470.165385
501.301226	2460.083077
501.667390	2518.056346
502.033497	2465.124231
502.399546	2513.015192
502.765537	2525.618077
503.131470	2389.506923
503.497345	2518.056346
503.863163	2442.439038
504.228923	2480.247692
504.594625	2538.220962
504.960269	2495.371154
505.325856	2487.809423
505.691385	2490.330000
506.056856	2510.494615
506.422270	2492.850577
506.787625	2487.809423
507.152924	2568.467885
507.518164	2419.753846
507.883347	2495.371154
508.248472	2424.795000
508.613540	2492.850577
508.978550	2432.356731
509.343503	2434.877308
509.708398	2487.809423
510.073236	2472.685962
510.438016	2495.371154
510.802738	2586.111923
511.167403	2472.685962
511.532010	2543.262115
511.896561	2520.576923
512.261053	2548.303269
512.625488	2457.562500
512.989866	2470.165385
513.354186	2450.000769
513.718449	2450.000769
514.082655	2523.097500
514.446803	2523.097500
514.810894	2409.671538
515.174927	2460.083077
515.538904	2515.535769
515.902822	2455.041923
516.266684	2424.795000
516.630488	2515.535769
516.994235	2540.741538
517.357925	2457.562500
517.721558	2573.509038
518.085133	2518.056346
518.448651	2477.727115
518.812112	2525.618077
519.175516	2427.315577
519.538863	2480.247692
519.902152	2452.521346
520.265385	2472.685962
520.628560	2573.509038
520.991678	2548.303269
521.354739	2500.412308
521.717743	2450.000769
522.080690	2535.700385
522.443580	2475.206538
522.806413	2528.138654
523.169189	2434.877308
523.531908	2480.247692
523.894569	2482.768269
524.257174	2502.932885
524.619722	2497.891731
524.982213	2402.109808
525.344647	2434.877308
525.707025	2480.247692
526.069345	2570.988462
526.431608	2457.562500
526.793815	2419.753846
527.155964	2548.303269
527.518057	2540.741538
527.880093	2470.165385
528.242072	2563.426731
528.603995	2475.206538
528.965860	2513.015192
529.327669	2505.453462
529.689421	2404.630385
530.051117	2465.124231
530.412755	2432.356731
530.774337	2490.330000
531.135862	2558.385577
531.497331	2492.850577
531.858743	2513.015192
532.220098	2429.836154
532.581396	2429.836154
532.942638	2477.727115
533.303824	2560.906154
533.664953	2409.671538
534.026025	2465.124231
534.387040	2515.535769
534.747999	2608.797115
535.108902	2450.000769
535.469748	2480.247692
535.830537	2507.974038
536.191270	2442.439038
536.551947	2482.768269
536.912567	2444.959615
537.273131	2520.576923
537.633638	2507.974038
537.994089	2460.083077
538.354483	2500.412308
538.714821	2523.097500
539.075103	2495.371154
539.435328	2558.385577
539.795497	2505.453462
540.155609	2470.165385
540.515665	2505.453462
540.875665	2502.932885
541.235609	2548.303269
541.595496	2548.303269
541.955328	2545.782692
542.315102	2482.768269
542.674821	2419.753846
543.034483	2482.768269
543.394090	2502.932885
543.753640	2487.809423
544.113134	2515.535769
544.472571	2505.453462
544.831953	2535.700385
545.191278	2455.041923
545.550548	2533.179808
545.909761	2482.768269
546.268918	2447.480192
546.628019	2482.768269
546.987064	2583.591346
547.346053	2500.412308
547.704986	2500.412308
548.063863	2543.262115
548.422684	2515.535769
548.781449	2530.659231
549.140158	2540.741538
549.498811	2545.782692
549.857408	2480.247692
550.215949	2472.685962
550.574434	2510.494615
550.932864	2470.165385
551.291237	2518.056346
551.649555	2439.918462
552.007817	2550.823846
552.366022	2500.412308
552.724173	2455.041923
553.082267	2487.809423
553.440305	2500.412308
553.798288	2439.918462
554.156215	2606.276538
554.514086	2467.644808
554.871902	2477.727115
555.229661	2520.576923
555.587365	2535.700385
555.945014	2437.397885
556.302606	2472.685962
556.660143	2497.891731
557.017625	2455.041923
557.375050	2507.974038
557.732421	2467.644808
558.089735	2515.535769
558.446994	2523.097500
558.804197	2487.809423
559.161345	2442.439038
559.518437	2518.056346
559.875474	2558.385577
560.232455	2480.247692
560.589381	2502.932885
560.946251	2460.083077
561.303065	2507.974038
561.659825	2482.768269
562.016528	2525.618077
562.373177	2470.165385
562.729770	2550.823846
563.086307	2472.685962
563.442789	2505.453462
563.799216	2487.809423
564.155587	2515.535769
564.511904	2465.124231
564.868164	2505.453462
565.224370	2533.179808
565.580520	2467.644808
565.936615	2548.303269
566.292654	2533.179808
566.648638	2467.644808
567.004567	2510.494615
567.360441	2543.262115
567.716260	2528.138654
568.072023	2465.124231
568.427732	2533.179808
568.783385	2570.988462
569.138982	2500.412308
569.494525	2487.809423
569.850013	2482.768269
570.205445	2460.083077
570.560823	2555.865000
570.916145	2470.165385
571.271412	2442.439038
571.626625	2470.165385
571.981782	2419.753846
572.336884	2467.644808
572.691931	2475.206538
573.046923	2470.165385
573.401860	2495.371154
573.756743	2525.618077
574.111570	2528.138654
574.466342	2558.385577
574.821059	2530.659231
575.175722	2467.644808
575.530330	2497.891731
575.884882	2452.521346
576.239380	2618.879423
576.593823	2601.235385
576.948211	2533.179808
577.302544	2392.027500
577.656823	2525.618077
578.011047	2407.150962
578.365216	2555.865000
578.719330	2515.535769
579.073389	2586.111923
579.427394	2462.603654
579.781344	2437.397885
580.135239	2452.521346
580.489080	2462.603654
580.842866	2477.727115
581.196597	2465.124231
581.550273	2518.056346
581.903895	2601.235385
582.257463	2535.700385
582.610975	2502.932885
582.964434	2518.056346
583.317837	2487.809423
583.671186	2505.453462
584.024481	2487.809423
584.377721	2581.070769
584.730906	2528.138654
585.084037	2482.768269
585.437113	2543.262115
585.790135	2482.768269
586.143103	2470.165385
586.496016	2528.138654
586.848874	2535.700385
587.201679	2581.070769
587.554428	2465.124231
587.907124	2540.741538
588.259765	2518.056346
588.612352	2477.727115
588.964884	2439.918462
589.317362	2523.097500
589.669786	2490.330000
590.022155	2558.385577
590.374470	2472.685962
590.726731	2540.741538
591.078937	2525.618077
591.431090	2490.330000
591.783188	2457.562500
592.135232	2500.412308
592.487222	2515.535769
592.839157	2482.768269
593.191038	2505.453462
593.542866	2452.521346
593.894639	2475.206538
594.246358	2533.179808
594.598022	2570.988462
594.949633	2507.974038
595.301190	2535.700385
595.652692	2583.591346
596.004141	2550.823846
596.355535	2485.288846
596.706876	2497.891731
597.058162	2492.850577
597.409395	2429.836154
597.760573	2510.494615
598.111698	2497.891731
598.462768	2497.891731
598.813785	2576.029615
599.164748	2555.865000
599.515657	2490.330000
599.866511	2553.344423
600.217312	2553.344423
600.568060	2482.768269
600.918753	2432.356731
601.269392	2510.494615
601.619978	2510.494615
601.970510	2520.576923
602.320988	2505.453462
602.671412	2475.206538
603.021783	2510.494615
603.372100	2444.959615
603.722363	2540.741538
604.072572	2608.797115
604.422728	2482.768269
604.772830	2535.700385
605.122878	2472.685962
605.472872	2470.165385
605.822813	2472.685962
606.172701	2530.659231
606.522534	2432.356731
606.872314	2495.371154
607.222041	2490.330000
607.571714	2490.330000
607.921333	2470.165385
608.270899	2424.795000
608.620411	2518.056346
608.969870	2495.371154
609.319276	2515.535769
609.668627	2586.111923
610.017926	2482.768269
610.367171	2533.179808
610.716362	2507.974038
611.065500	2497.891731
611.414585	2513.015192
611.763616	2520.576923
612.112594	2581.070769
612.461518	2543.262115
612.810389	2371.862885
613.159207	2545.782692
613.507971	2560.906154
613.856682	2465.124231
614.205340	2475.206538
614.553945	2550.823846
614.902496	2427.315577
615.250994	2535.700385
615.599439	2442.439038
615.947830	2533.179808
616.296169	2470.165385
616.644454	2563.426731
616.992686	2497.891731
617.340864	2505.453462
617.688990	2500.412308
618.037063	2500.412308
618.385082	2465.124231
618.733048	2573.509038
619.080961	2417.233269
619.428821	2530.659231
619.776628	2470.165385
620.124382	2518.056346
620.472083	2475.206538
620.819731	2452.521346
621.167326	2525.618077
621.514868	2429.836154
621.862357	2507.974038
622.209793	2558.385577
622.557176	2414.712692
622.904506	2487.809423
623.251783	2444.959615
623.599007	2543.262115
623.946179	2482.768269
624.293297	2457.562500
624.640363	2452.521346
624.987376	2482.768269
625.334336	2455.041923
625.681243	2450.000769
626.028097	2548.303269
626.374899	2455.041923
626.721647	2490.330000
627.068343	2543.262115
627.414987	2485.288846
627.761577	2477.727115
628.108115	2502.932885
628.454600	2374.383462
628.801032	2485.288846
629.147412	2513.015192
629.493739	2603.755962
629.840014	2525.618077
630.186236	2492.850577
630.532405	2507.974038
630.878521	2545.782692
631.224585	2450.000769
631.570597	2553.344423
631.916556	2565.947308
632.262462	2538.220962
632.608316	2548.303269
632.954117	2505.453462
633.299866	2525.618077
633.645562	2492.850577
633.991206	2518.056346
634.336797	2467.644808
634.682336	2492.850577
635.027823	2507.974038
635.373257	2480.247692
635.718639	2467.644808
636.063968	2518.056346
636.409245	2444.959615
636.754470	2538.220962
637.099642	2480.247692
637.444762	2528.138654
637.789829	2497.891731
638.134845	2482.768269
638.479808	2518.056346
638.824719	2505.453462
639.169577	2452.521346
639.514383	2437.397885
639.859137	2581.070769
640.203839	2513.015192
640.548489	2548.303269
640.893086	2455.041923
641.237632	2462.603654
641.582125	2475.206538
641.926566	2515.535769
642.270955	2467.644808
642.615292	2417.233269
642.959576	2560.906154
643.303809	2381.945192
643.647990	2497.891731
643.992118	2513.015192
644.336195	2407.150962
644.680219	2450.000769
645.024192	2535.700385
645.368112	2487.809423
645.711981	2545.782692
646.055797	2487.809423
646.399562	2485.288846
646.743274	2487.809423
647.086935	2427.315577
647.430544	2553.344423
647.774101	2538.220962
648.117606	2497.891731
648.461059	2472.685962
648.804460	2548.303269
649.147810	2485.288846
649.491108	2427.315577
649.834354	2523.097500
650.177548	2495.371154
650.520690	2573.509038
650.863781	2492.850577
651.206820	2447.480192
651.549807	2485.288846
651.892742	2513.015192
652.235626	2439.918462
652.578458	2520.576923
652.921238	2507.974038
653.263967	2462.603654
653.606644	2515.535769
653.949269	2424.795000
654.291843	2535.700385
654.634365	2507.974038
654.976836	2520.576923
655.319255	2578.550192
655.661622	2447.480192
656.003938	2477.727115
656.346203	2528.138654
656.688416	2565.947308
657.030577	2422.274423
657.372687	2482.768269
657.714746	2518.056346
658.056753	2442.439038
658.398708	2548.303269
658.740612	2475.206538
659.082465	2520.576923
659.424266	2477.727115
659.766016	2470.165385
660.107715	2472.685962
660.449362	2482.768269
660.790958	2515.535769
661.132503	2513.015192
661.473996	2455.041923
661.815438	2550.823846
662.156829	2455.041923
662.498168	2482.768269
662.839456	2455.041923
663.180693	2417.233269
663.521879	2581.070769
663.863013	2457.562500
664.204097	2555.865000
664.545129	2513.015192
664.886110	2523.097500
665.227040	2545.782692
665.567918	2487.809423
665.908746	2553.344423
666.249522	2495.371154
666.590248	2455.041923
666.930922	2507.974038
667.271545	2492.850577
667.612118	2465.124231
667.952639	2513.015192
668.293109	2472.685962
668.633528	2467.644808
668.973896	2560.906154
669.314213	2432.356731
669.654480	2550.823846
669.994695	2530.659231
670.334859	2533.179808
670.674973	2525.618077
671.015035	2495.371154
671.355047	2434.877308
671.695008	2515.535769
672.034918	2455.041923
672.374777	2502.932885
672.714585	2558.385577
673.054342	2513.015192
673.394049	2497.891731
673.733705	2477.727115
674.073310	2394.548077
674.412864	2513.015192
674.752368	2550.823846
675.091820	2507.974038
675.431223	2523.097500
675.770574	2427.315577
676.109875	2475.206538
676.449125	2525.618077
676.788324	2568.467885
677.127473	2480.247692
677.466571	2507.974038
677.805619	2487.809423
678.144616	2513.015192
678.483562	2442.439038
678.822458	2490.330000
679.161303	2497.891731
679.500098	2477.727115
679.838842	2460.083077
680.177535	2495.371154
680.516179	2399.589231
680.854771	2502.932885
681.193314	2487.809423
681.531805	2439.918462
681.870247	2412.192115
682.208638	2399.589231
682.546978	2424.795000
682.885268	2477.727115
683.223508	2490.330000
683.561697	2495.371154
683.899836	2520.576923
684.237925	2558.385577
684.575963	2482.768269
684.913951	2525.618077
685.251889	2427.315577
685.589776	2475.206538
685.927614	2462.603654
686.265401	2560.906154
686.603137	2513.015192
686.940824	2412.192115
687.278460	2457.562500
687.616046	2444.959615
687.953582	2520.576923
688.291068	2505.453462
688.628504	2515.535769
688.965889	2518.056346
689.303224	2507.974038
689.640510	2500.412308
689.977745	2583.591346
690.314930	2513.015192
690.652065	2437.397885
690.989150	2528.138654
691.326185	2409.671538
691.663170	2470.165385
692.000105	2460.083077
692.336990	2452.521346
692.673825	2528.138654
693.010610	2490.330000
693.347345	2570.988462
693.684030	2560.906154
694.020665	2510.494615
694.357251	2528.138654
694.693786	2520.576923
695.030272	2500.412308
695.366707	2465.124231
695.703093	2455.041923
696.039429	2548.303269
696.375716	2460.083077
696.711952	2576.029615
697.048139	2472.685962
697.384276	2492.850577
697.720363	2533.179808
698.056400	2560.906154
698.392388	2432.356731
698.728326	2515.535769
699.064214	2550.823846
699.400053	2470.165385
699.735842	2485.288846
700.071581	2500.412308
700.407270	2507.974038
700.742910	2444.959615
701.078501	2439.918462
701.414042	2417.233269
701.749533	2540.741538
702.084974	2558.385577
702.420366	2558.385577
702.755709	2505.453462
703.091002	2482.768269
703.426246	2520.576923
703.761440	2533.179808
704.096584	2427.315577
704.431679	2462.603654
704.766725	2475.206538
705.101721	2480.247692
705.436668	2505.453462
705.771565	2457.562500
706.106413	2510.494615
706.441212	2507.974038
706.775961	2404.630385
707.110661	2558.385577
707.445311	2447.480192
707.779913	2530.659231
708.114465	2477.727115
708.448967	2538.220962
708.783421	2477.727115
709.117825	2533.179808
709.452180	2510.494615
709.786485	2487.809423
710.120742	2482.768269
710.454949	2502.932885
710.789107	2450.000769
711.123216	2540.741538
711.457275	2533.179808
711.791286	2576.029615
712.125247	2450.000769
712.459159	2500.412308
712.793023	2530.659231
713.126837	2465.124231
713.460602	2568.467885
713.794318	2596.194231
714.127985	2586.111923
714.461602	2480.247692
714.795171	2477.727115
715.128691	2513.015192
715.462162	2538.220962
715.795584	2528.138654
716.128957	2500.412308
716.462281	2462.603654
716.795556	2500.412308
717.128782	2477.727115
717.461960	2598.714808
717.795088	2525.618077
718.128167	2500.412308
718.461198	2515.535769
718.794180	2427.315577
719.127113	2412.192115
719.459997	2487.809423
719.792833	2444.959615
720.125619	2492.850577
720.458357	2462.603654
720.791046	2490.330000
721.123686	2523.097500
721.456278	2518.056346
721.788821	2510.494615
722.121315	2505.453462
722.453761	2530.659231
722.786158	2460.083077
723.118506	2528.138654
723.450805	2555.865000
723.783056	2513.015192
724.115259	2480.247692
724.447412	2480.247692
724.779518	2482.768269
725.111574	2482.768269
725.443582	2450.000769
725.775542	2434.877308
726.107453	2525.618077
726.439315	2535.700385
726.771129	2505.453462
727.102895	2465.124231
727.434612	2457.562500
727.766281	2502.932885
728.097901	2452.521346
728.429473	2477.727115
728.760996	2462.603654
729.092471	2477.727115
729.423897	2520.576923
729.755276	2510.494615
730.086606	2487.809423
730.417887	2444.959615
730.749120	2452.521346
731.080305	2515.535769
731.411442	2500.412308
731.742530	2442.439038
732.073570	2528.138654
732.404562	2444.959615
732.735506	2427.315577
733.066401	2419.753846
733.397249	2490.330000
733.728048	2422.274423
734.058798	2518.056346
734.389501	2518.056346
734.720156	2465.124231
735.050762	2470.165385
735.381320	2500.412308
735.711831	2477.727115
736.042293	2427.315577
736.372707	2533.179808
736.703073	2500.412308
737.033391	2485.288846
737.363661	2497.891731
737.693883	2502.932885
738.024056	2545.782692
738.354182	2515.535769
738.684260	2482.768269
739.014290	2417.233269
739.344272	2485.288846
739.674207	2533.179808
740.004093	2492.850577
740.333931	2500.412308
740.663722	2492.850577
740.993464	2523.097500
741.323159	2439.918462
741.652806	2480.247692
741.982405	2399.589231
742.311956	2500.412308
742.641460	2540.741538
742.970915	2505.453462
743.300323	2460.083077
743.629683	2495.371154
743.958996	2550.823846
744.288260	2495.371154
744.617477	2573.509038
744.946647	2455.041923
745.275768	2518.056346
745.604842	2515.535769
745.933869	2477.727115
746.262847	2475.206538
746.591778	2518.056346
746.920662	2568.467885
747.249498	2533.179808
747.578286	2472.685962
747.907027	2528.138654
748.235720	2538.220962
748.564365	2518.056346
748.892963	2525.618077
749.221514	2475.206538
749.550017	2487.809423
749.878473	2487.809423
750.206881	2513.015192
750.535242	2447.480192
750.863555	2462.603654
751.191821	2563.426731
751.520039	2543.262115
751.848210	2480.247692
752.176334	2533.179808
752.504411	2495.371154
752.832440	2540.741538
753.160421	2535.700385
753.488356	2515.535769
753.816243	2495.371154
754.144082	2507.974038
754.471875	2399.589231
754.799620	2523.097500
755.127318	2518.056346
755.454969	2523.097500
755.782572	2583.591346
756.110129	2535.700385
756.437638	2505.453462
756.765100	2497.891731
757.092515	2404.630385
757.419882	2530.659231
757.747203	2558.385577
758.074477	2583.591346
758.401703	2487.809423
758.728882	2573.509038
759.056014	2596.194231
759.383099	2497.891731
759.710138	2510.494615
760.037129	2538.220962
760.364073	2510.494615
760.690970	2507.974038
761.017820	2432.356731
761.344623	2515.535769
761.671379	2482.768269
761.998088	2510.494615
762.324751	2467.644808
762.651366	2545.782692
762.977935	2487.809423
763.304456	2535.700385
763.630931	2460.083077
763.957359	2452.521346
764.283740	2477.727115
764.610074	2452.521346
764.936362	2477.727115
765.262602	2409.671538
765.588796	2500.412308
765.914943	2492.850577
766.241044	2550.823846
766.567097	2578.550192
766.893104	2565.947308
767.219064	2475.206538
767.544978	2540.741538
767.870845	2500.412308
768.196665	2502.932885
768.522438	2523.097500
768.848165	2472.685962
769.173846	2535.700385
769.499479	2465.124231
769.825066	2530.659231
770.150607	2540.741538
770.476101	2505.453462
770.801548	2482.768269
771.126949	2492.850577
771.452303	2424.795000
771.777611	2576.029615
772.102872	2543.262115
772.428087	2570.988462
772.753256	2515.535769
773.078378	2492.850577
773.403453	2548.303269
773.728482	2570.988462
774.053465	2480.247692
774.378401	2513.015192
774.703291	2560.906154
775.028135	2482.768269
775.352932	2560.906154
775.677683	2505.453462
776.002388	2444.959615
776.327046	2510.494615
776.651658	2480.247692
776.976224	2505.453462
777.300743	2422.274423
777.625216	2558.385577
777.949643	2434.877308
778.274024	2515.535769
778.598359	2447.480192
778.922647	2490.330000
779.246889	2548.303269
779.571086	2573.509038
779.895236	2528.138654
780.219339	2507.974038
780.543397	2450.000769
780.867409	2513.015192
781.191374	2495.371154
781.515294	2533.179808
781.839167	2518.056346
782.162995	2475.206538
782.486776	2525.618077
782.810511	2573.509038
783.134201	2490.330000
783.457844	2528.138654
783.781441	2523.097500
784.104993	2467.644808
784.428498	2555.865000
784.751958	2550.823846
785.075372	2538.220962
785.398739	2510.494615
785.722061	2497.891731
786.045337	2533.179808
786.368568	2465.124231
786.691752	2482.768269
787.014891	2581.070769
787.337983	2528.138654
787.661030	2455.041923
787.984031	2452.521346
788.306987	2525.618077
788.629897	2495.371154
788.952760	2583.591346
789.275579	2497.891731
789.598351	2490.330000
789.921078	2502.932885
790.243759	2432.356731
790.566395	2434.877308
790.888984	2477.727115
791.211529	2530.659231
791.534027	2424.795000
791.856480	2505.453462
792.178888	2518.056346
792.501249	2452.521346
792.823566	2570.988462
793.145836	2482.768269
793.468062	2371.862885
793.790241	2462.603654
794.112375	2495.371154
794.434464	2475.206538
794.756507	2540.741538
795.078505	2495.371154
795.400457	2495.371154
795.722364	2608.797115
796.044226	2407.150962
796.366042	2565.947308
796.687812	2492.850577
797.009538	2548.303269
797.331218	2482.768269
797.652852	2523.097500
797.974442	2482.768269
798.295986	2485.288846
798.617484	2588.632500
798.938938	2586.111923
799.260346	2500.412308
799.581709	2450.000769
799.903026	2381.945192
800.224299	2533.179808
800.545526	2518.056346
800.866708	2586.111923
801.187845	2510.494615
801.508936	2450.000769
801.829983	2485.288846
802.150984	2487.809423
802.471940	2366.821731
802.792851	2540.741538
803.113717	2414.712692
803.434538	2457.562500
803.755314	2442.439038
804.076045	2487.809423
804.396731	2490.330000
804.717372	2558.385577
805.037967	2523.097500
805.358518	2480.247692
805.679024	2492.850577
805.999485	2389.506923
806.319901	2513.015192
806.640272	2470.165385
806.960598	2500.412308
807.280879	2424.795000
807.601115	2520.576923
807.921306	2409.671538
808.241453	2565.947308
808.561554	2540.741538
808.881611	2507.974038
809.201623	2500.412308
809.521590	2429.836154
809.841513	2402.109808
810.161390	2495.371154
810.481223	2427.315577
810.801011	2535.700385
811.120755	2455.041923
811.440453	2409.671538
811.760107	2553.344423
812.079716	2462.603654
812.399281	2457.562500
812.718801	2583.591346
813.038276	2495.371154
813.357707	2535.700385
813.677093	2555.865000
813.996434	2497.891731
814.315731	2470.165385
814.634983	2518.056346
814.954191	2467.644808
815.273354	2397.068654
815.592473	2487.809423
815.911547	2550.823846
816.230577	2452.521346
816.549562	2507.974038
816.868502	2442.439038
817.187399	2543.262115
817.506250	2490.330000
817.825058	2570.988462
818.143821	2518.056346
818.462539	2450.000769
818.781213	2450.000769
819.099843	2550.823846
819.418429	2490.330000
819.736970	2437.397885
820.055466	2550.823846
820.373919	2475.206538
820.692327	2450.000769
821.010691	2354.218846
821.329011	2442.439038
821.647286	2545.782692
821.965517	2528.138654
822.283704	2591.153077
822.601847	2548.303269
822.919945	2510.494615
823.237999	2533.179808
823.556010	2447.480192
823.873976	2515.535769
824.191897	2417.233269
824.509775	2570.988462
824.827609	2515.535769
825.145398	2502.932885
825.463144	2538.220962
825.780845	2598.714808
826.098502	2500.412308
826.416116	2497.891731
826.733685	2480.247692
827.051210	2487.809423
827.368692	2563.426731
827.686129	2470.165385
828.003522	2523.097500
828.320872	2470.165385
828.638177	2492.850577
828.955439	2535.700385
829.272656	2535.700385
829.589830	2434.877308
829.906960	2500.412308
830.224046	2444.959615
830.541088	2427.315577
830.858086	2523.097500
831.175041	2492.850577
831.491952	2419.753846
831.808819	2497.891731
832.125642	2523.097500
832.442421	2490.330000
832.759157	2495.371154
833.075849	2535.700385
833.392497	2467.644808
833.709101	2510.494615
834.025662	2490.330000
834.342179	2472.685962
834.658653	2477.727115
834.975083	2472.685962
835.291469	2465.124231
835.607811	2535.700385
835.924110	2409.671538
836.240366	2492.850577
836.556578	2480.247692
836.872746	2482.768269
837.188871	2447.480192
837.504952	2465.124231
837.820990	2505.453462
838.136984	2530.659231
838.452935	2510.494615
838.768842	2472.685962
839.084706	2427.315577
839.400526	2507.974038
839.716303	2495.371154
840.032037	2520.576923
840.347727	2500.412308
840.663373	2533.179808
840.978977	2442.439038
841.294537	2533.179808
841.610054	2530.659231
841.925527	2465.124231
842.240957	2490.330000
842.556344	2545.782692
842.871687	2485.288846
843.186987	2510.494615
843.502244	2472.685962
843.817458	2485.288846
844.132629	2452.521346
844.447756	2492.850577
844.762840	2429.836154
845.077881	2510.494615
845.392879	2523.097500
845.707833	2480.247692
846.022745	2450.000769
846.337613	2490.330000
846.652438	2591.153077
846.967221	2450.000769
847.281960	2611.317692
847.596656	2520.576923
847.911309	2485.288846
848.225919	2465.124231
848.540485	2374.383462
848.855009	2520.576923
849.169490	2475.206538
849.483928	2513.015192
849.798323	2528.138654
850.112675	2548.303269
850.426984	2470.165385
850.741251	2578.550192
851.055474	2586.111923
851.369654	2477.727115
851.683792	2462.603654
851.997887	2434.877308
852.311938	2538.220962
852.625947	2477.727115
852.939914	2457.562500
853.253837	2495.371154
853.567718	2528.138654
853.881555	2407.150962
854.195350	2427.315577
854.509103	2457.562500
854.822812	2553.344423
855.136479	2553.344423
855.450103	2513.015192
855.763685	2563.426731
856.077224	2518.056346
856.390720	2480.247692
856.704173	2460.083077
857.017584	2505.453462
857.330953	2555.865000
857.644278	2568.467885
857.957561	2525.618077
858.270802	2520.576923
858.584000	2523.097500
858.897155	2477.727115
859.210268	2457.562500
859.523339	2482.768269
859.836367	2475.206538
860.149352	2505.453462
860.462295	2407.150962
860.775195	2477.727115
861.088054	2535.700385
861.400869	2548.303269
861.713642	2462.603654
862.026373	2563.426731
862.339062	2533.179808
862.651708	2457.562500
862.964312	2513.015192
863.276873	2485.288846
863.589392	2465.124231
863.901869	2485.288846
864.214303	2553.344423
864.526696	2550.823846
864.839045	2407.150962
865.151353	2523.097500
865.463619	2533.179808
865.775842	2465.124231
866.088023	2470.165385
866.400162	2487.809423
866.712258	2424.795000
867.024313	2394.548077
867.336325	2553.344423
867.648296	2424.795000
867.960224	2457.562500
868.272110	2457.562500
868.583954	2482.768269
868.895755	2520.576923
869.207515	2513.015192
869.519233	2502.932885
869.830909	2437.397885
870.142542	2460.083077
870.454134	2525.618077
870.765684	2530.659231
871.077191	2460.083077
871.388657	2472.685962
871.700081	2475.206538
872.011463	2497.891731
872.322803	2515.535769
872.634101	2525.618077
872.945357	2455.041923
873.256571	2563.426731
873.567744	2437.397885
873.878874	2472.685962
874.189963	2452.521346
874.501010	2447.480192
874.812015	2424.795000
875.122979	2533.179808
875.433900	2550.823846
875.744780	2429.836154
876.055618	2533.179808
876.366415	2497.891731
876.677169	2520.576923
876.987882	2515.535769
877.298554	2490.330000
877.609183	2560.906154
877.919771	2457.562500
878.230317	2480.247692
878.540822	2533.179808
878.851285	2470.165385
879.161707	2450.000769
879.472087	2518.056346
879.782425	2434.877308
880.092722	2510.494615
880.402977	2525.618077
880.713191	2480.247692
881.023363	2457.562500
881.333494	2578.550192
881.643583	2439.918462
881.953631	2407.150962
882.263637	2510.494615
882.573602	2533.179808
882.883526	2487.809423
883.193408	2510.494615
883.503248	2447.480192
883.813048	2470.165385
884.122806	2409.671538
884.432522	2437.397885
884.742197	2525.618077
885.051831	2487.809423
885.361424	2455.041923
885.670975	2490.330000
885.980485	2528.138654
886.289954	2442.439038
886.599382	2502.932885
886.908768	2427.315577
887.218113	2495.371154
887.527417	2573.509038
887.836680	2520.576923
888.145901	2495.371154
888.455082	2528.138654
888.764221	2528.138654
889.073319	2510.494615
889.382376	2535.700385
889.691392	2507.974038
890.000366	2518.056346
890.309300	2392.027500
890.618193	2470.165385
890.927044	2507.974038
891.235855	2467.644808
891.544625	2513.015192
891.853353	2439.918462
892.162041	2404.630385
892.470687	2502.932885
892.779293	2477.727115
893.087858	2530.659231
893.396381	2525.618077
893.704864	2497.891731
894.013306	2500.412308
894.321707	2487.809423
894.630068	2460.083077
894.938387	2457.562500
895.246665	2502.932885
895.554903	2480.247692
895.863100	2563.426731
896.171256	2485.288846
896.479371	2376.904038
896.787446	2399.589231
897.095480	2500.412308
897.403473	2560.906154
897.711425	2487.809423
898.019336	2462.603654
898.327207	2535.700385
898.635038	2460.083077
898.942827	2455.041923
899.250576	2457.562500
899.558284	2520.576923
899.865952	2583.591346
900.173579	2470.165385
900.481165	2437.397885
900.788711	2477.727115
901.096216	2505.453462
901.403681	2500.412308
901.711105	2470.165385
902.018489	2452.521346
902.325832	2477.727115
902.633135	2482.768269
902.940397	2530.659231
903.247619	2550.823846
903.554800	2535.700385
903.861941	2452.521346
904.169041	2540.741538
904.476101	2530.659231
904.783121	2525.618077
905.090100	2402.109808
905.397039	2500.412308
905.703938	2570.988462
906.010796	2394.548077
906.317614	2507.974038
906.624391	2480.247692
906.931129	2550.823846
907.237826	2480.247692
907.544483	2502.932885
907.851099	2422.274423
908.157675	2530.659231
908.464211	2500.412308
908.770707	2490.330000
909.077163	2510.494615
909.383578	2555.865000
909.689954	2455.041923
909.996289	2450.000769
910.302584	2460.083077
910.608839	2535.700385
910.915054	2548.303269
911.221229	2523.097500
911.527363	2530.659231
911.833458	2414.712692
912.139513	2507.974038
912.445527	2462.603654
912.751502	2470.165385
913.057436	2500.412308
913.363331	2437.397885
913.669186	2472.685962
913.975000	2439.918462
914.280775	2535.700385
914.586510	2495.371154
914.892205	2417.233269
915.197859	2485.288846
915.503475	2535.700385
915.809050	2487.809423
916.114585	2502.932885
916.420081	2533.179808
916.725536	2518.056346
917.030952	2553.344423
917.336328	2437.397885
917.641665	2510.494615
917.946961	2414.712692
918.252218	2492.850577
918.557435	2505.453462
918.862612	2502.932885
919.167750	2515.535769
919.472848	2492.850577
919.777906	2460.083077
920.082925	2502.932885
920.387904	2495.371154
920.692843	2558.385577
920.997743	2444.959615
921.302603	2520.576923
921.607423	2480.247692
921.912204	2507.974038
922.216946	2417.233269
922.521647	2366.821731
922.826310	2490.330000
923.130932	2520.576923
923.435516	2417.233269
923.740059	2437.397885
924.044564	2462.603654
924.349028	2460.083077
924.653454	2450.000769
924.957840	2442.439038
925.262186	2543.262115
925.566493	2439.918462
925.870761	2510.494615
926.174989	2510.494615
926.479178	2515.535769
926.783328	2429.836154
927.087438	2520.576923
927.391509	2470.165385
927.695541	2540.741538
927.999533	2502.932885
928.303486	2560.906154
928.607400	2465.124231
928.911275	2540.741538
929.215110	2409.671538
929.518906	2550.823846
929.822663	2520.576923
930.126381	2518.056346
930.430060	2540.741538
930.733699	2394.548077
931.037299	2419.753846
931.340861	2520.576923
931.644383	2407.150962
931.947866	2515.535769
932.251309	2437.397885
932.554714	2576.029615
932.858080	2434.877308
933.161407	2523.097500
933.464694	2447.480192
933.767943	2437.397885
934.071153	2523.097500
934.374323	2598.714808
934.677455	2475.206538
934.980548	2427.315577
935.283602	2452.521346
935.586617	2455.041923
935.889593	2477.727115
936.192530	2482.768269
936.495428	2467.644808
936.798287	2490.330000
937.101108	2528.138654
937.403890	2432.356731
937.706632	2429.836154
938.009336	2467.644808
938.312002	2444.959615
938.614628	2543.262115
938.917216	2460.083077
939.219765	2444.959615
939.522275	2386.986346
939.824747	2442.439038
940.127179	2515.535769
940.429573	2394.548077
940.731929	2487.809423
941.034246	2497.891731
941.336524	2545.782692
941.638763	2502.932885
941.940964	2452.521346
942.243126	2518.056346
942.545250	2497.891731
942.847335	2538.220962
943.149381	2455.041923
943.451389	2490.330000
943.753359	2422.274423
944.055290	2533.179808
944.357182	2447.480192
944.659036	2467.644808
944.960851	2439.918462
945.262628	2505.453462
945.564367	2419.753846
945.866067	2487.809423
946.167729	2452.521346
946.469352	2495.371154
946.770937	2487.809423
947.072484	2495.371154
947.373992	2492.850577
947.675462	2444.959615
947.976893	2397.068654
948.278286	2472.685962
948.579641	2432.356731
948.880958	2485.288846
949.182236	2502.932885
949.483476	2432.356731
949.784678	2505.453462
950.085841	2540.741538
950.386967	2593.673654
950.688054	2419.753846
950.989103	2480.247692
951.290114	2462.603654
951.591087	2505.453462
951.892021	2434.877308
952.192917	2540.741538
952.493776	2500.412308
952.794596	2480.247692
953.095378	2502.932885
953.396122	2497.891731
953.696828	2460.083077
953.997496	2550.823846
954.298126	2455.041923
954.598718	2525.618077
954.899272	2477.727115
955.199788	2439.918462
955.500266	2505.453462
955.800706	2467.644808
956.101108	2538.220962
956.401472	2437.397885
956.701798	2535.700385
957.002087	2437.397885
957.302337	2523.097500
957.602550	2538.220962
957.902724	2487.809423
958.202861	2513.015192
958.502960	2502.932885
958.803022	2525.618077
959.103045	2442.439038
959.403031	2371.862885
959.702979	2515.535769
960.002889	2581.070769
960.302762	2417.233269
960.602596	2515.535769
960.902393	2495.371154
961.202153	2634.002885
961.501875	2399.589231
961.801559	2513.015192
962.101205	2376.904038
962.400814	2477.727115
962.700385	2480.247692
962.999918	2505.453462
963.299414	2565.947308
963.598873	2467.644808
963.898293	2523.097500
964.197677	2414.712692
964.497022	2417.233269
964.796331	2507.974038
965.095601	2472.685962
965.394835	2495.371154
965.694030	2558.385577
965.993189	2518.056346
966.292309	2568.467885
966.591393	2535.700385
966.890439	2502.932885
967.189447	2548.303269
967.488419	2523.097500
967.787353	2613.838269
968.086249	2472.685962
968.385108	2530.659231
968.683930	2513.015192
968.982714	2520.576923
969.281462	2444.959615
969.580172	2455.041923
969.878844	2475.206538
970.177480	2480.247692
970.476078	2480.247692
970.774639	2457.562500
971.073162	2447.480192
971.371649	2432.356731
971.670098	2490.330000
971.968510	2444.959615
972.266885	2518.056346
972.565223	2492.850577
972.863524	2555.865000
973.161788	2515.535769
973.460014	2513.015192
973.758204	2507.974038
974.056356	2530.659231
974.354471	2487.809423
974.652550	2553.344423
974.950591	2465.124231
975.248595	2507.974038
975.546563	2485.288846
975.844493	2513.015192
976.142386	2500.412308
976.440243	2492.850577
976.738062	2432.356731
977.035845	2553.344423
977.333590	2475.206538
977.631299	2470.165385
977.928971	2434.877308
978.226606	2480.247692
978.524204	2455.041923
978.821765	2523.097500
979.119290	2455.041923
979.416777	2528.138654
979.714228	2515.535769
980.011642	2497.891731
980.309020	2565.947308
980.606360	2472.685962
980.903664	2422.274423
981.200931	2472.685962
981.498162	2422.274423
981.795356	2437.397885
982.092513	2520.576923
982.389633	2429.836154
982.686717	2500.412308
982.983764	2500.412308
983.280775	2417.233269
983.577749	2475.206538
983.874686	2429.836154
984.171587	2545.782692
984.468451	2439.918462
984.765279	2573.509038
985.062070	2442.439038
985.358824	2510.494615
985.655543	2442.439038
985.952224	2545.782692
986.248869	2520.576923
986.545478	2414.712692
986.842050	2485.288846
987.138586	2490.330000
987.435086	2553.344423
987.731549	2560.906154
988.027975	2386.986346
988.324366	2432.356731
988.620719	2455.041923
988.917037	2515.535769
989.213318	2450.000769
989.509563	2518.056346
989.805772	2439.918462
990.101944	2513.015192
990.398080	2507.974038
990.694180	2455.041923
990.990244	2452.521346
991.286271	2424.795000
991.582262	2540.741538
991.878217	2467.644808
992.174136	2497.891731
992.470019	2460.083077
992.765865	2397.068654
993.061676	2510.494615
993.357450	2447.480192
993.653188	2427.315577
993.948890	2500.412308
994.244556	2553.344423
994.540186	2621.400000
994.835780	2457.562500
995.131337	2513.015192
995.426859	2455.041923
995.722345	2455.041923
996.017795	2434.877308
996.313208	2492.850577
996.608586	2505.453462
996.903928	2568.467885
997.199234	2563.426731
997.494504	2497.891731
997.789738	2485.288846
998.084936	2422.274423
998.380099	2482.768269
998.675225	2495.371154
998.970316	2507.974038
999.265371	2548.303269
999.560390	2520.576923
999.855373	2429.836154
1000.150320	2528.138654
1000.445232	2467.644808
1000.740108	2523.097500
1001.034948	2399.589231
1001.329752	2520.576923
1001.624521	2497.891731
1001.919254	2533.179808
1002.213951	2424.795000
1002.508613	2460.083077
1002.803239	2439.918462
1003.097829	2467.644808
1003.392384	2475.206538
1003.686903	2417.233269
1003.981386	2515.535769
1004.275834	2465.124231
1004.570246	2487.809423
1004.864623	2442.439038
1005.158964	2437.397885
1005.453270	2442.439038
1005.747540	2422.274423
1006.041775	2533.179808
1006.335974	2429.836154
1006.630138	2497.891731
1006.924266	2429.836154
1007.218359	2495.371154
1007.512416	2490.330000
1007.806438	2460.083077
1008.100425	2402.109808
1008.394376	2535.700385
1008.688292	2462.603654
1008.982172	2460.083077
1009.276017	2475.206538
1009.569827	2525.618077
1009.863602	2482.768269
1010.157341	2480.247692
1010.451045	2424.795000
1010.744714	2518.056346
1011.038347	2447.480192
1011.331945	2480.247692
1011.625508	2586.111923
1011.919036	2482.768269
1012.212528	2497.891731
1012.505986	2533.179808
1012.799408	2535.700385
1013.092795	2472.685962
1013.386147	2444.959615
1013.679464	2392.027500
1013.972745	2470.165385
1014.265992	2427.315577
1014.559204	2490.330000
1014.852380	2462.603654
1015.145521	2535.700385
1015.438628	2404.630385
1015.731699	2467.644808
1016.024736	2460.083077
1016.317737	2485.288846
1016.610703	2533.179808
1016.903635	2467.644808
1017.196531	2513.015192
1017.489393	2480.247692
1017.782219	2523.097500
1018.075011	2475.206538
1018.367768	2523.097500
1018.660490	2510.494615
1018.953177	2510.494615
1019.245829	2510.494615
