Dividing Wavelength (nm)	Counts (n)	Blue Motor Position (mm): 3.900000	Red Motor Position (mm): 0.000000	
326.493990	2160.134423
326.888308	2160.134423
327.282561	2160.134423
327.676750	2117.284615
328.070874	2104.681731
328.464933	2087.037692
328.858929	2059.311346
329.252859	2117.284615
329.646726	2142.490385
330.040528	2114.764038
330.434265	2197.943077
330.827938	2056.790769
331.221547	2112.243462
331.615091	2260.957500
332.008571	2190.381346
332.401986	2223.148846
332.795338	2223.148846
333.188625	2245.834038
333.581847	2248.354615
333.975006	2268.519231
334.368100	2301.286731
334.761129	2336.574808
335.154095	2281.122115
335.546996	2349.177692
335.939833	2329.013077
336.332606	2434.877308
336.725315	2346.657115
337.117960	2384.465769
337.510540	2384.465769
337.903056	2379.424615
338.295508	2392.027500
338.687896	2462.603654
339.080220	2477.727115
339.472480	2543.262115
339.864676	2434.877308
340.256807	2535.700385
340.648875	2505.453462
341.040879	2528.138654
341.432818	2490.330000
341.824694	2593.673654
342.216506	2462.603654
342.608253	2472.685962
342.999937	2422.274423
343.391557	2510.494615
343.783113	2485.288846
344.174605	2495.371154
344.566033	2389.506923
344.957397	2419.753846
345.348697	2480.247692
345.739934	2452.521346
346.131106	2528.138654
346.522215	2470.165385
346.913260	2439.918462
347.304241	2490.330000
347.695159	2470.165385
348.086012	2477.727115
348.476802	2480.247692
348.867528	2424.795000
349.258191	2419.753846
349.648789	2414.712692
350.039324	2351.698269
350.429796	2439.918462
350.820203	2452.521346
351.210548	2505.453462
351.600828	2457.562500
351.991045	2364.301154
352.381198	2460.083077
352.771288	2460.083077
353.161314	2487.809423
353.551276	2361.780577
353.941175	2351.698269
354.331010	2455.041923
354.720782	2450.000769
355.110490	2407.150962
355.500135	2434.877308
355.889717	2389.506923
356.279235	2497.891731
356.668689	2419.753846
357.058080	2386.986346
357.447408	2452.521346
357.836672	2389.506923
358.225873	2513.015192
358.615010	2389.506923
359.004084	2366.821731
359.393095	2500.412308
359.782043	2399.589231
360.170927	2429.836154
360.559748	2439.918462
360.948505	2472.685962
361.337199	2460.083077
361.725830	2565.947308
362.114398	2485.288846
362.502903	2505.453462
362.891344	2374.383462
363.279722	2515.535769
363.668037	2422.274423
364.056289	2397.068654
364.444478	2437.397885
364.832603	2386.986346
365.220665	2533.179808
365.608665	2470.165385
365.996601	2513.015192
366.384474	2447.480192
366.772284	2472.685962
367.160031	2475.206538
367.547715	2429.836154
367.935336	2394.548077
368.322893	2457.562500
368.710388	2389.506923
369.097820	2518.056346
369.485189	2475.206538
369.872495	2558.385577
370.259738	2412.192115
370.646918	2439.918462
371.034035	2492.850577
371.421090	2447.480192
371.808081	2397.068654
372.195010	2560.906154
372.581875	2485.288846
372.968678	2485.288846
373.355418	2412.192115
373.742096	2412.192115
374.128710	2399.589231
374.515262	2462.603654
374.901751	2422.274423
375.288177	2555.865000
375.674540	2480.247692
376.060841	2470.165385
376.447079	2480.247692
376.833254	2475.206538
377.219367	2457.562500
377.605417	2545.782692
377.991404	2505.453462
378.377329	2510.494615
378.763191	2563.426731
379.148991	2472.685962
379.534727	2442.439038
379.920402	2502.932885
380.306013	2439.918462
380.691563	2505.453462
381.077049	2424.795000
381.462474	2455.041923
381.847835	2485.288846
382.233134	2490.330000
382.618371	2472.685962
383.003545	2477.727115
383.388657	2457.562500
383.773706	2361.780577
384.158693	2455.041923
384.543618	2434.877308
384.928480	2452.521346
385.313280	2513.015192
385.698017	2460.083077
386.082692	2422.274423
386.467305	2447.480192
386.851856	2450.000769
387.236344	2510.494615
387.620770	2450.000769
388.005133	2495.371154
388.389435	2467.644808
388.773674	2505.453462
389.157851	2450.000769
389.541965	2419.753846
389.926018	2492.850577
390.310008	2477.727115
390.693936	2432.356731
391.077802	2359.260000
391.461606	2404.630385
391.845348	2389.506923
392.229027	2457.562500
392.612645	2495.371154
392.996200	2465.124231
393.379694	2467.644808
393.763125	2460.083077
394.146494	2502.932885
394.529801	2447.480192
394.913047	2392.027500
395.296230	2407.150962
395.679351	2434.877308
396.062410	2460.083077
396.445408	2472.685962
396.828343	2429.836154
397.211217	2502.932885
397.594028	2442.439038
397.976778	2470.165385
398.359466	2460.083077
398.742092	2470.165385
399.124656	2505.453462
399.507158	2475.206538
399.889598	2485.288846
400.271977	2485.288846
400.654294	2419.753846
401.036549	2538.220962
401.418742	2482.768269
401.800874	2528.138654
402.182944	2432.356731
402.564952	2429.836154
402.946898	2497.891731
403.328783	2495.371154
403.710606	2472.685962
404.092367	2374.383462
404.474067	2505.453462
404.855705	2432.356731
405.237282	2513.015192
405.618797	2515.535769
406.000250	2477.727115
406.381642	2366.821731
406.762972	2434.877308
407.144240	2535.700385
407.525447	2492.850577
407.906593	2523.097500
408.287677	2492.850577
408.668700	2477.727115
409.049661	2442.439038
409.430560	2495.371154
409.811399	2510.494615
410.192176	2389.506923
410.572891	2533.179808
410.953545	2434.877308
411.334138	2497.891731
411.714669	2460.083077
412.095139	2495.371154
412.475547	2475.206538
412.855894	2447.480192
413.236180	2497.891731
413.616405	2480.247692
413.996568	2397.068654
414.376670	2472.685962
414.756711	2452.521346
415.136691	2417.233269
415.516609	2485.288846
415.896466	2422.274423
416.276262	2450.000769
416.655997	2480.247692
417.035670	2472.685962
417.415283	2518.056346
417.794834	2490.330000
418.174324	2530.659231
418.553753	2424.795000
418.933121	2460.083077
419.312428	2462.603654
419.691674	2510.494615
420.070859	2465.124231
420.449983	2487.809423
420.829045	2444.959615
421.208047	2470.165385
421.586988	2455.041923
421.965867	2513.015192
422.344686	2437.397885
422.723444	2472.685962
423.102141	2344.136538
423.480777	2528.138654
423.859352	2500.412308
424.237866	2477.727115
424.616319	2520.576923
424.994712	2462.603654
425.373044	2518.056346
425.751314	2450.000769
426.129524	2487.809423
426.507673	2354.218846
426.885762	2505.453462
427.263789	2447.480192
427.641756	2475.206538
428.019662	2412.192115
428.397508	2482.768269
428.775292	2472.685962
429.153016	2432.356731
429.530679	2482.768269
429.908282	2586.111923
430.285824	2510.494615
430.663305	2510.494615
431.040726	2480.247692
431.418086	2439.918462
431.795385	2477.727115
432.172624	2475.206538
432.549802	2535.700385
432.926920	2399.589231
433.303977	2515.535769
433.680974	2427.315577
434.057910	2437.397885
434.434786	2432.356731
434.811601	2424.795000
435.188355	2533.179808
435.565050	2507.974038
435.941683	2538.220962
436.318257	2450.000769
436.694770	2563.426731
437.071222	2480.247692
437.447614	2487.809423
437.823946	2497.891731
438.200218	2510.494615
438.576429	2485.288846
438.952580	2475.206538
439.328670	2492.850577
439.704700	2467.644808
440.080670	2439.918462
440.456580	2422.274423
440.832429	2482.768269
441.208218	2460.083077
441.583947	2518.056346
441.959616	2444.959615
442.335224	2520.576923
442.710773	2500.412308
443.086261	2485.288846
443.461689	2502.932885
443.837057	2472.685962
444.212365	2444.959615
444.587612	2485.288846
444.962800	2502.932885
445.337927	2419.753846
445.712995	2470.165385
446.088002	2412.192115
446.462949	2507.974038
446.837837	2565.947308
447.212664	2525.618077
447.587431	2565.947308
447.962139	2455.041923
448.336786	2452.521346
448.711374	2417.233269
449.085901	2513.015192
449.460369	2578.550192
449.834776	2482.768269
450.209124	2591.153077
450.583412	2397.068654
450.957640	2550.823846
451.331808	2477.727115
451.705917	2475.206538
452.079965	2485.288846
452.453954	2507.974038
452.827883	2470.165385
453.201752	2407.150962
453.575562	2452.521346
453.949311	2462.603654
454.323001	2457.562500
454.696632	2470.165385
455.070202	2553.344423
455.443713	2419.753846
455.817164	2424.795000
456.190556	2487.809423
456.563888	2470.165385
456.937160	2455.041923
457.310373	2510.494615
457.683526	2452.521346
458.056619	2392.027500
458.429653	2414.712692
458.802628	2507.974038
459.175542	2465.124231
459.548398	2450.000769
459.921194	2535.700385
460.293930	2432.356731
460.666607	2487.809423
461.039224	2452.521346
461.411782	2515.535769
461.784280	2472.685962
462.156719	2424.795000
462.529099	2467.644808
462.901419	2475.206538
463.273680	2598.714808
463.645882	2439.918462
464.018024	2472.685962
464.390106	2482.768269
464.762130	2497.891731
465.134094	2588.632500
465.505999	2530.659231
465.877845	2515.535769
466.249631	2470.165385
466.621358	2513.015192
466.993026	2482.768269
467.364634	2510.494615
467.736184	2462.603654
468.107674	2495.371154
468.479105	2480.247692
468.850477	2520.576923
469.221790	2429.836154
469.593043	2439.918462
469.964238	2553.344423
470.335373	2429.836154
470.706449	2495.371154
471.077467	2439.918462
471.448425	2475.206538
471.819324	2439.918462
472.190164	2520.576923
472.560945	2523.097500
472.931667	2510.494615
473.302330	2462.603654
473.672934	2576.029615
474.043479	2505.453462
474.413965	2601.235385
474.784393	2475.206538
475.154761	2470.165385
475.525070	2467.644808
475.895321	2558.385577
476.265513	2500.412308
476.635645	2538.220962
477.005719	2576.029615
477.375734	2392.027500
477.745691	2487.809423
478.115588	2434.877308
478.485427	2457.562500
478.855207	2402.109808
479.224928	2424.795000
479.594591	2533.179808
479.964194	2452.521346
480.333739	2507.974038
480.703226	2429.836154
481.072653	2507.974038
481.442022	2505.453462
481.811333	2460.083077
482.180584	2513.015192
482.549777	2455.041923
482.918912	2407.150962
483.287988	2533.179808
483.657005	2490.330000
484.025964	2545.782692
484.394864	2457.562500
484.763706	2467.644808
485.132489	2495.371154
485.501213	2495.371154
485.869879	2457.562500
486.238487	2477.727115
486.607036	2482.768269
486.975527	2492.850577
487.343959	2528.138654
487.712333	2412.192115
488.080648	2507.974038
488.448905	2576.029615
488.817104	2404.630385
489.185244	2523.097500
489.553326	2455.041923
489.921350	2528.138654
490.289315	2462.603654
490.657222	2538.220962
491.025070	2540.741538
491.392861	2507.974038
491.760593	2482.768269
492.128267	2495.371154
492.495883	2462.603654
492.863440	2460.083077
493.230939	2467.644808
493.598380	2495.371154
493.965763	2376.904038
494.333088	2475.206538
494.700354	2460.083077
495.067563	2502.932885
495.434713	2518.056346
495.801805	2507.974038
496.168839	2513.015192
496.535815	2545.782692
496.902733	2460.083077
497.269593	2432.356731
497.636395	2477.727115
498.003139	2495.371154
498.369825	2507.974038
498.736453	2475.206538
499.103023	2450.000769
499.469535	2563.426731
499.835989	2432.356731
500.202385	2432.356731
500.568723	2523.097500
500.935003	2576.029615
501.301226	2455.041923
501.667390	2520.576923
502.033497	2450.000769
502.399546	2535.700385
502.765537	2482.768269
503.131470	2533.179808
503.497345	2485.288846
503.863163	2490.330000
504.228923	2467.644808
504.594625	2455.041923
504.960269	2439.918462
505.325856	2528.138654
505.691385	2555.865000
506.056856	2533.179808
506.422270	2502.932885
506.787625	2535.700385
507.152924	2513.015192
507.518164	2402.109808
507.883347	2540.741538
508.248472	2596.194231
508.613540	2518.056346
508.978550	2450.000769
509.343503	2460.083077
509.708398	2535.700385
510.073236	2472.685962
510.438016	2497.891731
510.802738	2444.959615
511.167403	2495.371154
511.532010	2467.644808
511.896561	2576.029615
512.261053	2533.179808
512.625488	2427.315577
512.989866	2457.562500
513.354186	2588.632500
513.718449	2507.974038
514.082655	2475.206538
514.446803	2543.262115
514.810894	2467.644808
515.174927	2568.467885
515.538904	2467.644808
515.902822	2412.192115
516.266684	2500.412308
516.630488	2492.850577
516.994235	2507.974038
517.357925	2563.426731
517.721558	2565.947308
518.085133	2525.618077
518.448651	2540.741538
518.812112	2497.891731
519.175516	2540.741538
519.538863	2538.220962
519.902152	2477.727115
520.265385	2480.247692
520.628560	2487.809423
520.991678	2475.206538
521.354739	2553.344423
521.717743	2477.727115
522.080690	2465.124231
522.443580	2593.673654
522.806413	2467.644808
523.169189	2455.041923
523.531908	2573.509038
523.894569	2442.439038
524.257174	2439.918462
524.619722	2563.426731
524.982213	2432.356731
525.344647	2495.371154
525.707025	2419.753846
526.069345	2475.206538
526.431608	2475.206538
526.793815	2444.959615
527.155964	2422.274423
527.518057	2530.659231
527.880093	2487.809423
528.242072	2558.385577
528.603995	2487.809423
528.965860	2535.700385
529.327669	2576.029615
529.689421	2568.467885
530.051117	2518.056346
530.412755	2497.891731
530.774337	2407.150962
531.135862	2467.644808
531.497331	2467.644808
531.858743	2472.685962
532.220098	2502.932885
532.581396	2578.550192
532.942638	2467.644808
533.303824	2583.591346
533.664953	2475.206538
534.026025	2500.412308
534.387040	2558.385577
534.747999	2492.850577
535.108902	2570.988462
535.469748	2412.192115
535.830537	2495.371154
536.191270	2543.262115
536.551947	2520.576923
536.912567	2545.782692
537.273131	2495.371154
537.633638	2447.480192
537.994089	2465.124231
538.354483	2434.877308
538.714821	2487.809423
539.075103	2477.727115
539.435328	2507.974038
539.795497	2472.685962
540.155609	2543.262115
540.515665	2427.315577
540.875665	2462.603654
541.235609	2477.727115
541.595496	2555.865000
541.955328	2480.247692
542.315102	2472.685962
542.674821	2500.412308
543.034483	2477.727115
543.394090	2523.097500
543.753640	2409.671538
544.113134	2545.782692
544.472571	2555.865000
544.831953	2427.315577
545.191278	2540.741538
545.550548	2460.083077
545.909761	2528.138654
546.268918	2437.397885
546.628019	2528.138654
546.987064	2555.865000
547.346053	2505.453462
547.704986	2563.426731
548.063863	2563.426731
548.422684	2477.727115
548.781449	2487.809423
549.140158	2543.262115
549.498811	2455.041923
549.857408	2465.124231
550.215949	2412.192115
550.574434	2482.768269
550.932864	2570.988462
551.291237	2457.562500
551.649555	2568.467885
552.007817	2465.124231
552.366022	2500.412308
552.724173	2500.412308
553.082267	2533.179808
553.440305	2432.356731
553.798288	2528.138654
554.156215	2540.741538
554.514086	2530.659231
554.871902	2525.618077
555.229661	2525.618077
555.587365	2543.262115
555.945014	2460.083077
556.302606	2485.288846
556.660143	2513.015192
557.017625	2548.303269
557.375050	2495.371154
557.732421	2475.206538
558.089735	2578.550192
558.446994	2500.412308
558.804197	2432.356731
559.161345	2513.015192
559.518437	2513.015192
559.875474	2472.685962
560.232455	2520.576923
560.589381	2439.918462
560.946251	2510.494615
561.303065	2444.959615
561.659825	2480.247692
562.016528	2515.535769
562.373177	2455.041923
562.729770	2505.453462
563.086307	2492.850577
563.442789	2565.947308
563.799216	2472.685962
564.155587	2457.562500
564.511904	2497.891731
564.868164	2470.165385
565.224370	2447.480192
565.580520	2510.494615
565.936615	2467.644808
566.292654	2513.015192
566.648638	2520.576923
567.004567	2462.603654
567.360441	2485.288846
567.716260	2447.480192
568.072023	2485.288846
568.427732	2525.618077
568.783385	2515.535769
569.138982	2523.097500
569.494525	2497.891731
569.850013	2573.509038
570.205445	2548.303269
570.560823	2442.439038
570.916145	2439.918462
571.271412	2497.891731
571.626625	2550.823846
571.981782	2543.262115
572.336884	2535.700385
572.691931	2545.782692
573.046923	2467.644808
573.401860	2540.741538
573.756743	2429.836154
574.111570	2523.097500
574.466342	2487.809423
574.821059	2462.603654
575.175722	2409.671538
575.530330	2530.659231
575.884882	2530.659231
576.239380	2497.891731
576.593823	2505.453462
576.948211	2560.906154
577.302544	2555.865000
577.656823	2470.165385
578.011047	2442.439038
578.365216	2482.768269
578.719330	2485.288846
579.073389	2507.974038
579.427394	2465.124231
579.781344	2555.865000
580.135239	2545.782692
580.489080	2462.603654
580.842866	2492.850577
581.196597	2533.179808
581.550273	2452.521346
581.903895	2533.179808
582.257463	2470.165385
582.610975	2465.124231
582.964434	2424.795000
583.317837	2510.494615
583.671186	2414.712692
584.024481	2510.494615
584.377721	2523.097500
584.730906	2417.233269
585.084037	2565.947308
585.437113	2452.521346
585.790135	2404.630385
586.143103	2490.330000
586.496016	2513.015192
586.848874	2573.509038
587.201679	2500.412308
587.554428	2487.809423
587.907124	2434.877308
588.259765	2550.823846
588.612352	2500.412308
588.964884	2439.918462
589.317362	2467.644808
589.669786	2487.809423
590.022155	2596.194231
590.374470	2560.906154
590.726731	2470.165385
591.078937	2538.220962
591.431090	2487.809423
591.783188	2492.850577
592.135232	2384.465769
592.487222	2424.795000
592.839157	2533.179808
593.191038	2528.138654
593.542866	2515.535769
593.894639	2492.850577
594.246358	2437.397885
594.598022	2540.741538
594.949633	2487.809423
595.301190	2573.509038
595.652692	2470.165385
596.004141	2507.974038
596.355535	2550.823846
596.706876	2452.521346
597.058162	2490.330000
597.409395	2510.494615
597.760573	2442.439038
598.111698	2480.247692
598.462768	2510.494615
598.813785	2434.877308
599.164748	2500.412308
599.515657	2525.618077
599.866511	2455.041923
600.217312	2525.618077
600.568060	2417.233269
600.918753	2485.288846
601.269392	2427.315577
601.619978	2518.056346
601.970510	2417.233269
602.320988	2502.932885
602.671412	2502.932885
603.021783	2472.685962
603.372100	2528.138654
603.722363	2487.809423
604.072572	2505.453462
604.422728	2505.453462
604.772830	2439.918462
605.122878	2548.303269
605.472872	2467.644808
605.822813	2417.233269
606.172701	2497.891731
606.522534	2450.000769
606.872314	2457.562500
607.222041	2583.591346
607.571714	2457.562500
607.921333	2553.344423
608.270899	2485.288846
608.620411	2507.974038
608.969870	2505.453462
609.319276	2507.974038
609.668627	2465.124231
610.017926	2462.603654
610.367171	2502.932885
610.716362	2492.850577
611.065500	2513.015192
611.414585	2523.097500
611.763616	2450.000769
612.112594	2545.782692
612.461518	2540.741538
612.810389	2434.877308
613.159207	2444.959615
613.507971	2500.412308
613.856682	2487.809423
614.205340	2540.741538
614.553945	2427.315577
614.902496	2502.932885
615.250994	2480.247692
615.599439	2462.603654
615.947830	2490.330000
616.296169	2497.891731
616.644454	2530.659231
616.992686	2485.288846
617.340864	2495.371154
617.688990	2460.083077
618.037063	2553.344423
618.385082	2540.741538
618.733048	2558.385577
619.080961	2457.562500
619.428821	2535.700385
619.776628	2540.741538
620.124382	2565.947308
620.472083	2533.179808
620.819731	2507.974038
621.167326	2528.138654
621.514868	2444.959615
621.862357	2432.356731
622.209793	2560.906154
622.557176	2593.673654
622.904506	2437.397885
623.251783	2422.274423
623.599007	2444.959615
623.946179	2560.906154
624.293297	2515.535769
624.640363	2432.356731
624.987376	2596.194231
625.334336	2487.809423
625.681243	2500.412308
626.028097	2573.509038
626.374899	2450.000769
626.721647	2502.932885
627.068343	2523.097500
627.414987	2439.918462
627.761577	2505.453462
628.108115	2490.330000
628.454600	2601.235385
628.801032	2444.959615
629.147412	2480.247692
629.493739	2452.521346
629.840014	2379.424615
630.186236	2550.823846
630.532405	2462.603654
630.878521	2515.535769
631.224585	2510.494615
631.570597	2480.247692
631.916556	2591.153077
632.262462	2480.247692
632.608316	2492.850577
632.954117	2515.535769
633.299866	2565.947308
633.645562	2490.330000
633.991206	2500.412308
634.336797	2545.782692
634.682336	2518.056346
635.027823	2558.385577
635.373257	2419.753846
635.718639	2515.535769
636.063968	2497.891731
636.409245	2487.809423
636.754470	2598.714808
637.099642	2515.535769
637.444762	2583.591346
637.789829	2548.303269
638.134845	2457.562500
638.479808	2573.509038
638.824719	2467.644808
639.169577	2505.453462
639.514383	2523.097500
639.859137	2528.138654
640.203839	2565.947308
640.548489	2432.356731
640.893086	2412.192115
641.237632	2555.865000
641.582125	2553.344423
641.926566	2477.727115
642.270955	2450.000769
642.615292	2560.906154
642.959576	2422.274423
643.303809	2515.535769
643.647990	2477.727115
643.992118	2520.576923
644.336195	2505.453462
644.680219	2465.124231
645.024192	2492.850577
645.368112	2487.809423
645.711981	2505.453462
646.055797	2507.974038
646.399562	2497.891731
646.743274	2545.782692
647.086935	2528.138654
647.430544	2528.138654
647.774101	2507.974038
648.117606	2518.056346
648.461059	2543.262115
648.804460	2497.891731
649.147810	2507.974038
649.491108	2432.356731
649.834354	2583.591346
650.177548	2465.124231
650.520690	2492.850577
650.863781	2412.192115
651.206820	2530.659231
651.549807	2475.206538
651.892742	2528.138654
652.235626	2485.288846
652.578458	2444.959615
652.921238	2525.618077
653.263967	2477.727115
653.606644	2502.932885
653.949269	2518.056346
654.291843	2477.727115
654.634365	2437.397885
654.976836	2507.974038
655.319255	2515.535769
655.661622	2477.727115
656.003938	2502.932885
656.346203	2457.562500
656.688416	2528.138654
657.030577	2457.562500
657.372687	2563.426731
657.714746	2465.124231
658.056753	2558.385577
658.398708	2487.809423
658.740612	2432.356731
659.082465	2470.165385
659.424266	2472.685962
659.766016	2482.768269
660.107715	2467.644808
660.449362	2505.453462
660.790958	2495.371154
661.132503	2480.247692
661.473996	2525.618077
661.815438	2457.562500
662.156829	2553.344423
662.498168	2497.891731
662.839456	2545.782692
663.180693	2487.809423
663.521879	2472.685962
663.863013	2475.206538
664.204097	2477.727115
664.545129	2442.439038
664.886110	2563.426731
665.227040	2444.959615
665.567918	2548.303269
665.908746	2381.945192
666.249522	2470.165385
666.590248	2419.753846
666.930922	2543.262115
667.271545	2427.315577
667.612118	2480.247692
667.952639	2470.165385
668.293109	2500.412308
668.633528	2550.823846
668.973896	2487.809423
669.314213	2465.124231
669.654480	2495.371154
669.994695	2475.206538
670.334859	2555.865000
670.674973	2543.262115
671.015035	2482.768269
671.355047	2507.974038
671.695008	2538.220962
672.034918	2578.550192
672.374777	2490.330000
672.714585	2485.288846
673.054342	2482.768269
673.394049	2467.644808
673.733705	2472.685962
674.073310	2510.494615
674.412864	2507.974038
674.752368	2500.412308
675.091820	2588.632500
675.431223	2505.453462
675.770574	2540.741538
676.109875	2578.550192
676.449125	2439.918462
676.788324	2523.097500
677.127473	2523.097500
677.466571	2394.548077
677.805619	2548.303269
678.144616	2460.083077
678.483562	2540.741538
678.822458	2485.288846
679.161303	2462.603654
679.500098	2492.850577
679.838842	2460.083077
680.177535	2565.947308
680.516179	2573.509038
680.854771	2520.576923
681.193314	2480.247692
681.531805	2505.453462
681.870247	2507.974038
682.208638	2485.288846
682.546978	2500.412308
682.885268	2505.453462
683.223508	2578.550192
683.561697	2437.397885
683.899836	2553.344423
684.237925	2434.877308
684.575963	2502.932885
684.913951	2513.015192
685.251889	2502.932885
685.589776	2515.535769
685.927614	2462.603654
686.265401	2465.124231
686.603137	2525.618077
686.940824	2495.371154
687.278460	2472.685962
687.616046	2530.659231
687.953582	2417.233269
688.291068	2437.397885
688.628504	2553.344423
688.965889	2439.918462
689.303224	2480.247692
689.640510	2462.603654
689.977745	2412.192115
690.314930	2475.206538
690.652065	2465.124231
690.989150	2470.165385
691.326185	2500.412308
691.663170	2465.124231
692.000105	2513.015192
692.336990	2507.974038
692.673825	2480.247692
693.010610	2429.836154
693.347345	2467.644808
693.684030	2490.330000
694.020665	2487.809423
694.357251	2429.836154
694.693786	2530.659231
695.030272	2543.262115
695.366707	2465.124231
695.703093	2533.179808
696.039429	2465.124231
696.375716	2500.412308
696.711952	2460.083077
697.048139	2538.220962
697.384276	2555.865000
697.720363	2492.850577
698.056400	2570.988462
698.392388	2475.206538
698.728326	2513.015192
699.064214	2437.397885
699.400053	2515.535769
699.735842	2419.753846
700.071581	2553.344423
700.407270	2455.041923
700.742910	2427.315577
701.078501	2467.644808
701.414042	2510.494615
701.749533	2480.247692
702.084974	2467.644808
702.420366	2492.850577
702.755709	2472.685962
703.091002	2485.288846
703.426246	2510.494615
703.761440	2482.768269
704.096584	2515.535769
704.431679	2444.959615
704.766725	2472.685962
705.101721	2485.288846
705.436668	2540.741538
705.771565	2507.974038
706.106413	2457.562500
706.441212	2520.576923
706.775961	2437.397885
707.110661	2545.782692
707.445311	2482.768269
707.779913	2538.220962
708.114465	2450.000769
708.448967	2513.015192
708.783421	2543.262115
709.117825	2490.330000
709.452180	2497.891731
709.786485	2525.618077
710.120742	2475.206538
710.454949	2495.371154
710.789107	2455.041923
711.123216	2608.797115
711.457275	2528.138654
711.791286	2533.179808
712.125247	2477.727115
712.459159	2477.727115
712.793023	2482.768269
713.126837	2563.426731
713.460602	2485.288846
713.794318	2507.974038
714.127985	2457.562500
714.461602	2525.618077
714.795171	2434.877308
715.128691	2467.644808
715.462162	2492.850577
715.795584	2528.138654
716.128957	2523.097500
716.462281	2477.727115
716.795556	2502.932885
717.128782	2520.576923
717.461960	2502.932885
717.795088	2495.371154
718.128167	2497.891731
718.461198	2505.453462
718.794180	2485.288846
719.127113	2450.000769
719.459997	2487.809423
719.792833	2507.974038
720.125619	2497.891731
720.458357	2472.685962
720.791046	2505.453462
721.123686	2462.603654
721.456278	2482.768269
721.788821	2427.315577
722.121315	2444.959615
722.453761	2477.727115
722.786158	2581.070769
723.118506	2565.947308
723.450805	2472.685962
723.783056	2553.344423
724.115259	2553.344423
724.447412	2465.124231
724.779518	2523.097500
725.111574	2581.070769
725.443582	2550.823846
725.775542	2500.412308
726.107453	2497.891731
726.439315	2510.494615
726.771129	2515.535769
727.102895	2455.041923
727.434612	2500.412308
727.766281	2462.603654
728.097901	2565.947308
728.429473	2482.768269
728.760996	2477.727115
729.092471	2545.782692
729.423897	2490.330000
729.755276	2482.768269
730.086606	2510.494615
730.417887	2457.562500
730.749120	2533.179808
731.080305	2505.453462
731.411442	2510.494615
731.742530	2480.247692
732.073570	2497.891731
732.404562	2515.535769
732.735506	2513.015192
733.066401	2525.618077
733.397249	2339.095385
733.728048	2578.550192
734.058798	2442.439038
734.389501	2485.288846
734.720156	2528.138654
735.050762	2490.330000
735.381320	2457.562500
735.711831	2505.453462
736.042293	2462.603654
736.372707	2487.809423
736.703073	2485.288846
737.033391	2492.850577
737.363661	2472.685962
737.693883	2500.412308
738.024056	2487.809423
738.354182	2553.344423
738.684260	2439.918462
739.014290	2545.782692
739.344272	2505.453462
739.674207	2502.932885
740.004093	2565.947308
740.333931	2495.371154
740.663722	2523.097500
740.993464	2492.850577
741.323159	2560.906154
741.652806	2492.850577
741.982405	2457.562500
742.311956	2596.194231
742.641460	2495.371154
742.970915	2475.206538
743.300323	2444.959615
743.629683	2477.727115
743.958996	2447.480192
744.288260	2447.480192
744.617477	2452.521346
744.946647	2422.274423
745.275768	2492.850577
745.604842	2417.233269
745.933869	2477.727115
746.262847	2495.371154
746.591778	2500.412308
746.920662	2475.206538
747.249498	2507.974038
747.578286	2487.809423
747.907027	2528.138654
748.235720	2500.412308
748.564365	2593.673654
748.892963	2578.550192
749.221514	2482.768269
749.550017	2452.521346
749.878473	2510.494615
750.206881	2485.288846
750.535242	2497.891731
750.863555	2485.288846
751.191821	2455.041923
751.520039	2545.782692
751.848210	2513.015192
752.176334	2392.027500
752.504411	2492.850577
752.832440	2442.439038
753.160421	2523.097500
753.488356	2530.659231
753.816243	2490.330000
754.144082	2495.371154
754.471875	2505.453462
754.799620	2460.083077
755.127318	2565.947308
755.454969	2510.494615
755.782572	2533.179808
756.110129	2457.562500
756.437638	2576.029615
756.765100	2518.056346
757.092515	2510.494615
757.419882	2530.659231
757.747203	2543.262115
758.074477	2422.274423
758.401703	2497.891731
758.728882	2515.535769
759.056014	2530.659231
759.383099	2429.836154
759.710138	2570.988462
760.037129	2518.056346
760.364073	2447.480192
760.690970	2475.206538
761.017820	2535.700385
761.344623	2550.823846
761.671379	2472.685962
761.998088	2518.056346
762.324751	2497.891731
762.651366	2553.344423
762.977935	2455.041923
763.304456	2545.782692
763.630931	2472.685962
763.957359	2553.344423
764.283740	2510.494615
764.610074	2482.768269
764.936362	2492.850577
765.262602	2485.288846
765.588796	2530.659231
765.914943	2591.153077
766.241044	2505.453462
766.567097	2480.247692
766.893104	2492.850577
767.219064	2510.494615
767.544978	2510.494615
767.870845	2492.850577
768.196665	2555.865000
768.522438	2530.659231
768.848165	2530.659231
769.173846	2485.288846
769.499479	2480.247692
769.825066	2467.644808
770.150607	2525.618077
770.476101	2505.453462
770.801548	2558.385577
771.126949	2520.576923
771.452303	2492.850577
771.777611	2538.220962
772.102872	2548.303269
772.428087	2513.015192
772.753256	2444.959615
773.078378	2505.453462
773.403453	2487.809423
773.728482	2447.480192
774.053465	2424.795000
774.378401	2563.426731
774.703291	2417.233269
775.028135	2457.562500
775.352932	2422.274423
775.677683	2417.233269
776.002388	2424.795000
776.327046	2477.727115
776.651658	2538.220962
776.976224	2520.576923
777.300743	2538.220962
777.625216	2442.439038
777.949643	2528.138654
778.274024	2381.945192
778.598359	2460.083077
778.922647	2467.644808
779.246889	2500.412308
779.571086	2518.056346
779.895236	2505.453462
780.219339	2485.288846
780.543397	2523.097500
780.867409	2455.041923
781.191374	2548.303269
781.515294	2442.439038
781.839167	2528.138654
782.162995	2535.700385
782.486776	2477.727115
782.810511	2548.303269
783.134201	2525.618077
783.457844	2563.426731
783.781441	2447.480192
784.104993	2513.015192
784.428498	2578.550192
784.751958	2533.179808
785.075372	2480.247692
785.398739	2583.591346
785.722061	2495.371154
786.045337	2427.315577
786.368568	2555.865000
786.691752	2409.671538
787.014891	2515.535769
787.337983	2492.850577
787.661030	2472.685962
787.984031	2528.138654
788.306987	2475.206538
788.629897	2518.056346
788.952760	2485.288846
789.275579	2545.782692
789.598351	2482.768269
789.921078	2467.644808
790.243759	2386.986346
790.566395	2452.521346
790.888984	2457.562500
791.211529	2439.918462
791.534027	2502.932885
791.856480	2462.603654
792.178888	2576.029615
792.501249	2553.344423
792.823566	2520.576923
793.145836	2460.083077
793.468062	2540.741538
793.790241	2513.015192
794.112375	2434.877308
794.434464	2450.000769
794.756507	2565.947308
795.078505	2444.959615
795.400457	2450.000769
795.722364	2492.850577
796.044226	2434.877308
796.366042	2497.891731
796.687812	2513.015192
797.009538	2434.877308
797.331218	2434.877308
797.652852	2417.233269
797.974442	2528.138654
798.295986	2480.247692
798.617484	2528.138654
798.938938	2502.932885
799.260346	2533.179808
799.581709	2457.562500
799.903026	2465.124231
800.224299	2573.509038
800.545526	2495.371154
800.866708	2555.865000
801.187845	2502.932885
801.508936	2528.138654
801.829983	2419.753846
802.150984	2497.891731
802.471940	2518.056346
802.792851	2490.330000
803.113717	2467.644808
803.434538	2520.576923
803.755314	2427.315577
804.076045	2497.891731
804.396731	2495.371154
804.717372	2472.685962
805.037967	2555.865000
805.358518	2462.603654
805.679024	2447.480192
805.999485	2422.274423
806.319901	2596.194231
806.640272	2407.150962
806.960598	2581.070769
807.280879	2477.727115
807.601115	2545.782692
807.921306	2497.891731
808.241453	2578.550192
808.561554	2475.206538
808.881611	2502.932885
809.201623	2462.603654
809.521590	2528.138654
809.841513	2487.809423
810.161390	2487.809423
810.481223	2470.165385
810.801011	2460.083077
811.120755	2518.056346
811.440453	2502.932885
811.760107	2492.850577
812.079716	2535.700385
812.399281	2439.918462
812.718801	2412.192115
813.038276	2429.836154
813.357707	2480.247692
813.677093	2467.644808
813.996434	2485.288846
814.315731	2394.548077
814.634983	2535.700385
814.954191	2439.918462
815.273354	2487.809423
815.592473	2507.974038
815.911547	2523.097500
816.230577	2543.262115
816.549562	2505.453462
816.868502	2492.850577
817.187399	2492.850577
817.506250	2510.494615
817.825058	2510.494615
818.143821	2457.562500
818.462539	2485.288846
818.781213	2434.877308
819.099843	2434.877308
819.418429	2515.535769
819.736970	2366.821731
820.055466	2462.603654
820.373919	2548.303269
820.692327	2553.344423
821.010691	2533.179808
821.329011	2513.015192
821.647286	2444.959615
821.965517	2523.097500
822.283704	2414.712692
822.601847	2505.453462
822.919945	2424.795000
823.237999	2492.850577
823.556010	2394.548077
823.873976	2477.727115
824.191897	2518.056346
824.509775	2422.274423
824.827609	2485.288846
825.145398	2553.344423
825.463144	2462.603654
825.780845	2502.932885
826.098502	2576.029615
826.416116	2497.891731
826.733685	2525.618077
827.051210	2460.083077
827.368692	2555.865000
827.686129	2533.179808
828.003522	2467.644808
828.320872	2523.097500
828.638177	2520.576923
828.955439	2497.891731
829.272656	2540.741538
829.589830	2518.056346
829.906960	2460.083077
830.224046	2419.753846
830.541088	2487.809423
830.858086	2475.206538
831.175041	2523.097500
831.491952	2399.589231
831.808819	2535.700385
832.125642	2523.097500
832.442421	2487.809423
832.759157	2470.165385
833.075849	2490.330000
833.392497	2422.274423
833.709101	2530.659231
834.025662	2563.426731
834.342179	2404.630385
834.658653	2480.247692
834.975083	2500.412308
835.291469	2470.165385
835.607811	2495.371154
835.924110	2417.233269
836.240366	2455.041923
836.556578	2460.083077
836.872746	2460.083077
837.188871	2568.467885
837.504952	2487.809423
837.820990	2442.439038
838.136984	2586.111923
838.452935	2510.494615
838.768842	2578.550192
839.084706	2457.562500
839.400526	2470.165385
839.716303	2432.356731
840.032037	2465.124231
840.347727	2523.097500
840.663373	2376.904038
840.978977	2465.124231
841.294537	2530.659231
841.610054	2497.891731
841.925527	2495.371154
842.240957	2523.097500
842.556344	2482.768269
842.871687	2490.330000
843.186987	2553.344423
843.502244	2462.603654
843.817458	2450.000769
844.132629	2465.124231
844.447756	2480.247692
844.762840	2495.371154
845.077881	2475.206538
845.392879	2470.165385
845.707833	2482.768269
846.022745	2485.288846
846.337613	2518.056346
846.652438	2462.603654
846.967221	2434.877308
847.281960	2515.535769
847.596656	2492.850577
847.911309	2507.974038
848.225919	2565.947308
848.540485	2538.220962
848.855009	2487.809423
849.169490	2444.959615
849.483928	2462.603654
849.798323	2513.015192
850.112675	2407.150962
850.426984	2467.644808
850.741251	2528.138654
851.055474	2480.247692
851.369654	2495.371154
851.683792	2513.015192
851.997887	2558.385577
852.311938	2558.385577
852.625947	2560.906154
852.939914	2417.233269
853.253837	2460.083077
853.567718	2518.056346
853.881555	2568.467885
854.195350	2444.959615
854.509103	2518.056346
854.822812	2515.535769
855.136479	2417.233269
855.450103	2432.356731
855.763685	2447.480192
856.077224	2487.809423
856.390720	2442.439038
856.704173	2442.439038
857.017584	2495.371154
857.330953	2482.768269
857.644278	2472.685962
857.957561	2490.330000
858.270802	2485.288846
858.584000	2502.932885
858.897155	2500.412308
859.210268	2465.124231
859.523339	2505.453462
859.836367	2548.303269
860.149352	2480.247692
860.462295	2409.671538
860.775195	2477.727115
861.088054	2482.768269
861.400869	2507.974038
861.713642	2414.712692
862.026373	2424.795000
862.339062	2502.932885
862.651708	2505.453462
862.964312	2477.727115
863.276873	2518.056346
863.589392	2452.521346
863.901869	2515.535769
864.214303	2477.727115
864.526696	2487.809423
864.839045	2502.932885
865.151353	2480.247692
865.463619	2528.138654
865.775842	2386.986346
866.088023	2467.644808
866.400162	2510.494615
866.712258	2460.083077
867.024313	2482.768269
867.336325	2402.109808
867.648296	2477.727115
867.960224	2535.700385
868.272110	2570.988462
868.583954	2455.041923
868.895755	2460.083077
869.207515	2452.521346
869.519233	2548.303269
869.830909	2444.959615
870.142542	2593.673654
870.454134	2379.424615
870.765684	2475.206538
871.077191	2397.068654
871.388657	2472.685962
871.700081	2490.330000
872.011463	2439.918462
872.322803	2467.644808
872.634101	2492.850577
872.945357	2460.083077
873.256571	2500.412308
873.567744	2439.918462
873.878874	2482.768269
874.189963	2465.124231
874.501010	2490.330000
874.812015	2460.083077
875.122979	2465.124231
875.433900	2475.206538
875.744780	2462.603654
876.055618	2515.535769
876.366415	2424.795000
876.677169	2543.262115
876.987882	2538.220962
877.298554	2419.753846
877.609183	2497.891731
877.919771	2482.768269
878.230317	2424.795000
878.540822	2412.192115
878.851285	2490.330000
879.161707	2502.932885
879.472087	2535.700385
879.782425	2447.480192
880.092722	2500.412308
880.402977	2495.371154
880.713191	2535.700385
881.023363	2452.521346
881.333494	2487.809423
881.643583	2465.124231
881.953631	2548.303269
882.263637	2523.097500
882.573602	2495.371154
882.883526	2397.068654
883.193408	2518.056346
883.503248	2457.562500
883.813048	2525.618077
884.122806	2543.262115
884.432522	2472.685962
884.742197	2482.768269
885.051831	2462.603654
885.361424	2502.932885
885.670975	2444.959615
885.980485	2510.494615
886.289954	2480.247692
886.599382	2429.836154
886.908768	2424.795000
887.218113	2497.891731
887.527417	2485.288846
887.836680	2495.371154
888.145901	2505.453462
888.455082	2518.056346
888.764221	2553.344423
889.073319	2442.439038
889.382376	2548.303269
889.691392	2497.891731
890.000366	2432.356731
890.309300	2414.712692
890.618193	2535.700385
890.927044	2482.768269
891.235855	2593.673654
891.544625	2550.823846
891.853353	2528.138654
892.162041	2538.220962
892.470687	2560.906154
892.779293	2434.877308
893.087858	2525.618077
893.396381	2472.685962
893.704864	2513.015192
894.013306	2460.083077
894.321707	2513.015192
894.630068	2497.891731
894.938387	2485.288846
895.246665	2535.700385
895.554903	2450.000769
895.863100	2520.576923
896.171256	2507.974038
896.479371	2492.850577
896.787446	2467.644808
897.095480	2485.288846
897.403473	2465.124231
897.711425	2447.480192
898.019336	2450.000769
898.327207	2462.603654
898.635038	2513.015192
898.942827	2482.768269
899.250576	2467.644808
899.558284	2545.782692
899.865952	2434.877308
900.173579	2444.959615
900.481165	2510.494615
900.788711	2502.932885
901.096216	2507.974038
901.403681	2543.262115
901.711105	2502.932885
902.018489	2540.741538
902.325832	2470.165385
902.633135	2472.685962
902.940397	2525.618077
903.247619	2505.453462
903.554800	2439.918462
903.861941	2485.288846
904.169041	2500.412308
904.476101	2518.056346
904.783121	2462.603654
905.090100	2550.823846
905.397039	2442.439038
905.703938	2545.782692
906.010796	2472.685962
906.317614	2530.659231
906.624391	2480.247692
906.931129	2465.124231
907.237826	2573.509038
907.544483	2460.083077
907.851099	2495.371154
908.157675	2475.206538
908.464211	2487.809423
908.770707	2439.918462
909.077163	2525.618077
909.383578	2528.138654
909.689954	2492.850577
909.996289	2472.685962
910.302584	2535.700385
910.608839	2548.303269
910.915054	2533.179808
911.221229	2460.083077
911.527363	2520.576923
911.833458	2447.480192
912.139513	2502.932885
912.445527	2550.823846
912.751502	2495.371154
913.057436	2505.453462
913.363331	2492.850577
913.669186	2520.576923
913.975000	2525.618077
914.280775	2538.220962
914.586510	2497.891731
914.892205	2460.083077
915.197859	2439.918462
915.503475	2492.850577
915.809050	2487.809423
916.114585	2487.809423
916.420081	2444.959615
916.725536	2530.659231
917.030952	2495.371154
917.336328	2472.685962
917.641665	2477.727115
917.946961	2513.015192
918.252218	2500.412308
918.557435	2563.426731
918.862612	2535.700385
919.167750	2528.138654
919.472848	2495.371154
919.777906	2550.823846
920.082925	2485.288846
920.387904	2482.768269
920.692843	2437.397885
920.997743	2442.439038
921.302603	2530.659231
921.607423	2583.591346
921.912204	2470.165385
922.216946	2543.262115
922.521647	2510.494615
922.826310	2490.330000
923.130932	2429.836154
923.435516	2490.330000
923.740059	2545.782692
924.044564	2409.671538
924.349028	2500.412308
924.653454	2460.083077
924.957840	2545.782692
925.262186	2482.768269
925.566493	2530.659231
925.870761	2520.576923
926.174989	2419.753846
926.479178	2513.015192
926.783328	2505.453462
927.087438	2560.906154
927.391509	2510.494615
927.695541	2490.330000
927.999533	2374.383462
928.303486	2482.768269
928.607400	2515.535769
928.911275	2444.959615
929.215110	2515.535769
929.518906	2548.303269
929.822663	2545.782692
930.126381	2507.974038
930.430060	2482.768269
930.733699	2437.397885
931.037299	2507.974038
931.340861	2442.439038
931.644383	2502.932885
931.947866	2485.288846
932.251309	2447.480192
932.554714	2402.109808
932.858080	2455.041923
933.161407	2374.383462
933.464694	2492.850577
933.767943	2467.644808
934.071153	2525.618077
934.374323	2533.179808
934.677455	2502.932885
934.980548	2444.959615
935.283602	2422.274423
935.586617	2437.397885
935.889593	2470.165385
936.192530	2485.288846
936.495428	2538.220962
936.798287	2475.206538
937.101108	2492.850577
937.403890	2515.535769
937.706632	2497.891731
938.009336	2538.220962
938.312002	2462.603654
938.614628	2455.041923
938.917216	2472.685962
939.219765	2457.562500
939.522275	2518.056346
939.824747	2444.959615
940.127179	2497.891731
940.429573	2444.959615
940.731929	2487.809423
941.034246	2397.068654
941.336524	2543.262115
941.638763	2477.727115
941.940964	2467.644808
942.243126	2502.932885
942.545250	2392.027500
942.847335	2490.330000
943.149381	2386.986346
943.451389	2502.932885
943.753359	2470.165385
944.055290	2495.371154
944.357182	2404.630385
944.659036	2462.603654
944.960851	2560.906154
945.262628	2525.618077
945.564367	2432.356731
945.866067	2573.509038
946.167729	2475.206538
946.469352	2490.330000
946.770937	2497.891731
947.072484	2495.371154
947.373992	2565.947308
947.675462	2497.891731
947.976893	2581.070769
948.278286	2447.480192
948.579641	2518.056346
948.880958	2427.315577
949.182236	2482.768269
949.483476	2450.000769
949.784678	2523.097500
950.085841	2427.315577
950.386967	2477.727115
950.688054	2475.206538
950.989103	2490.330000
951.290114	2515.535769
951.591087	2492.850577
951.892021	2507.974038
952.192917	2427.315577
952.493776	2505.453462
952.794596	2457.562500
953.095378	2545.782692
953.396122	2492.850577
953.696828	2507.974038
953.997496	2533.179808
954.298126	2558.385577
954.598718	2553.344423
954.899272	2515.535769
955.199788	2497.891731
955.500266	2460.083077
955.800706	2452.521346
956.101108	2429.836154
956.401472	2462.603654
956.701798	2361.780577
957.002087	2470.165385
957.302337	2470.165385
957.602550	2500.412308
957.902724	2485.288846
958.202861	2560.906154
958.502960	2490.330000
958.803022	2505.453462
959.103045	2490.330000
959.403031	2518.056346
959.702979	2485.288846
960.002889	2450.000769
960.302762	2447.480192
960.602596	2530.659231
960.902393	2563.426731
961.202153	2452.521346
961.501875	2480.247692
961.801559	2588.632500
962.101205	2455.041923
962.400814	2470.165385
962.700385	2450.000769
962.999918	2525.618077
963.299414	2497.891731
963.598873	2518.056346
963.898293	2586.111923
964.197677	2455.041923
964.497022	2472.685962
964.796331	2397.068654
965.095601	2518.056346
965.394835	2507.974038
965.694030	2447.480192
965.993189	2510.494615
966.292309	2588.632500
966.591393	2538.220962
966.890439	2407.150962
967.189447	2462.603654
967.488419	2576.029615
967.787353	2563.426731
968.086249	2457.562500
968.385108	2442.439038
968.683930	2530.659231
968.982714	2437.397885
969.281462	2530.659231
969.580172	2487.809423
969.878844	2490.330000
970.177480	2500.412308
970.476078	2568.467885
970.774639	2404.630385
971.073162	2442.439038
971.371649	2404.630385
971.670098	2565.947308
971.968510	2462.603654
972.266885	2437.397885
972.565223	2490.330000
972.863524	2528.138654
973.161788	2487.809423
973.460014	2470.165385
973.758204	2553.344423
974.056356	2465.124231
974.354471	2452.521346
974.652550	2502.932885
974.950591	2419.753846
975.248595	2394.548077
975.546563	2518.056346
975.844493	2485.288846
976.142386	2560.906154
976.440243	2409.671538
976.738062	2467.644808
977.035845	2507.974038
977.333590	2523.097500
977.631299	2394.548077
977.928971	2535.700385
978.226606	2578.550192
978.524204	2558.385577
978.821765	2495.371154
979.119290	2543.262115
979.416777	2462.603654
979.714228	2507.974038
980.011642	2457.562500
980.309020	2523.097500
980.606360	2495.371154
980.903664	2394.548077
981.200931	2518.056346
981.498162	2603.755962
981.795356	2460.083077
982.092513	2492.850577
982.389633	2533.179808
982.686717	2462.603654
982.983764	2460.083077
983.280775	2515.535769
983.577749	2500.412308
983.874686	2525.618077
984.171587	2465.124231
984.468451	2515.535769
984.765279	2533.179808
985.062070	2505.453462
985.358824	2538.220962
985.655543	2492.850577
985.952224	2452.521346
986.248869	2565.947308
986.545478	2533.179808
986.842050	2507.974038
987.138586	2485.288846
987.435086	2465.124231
987.731549	2462.603654
988.027975	2540.741538
988.324366	2472.685962
988.620719	2513.015192
988.917037	2457.562500
989.213318	2495.371154
989.509563	2444.959615
989.805772	2510.494615
990.101944	2455.041923
990.398080	2573.509038
990.694180	2477.727115
990.990244	2492.850577
991.286271	2429.836154
991.582262	2538.220962
991.878217	2475.206538
992.174136	2518.056346
992.470019	2450.000769
992.765865	2475.206538
993.061676	2518.056346
993.357450	2502.932885
993.653188	2447.480192
993.948890	2520.576923
994.244556	2533.179808
994.540186	2442.439038
994.835780	2450.000769
995.131337	2487.809423
995.426859	2490.330000
995.722345	2510.494615
996.017795	2510.494615
996.313208	2480.247692
996.608586	2467.644808
996.903928	2439.918462
997.199234	2450.000769
997.494504	2480.247692
997.789738	2576.029615
998.084936	2477.727115
998.380099	2520.576923
998.675225	2570.988462
998.970316	2480.247692
999.265371	2497.891731
999.560390	2467.644808
999.855373	2465.124231
1000.150320	2444.959615
1000.445232	2550.823846
1000.740108	2477.727115
1001.034948	2482.768269
1001.329752	2497.891731
1001.624521	2513.015192
1001.919254	2525.618077
1002.213951	2568.467885
1002.508613	2490.330000
1002.803239	2548.303269
1003.097829	2500.412308
1003.392384	2467.644808
1003.686903	2457.562500
1003.981386	2570.988462
1004.275834	2462.603654
1004.570246	2570.988462
1004.864623	2487.809423
1005.158964	2513.015192
1005.453270	2470.165385
1005.747540	2530.659231
1006.041775	2399.589231
1006.335974	2523.097500
1006.630138	2444.959615
1006.924266	2470.165385
1007.218359	2465.124231
1007.512416	2439.918462
1007.806438	2520.576923
1008.100425	2482.768269
1008.394376	2450.000769
1008.688292	2487.809423
1008.982172	2444.959615
1009.276017	2465.124231
1009.569827	2540.741538
1009.863602	2490.330000
1010.157341	2477.727115
1010.451045	2528.138654
1010.744714	2492.850577
1011.038347	2550.823846
1011.331945	2510.494615
1011.625508	2548.303269
1011.919036	2457.562500
1012.212528	2470.165385
1012.505986	2515.535769
1012.799408	2444.959615
1013.092795	2543.262115
1013.386147	2407.150962
1013.679464	2439.918462
1013.972745	2402.109808
1014.265992	2528.138654
1014.559204	2500.412308
1014.852380	2447.480192
1015.145521	2480.247692
1015.438628	2450.000769
1015.731699	2422.274423
1016.024736	2520.576923
1016.317737	2492.850577
1016.610703	2525.618077
1016.903635	2460.083077
1017.196531	2455.041923
1017.489393	2490.330000
1017.782219	2429.836154
1018.075011	2492.850577
1018.367768	2520.576923
1018.660490	2467.644808
1018.953177	2467.644808
1019.245829	2467.644808
