Dividing Wavelength (nm)	Counts (n)	Blue Motor Position (mm): 2.900000	Red Motor Position (mm): 0.000000	
326.493990	2112.243462
326.888308	2112.243462
327.282561	2112.243462
327.676750	2069.393654
328.070874	2064.352500
328.464933	2099.640577
328.858929	2071.914231
329.252859	2087.037692
329.646726	2097.120000
330.040528	2034.105577
330.434265	2107.202308
330.827938	2054.270192
331.221547	2046.708462
331.615091	2218.107692
332.008571	2190.381346
332.401986	2208.025385
332.795338	2134.928654
333.188625	2182.819615
333.581847	2248.354615
333.975006	2248.354615
334.368100	2308.848462
334.761129	2281.122115
335.154095	2311.369038
335.546996	2258.436923
335.939833	2389.506923
336.332606	2379.424615
336.725315	2429.836154
337.117960	2414.712692
337.510540	2359.260000
337.903056	2379.424615
338.295508	2394.548077
338.687896	2495.371154
339.080220	2397.068654
339.472480	2369.342308
339.864676	2470.165385
340.256807	2538.220962
340.648875	2472.685962
341.040879	2538.220962
341.432818	2409.671538
341.824694	2450.000769
342.216506	2487.809423
342.608253	2470.165385
342.999937	2513.015192
343.391557	2465.124231
343.783113	2444.959615
344.174605	2457.562500
344.566033	2475.206538
344.957397	2495.371154
345.348697	2507.974038
345.739934	2402.109808
346.131106	2477.727115
346.522215	2518.056346
346.913260	2467.644808
347.304241	2482.768269
347.695159	2460.083077
348.086012	2482.768269
348.476802	2462.603654
348.867528	2477.727115
349.258191	2394.548077
349.648789	2409.671538
350.039324	2409.671538
350.429796	2455.041923
350.820203	2507.974038
351.210548	2397.068654
351.600828	2515.535769
351.991045	2444.959615
352.381198	2452.521346
352.771288	2392.027500
353.161314	2528.138654
353.551276	2366.821731
353.941175	2457.562500
354.331010	2470.165385
354.720782	2394.548077
355.110490	2467.644808
355.500135	2392.027500
355.889717	2402.109808
356.279235	2450.000769
356.668689	2482.768269
357.058080	2376.904038
357.447408	2369.342308
357.836672	2379.424615
358.225873	2424.795000
358.615010	2389.506923
359.004084	2437.397885
359.393095	2409.671538
359.782043	2439.918462
360.170927	2407.150962
360.559748	2414.712692
360.948505	2462.603654
361.337199	2470.165385
361.725830	2505.453462
362.114398	2452.521346
362.502903	2452.521346
362.891344	2480.247692
363.279722	2414.712692
363.668037	2427.315577
364.056289	2404.630385
364.444478	2470.165385
364.832603	2389.506923
365.220665	2457.562500
365.608665	2422.274423
365.996601	2507.974038
366.384474	2424.795000
366.772284	2384.465769
367.160031	2376.904038
367.547715	2389.506923
367.935336	2442.439038
368.322893	2457.562500
368.710388	2437.397885
369.097820	2432.356731
369.485189	2434.877308
369.872495	2480.247692
370.259738	2407.150962
370.646918	2467.644808
371.034035	2545.782692
371.421090	2472.685962
371.808081	2480.247692
372.195010	2472.685962
372.581875	2452.521346
372.968678	2432.356731
373.355418	2480.247692
373.742096	2444.959615
374.128710	2465.124231
374.515262	2389.506923
374.901751	2434.877308
375.288177	2540.741538
375.674540	2427.315577
376.060841	2523.097500
376.447079	2510.494615
376.833254	2447.480192
377.219367	2500.412308
377.605417	2437.397885
377.991404	2505.453462
378.377329	2379.424615
378.763191	2392.027500
379.148991	2515.535769
379.534727	2432.356731
379.920402	2543.262115
380.306013	2510.494615
380.691563	2409.671538
381.077049	2437.397885
381.462474	2465.124231
381.847835	2394.548077
382.233134	2480.247692
382.618371	2409.671538
383.003545	2437.397885
383.388657	2467.644808
383.773706	2442.439038
384.158693	2439.918462
384.543618	2460.083077
384.928480	2477.727115
385.313280	2477.727115
385.698017	2455.041923
386.082692	2460.083077
386.467305	2444.959615
386.851856	2477.727115
387.236344	2452.521346
387.620770	2407.150962
388.005133	2515.535769
388.389435	2507.974038
388.773674	2482.768269
389.157851	2414.712692
389.541965	2381.945192
389.926018	2432.356731
390.310008	2492.850577
390.693936	2450.000769
391.077802	2402.109808
391.461606	2465.124231
391.845348	2530.659231
392.229027	2444.959615
392.612645	2520.576923
392.996200	2510.494615
393.379694	2523.097500
393.763125	2500.412308
394.146494	2412.192115
394.529801	2450.000769
394.913047	2444.959615
395.296230	2545.782692
395.679351	2495.371154
396.062410	2434.877308
396.445408	2586.111923
396.828343	2392.027500
397.211217	2482.768269
397.594028	2457.562500
397.976778	2472.685962
398.359466	2397.068654
398.742092	2540.741538
399.124656	2475.206538
399.507158	2437.397885
399.889598	2470.165385
400.271977	2437.397885
400.654294	2560.906154
401.036549	2513.015192
401.418742	2507.974038
401.800874	2510.494615
402.182944	2386.986346
402.564952	2515.535769
402.946898	2434.877308
403.328783	2452.521346
403.710606	2450.000769
404.092367	2502.932885
404.474067	2518.056346
404.855705	2417.233269
405.237282	2520.576923
405.618797	2480.247692
406.000250	2515.535769
406.381642	2548.303269
406.762972	2452.521346
407.144240	2460.083077
407.525447	2399.589231
407.906593	2447.480192
408.287677	2477.727115
408.668700	2465.124231
409.049661	2429.836154
409.430560	2515.535769
409.811399	2417.233269
410.192176	2487.809423
410.572891	2492.850577
410.953545	2485.288846
411.334138	2462.603654
411.714669	2462.603654
412.095139	2502.932885
412.475547	2540.741538
412.855894	2523.097500
413.236180	2409.671538
413.616405	2455.041923
413.996568	2379.424615
414.376670	2465.124231
414.756711	2510.494615
415.136691	2465.124231
415.516609	2482.768269
415.896466	2520.576923
416.276262	2432.356731
416.655997	2500.412308
417.035670	2482.768269
417.415283	2470.165385
417.794834	2434.877308
418.174324	2475.206538
418.553753	2581.070769
418.933121	2450.000769
419.312428	2515.535769
419.691674	2432.356731
420.070859	2548.303269
420.449983	2460.083077
420.829045	2404.630385
421.208047	2437.397885
421.586988	2485.288846
421.965867	2462.603654
422.344686	2434.877308
422.723444	2452.521346
423.102141	2523.097500
423.480777	2482.768269
423.859352	2470.165385
424.237866	2568.467885
424.616319	2490.330000
424.994712	2444.959615
425.373044	2465.124231
425.751314	2394.548077
426.129524	2482.768269
426.507673	2470.165385
426.885762	2477.727115
427.263789	2513.015192
427.641756	2467.644808
428.019662	2394.548077
428.397508	2560.906154
428.775292	2432.356731
429.153016	2470.165385
429.530679	2558.385577
429.908282	2553.344423
430.285824	2460.083077
430.663305	2424.795000
431.040726	2439.918462
431.418086	2507.974038
431.795385	2450.000769
432.172624	2555.865000
432.549802	2543.262115
432.926920	2485.288846
433.303977	2422.274423
433.680974	2384.465769
434.057910	2462.603654
434.434786	2460.083077
434.811601	2482.768269
435.188355	2525.618077
435.565050	2366.821731
435.941683	2520.576923
436.318257	2545.782692
436.694770	2414.712692
437.071222	2553.344423
437.447614	2533.179808
437.823946	2399.589231
438.200218	2447.480192
438.576429	2417.233269
438.952580	2515.535769
439.328670	2545.782692
439.704700	2379.424615
440.080670	2432.356731
440.456580	2381.945192
440.832429	2482.768269
441.208218	2442.439038
441.583947	2550.823846
441.959616	2439.918462
442.335224	2520.576923
442.710773	2455.041923
443.086261	2480.247692
443.461689	2480.247692
443.837057	2540.741538
444.212365	2545.782692
444.587612	2578.550192
444.962800	2455.041923
445.337927	2576.029615
445.712995	2359.260000
446.088002	2543.262115
446.462949	2543.262115
446.837837	2513.015192
447.212664	2462.603654
447.587431	2515.535769
447.962139	2550.823846
448.336786	2510.494615
448.711374	2419.753846
449.085901	2444.959615
449.460369	2528.138654
449.834776	2465.124231
450.209124	2465.124231
450.583412	2465.124231
450.957640	2523.097500
451.331808	2417.233269
451.705917	2588.632500
452.079965	2482.768269
452.453954	2502.932885
452.827883	2439.918462
453.201752	2442.439038
453.575562	2457.562500
453.949311	2570.988462
454.323001	2419.753846
454.696632	2510.494615
455.070202	2465.124231
455.443713	2507.974038
455.817164	2439.918462
456.190556	2505.453462
456.563888	2434.877308
456.937160	2533.179808
457.310373	2533.179808
457.683526	2550.823846
458.056619	2462.603654
458.429653	2518.056346
458.802628	2455.041923
459.175542	2419.753846
459.548398	2475.206538
459.921194	2565.947308
460.293930	2447.480192
460.666607	2513.015192
461.039224	2470.165385
461.411782	2487.809423
461.784280	2523.097500
462.156719	2528.138654
462.529099	2475.206538
462.901419	2520.576923
463.273680	2553.344423
463.645882	2490.330000
464.018024	2497.891731
464.390106	2487.809423
464.762130	2525.618077
465.134094	2455.041923
465.505999	2550.823846
465.877845	2482.768269
466.249631	2487.809423
466.621358	2462.603654
466.993026	2422.274423
467.364634	2606.276538
467.736184	2515.535769
468.107674	2457.562500
468.479105	2560.906154
468.850477	2419.753846
469.221790	2422.274423
469.593043	2467.644808
469.964238	2487.809423
470.335373	2520.576923
470.706449	2505.453462
471.077467	2505.453462
471.448425	2482.768269
471.819324	2502.932885
472.190164	2470.165385
472.560945	2402.109808
472.931667	2523.097500
473.302330	2525.618077
473.672934	2450.000769
474.043479	2530.659231
474.413965	2495.371154
474.784393	2535.700385
475.154761	2477.727115
475.525070	2495.371154
475.895321	2450.000769
476.265513	2533.179808
476.635645	2482.768269
477.005719	2563.426731
477.375734	2371.862885
477.745691	2439.918462
478.115588	2409.671538
478.485427	2485.288846
478.855207	2515.535769
479.224928	2485.288846
479.594591	2465.124231
479.964194	2520.576923
480.333739	2432.356731
480.703226	2477.727115
481.072653	2386.986346
481.442022	2543.262115
481.811333	2525.618077
482.180584	2414.712692
482.549777	2518.056346
482.918912	2513.015192
483.287988	2460.083077
483.657005	2447.480192
484.025964	2533.179808
484.394864	2553.344423
484.763706	2429.836154
485.132489	2485.288846
485.501213	2568.467885
485.869879	2475.206538
486.238487	2444.959615
486.607036	2450.000769
486.975527	2553.344423
487.343959	2462.603654
487.712333	2528.138654
488.080648	2472.685962
488.448905	2439.918462
488.817104	2475.206538
489.185244	2490.330000
489.553326	2497.891731
489.921350	2475.206538
490.289315	2505.453462
490.657222	2482.768269
491.025070	2409.671538
491.392861	2472.685962
491.760593	2538.220962
492.128267	2518.056346
492.495883	2455.041923
492.863440	2490.330000
493.230939	2419.753846
493.598380	2422.274423
493.965763	2533.179808
494.333088	2467.644808
494.700354	2540.741538
495.067563	2480.247692
495.434713	2450.000769
495.801805	2470.165385
496.168839	2477.727115
496.535815	2404.630385
496.902733	2535.700385
497.269593	2505.453462
497.636395	2379.424615
498.003139	2497.891731
498.369825	2412.192115
498.736453	2432.356731
499.103023	2492.850577
499.469535	2530.659231
499.835989	2523.097500
500.202385	2570.988462
500.568723	2399.589231
500.935003	2510.494615
501.301226	2429.836154
501.667390	2510.494615
502.033497	2495.371154
502.399546	2409.671538
502.765537	2465.124231
503.131470	2465.124231
503.497345	2530.659231
503.863163	2467.644808
504.228923	2409.671538
504.594625	2432.356731
504.960269	2513.015192
505.325856	2475.206538
505.691385	2462.603654
506.056856	2576.029615
506.422270	2480.247692
506.787625	2495.371154
507.152924	2492.850577
507.518164	2475.206538
507.883347	2487.809423
508.248472	2515.535769
508.613540	2528.138654
508.978550	2485.288846
509.343503	2467.644808
509.708398	2507.974038
510.073236	2472.685962
510.438016	2477.727115
510.802738	2533.179808
511.167403	2407.150962
511.532010	2548.303269
511.896561	2465.124231
512.261053	2523.097500
512.625488	2424.795000
512.989866	2452.521346
513.354186	2502.932885
513.718449	2538.220962
514.082655	2510.494615
514.446803	2472.685962
514.810894	2540.741538
515.174927	2611.317692
515.538904	2573.509038
515.902822	2475.206538
516.266684	2450.000769
516.630488	2424.795000
516.994235	2505.453462
517.357925	2495.371154
517.721558	2477.727115
518.085133	2429.836154
518.448651	2548.303269
518.812112	2553.344423
519.175516	2502.932885
519.538863	2588.632500
519.902152	2520.576923
520.265385	2513.015192
520.628560	2515.535769
520.991678	2500.412308
521.354739	2507.974038
521.717743	2455.041923
522.080690	2485.288846
522.443580	2518.056346
522.806413	2460.083077
523.169189	2568.467885
523.531908	2447.480192
523.894569	2492.850577
524.257174	2538.220962
524.619722	2450.000769
524.982213	2528.138654
525.344647	2462.603654
525.707025	2424.795000
526.069345	2543.262115
526.431608	2495.371154
526.793815	2462.603654
527.155964	2485.288846
527.518057	2497.891731
527.880093	2515.535769
528.242072	2518.056346
528.603995	2505.453462
528.965860	2558.385577
529.327669	2533.179808
529.689421	2558.385577
530.051117	2513.015192
530.412755	2548.303269
530.774337	2482.768269
531.135862	2596.194231
531.497331	2487.809423
531.858743	2515.535769
532.220098	2487.809423
532.581396	2470.165385
532.942638	2502.932885
533.303824	2563.426731
533.664953	2482.768269
534.026025	2502.932885
534.387040	2520.576923
534.747999	2450.000769
535.108902	2510.494615
535.469748	2525.618077
535.830537	2490.330000
536.191270	2525.618077
536.551947	2485.288846
536.912567	2505.453462
537.273131	2452.521346
537.633638	2485.288846
537.994089	2462.603654
538.354483	2523.097500
538.714821	2533.179808
539.075103	2540.741538
539.435328	2528.138654
539.795497	2591.153077
540.155609	2455.041923
540.515665	2500.412308
540.875665	2581.070769
541.235609	2543.262115
541.595496	2475.206538
541.955328	2507.974038
542.315102	2455.041923
542.674821	2576.029615
543.034483	2475.206538
543.394090	2553.344423
543.753640	2477.727115
544.113134	2543.262115
544.472571	2528.138654
544.831953	2482.768269
545.191278	2520.576923
545.550548	2518.056346
545.909761	2530.659231
546.268918	2497.891731
546.628019	2560.906154
546.987064	2535.700385
547.346053	2543.262115
547.704986	2505.453462
548.063863	2543.262115
548.422684	2429.836154
548.781449	2497.891731
549.140158	2470.165385
549.498811	2482.768269
549.857408	2490.330000
550.215949	2520.576923
550.574434	2548.303269
550.932864	2515.535769
551.291237	2450.000769
551.649555	2565.947308
552.007817	2560.906154
552.366022	2502.932885
552.724173	2553.344423
553.082267	2555.865000
553.440305	2528.138654
553.798288	2424.795000
554.156215	2510.494615
554.514086	2490.330000
554.871902	2472.685962
555.229661	2482.768269
555.587365	2523.097500
555.945014	2570.988462
556.302606	2455.041923
556.660143	2525.618077
557.017625	2565.947308
557.375050	2434.877308
557.732421	2480.247692
558.089735	2487.809423
558.446994	2422.274423
558.804197	2472.685962
559.161345	2528.138654
559.518437	2444.959615
559.875474	2442.439038
560.232455	2465.124231
560.589381	2490.330000
560.946251	2523.097500
561.303065	2502.932885
561.659825	2570.988462
562.016528	2533.179808
562.373177	2490.330000
562.729770	2500.412308
563.086307	2576.029615
563.442789	2515.535769
563.799216	2565.947308
564.155587	2591.153077
564.511904	2450.000769
564.868164	2533.179808
565.224370	2427.315577
565.580520	2523.097500
565.936615	2444.959615
566.292654	2379.424615
566.648638	2495.371154
567.004567	2447.480192
567.360441	2490.330000
567.716260	2538.220962
568.072023	2505.453462
568.427732	2573.509038
568.783385	2578.550192
569.138982	2570.988462
569.494525	2437.397885
569.850013	2548.303269
570.205445	2495.371154
570.560823	2467.644808
570.916145	2520.576923
571.271412	2402.109808
571.626625	2422.274423
571.981782	2502.932885
572.336884	2432.356731
572.691931	2500.412308
573.046923	2450.000769
573.401860	2495.371154
573.756743	2419.753846
574.111570	2530.659231
574.466342	2460.083077
574.821059	2515.535769
575.175722	2528.138654
575.530330	2535.700385
575.884882	2505.453462
576.239380	2545.782692
576.593823	2568.467885
576.948211	2573.509038
577.302544	2502.932885
577.656823	2487.809423
578.011047	2543.262115
578.365216	2457.562500
578.719330	2480.247692
579.073389	2601.235385
579.427394	2452.521346
579.781344	2475.206538
580.135239	2487.809423
580.489080	2495.371154
580.842866	2505.453462
581.196597	2581.070769
581.550273	2467.644808
581.903895	2497.891731
582.257463	2422.274423
582.610975	2442.439038
582.964434	2470.165385
583.317837	2523.097500
583.671186	2397.068654
584.024481	2495.371154
584.377721	2505.453462
584.730906	2510.494615
585.084037	2560.906154
585.437113	2558.385577
585.790135	2477.727115
586.143103	2553.344423
586.496016	2500.412308
586.848874	2495.371154
587.201679	2553.344423
587.554428	2563.426731
587.907124	2460.083077
588.259765	2409.671538
588.612352	2497.891731
588.964884	2530.659231
589.317362	2515.535769
589.669786	2505.453462
590.022155	2515.535769
590.374470	2492.850577
590.726731	2490.330000
591.078937	2558.385577
591.431090	2502.932885
591.783188	2543.262115
592.135232	2450.000769
592.487222	2490.330000
592.839157	2563.426731
593.191038	2465.124231
593.542866	2510.494615
593.894639	2505.453462
594.246358	2540.741538
594.598022	2485.288846
594.949633	2477.727115
595.301190	2485.288846
595.652692	2502.932885
596.004141	2475.206538
596.355535	2492.850577
596.706876	2538.220962
597.058162	2402.109808
597.409395	2444.959615
597.760573	2442.439038
598.111698	2500.412308
598.462768	2472.685962
598.813785	2535.700385
599.164748	2457.562500
599.515657	2525.618077
599.866511	2570.988462
600.217312	2475.206538
600.568060	2447.480192
600.918753	2573.509038
601.269392	2437.397885
601.619978	2591.153077
601.970510	2502.932885
602.320988	2502.932885
602.671412	2576.029615
603.021783	2502.932885
603.372100	2560.906154
603.722363	2455.041923
604.072572	2470.165385
604.422728	2523.097500
604.772830	2520.576923
605.122878	2450.000769
605.472872	2523.097500
605.822813	2525.618077
606.172701	2490.330000
606.522534	2470.165385
606.872314	2500.412308
607.222041	2550.823846
607.571714	2432.356731
607.921333	2485.288846
608.270899	2495.371154
608.620411	2485.288846
608.969870	2515.535769
609.319276	2480.247692
609.668627	2457.562500
610.017926	2432.356731
610.367171	2543.262115
610.716362	2467.644808
611.065500	2465.124231
611.414585	2548.303269
611.763616	2576.029615
612.112594	2475.206538
612.461518	2502.932885
612.810389	2528.138654
613.159207	2447.480192
613.507971	2563.426731
613.856682	2487.809423
614.205340	2515.535769
614.553945	2482.768269
614.902496	2507.974038
615.250994	2455.041923
615.599439	2543.262115
615.947830	2533.179808
616.296169	2490.330000
616.644454	2518.056346
616.992686	2472.685962
617.340864	2525.618077
617.688990	2490.330000
618.037063	2525.618077
618.385082	2437.397885
618.733048	2500.412308
619.080961	2472.685962
619.428821	2485.288846
619.776628	2467.644808
620.124382	2482.768269
620.472083	2424.795000
620.819731	2475.206538
621.167326	2477.727115
621.514868	2477.727115
621.862357	2424.795000
622.209793	2538.220962
622.557176	2608.797115
622.904506	2588.632500
623.251783	2507.974038
623.599007	2442.439038
623.946179	2472.685962
624.293297	2492.850577
624.640363	2457.562500
624.987376	2442.439038
625.334336	2470.165385
625.681243	2470.165385
626.028097	2485.288846
626.374899	2507.974038
626.721647	2419.753846
627.068343	2545.782692
627.414987	2520.576923
627.761577	2538.220962
628.108115	2457.562500
628.454600	2495.371154
628.801032	2492.850577
629.147412	2485.288846
629.493739	2538.220962
629.840014	2538.220962
630.186236	2558.385577
630.532405	2424.795000
630.878521	2528.138654
631.224585	2422.274423
631.570597	2502.932885
631.916556	2513.015192
632.262462	2412.192115
632.608316	2487.809423
632.954117	2535.700385
633.299866	2631.482308
633.645562	2450.000769
633.991206	2510.494615
634.336797	2548.303269
634.682336	2497.891731
635.027823	2560.906154
635.373257	2429.836154
635.718639	2475.206538
636.063968	2492.850577
636.409245	2502.932885
636.754470	2505.453462
637.099642	2404.630385
637.444762	2533.179808
637.789829	2485.288846
638.134845	2555.865000
638.479808	2558.385577
638.824719	2482.768269
639.169577	2550.823846
639.514383	2442.439038
639.859137	2467.644808
640.203839	2533.179808
640.548489	2500.412308
640.893086	2485.288846
641.237632	2500.412308
641.582125	2482.768269
641.926566	2570.988462
642.270955	2490.330000
642.615292	2548.303269
642.959576	2450.000769
643.303809	2485.288846
643.647990	2535.700385
643.992118	2444.959615
644.336195	2538.220962
644.680219	2570.988462
645.024192	2518.056346
645.368112	2477.727115
645.711981	2507.974038
646.055797	2472.685962
646.399562	2460.083077
646.743274	2432.356731
647.086935	2573.509038
647.430544	2392.027500
647.774101	2394.548077
648.117606	2475.206538
648.461059	2505.453462
648.804460	2505.453462
649.147810	2485.288846
649.491108	2462.603654
649.834354	2578.550192
650.177548	2492.850577
650.520690	2558.385577
650.863781	2482.768269
651.206820	2505.453462
651.549807	2482.768269
651.892742	2495.371154
652.235626	2533.179808
652.578458	2465.124231
652.921238	2507.974038
653.263967	2460.083077
653.606644	2513.015192
653.949269	2530.659231
654.291843	2442.439038
654.634365	2507.974038
654.976836	2495.371154
655.319255	2450.000769
655.661622	2510.494615
656.003938	2460.083077
656.346203	2497.891731
656.688416	2467.644808
657.030577	2550.823846
657.372687	2455.041923
657.714746	2480.247692
658.056753	2452.521346
658.398708	2462.603654
658.740612	2450.000769
659.082465	2492.850577
659.424266	2490.330000
659.766016	2470.165385
660.107715	2500.412308
660.449362	2374.383462
660.790958	2555.865000
661.132503	2470.165385
661.473996	2550.823846
661.815438	2444.959615
662.156829	2593.673654
662.498168	2523.097500
662.839456	2465.124231
663.180693	2560.906154
663.521879	2523.097500
663.863013	2540.741538
664.204097	2460.083077
664.545129	2538.220962
664.886110	2495.371154
665.227040	2470.165385
665.567918	2555.865000
665.908746	2530.659231
666.249522	2477.727115
666.590248	2528.138654
666.930922	2565.947308
667.271545	2487.809423
667.612118	2475.206538
667.952639	2492.850577
668.293109	2422.274423
668.633528	2417.233269
668.973896	2533.179808
669.314213	2538.220962
669.654480	2465.124231
669.994695	2434.877308
670.334859	2497.891731
670.674973	2444.959615
671.015035	2558.385577
671.355047	2482.768269
671.695008	2507.974038
672.034918	2442.439038
672.374777	2422.274423
672.714585	2447.480192
673.054342	2485.288846
673.394049	2573.509038
673.733705	2470.165385
674.073310	2485.288846
674.412864	2462.603654
674.752368	2518.056346
675.091820	2414.712692
675.431223	2560.906154
675.770574	2432.356731
676.109875	2485.288846
676.449125	2437.397885
676.788324	2492.850577
677.127473	2525.618077
677.466571	2550.823846
677.805619	2447.480192
678.144616	2457.562500
678.483562	2465.124231
678.822458	2492.850577
679.161303	2505.453462
679.500098	2573.509038
679.838842	2528.138654
680.177535	2457.562500
680.516179	2530.659231
680.854771	2497.891731
681.193314	2550.823846
681.531805	2427.315577
681.870247	2538.220962
682.208638	2570.988462
682.546978	2518.056346
682.885268	2505.453462
683.223508	2472.685962
683.561697	2497.891731
683.899836	2550.823846
684.237925	2598.714808
684.575963	2457.562500
684.913951	2510.494615
685.251889	2583.591346
685.589776	2505.453462
685.927614	2583.591346
686.265401	2502.932885
686.603137	2475.206538
686.940824	2429.836154
687.278460	2462.603654
687.616046	2465.124231
687.953582	2545.782692
688.291068	2477.727115
688.628504	2480.247692
688.965889	2540.741538
689.303224	2538.220962
689.640510	2518.056346
689.977745	2487.809423
690.314930	2515.535769
690.652065	2485.288846
690.989150	2427.315577
691.326185	2533.179808
691.663170	2492.850577
692.000105	2538.220962
692.336990	2548.303269
692.673825	2462.603654
693.010610	2515.535769
693.347345	2424.795000
693.684030	2548.303269
694.020665	2518.056346
694.357251	2576.029615
694.693786	2427.315577
695.030272	2467.644808
695.366707	2412.192115
695.703093	2502.932885
696.039429	2563.426731
696.375716	2452.521346
696.711952	2437.397885
697.048139	2460.083077
697.384276	2490.330000
697.720363	2525.618077
698.056400	2475.206538
698.392388	2548.303269
698.728326	2409.671538
699.064214	2520.576923
699.400053	2518.056346
699.735842	2603.755962
700.071581	2497.891731
700.407270	2505.453462
700.742910	2394.548077
701.078501	2593.673654
701.414042	2475.206538
701.749533	2618.879423
702.084974	2457.562500
702.420366	2558.385577
702.755709	2550.823846
703.091002	2492.850577
703.426246	2472.685962
703.761440	2518.056346
704.096584	2472.685962
704.431679	2545.782692
704.766725	2565.947308
705.101721	2394.548077
705.436668	2432.356731
705.771565	2460.083077
706.106413	2482.768269
706.441212	2492.850577
706.775961	2598.714808
707.110661	2465.124231
707.445311	2470.165385
707.779913	2465.124231
708.114465	2530.659231
708.448967	2462.603654
708.783421	2437.397885
709.117825	2475.206538
709.452180	2513.015192
709.786485	2485.288846
710.120742	2500.412308
710.454949	2492.850577
710.789107	2563.426731
711.123216	2510.494615
711.457275	2487.809423
711.791286	2540.741538
712.125247	2545.782692
712.459159	2500.412308
712.793023	2500.412308
713.126837	2492.850577
713.460602	2591.153077
713.794318	2477.727115
714.127985	2560.906154
714.461602	2510.494615
714.795171	2465.124231
715.128691	2535.700385
715.462162	2513.015192
715.795584	2535.700385
716.128957	2455.041923
716.462281	2523.097500
716.795556	2497.891731
717.128782	2475.206538
717.461960	2573.509038
717.795088	2407.150962
718.128167	2490.330000
718.461198	2457.562500
718.794180	2523.097500
719.127113	2465.124231
719.459997	2513.015192
719.792833	2510.494615
720.125619	2518.056346
720.458357	2510.494615
720.791046	2467.644808
721.123686	2510.494615
721.456278	2545.782692
721.788821	2437.397885
722.121315	2535.700385
722.453761	2543.262115
722.786158	2475.206538
723.118506	2487.809423
723.450805	2457.562500
723.783056	2467.644808
724.115259	2444.959615
724.447412	2538.220962
724.779518	2477.727115
725.111574	2487.809423
725.443582	2553.344423
725.775542	2553.344423
726.107453	2442.439038
726.439315	2533.179808
726.771129	2502.932885
727.102895	2555.865000
727.434612	2515.535769
727.766281	2495.371154
728.097901	2450.000769
728.429473	2409.671538
728.760996	2452.521346
729.092471	2588.632500
729.423897	2523.097500
729.755276	2520.576923
730.086606	2495.371154
730.417887	2515.535769
730.749120	2472.685962
731.080305	2525.618077
731.411442	2505.453462
731.742530	2528.138654
732.073570	2467.644808
732.404562	2505.453462
732.735506	2543.262115
733.066401	2452.521346
733.397249	2533.179808
733.728048	2447.480192
734.058798	2467.644808
734.389501	2450.000769
734.720156	2490.330000
735.050762	2409.671538
735.381320	2502.932885
735.711831	2502.932885
736.042293	2520.576923
736.372707	2470.165385
736.703073	2485.288846
737.033391	2475.206538
737.363661	2394.548077
737.693883	2460.083077
738.024056	2444.959615
738.354182	2548.303269
738.684260	2618.879423
739.014290	2513.015192
739.344272	2505.453462
739.674207	2457.562500
740.004093	2502.932885
740.333931	2472.685962
740.663722	2530.659231
740.993464	2462.603654
741.323159	2492.850577
741.652806	2495.371154
741.982405	2520.576923
742.311956	2570.988462
742.641460	2495.371154
742.970915	2535.700385
743.300323	2497.891731
743.629683	2475.206538
743.958996	2540.741538
744.288260	2472.685962
744.617477	2543.262115
744.946647	2593.673654
745.275768	2437.397885
745.604842	2495.371154
745.933869	2631.482308
746.262847	2560.906154
746.591778	2515.535769
746.920662	2518.056346
747.249498	2538.220962
747.578286	2500.412308
747.907027	2560.906154
748.235720	2397.068654
748.564365	2467.644808
748.892963	2502.932885
749.221514	2485.288846
749.550017	2465.124231
749.878473	2528.138654
750.206881	2502.932885
750.535242	2520.576923
750.863555	2467.644808
751.191821	2543.262115
751.520039	2492.850577
751.848210	2581.070769
752.176334	2414.712692
752.504411	2442.439038
752.832440	2520.576923
753.160421	2485.288846
753.488356	2450.000769
753.816243	2497.891731
754.144082	2500.412308
754.471875	2490.330000
754.799620	2482.768269
755.127318	2490.330000
755.454969	2528.138654
755.782572	2520.576923
756.110129	2475.206538
756.437638	2505.453462
756.765100	2535.700385
757.092515	2573.509038
757.419882	2520.576923
757.747203	2533.179808
758.074477	2477.727115
758.401703	2518.056346
758.728882	2495.371154
759.056014	2550.823846
759.383099	2480.247692
759.710138	2477.727115
760.037129	2447.480192
760.364073	2457.562500
760.690970	2515.535769
761.017820	2510.494615
761.344623	2533.179808
761.671379	2457.562500
761.998088	2513.015192
762.324751	2467.644808
762.651366	2520.576923
762.977935	2485.288846
763.304456	2533.179808
763.630931	2424.795000
763.957359	2513.015192
764.283740	2480.247692
764.610074	2472.685962
764.936362	2510.494615
765.262602	2482.768269
765.588796	2500.412308
765.914943	2480.247692
766.241044	2530.659231
766.567097	2480.247692
766.893104	2636.523462
767.219064	2500.412308
767.544978	2591.153077
767.870845	2495.371154
768.196665	2439.918462
768.522438	2533.179808
768.848165	2616.358846
769.173846	2465.124231
769.499479	2452.521346
769.825066	2439.918462
770.150607	2460.083077
770.476101	2472.685962
770.801548	2462.603654
771.126949	2591.153077
771.452303	2576.029615
771.777611	2570.988462
772.102872	2525.618077
772.428087	2424.795000
772.753256	2545.782692
773.078378	2497.891731
773.403453	2485.288846
773.728482	2477.727115
774.053465	2462.603654
774.378401	2497.891731
774.703291	2437.397885
775.028135	2427.315577
775.352932	2407.150962
775.677683	2505.453462
776.002388	2528.138654
776.327046	2513.015192
776.651658	2558.385577
776.976224	2472.685962
777.300743	2492.850577
777.625216	2467.644808
777.949643	2545.782692
778.274024	2467.644808
778.598359	2510.494615
778.922647	2576.029615
779.246889	2442.439038
779.571086	2407.150962
779.895236	2482.768269
780.219339	2555.865000
780.543397	2467.644808
780.867409	2535.700385
781.191374	2452.521346
781.515294	2505.453462
781.839167	2417.233269
782.162995	2533.179808
782.486776	2477.727115
782.810511	2475.206538
783.134201	2568.467885
783.457844	2472.685962
783.781441	2505.453462
784.104993	2513.015192
784.428498	2487.809423
784.751958	2467.644808
785.075372	2520.576923
785.398739	2513.015192
785.722061	2550.823846
786.045337	2558.385577
786.368568	2513.015192
786.691752	2520.576923
787.014891	2570.988462
787.337983	2470.165385
787.661030	2548.303269
787.984031	2439.918462
788.306987	2570.988462
788.629897	2455.041923
788.952760	2495.371154
789.275579	2528.138654
789.598351	2576.029615
789.921078	2606.276538
790.243759	2553.344423
790.566395	2452.521346
790.888984	2447.480192
791.211529	2543.262115
791.534027	2543.262115
791.856480	2495.371154
792.178888	2485.288846
792.501249	2533.179808
792.823566	2450.000769
793.145836	2510.494615
793.468062	2417.233269
793.790241	2497.891731
794.112375	2450.000769
794.434464	2535.700385
794.756507	2460.083077
795.078505	2548.303269
795.400457	2497.891731
795.722364	2525.618077
796.044226	2412.192115
796.366042	2510.494615
796.687812	2467.644808
797.009538	2518.056346
797.331218	2593.673654
797.652852	2500.412308
797.974442	2434.877308
798.295986	2417.233269
798.617484	2518.056346
798.938938	2444.959615
799.260346	2530.659231
799.581709	2457.562500
799.903026	2482.768269
800.224299	2482.768269
800.545526	2523.097500
800.866708	2550.823846
801.187845	2477.727115
801.508936	2495.371154
801.829983	2409.671538
802.150984	2510.494615
802.471940	2505.453462
802.792851	2502.932885
803.113717	2472.685962
803.434538	2429.836154
803.755314	2475.206538
804.076045	2533.179808
804.396731	2475.206538
804.717372	2500.412308
805.037967	2485.288846
805.358518	2513.015192
805.679024	2560.906154
805.999485	2447.480192
806.319901	2490.330000
806.640272	2487.809423
806.960598	2520.576923
807.280879	2475.206538
807.601115	2543.262115
807.921306	2525.618077
808.241453	2442.439038
808.561554	2450.000769
808.881611	2467.644808
809.201623	2540.741538
809.521590	2397.068654
809.841513	2555.865000
810.161390	2515.535769
810.481223	2502.932885
810.801011	2450.000769
811.120755	2497.891731
811.440453	2442.439038
811.760107	2533.179808
812.079716	2450.000769
812.399281	2460.083077
812.718801	2457.562500
813.038276	2465.124231
813.357707	2495.371154
813.677093	2460.083077
813.996434	2591.153077
814.315731	2513.015192
814.634983	2422.274423
814.954191	2513.015192
815.273354	2510.494615
815.592473	2515.535769
815.911547	2525.618077
816.230577	2404.630385
816.549562	2470.165385
816.868502	2485.288846
817.187399	2482.768269
817.506250	2452.521346
817.825058	2432.356731
818.143821	2535.700385
818.462539	2467.644808
818.781213	2485.288846
819.099843	2540.741538
819.418429	2505.453462
819.736970	2492.850577
820.055466	2613.838269
820.373919	2482.768269
820.692327	2500.412308
821.010691	2543.262115
821.329011	2490.330000
821.647286	2394.548077
821.965517	2465.124231
822.283704	2444.959615
822.601847	2540.741538
822.919945	2480.247692
823.237999	2553.344423
823.556010	2553.344423
823.873976	2497.891731
824.191897	2470.165385
824.509775	2505.453462
824.827609	2480.247692
825.145398	2470.165385
825.463144	2442.439038
825.780845	2470.165385
826.098502	2523.097500
826.416116	2505.453462
826.733685	2530.659231
827.051210	2545.782692
827.368692	2429.836154
827.686129	2465.124231
828.003522	2457.562500
828.320872	2465.124231
828.638177	2472.685962
828.955439	2460.083077
829.272656	2462.603654
829.589830	2442.439038
829.906960	2472.685962
830.224046	2450.000769
830.541088	2535.700385
830.858086	2560.906154
831.175041	2465.124231
831.491952	2560.906154
831.808819	2530.659231
832.125642	2497.891731
832.442421	2450.000769
832.759157	2528.138654
833.075849	2515.535769
833.392497	2389.506923
833.709101	2528.138654
834.025662	2419.753846
834.342179	2422.274423
834.658653	2462.603654
834.975083	2555.865000
835.291469	2502.932885
835.607811	2470.165385
835.924110	2490.330000
836.240366	2439.918462
836.556578	2447.480192
836.872746	2434.877308
837.188871	2475.206538
837.504952	2470.165385
837.820990	2545.782692
838.136984	2422.274423
838.452935	2472.685962
838.768842	2417.233269
839.084706	2485.288846
839.400526	2538.220962
839.716303	2460.083077
840.032037	2475.206538
840.347727	2487.809423
840.663373	2397.068654
840.978977	2502.932885
841.294537	2505.453462
841.610054	2502.932885
841.925527	2442.439038
842.240957	2477.727115
842.556344	2444.959615
842.871687	2523.097500
843.186987	2465.124231
843.502244	2560.906154
843.817458	2462.603654
844.132629	2462.603654
844.447756	2530.659231
844.762840	2497.891731
845.077881	2429.836154
845.392879	2515.535769
845.707833	2565.947308
846.022745	2480.247692
846.337613	2543.262115
846.652438	2480.247692
846.967221	2467.644808
847.281960	2477.727115
847.596656	2550.823846
847.911309	2470.165385
848.225919	2444.959615
848.540485	2482.768269
848.855009	2568.467885
849.169490	2475.206538
849.483928	2470.165385
849.798323	2588.632500
850.112675	2505.453462
850.426984	2492.850577
850.741251	2417.233269
851.055474	2399.589231
851.369654	2487.809423
851.683792	2472.685962
851.997887	2515.535769
852.311938	2482.768269
852.625947	2414.712692
852.939914	2528.138654
853.253837	2540.741538
853.567718	2452.521346
853.881555	2490.330000
854.195350	2543.262115
854.509103	2467.644808
854.822812	2530.659231
855.136479	2444.959615
855.450103	2555.865000
855.763685	2570.988462
856.077224	2487.809423
856.390720	2495.371154
856.704173	2457.562500
857.017584	2548.303269
857.330953	2565.947308
857.644278	2507.974038
857.957561	2381.945192
858.270802	2573.509038
858.584000	2623.920577
858.897155	2462.603654
859.210268	2502.932885
859.523339	2500.412308
859.836367	2495.371154
860.149352	2586.111923
860.462295	2480.247692
860.775195	2419.753846
861.088054	2505.453462
861.400869	2472.685962
861.713642	2487.809423
862.026373	2450.000769
862.339062	2485.288846
862.651708	2507.974038
862.964312	2555.865000
863.276873	2467.644808
863.589392	2480.247692
863.901869	2437.397885
864.214303	2447.480192
864.526696	2487.809423
864.839045	2482.768269
865.151353	2500.412308
865.463619	2502.932885
865.775842	2427.315577
866.088023	2467.644808
866.400162	2434.877308
866.712258	2460.083077
867.024313	2460.083077
867.336325	2497.891731
867.648296	2482.768269
867.960224	2608.797115
868.272110	2465.124231
868.583954	2601.235385
868.895755	2543.262115
869.207515	2490.330000
869.519233	2417.233269
869.830909	2482.768269
870.142542	2485.288846
870.454134	2510.494615
870.765684	2525.618077
871.077191	2487.809423
871.388657	2510.494615
871.700081	2482.768269
872.011463	2520.576923
872.322803	2482.768269
872.634101	2543.262115
872.945357	2520.576923
873.256571	2540.741538
873.567744	2500.412308
873.878874	2520.576923
874.189963	2475.206538
874.501010	2444.959615
874.812015	2530.659231
875.122979	2485.288846
875.433900	2495.371154
875.744780	2492.850577
876.055618	2412.192115
876.366415	2530.659231
876.677169	2457.562500
876.987882	2492.850577
877.298554	2490.330000
877.609183	2500.412308
877.919771	2505.453462
878.230317	2598.714808
878.540822	2409.671538
878.851285	2510.494615
879.161707	2444.959615
879.472087	2518.056346
879.782425	2457.562500
880.092722	2576.029615
880.402977	2434.877308
880.713191	2477.727115
881.023363	2432.356731
881.333494	2492.850577
881.643583	2447.480192
881.953631	2538.220962
882.263637	2437.397885
882.573602	2555.865000
882.883526	2429.836154
883.193408	2533.179808
883.503248	2482.768269
883.813048	2538.220962
884.122806	2518.056346
884.432522	2480.247692
884.742197	2490.330000
885.051831	2480.247692
885.361424	2538.220962
885.670975	2502.932885
885.980485	2555.865000
886.289954	2409.671538
886.599382	2500.412308
886.908768	2487.809423
887.218113	2495.371154
887.527417	2578.550192
887.836680	2581.070769
888.145901	2520.576923
888.455082	2457.562500
888.764221	2533.179808
889.073319	2472.685962
889.382376	2465.124231
889.691392	2470.165385
890.000366	2502.932885
890.309300	2540.741538
890.618193	2480.247692
890.927044	2563.426731
891.235855	2555.865000
891.544625	2419.753846
891.853353	2490.330000
892.162041	2460.083077
892.470687	2485.288846
892.779293	2452.521346
893.087858	2490.330000
893.396381	2414.712692
893.704864	2505.453462
894.013306	2502.932885
894.321707	2480.247692
894.630068	2500.412308
894.938387	2543.262115
895.246665	2518.056346
895.554903	2485.288846
895.863100	2475.206538
896.171256	2505.453462
896.479371	2475.206538
896.787446	2467.644808
897.095480	2533.179808
897.403473	2558.385577
897.711425	2507.974038
898.019336	2502.932885
898.327207	2497.891731
898.635038	2444.959615
898.942827	2422.274423
899.250576	2513.015192
899.558284	2495.371154
899.865952	2507.974038
900.173579	2497.891731
900.481165	2500.412308
900.788711	2465.124231
901.096216	2462.603654
901.403681	2472.685962
901.711105	2538.220962
902.018489	2470.165385
902.325832	2563.426731
902.633135	2500.412308
902.940397	2485.288846
903.247619	2497.891731
903.554800	2475.206538
903.861941	2450.000769
904.169041	2505.453462
904.476101	2528.138654
904.783121	2457.562500
905.090100	2497.891731
905.397039	2424.795000
905.703938	2457.562500
906.010796	2513.015192
906.317614	2427.315577
906.624391	2523.097500
906.931129	2462.603654
907.237826	2553.344423
907.544483	2465.124231
907.851099	2462.603654
908.157675	2444.959615
908.464211	2565.947308
908.770707	2485.288846
909.077163	2427.315577
909.383578	2530.659231
909.689954	2502.932885
909.996289	2563.426731
910.302584	2452.521346
910.608839	2563.426731
910.915054	2525.618077
911.221229	2565.947308
911.527363	2570.988462
911.833458	2444.959615
912.139513	2414.712692
912.445527	2467.644808
912.751502	2513.015192
913.057436	2475.206538
913.363331	2533.179808
913.669186	2376.904038
913.975000	2492.850577
914.280775	2490.330000
914.586510	2457.562500
914.892205	2480.247692
915.197859	2487.809423
915.503475	2510.494615
915.809050	2394.548077
916.114585	2472.685962
916.420081	2450.000769
916.725536	2513.015192
917.030952	2495.371154
917.336328	2447.480192
917.641665	2480.247692
917.946961	2490.330000
918.252218	2495.371154
918.557435	2417.233269
918.862612	2497.891731
919.167750	2419.753846
919.472848	2591.153077
919.777906	2528.138654
920.082925	2422.274423
920.387904	2513.015192
920.692843	2510.494615
920.997743	2475.206538
921.302603	2578.550192
921.607423	2495.371154
921.912204	2480.247692
922.216946	2480.247692
922.521647	2422.274423
922.826310	2472.685962
923.130932	2507.974038
923.435516	2450.000769
923.740059	2470.165385
924.044564	2480.247692
924.349028	2485.288846
924.653454	2442.439038
924.957840	2525.618077
925.262186	2520.576923
925.566493	2419.753846
925.870761	2452.521346
926.174989	2429.836154
926.479178	2558.385577
926.783328	2495.371154
927.087438	2495.371154
927.391509	2460.083077
927.695541	2530.659231
927.999533	2452.521346
928.303486	2422.274423
928.607400	2462.603654
928.911275	2500.412308
929.215110	2490.330000
929.518906	2455.041923
929.822663	2450.000769
930.126381	2505.453462
930.430060	2455.041923
930.733699	2530.659231
931.037299	2452.521346
931.340861	2515.535769
931.644383	2482.768269
931.947866	2432.356731
932.251309	2555.865000
932.554714	2450.000769
932.858080	2487.809423
933.161407	2540.741538
933.464694	2611.317692
933.767943	2482.768269
934.071153	2500.412308
934.374323	2472.685962
934.677455	2480.247692
934.980548	2525.618077
935.283602	2475.206538
935.586617	2505.453462
935.889593	2485.288846
936.192530	2581.070769
936.495428	2437.397885
936.798287	2563.426731
937.101108	2397.068654
937.403890	2497.891731
937.706632	2470.165385
938.009336	2437.397885
938.312002	2465.124231
938.614628	2477.727115
938.917216	2487.809423
939.219765	2444.959615
939.522275	2462.603654
939.824747	2462.603654
940.127179	2467.644808
940.429573	2462.603654
940.731929	2417.233269
941.034246	2515.535769
941.336524	2485.288846
941.638763	2412.192115
941.940964	2429.836154
942.243126	2462.603654
942.545250	2497.891731
942.847335	2513.015192
943.149381	2555.865000
943.451389	2460.083077
943.753359	2510.494615
944.055290	2487.809423
944.357182	2515.535769
944.659036	2467.644808
944.960851	2424.795000
945.262628	2540.741538
945.564367	2538.220962
945.866067	2497.891731
946.167729	2442.439038
946.469352	2533.179808
946.770937	2505.453462
947.072484	2487.809423
947.373992	2452.521346
947.675462	2505.453462
947.976893	2480.247692
948.278286	2533.179808
948.579641	2462.603654
948.880958	2470.165385
949.182236	2482.768269
949.483476	2465.124231
949.784678	2480.247692
950.085841	2470.165385
950.386967	2515.535769
950.688054	2576.029615
950.989103	2533.179808
951.290114	2540.741538
951.591087	2444.959615
951.892021	2472.685962
952.192917	2447.480192
952.493776	2525.618077
952.794596	2485.288846
953.095378	2502.932885
953.396122	2505.453462
953.696828	2523.097500
953.997496	2437.397885
954.298126	2437.397885
954.598718	2480.247692
954.899272	2477.727115
955.199788	2450.000769
955.500266	2386.986346
955.800706	2497.891731
956.101108	2560.906154
956.401472	2397.068654
956.701798	2555.865000
957.002087	2578.550192
957.302337	2462.603654
957.602550	2535.700385
957.902724	2573.509038
958.202861	2497.891731
958.502960	2467.644808
958.803022	2500.412308
959.103045	2487.809423
959.403031	2460.083077
959.702979	2482.768269
960.002889	2487.809423
960.302762	2419.753846
960.602596	2513.015192
960.902393	2444.959615
961.202153	2505.453462
961.501875	2538.220962
961.801559	2601.235385
962.101205	2439.918462
962.400814	2507.974038
962.700385	2457.562500
962.999918	2528.138654
963.299414	2465.124231
963.598873	2520.576923
963.898293	2513.015192
964.197677	2507.974038
964.497022	2482.768269
964.796331	2502.932885
965.095601	2475.206538
965.394835	2545.782692
965.694030	2518.056346
965.993189	2510.494615
966.292309	2515.535769
966.591393	2397.068654
966.890439	2467.644808
967.189447	2437.397885
967.488419	2434.877308
967.787353	2482.768269
968.086249	2472.685962
968.385108	2492.850577
968.683930	2482.768269
968.982714	2477.727115
969.281462	2429.836154
969.580172	2429.836154
969.878844	2545.782692
970.177480	2450.000769
970.476078	2472.685962
970.774639	2515.535769
971.073162	2434.877308
971.371649	2417.233269
971.670098	2485.288846
971.968510	2490.330000
972.266885	2452.521346
972.565223	2472.685962
972.863524	2467.644808
973.161788	2558.385577
973.460014	2369.342308
973.758204	2424.795000
974.056356	2475.206538
974.354471	2502.932885
974.652550	2513.015192
974.950591	2510.494615
975.248595	2427.315577
975.546563	2482.768269
975.844493	2505.453462
976.142386	2424.795000
976.440243	2505.453462
976.738062	2457.562500
977.035845	2475.206538
977.333590	2497.891731
977.631299	2523.097500
977.928971	2402.109808
978.226606	2558.385577
978.524204	2472.685962
978.821765	2472.685962
979.119290	2399.589231
979.416777	2500.412308
979.714228	2482.768269
980.011642	2434.877308
980.309020	2475.206538
980.606360	2475.206538
980.903664	2404.630385
981.200931	2409.671538
981.498162	2482.768269
981.795356	2482.768269
982.092513	2507.974038
982.389633	2452.521346
982.686717	2515.535769
982.983764	2460.083077
983.280775	2535.700385
983.577749	2467.644808
983.874686	2424.795000
984.171587	2442.439038
984.468451	2520.576923
984.765279	2578.550192
985.062070	2538.220962
985.358824	2487.809423
985.655543	2439.918462
985.952224	2394.548077
986.248869	2437.397885
986.545478	2412.192115
986.842050	2432.356731
987.138586	2520.576923
987.435086	2427.315577
987.731549	2452.521346
988.027975	2540.741538
988.324366	2460.083077
988.620719	2460.083077
988.917037	2487.809423
989.213318	2500.412308
989.509563	2439.918462
989.805772	2409.671538
990.101944	2485.288846
990.398080	2482.768269
990.694180	2560.906154
990.990244	2470.165385
991.286271	2515.535769
991.582262	2482.768269
991.878217	2419.753846
992.174136	2560.906154
992.470019	2424.795000
992.765865	2528.138654
993.061676	2444.959615
993.357450	2520.576923
993.653188	2490.330000
993.948890	2492.850577
994.244556	2467.644808
994.540186	2507.974038
994.835780	2480.247692
995.131337	2465.124231
995.426859	2470.165385
995.722345	2518.056346
996.017795	2457.562500
996.313208	2500.412308
996.608586	2492.850577
996.903928	2545.782692
997.199234	2417.233269
997.494504	2533.179808
997.789738	2490.330000
998.084936	2414.712692
998.380099	2507.974038
998.675225	2442.439038
998.970316	2500.412308
999.265371	2540.741538
999.560390	2422.274423
999.855373	2502.932885
1000.150320	2510.494615
1000.445232	2520.576923
1000.740108	2500.412308
1001.034948	2450.000769
1001.329752	2535.700385
1001.624521	2525.618077
1001.919254	2530.659231
1002.213951	2379.424615
1002.508613	2475.206538
1002.803239	2437.397885
1003.097829	2452.521346
1003.392384	2505.453462
1003.686903	2429.836154
1003.981386	2497.891731
1004.275834	2432.356731
1004.570246	2485.288846
1004.864623	2573.509038
1005.158964	2404.630385
1005.453270	2452.521346
1005.747540	2399.589231
1006.041775	2538.220962
1006.335974	2455.041923
1006.630138	2507.974038
1006.924266	2424.795000
1007.218359	2535.700385
1007.512416	2588.632500
1007.806438	2492.850577
1008.100425	2442.439038
1008.394376	2477.727115
1008.688292	2442.439038
1008.982172	2487.809423
1009.276017	2389.506923
1009.569827	2475.206538
1009.863602	2427.315577
1010.157341	2601.235385
1010.451045	2502.932885
1010.744714	2601.235385
1011.038347	2543.262115
1011.331945	2472.685962
1011.625508	2480.247692
1011.919036	2480.247692
1012.212528	2455.041923
1012.505986	2444.959615
1012.799408	2490.330000
1013.092795	2470.165385
1013.386147	2434.877308
1013.679464	2487.809423
1013.972745	2507.974038
1014.265992	2530.659231
1014.559204	2500.412308
1014.852380	2427.315577
1015.145521	2447.480192
1015.438628	2472.685962
1015.731699	2480.247692
1016.024736	2510.494615
1016.317737	2457.562500
1016.610703	2497.891731
1016.903635	2419.753846
1017.196531	2530.659231
1017.489393	2475.206538
1017.782219	2447.480192
1018.075011	2507.974038
1018.367768	2485.288846
1018.660490	2470.165385
1018.953177	2470.165385
1019.245829	2470.165385
