Dividing Wavelength (nm)	Counts (n)	Blue Motor Position (mm): 5.400000	Red Motor Position (mm): 0.000000	
326.493990	2225.669423
326.888308	2225.669423
327.282561	2225.669423
327.676750	2069.393654
328.070874	2011.420385
328.464933	2024.023269
328.858929	2124.846346
329.252859	2069.393654
329.646726	2056.790769
330.040528	2069.393654
330.434265	2104.681731
330.827938	2084.517115
331.221547	2142.490385
331.615091	2152.572692
332.008571	2142.490385
332.401986	2240.792885
332.795338	2190.381346
333.188625	2220.628269
333.581847	2296.245577
333.975006	2250.875192
334.368100	2293.725000
334.761129	2278.601538
335.154095	2268.519231
335.546996	2306.327885
335.939833	2419.753846
336.332606	2361.780577
336.725315	2374.383462
337.117960	2354.218846
337.510540	2361.780577
337.903056	2419.753846
338.295508	2460.083077
338.687896	2472.685962
339.080220	2412.192115
339.472480	2460.083077
339.864676	2550.823846
340.256807	2475.206538
340.648875	2434.877308
341.040879	2429.836154
341.432818	2490.330000
341.824694	2520.576923
342.216506	2442.439038
342.608253	2427.315577
342.999937	2500.412308
343.391557	2500.412308
343.783113	2404.630385
344.174605	2394.548077
344.566033	2437.397885
344.957397	2475.206538
345.348697	2505.453462
345.739934	2563.426731
346.131106	2477.727115
346.522215	2482.768269
346.913260	2412.192115
347.304241	2467.644808
347.695159	2394.548077
348.086012	2427.315577
348.476802	2525.618077
348.867528	2399.589231
349.258191	2361.780577
349.648789	2417.233269
350.039324	2482.768269
350.429796	2432.356731
350.820203	2434.877308
351.210548	2500.412308
351.600828	2437.397885
351.991045	2444.959615
352.381198	2465.124231
352.771288	2442.439038
353.161314	2409.671538
353.551276	2407.150962
353.941175	2397.068654
354.331010	2432.356731
354.720782	2475.206538
355.110490	2409.671538
355.500135	2376.904038
355.889717	2457.562500
356.279235	2429.836154
356.668689	2402.109808
357.058080	2444.959615
357.447408	2442.439038
357.836672	2472.685962
358.225873	2455.041923
358.615010	2465.124231
359.004084	2386.986346
359.393095	2525.618077
359.782043	2434.877308
360.170927	2422.274423
360.559748	2437.397885
360.948505	2422.274423
361.337199	2472.685962
361.725830	2462.603654
362.114398	2394.548077
362.502903	2412.192115
362.891344	2434.877308
363.279722	2364.301154
363.668037	2409.671538
364.056289	2462.603654
364.444478	2344.136538
364.832603	2437.397885
365.220665	2513.015192
365.608665	2495.371154
365.996601	2444.959615
366.384474	2457.562500
366.772284	2397.068654
367.160031	2510.494615
367.547715	2442.439038
367.935336	2457.562500
368.322893	2376.904038
368.710388	2502.932885
369.097820	2374.383462
369.485189	2399.589231
369.872495	2356.739423
370.259738	2452.521346
370.646918	2460.083077
371.034035	2427.315577
371.421090	2460.083077
371.808081	2487.809423
372.195010	2465.124231
372.581875	2450.000769
372.968678	2447.480192
373.355418	2439.918462
373.742096	2447.480192
374.128710	2447.480192
374.515262	2414.712692
374.901751	2462.603654
375.288177	2535.700385
375.674540	2462.603654
376.060841	2432.356731
376.447079	2427.315577
376.833254	2450.000769
377.219367	2397.068654
377.605417	2475.206538
377.991404	2429.836154
378.377329	2392.027500
378.763191	2510.494615
379.148991	2507.974038
379.534727	2427.315577
379.920402	2424.795000
380.306013	2399.589231
380.691563	2455.041923
381.077049	2467.644808
381.462474	2497.891731
381.847835	2482.768269
382.233134	2460.083077
382.618371	2437.397885
383.003545	2361.780577
383.388657	2472.685962
383.773706	2565.947308
384.158693	2460.083077
384.543618	2477.727115
384.928480	2525.618077
385.313280	2434.877308
385.698017	2442.439038
386.082692	2475.206538
386.467305	2417.233269
386.851856	2513.015192
387.236344	2492.850577
387.620770	2409.671538
388.005133	2533.179808
388.389435	2502.932885
388.773674	2470.165385
389.157851	2545.782692
389.541965	2485.288846
389.926018	2581.070769
390.310008	2470.165385
390.693936	2450.000769
391.077802	2366.821731
391.461606	2518.056346
391.845348	2424.795000
392.229027	2394.548077
392.612645	2495.371154
392.996200	2412.192115
393.379694	2477.727115
393.763125	2412.192115
394.146494	2513.015192
394.529801	2568.467885
394.913047	2485.288846
395.296230	2437.397885
395.679351	2419.753846
396.062410	2460.083077
396.445408	2518.056346
396.828343	2538.220962
397.211217	2467.644808
397.594028	2470.165385
397.976778	2429.836154
398.359466	2477.727115
398.742092	2482.768269
399.124656	2462.603654
399.507158	2540.741538
399.889598	2490.330000
400.271977	2502.932885
400.654294	2475.206538
401.036549	2515.535769
401.418742	2419.753846
401.800874	2465.124231
402.182944	2450.000769
402.564952	2467.644808
402.946898	2518.056346
403.328783	2480.247692
403.710606	2462.603654
404.092367	2450.000769
404.474067	2543.262115
404.855705	2427.315577
405.237282	2550.823846
405.618797	2500.412308
406.000250	2510.494615
406.381642	2450.000769
406.762972	2467.644808
407.144240	2444.959615
407.525447	2424.795000
407.906593	2409.671538
408.287677	2545.782692
408.668700	2427.315577
409.049661	2513.015192
409.430560	2543.262115
409.811399	2384.465769
410.192176	2507.974038
410.572891	2462.603654
410.953545	2480.247692
411.334138	2555.865000
411.714669	2477.727115
412.095139	2533.179808
412.475547	2500.412308
412.855894	2555.865000
413.236180	2523.097500
413.616405	2477.727115
413.996568	2475.206538
414.376670	2470.165385
414.756711	2437.397885
415.136691	2419.753846
415.516609	2452.521346
415.896466	2422.274423
416.276262	2480.247692
416.655997	2437.397885
417.035670	2455.041923
417.415283	2545.782692
417.794834	2510.494615
418.174324	2455.041923
418.553753	2502.932885
418.933121	2487.809423
419.312428	2392.027500
419.691674	2404.630385
420.070859	2533.179808
420.449983	2475.206538
420.829045	2523.097500
421.208047	2434.877308
421.586988	2457.562500
421.965867	2419.753846
422.344686	2447.480192
422.723444	2485.288846
423.102141	2457.562500
423.480777	2442.439038
423.859352	2424.795000
424.237866	2553.344423
424.616319	2497.891731
424.994712	2492.850577
425.373044	2439.918462
425.751314	2513.015192
426.129524	2369.342308
426.507673	2497.891731
426.885762	2500.412308
427.263789	2490.330000
427.641756	2439.918462
428.019662	2490.330000
428.397508	2392.027500
428.775292	2480.247692
429.153016	2450.000769
429.530679	2419.753846
429.908282	2444.959615
430.285824	2535.700385
430.663305	2384.465769
431.040726	2485.288846
431.418086	2429.836154
431.795385	2523.097500
432.172624	2467.644808
432.549802	2553.344423
432.926920	2482.768269
433.303977	2510.494615
433.680974	2485.288846
434.057910	2452.521346
434.434786	2475.206538
434.811601	2480.247692
435.188355	2515.535769
435.565050	2467.644808
435.941683	2490.330000
436.318257	2397.068654
436.694770	2535.700385
437.071222	2437.397885
437.447614	2507.974038
437.823946	2414.712692
438.200218	2593.673654
438.576429	2482.768269
438.952580	2472.685962
439.328670	2467.644808
439.704700	2533.179808
440.080670	2550.823846
440.456580	2444.959615
440.832429	2555.865000
441.208218	2447.480192
441.583947	2460.083077
441.959616	2510.494615
442.335224	2477.727115
442.710773	2432.356731
443.086261	2482.768269
443.461689	2540.741538
443.837057	2434.877308
444.212365	2427.315577
444.587612	2505.453462
444.962800	2465.124231
445.337927	2490.330000
445.712995	2447.480192
446.088002	2407.150962
446.462949	2442.439038
446.837837	2351.698269
447.212664	2520.576923
447.587431	2502.932885
447.962139	2507.974038
448.336786	2495.371154
448.711374	2535.700385
449.085901	2480.247692
449.460369	2500.412308
449.834776	2482.768269
450.209124	2482.768269
450.583412	2437.397885
450.957640	2485.288846
451.331808	2505.453462
451.705917	2510.494615
452.079965	2540.741538
452.453954	2472.685962
452.827883	2482.768269
453.201752	2507.974038
453.575562	2510.494615
453.949311	2475.206538
454.323001	2515.535769
454.696632	2444.959615
455.070202	2513.015192
455.443713	2540.741538
455.817164	2548.303269
456.190556	2513.015192
456.563888	2472.685962
456.937160	2570.988462
457.310373	2450.000769
457.683526	2523.097500
458.056619	2510.494615
458.429653	2495.371154
458.802628	2419.753846
459.175542	2550.823846
459.548398	2520.576923
459.921194	2460.083077
460.293930	2553.344423
460.666607	2470.165385
461.039224	2434.877308
461.411782	2500.412308
461.784280	2485.288846
462.156719	2429.836154
462.529099	2485.288846
462.901419	2462.603654
463.273680	2450.000769
463.645882	2502.932885
464.018024	2555.865000
464.390106	2497.891731
464.762130	2545.782692
465.134094	2530.659231
465.505999	2485.288846
465.877845	2477.727115
466.249631	2457.562500
466.621358	2492.850577
466.993026	2515.535769
467.364634	2538.220962
467.736184	2502.932885
468.107674	2427.315577
468.479105	2455.041923
468.850477	2558.385577
469.221790	2442.439038
469.593043	2495.371154
469.964238	2533.179808
470.335373	2482.768269
470.706449	2412.192115
471.077467	2500.412308
471.448425	2518.056346
471.819324	2409.671538
472.190164	2470.165385
472.560945	2530.659231
472.931667	2550.823846
473.302330	2472.685962
473.672934	2535.700385
474.043479	2414.712692
474.413965	2520.576923
474.784393	2490.330000
475.154761	2525.618077
475.525070	2467.644808
475.895321	2507.974038
476.265513	2424.795000
476.635645	2515.535769
477.005719	2533.179808
477.375734	2553.344423
477.745691	2447.480192
478.115588	2502.932885
478.485427	2497.891731
478.855207	2520.576923
479.224928	2596.194231
479.594591	2442.439038
479.964194	2485.288846
480.333739	2487.809423
480.703226	2429.836154
481.072653	2538.220962
481.442022	2525.618077
481.811333	2573.509038
482.180584	2502.932885
482.549777	2565.947308
482.918912	2482.768269
483.287988	2568.467885
483.657005	2450.000769
484.025964	2530.659231
484.394864	2467.644808
484.763706	2444.959615
485.132489	2432.356731
485.501213	2510.494615
485.869879	2535.700385
486.238487	2528.138654
486.607036	2482.768269
486.975527	2439.918462
487.343959	2540.741538
487.712333	2543.262115
488.080648	2422.274423
488.448905	2535.700385
488.817104	2444.959615
489.185244	2555.865000
489.553326	2444.959615
489.921350	2485.288846
490.289315	2482.768269
490.657222	2558.385577
491.025070	2497.891731
491.392861	2492.850577
491.760593	2472.685962
492.128267	2434.877308
492.495883	2507.974038
492.863440	2442.439038
493.230939	2475.206538
493.598380	2470.165385
493.965763	2427.315577
494.333088	2553.344423
494.700354	2444.959615
495.067563	2492.850577
495.434713	2460.083077
495.801805	2487.809423
496.168839	2465.124231
496.535815	2392.027500
496.902733	2480.247692
497.269593	2540.741538
497.636395	2497.891731
498.003139	2578.550192
498.369825	2439.918462
498.736453	2535.700385
499.103023	2465.124231
499.469535	2477.727115
499.835989	2442.439038
500.202385	2525.618077
500.568723	2462.603654
500.935003	2507.974038
501.301226	2407.150962
501.667390	2520.576923
502.033497	2513.015192
502.399546	2460.083077
502.765537	2573.509038
503.131470	2482.768269
503.497345	2475.206538
503.863163	2404.630385
504.228923	2520.576923
504.594625	2444.959615
504.960269	2389.506923
505.325856	2563.426731
505.691385	2442.439038
506.056856	2429.836154
506.422270	2497.891731
506.787625	2505.453462
507.152924	2475.206538
507.518164	2540.741538
507.883347	2429.836154
508.248472	2528.138654
508.613540	2543.262115
508.978550	2492.850577
509.343503	2465.124231
509.708398	2606.276538
510.073236	2462.603654
510.438016	2470.165385
510.802738	2545.782692
511.167403	2497.891731
511.532010	2553.344423
511.896561	2550.823846
512.261053	2525.618077
512.625488	2467.644808
512.989866	2472.685962
513.354186	2485.288846
513.718449	2490.330000
514.082655	2578.550192
514.446803	2492.850577
514.810894	2530.659231
515.174927	2442.439038
515.538904	2490.330000
515.902822	2492.850577
516.266684	2434.877308
516.630488	2525.618077
516.994235	2495.371154
517.357925	2505.453462
517.721558	2520.576923
518.085133	2528.138654
518.448651	2533.179808
518.812112	2538.220962
519.175516	2513.015192
519.538863	2465.124231
519.902152	2513.015192
520.265385	2555.865000
520.628560	2543.262115
520.991678	2455.041923
521.354739	2497.891731
521.717743	2520.576923
522.080690	2492.850577
522.443580	2510.494615
522.806413	2528.138654
523.169189	2533.179808
523.531908	2515.535769
523.894569	2515.535769
524.257174	2520.576923
524.619722	2462.603654
524.982213	2540.741538
525.344647	2548.303269
525.707025	2502.932885
526.069345	2475.206538
526.431608	2510.494615
526.793815	2530.659231
527.155964	2442.439038
527.518057	2470.165385
527.880093	2553.344423
528.242072	2550.823846
528.603995	2490.330000
528.965860	2429.836154
529.327669	2576.029615
529.689421	2495.371154
530.051117	2570.988462
530.412755	2399.589231
530.774337	2470.165385
531.135862	2447.480192
531.497331	2492.850577
531.858743	2555.865000
532.220098	2495.371154
532.581396	2460.083077
532.942638	2513.015192
533.303824	2540.741538
533.664953	2548.303269
534.026025	2452.521346
534.387040	2450.000769
534.747999	2434.877308
535.108902	2500.412308
535.469748	2437.397885
535.830537	2616.358846
536.191270	2505.453462
536.551947	2467.644808
536.912567	2555.865000
537.273131	2553.344423
537.633638	2462.603654
537.994089	2477.727115
538.354483	2482.768269
538.714821	2603.755962
539.075103	2450.000769
539.435328	2455.041923
539.795497	2452.521346
540.155609	2475.206538
540.515665	2455.041923
540.875665	2500.412308
541.235609	2523.097500
541.595496	2570.988462
541.955328	2457.562500
542.315102	2507.974038
542.674821	2505.453462
543.034483	2495.371154
543.394090	2470.165385
543.753640	2578.550192
544.113134	2482.768269
544.472571	2437.397885
544.831953	2477.727115
545.191278	2500.412308
545.550548	2573.509038
545.909761	2555.865000
546.268918	2518.056346
546.628019	2487.809423
546.987064	2520.576923
547.346053	2439.918462
547.704986	2417.233269
548.063863	2502.932885
548.422684	2467.644808
548.781449	2505.453462
549.140158	2570.988462
549.498811	2523.097500
549.857408	2500.412308
550.215949	2492.850577
550.574434	2452.521346
550.932864	2495.371154
551.291237	2460.083077
551.649555	2485.288846
552.007817	2530.659231
552.366022	2510.494615
552.724173	2608.797115
553.082267	2455.041923
553.440305	2543.262115
553.798288	2515.535769
554.156215	2560.906154
554.514086	2573.509038
554.871902	2452.521346
555.229661	2510.494615
555.587365	2487.809423
555.945014	2565.947308
556.302606	2500.412308
556.660143	2424.795000
557.017625	2424.795000
557.375050	2502.932885
557.732421	2452.521346
558.089735	2434.877308
558.446994	2487.809423
558.804197	2563.426731
559.161345	2434.877308
559.518437	2550.823846
559.875474	2412.192115
560.232455	2507.974038
560.589381	2475.206538
560.946251	2422.274423
561.303065	2525.618077
561.659825	2465.124231
562.016528	2482.768269
562.373177	2477.727115
562.729770	2560.906154
563.086307	2518.056346
563.442789	2472.685962
563.799216	2560.906154
564.155587	2437.397885
564.511904	2475.206538
564.868164	2518.056346
565.224370	2364.301154
565.580520	2520.576923
565.936615	2477.727115
566.292654	2492.850577
566.648638	2427.315577
567.004567	2407.150962
567.360441	2500.412308
567.716260	2497.891731
568.072023	2515.535769
568.427732	2412.192115
568.783385	2568.467885
569.138982	2444.959615
569.494525	2497.891731
569.850013	2477.727115
570.205445	2535.700385
570.560823	2432.356731
570.916145	2402.109808
571.271412	2452.521346
571.626625	2558.385577
571.981782	2497.891731
572.336884	2570.988462
572.691931	2419.753846
573.046923	2545.782692
573.401860	2502.932885
573.756743	2497.891731
574.111570	2500.412308
574.466342	2520.576923
574.821059	2487.809423
575.175722	2414.712692
575.530330	2477.727115
575.884882	2515.535769
576.239380	2535.700385
576.593823	2447.480192
576.948211	2467.644808
577.302544	2583.591346
577.656823	2518.056346
578.011047	2376.904038
578.365216	2462.603654
578.719330	2523.097500
579.073389	2480.247692
579.427394	2573.509038
579.781344	2492.850577
580.135239	2455.041923
580.489080	2389.506923
580.842866	2515.535769
581.196597	2475.206538
581.550273	2550.823846
581.903895	2523.097500
582.257463	2515.535769
582.610975	2447.480192
582.964434	2502.932885
583.317837	2480.247692
583.671186	2555.865000
584.024481	2518.056346
584.377721	2487.809423
584.730906	2525.618077
585.084037	2560.906154
585.437113	2477.727115
585.790135	2568.467885
586.143103	2528.138654
586.496016	2482.768269
586.848874	2550.823846
587.201679	2497.891731
587.554428	2457.562500
587.907124	2533.179808
588.259765	2485.288846
588.612352	2480.247692
588.964884	2538.220962
589.317362	2477.727115
589.669786	2560.906154
590.022155	2477.727115
590.374470	2500.412308
590.726731	2497.891731
591.078937	2482.768269
591.431090	2525.618077
591.783188	2502.932885
592.135232	2500.412308
592.487222	2578.550192
592.839157	2450.000769
593.191038	2497.891731
593.542866	2485.288846
593.894639	2530.659231
594.246358	2492.850577
594.598022	2591.153077
594.949633	2578.550192
595.301190	2482.768269
595.652692	2535.700385
596.004141	2616.358846
596.355535	2439.918462
596.706876	2371.862885
597.058162	2515.535769
597.409395	2477.727115
597.760573	2487.809423
598.111698	2450.000769
598.462768	2429.836154
598.813785	2432.356731
599.164748	2513.015192
599.515657	2623.920577
599.866511	2455.041923
600.217312	2455.041923
600.568060	2545.782692
600.918753	2530.659231
601.269392	2505.453462
601.619978	2548.303269
601.970510	2432.356731
602.320988	2513.015192
602.671412	2520.576923
603.021783	2538.220962
603.372100	2553.344423
603.722363	2495.371154
604.072572	2555.865000
604.422728	2460.083077
604.772830	2457.562500
605.122878	2510.494615
605.472872	2543.262115
605.822813	2492.850577
606.172701	2389.506923
606.522534	2482.768269
606.872314	2475.206538
607.222041	2515.535769
607.571714	2510.494615
607.921333	2500.412308
608.270899	2540.741538
608.620411	2482.768269
608.969870	2507.974038
609.319276	2495.371154
609.668627	2495.371154
610.017926	2500.412308
610.367171	2510.494615
610.716362	2492.850577
611.065500	2457.562500
611.414585	2492.850577
611.763616	2414.712692
612.112594	2525.618077
612.461518	2555.865000
612.810389	2513.015192
613.159207	2515.535769
613.507971	2563.426731
613.856682	2518.056346
614.205340	2467.644808
614.553945	2550.823846
614.902496	2452.521346
615.250994	2495.371154
615.599439	2482.768269
615.947830	2502.932885
616.296169	2515.535769
616.644454	2510.494615
616.992686	2472.685962
617.340864	2429.836154
617.688990	2560.906154
618.037063	2432.356731
618.385082	2439.918462
618.733048	2540.741538
619.080961	2444.959615
619.428821	2601.235385
619.776628	2505.453462
620.124382	2510.494615
620.472083	2540.741538
620.819731	2467.644808
621.167326	2530.659231
621.514868	2502.932885
621.862357	2576.029615
622.209793	2505.453462
622.557176	2502.932885
622.904506	2434.877308
623.251783	2535.700385
623.599007	2548.303269
623.946179	2538.220962
624.293297	2535.700385
624.640363	2497.891731
624.987376	2502.932885
625.334336	2507.974038
625.681243	2477.727115
626.028097	2507.974038
626.374899	2548.303269
626.721647	2550.823846
627.068343	2538.220962
627.414987	2533.179808
627.761577	2422.274423
628.108115	2447.480192
628.454600	2485.288846
628.801032	2457.562500
629.147412	2525.618077
629.493739	2455.041923
629.840014	2502.932885
630.186236	2518.056346
630.532405	2588.632500
630.878521	2447.480192
631.224585	2472.685962
631.570597	2545.782692
631.916556	2558.385577
632.262462	2487.809423
632.608316	2533.179808
632.954117	2525.618077
633.299866	2477.727115
633.645562	2513.015192
633.991206	2528.138654
634.336797	2570.988462
634.682336	2477.727115
635.027823	2432.356731
635.373257	2455.041923
635.718639	2538.220962
636.063968	2429.836154
636.409245	2462.603654
636.754470	2515.535769
637.099642	2427.315577
637.444762	2533.179808
637.789829	2424.795000
638.134845	2505.453462
638.479808	2432.356731
638.824719	2472.685962
639.169577	2475.206538
639.514383	2477.727115
639.859137	2442.439038
640.203839	2550.823846
640.548489	2364.301154
640.893086	2467.644808
641.237632	2447.480192
641.582125	2505.453462
641.926566	2490.330000
642.270955	2563.426731
642.615292	2513.015192
642.959576	2523.097500
643.303809	2538.220962
643.647990	2475.206538
643.992118	2550.823846
644.336195	2465.124231
644.680219	2520.576923
645.024192	2518.056346
645.368112	2437.397885
645.711981	2505.453462
646.055797	2497.891731
646.399562	2510.494615
646.743274	2578.550192
647.086935	2553.344423
647.430544	2497.891731
647.774101	2422.274423
648.117606	2525.618077
648.461059	2543.262115
648.804460	2510.494615
649.147810	2497.891731
649.491108	2500.412308
649.834354	2492.850577
650.177548	2460.083077
650.520690	2545.782692
650.863781	2452.521346
651.206820	2500.412308
651.549807	2465.124231
651.892742	2444.959615
652.235626	2492.850577
652.578458	2369.342308
652.921238	2455.041923
653.263967	2492.850577
653.606644	2457.562500
653.949269	2560.906154
654.291843	2475.206538
654.634365	2412.192115
654.976836	2490.330000
655.319255	2452.521346
655.661622	2530.659231
656.003938	2563.426731
656.346203	2515.535769
656.688416	2465.124231
657.030577	2465.124231
657.372687	2475.206538
657.714746	2560.906154
658.056753	2412.192115
658.398708	2507.974038
658.740612	2558.385577
659.082465	2518.056346
659.424266	2550.823846
659.766016	2455.041923
660.107715	2513.015192
660.449362	2608.797115
660.790958	2507.974038
661.132503	2540.741538
661.473996	2452.521346
661.815438	2470.165385
662.156829	2492.850577
662.498168	2477.727115
662.839456	2490.330000
663.180693	2495.371154
663.521879	2465.124231
663.863013	2500.412308
664.204097	2452.521346
664.545129	2500.412308
664.886110	2477.727115
665.227040	2553.344423
665.567918	2480.247692
665.908746	2545.782692
666.249522	2450.000769
666.590248	2432.356731
666.930922	2591.153077
667.271545	2455.041923
667.612118	2462.603654
667.952639	2560.906154
668.293109	2434.877308
668.633528	2545.782692
668.973896	2593.673654
669.314213	2570.988462
669.654480	2505.453462
669.994695	2543.262115
670.334859	2447.480192
670.674973	2550.823846
671.015035	2525.618077
671.355047	2447.480192
671.695008	2490.330000
672.034918	2442.439038
672.374777	2550.823846
672.714585	2528.138654
673.054342	2397.068654
673.394049	2525.618077
673.733705	2404.630385
674.073310	2535.700385
674.412864	2543.262115
674.752368	2573.509038
675.091820	2467.644808
675.431223	2467.644808
675.770574	2467.644808
676.109875	2450.000769
676.449125	2455.041923
676.788324	2502.932885
677.127473	2538.220962
677.466571	2568.467885
677.805619	2490.330000
678.144616	2513.015192
678.483562	2460.083077
678.822458	2497.891731
679.161303	2588.632500
679.500098	2419.753846
679.838842	2560.906154
680.177535	2419.753846
680.516179	2492.850577
680.854771	2452.521346
681.193314	2505.453462
681.531805	2475.206538
681.870247	2530.659231
682.208638	2530.659231
682.546978	2475.206538
682.885268	2482.768269
683.223508	2502.932885
683.561697	2460.083077
683.899836	2586.111923
684.237925	2452.521346
684.575963	2520.576923
684.913951	2424.795000
685.251889	2545.782692
685.589776	2472.685962
685.927614	2470.165385
686.265401	2450.000769
686.603137	2573.509038
686.940824	2477.727115
687.278460	2419.753846
687.616046	2530.659231
687.953582	2485.288846
688.291068	2485.288846
688.628504	2402.109808
688.965889	2490.330000
689.303224	2535.700385
689.640510	2523.097500
689.977745	2538.220962
690.314930	2606.276538
690.652065	2455.041923
690.989150	2482.768269
691.326185	2520.576923
691.663170	2457.562500
692.000105	2457.562500
692.336990	2477.727115
692.673825	2520.576923
693.010610	2515.535769
693.347345	2472.685962
693.684030	2422.274423
694.020665	2507.974038
694.357251	2520.576923
694.693786	2487.809423
695.030272	2515.535769
695.366707	2515.535769
695.703093	2472.685962
696.039429	2535.700385
696.375716	2482.768269
696.711952	2427.315577
697.048139	2518.056346
697.384276	2510.494615
697.720363	2477.727115
698.056400	2450.000769
698.392388	2523.097500
698.728326	2422.274423
699.064214	2576.029615
699.400053	2533.179808
699.735842	2500.412308
700.071581	2450.000769
700.407270	2535.700385
700.742910	2492.850577
701.078501	2455.041923
701.414042	2565.947308
701.749533	2485.288846
702.084974	2543.262115
702.420366	2485.288846
702.755709	2553.344423
703.091002	2462.603654
703.426246	2477.727115
703.761440	2450.000769
704.096584	2432.356731
704.431679	2515.535769
704.766725	2515.535769
705.101721	2538.220962
705.436668	2450.000769
705.771565	2505.453462
706.106413	2513.015192
706.441212	2563.426731
706.775961	2548.303269
707.110661	2444.959615
707.445311	2482.768269
707.779913	2490.330000
708.114465	2485.288846
708.448967	2452.521346
708.783421	2528.138654
709.117825	2510.494615
709.452180	2409.671538
709.786485	2477.727115
710.120742	2520.576923
710.454949	2548.303269
710.789107	2444.959615
711.123216	2535.700385
711.457275	2427.315577
711.791286	2505.453462
712.125247	2472.685962
712.459159	2513.015192
712.793023	2472.685962
713.126837	2487.809423
713.460602	2452.521346
713.794318	2515.535769
714.127985	2555.865000
714.461602	2550.823846
714.795171	2548.303269
715.128691	2480.247692
715.462162	2477.727115
715.795584	2407.150962
716.128957	2510.494615
716.462281	2482.768269
716.795556	2495.371154
717.128782	2538.220962
717.461960	2477.727115
717.795088	2520.576923
718.128167	2505.453462
718.461198	2513.015192
718.794180	2487.809423
719.127113	2507.974038
719.459997	2510.494615
719.792833	2613.838269
720.125619	2530.659231
720.458357	2482.768269
720.791046	2487.809423
721.123686	2470.165385
721.456278	2555.865000
721.788821	2505.453462
722.121315	2545.782692
722.453761	2502.932885
722.786158	2470.165385
723.118506	2437.397885
723.450805	2467.644808
723.783056	2513.015192
724.115259	2525.618077
724.447412	2570.988462
724.779518	2543.262115
725.111574	2533.179808
725.443582	2565.947308
725.775542	2533.179808
726.107453	2520.576923
726.439315	2495.371154
726.771129	2495.371154
727.102895	2543.262115
727.434612	2470.165385
727.766281	2495.371154
728.097901	2472.685962
728.429473	2447.480192
728.760996	2550.823846
729.092471	2404.630385
729.423897	2472.685962
729.755276	2560.906154
730.086606	2533.179808
730.417887	2525.618077
730.749120	2492.850577
731.080305	2555.865000
731.411442	2444.959615
731.742530	2460.083077
732.073570	2497.891731
732.404562	2520.576923
732.735506	2422.274423
733.066401	2518.056346
733.397249	2525.618077
733.728048	2447.480192
734.058798	2550.823846
734.389501	2505.453462
734.720156	2412.192115
735.050762	2588.632500
735.381320	2518.056346
735.711831	2429.836154
736.042293	2452.521346
736.372707	2470.165385
736.703073	2523.097500
737.033391	2507.974038
737.363661	2439.918462
737.693883	2510.494615
738.024056	2465.124231
738.354182	2510.494615
738.684260	2588.632500
739.014290	2465.124231
739.344272	2515.535769
739.674207	2412.192115
740.004093	2555.865000
740.333931	2427.315577
740.663722	2462.603654
740.993464	2492.850577
741.323159	2470.165385
741.652806	2447.480192
741.982405	2523.097500
742.311956	2480.247692
742.641460	2525.618077
742.970915	2495.371154
743.300323	2442.439038
743.629683	2530.659231
743.958996	2465.124231
744.288260	2523.097500
744.617477	2457.562500
744.946647	2596.194231
745.275768	2424.795000
745.604842	2528.138654
745.933869	2570.988462
746.262847	2558.385577
746.591778	2381.945192
746.920662	2533.179808
747.249498	2518.056346
747.578286	2414.712692
747.907027	2487.809423
748.235720	2581.070769
748.564365	2540.741538
748.892963	2513.015192
749.221514	2548.303269
749.550017	2487.809423
749.878473	2455.041923
750.206881	2480.247692
750.535242	2465.124231
750.863555	2502.932885
751.191821	2528.138654
751.520039	2427.315577
751.848210	2490.330000
752.176334	2518.056346
752.504411	2480.247692
752.832440	2507.974038
753.160421	2472.685962
753.488356	2505.453462
753.816243	2452.521346
754.144082	2475.206538
754.471875	2528.138654
754.799620	2520.576923
755.127318	2422.274423
755.454969	2560.906154
755.782572	2492.850577
756.110129	2533.179808
756.437638	2500.412308
756.765100	2480.247692
757.092515	2490.330000
757.419882	2490.330000
757.747203	2525.618077
758.074477	2530.659231
758.401703	2520.576923
758.728882	2505.453462
759.056014	2475.206538
759.383099	2487.809423
759.710138	2399.589231
760.037129	2520.576923
760.364073	2513.015192
760.690970	2513.015192
761.017820	2553.344423
761.344623	2450.000769
761.671379	2596.194231
761.998088	2455.041923
762.324751	2470.165385
762.651366	2480.247692
762.977935	2505.453462
763.304456	2538.220962
763.630931	2548.303269
763.957359	2475.206538
764.283740	2394.548077
764.610074	2507.974038
764.936362	2502.932885
765.262602	2467.644808
765.588796	2518.056346
765.914943	2457.562500
766.241044	2523.097500
766.567097	2470.165385
766.893104	2472.685962
767.219064	2513.015192
767.544978	2502.932885
767.870845	2475.206538
768.196665	2505.453462
768.522438	2485.288846
768.848165	2540.741538
769.173846	2490.330000
769.499479	2548.303269
769.825066	2442.439038
770.150607	2528.138654
770.476101	2540.741538
770.801548	2560.906154
771.126949	2457.562500
771.452303	2525.618077
771.777611	2548.303269
772.102872	2480.247692
772.428087	2495.371154
772.753256	2538.220962
773.078378	2513.015192
773.403453	2482.768269
773.728482	2530.659231
774.053465	2492.850577
774.378401	2457.562500
774.703291	2596.194231
775.028135	2540.741538
775.352932	2439.918462
775.677683	2520.576923
776.002388	2412.192115
776.327046	2462.603654
776.651658	2465.124231
776.976224	2505.453462
777.300743	2500.412308
777.625216	2439.918462
777.949643	2495.371154
778.274024	2548.303269
778.598359	2543.262115
778.922647	2550.823846
779.246889	2490.330000
779.571086	2397.068654
779.895236	2497.891731
780.219339	2495.371154
780.543397	2480.247692
780.867409	2530.659231
781.191374	2397.068654
781.515294	2462.603654
781.839167	2472.685962
782.162995	2596.194231
782.486776	2450.000769
782.810511	2482.768269
783.134201	2525.618077
783.457844	2505.453462
783.781441	2502.932885
784.104993	2510.494615
784.428498	2444.959615
784.751958	2502.932885
785.075372	2457.562500
785.398739	2450.000769
785.722061	2444.959615
786.045337	2502.932885
786.368568	2490.330000
786.691752	2513.015192
787.014891	2510.494615
787.337983	2583.591346
787.661030	2470.165385
787.984031	2510.494615
788.306987	2495.371154
788.629897	2565.947308
788.952760	2515.535769
789.275579	2475.206538
789.598351	2465.124231
789.921078	2457.562500
790.243759	2507.974038
790.566395	2513.015192
790.888984	2528.138654
791.211529	2502.932885
791.534027	2538.220962
791.856480	2487.809423
792.178888	2490.330000
792.501249	2543.262115
792.823566	2591.153077
793.145836	2502.932885
793.468062	2457.562500
793.790241	2419.753846
794.112375	2444.959615
794.434464	2495.371154
794.756507	2495.371154
795.078505	2457.562500
795.400457	2520.576923
795.722364	2452.521346
796.044226	2513.015192
796.366042	2447.480192
796.687812	2518.056346
797.009538	2545.782692
797.331218	2515.535769
797.652852	2460.083077
797.974442	2487.809423
798.295986	2462.603654
798.617484	2462.603654
798.938938	2397.068654
799.260346	2444.959615
799.581709	2472.685962
799.903026	2591.153077
800.224299	2465.124231
800.545526	2422.274423
800.866708	2457.562500
801.187845	2470.165385
801.508936	2434.877308
801.829983	2513.015192
802.150984	2495.371154
802.471940	2422.274423
802.792851	2450.000769
803.113717	2422.274423
803.434538	2510.494615
803.755314	2462.603654
804.076045	2460.083077
804.396731	2515.535769
804.717372	2510.494615
805.037967	2475.206538
805.358518	2470.165385
805.679024	2505.453462
805.999485	2588.632500
806.319901	2429.836154
806.640272	2538.220962
806.960598	2560.906154
807.280879	2518.056346
807.601115	2457.562500
807.921306	2490.330000
808.241453	2482.768269
808.561554	2621.400000
808.881611	2462.603654
809.201623	2553.344423
809.521590	2510.494615
809.841513	2505.453462
810.161390	2470.165385
810.481223	2455.041923
810.801011	2485.288846
811.120755	2485.288846
811.440453	2462.603654
811.760107	2495.371154
812.079716	2442.439038
812.399281	2452.521346
812.718801	2553.344423
813.038276	2424.795000
813.357707	2447.480192
813.677093	2455.041923
813.996434	2419.753846
814.315731	2540.741538
814.634983	2457.562500
814.954191	2497.891731
815.273354	2452.521346
815.592473	2530.659231
815.911547	2576.029615
816.230577	2538.220962
816.549562	2608.797115
816.868502	2480.247692
817.187399	2515.535769
817.506250	2533.179808
817.825058	2457.562500
818.143821	2502.932885
818.462539	2470.165385
818.781213	2447.480192
819.099843	2510.494615
819.418429	2568.467885
819.736970	2550.823846
820.055466	2530.659231
820.373919	2462.603654
820.692327	2470.165385
821.010691	2513.015192
821.329011	2490.330000
821.647286	2455.041923
821.965517	2530.659231
822.283704	2455.041923
822.601847	2500.412308
822.919945	2505.453462
823.237999	2523.097500
823.556010	2450.000769
823.873976	2583.591346
824.191897	2596.194231
824.509775	2462.603654
824.827609	2530.659231
825.145398	2450.000769
825.463144	2576.029615
825.780845	2568.467885
826.098502	2424.795000
826.416116	2490.330000
826.733685	2510.494615
827.051210	2487.809423
827.368692	2482.768269
827.686129	2507.974038
828.003522	2455.041923
828.320872	2545.782692
828.638177	2422.274423
828.955439	2455.041923
829.272656	2452.521346
829.589830	2523.097500
829.906960	2472.685962
830.224046	2560.906154
830.541088	2487.809423
830.858086	2460.083077
831.175041	2439.918462
831.491952	2495.371154
831.808819	2515.535769
832.125642	2513.015192
832.442421	2480.247692
832.759157	2530.659231
833.075849	2492.850577
833.392497	2533.179808
833.709101	2439.918462
834.025662	2545.782692
834.342179	2475.206538
834.658653	2409.671538
834.975083	2515.535769
835.291469	2490.330000
835.607811	2482.768269
835.924110	2437.397885
836.240366	2369.342308
836.556578	2447.480192
836.872746	2419.753846
837.188871	2444.959615
837.504952	2533.179808
837.820990	2444.959615
838.136984	2447.480192
838.452935	2555.865000
838.768842	2513.015192
839.084706	2434.877308
839.400526	2502.932885
839.716303	2442.439038
840.032037	2477.727115
840.347727	2475.206538
840.663373	2518.056346
840.978977	2530.659231
841.294537	2450.000769
841.610054	2477.727115
841.925527	2417.233269
842.240957	2482.768269
842.556344	2444.959615
842.871687	2505.453462
843.186987	2447.480192
843.502244	2533.179808
843.817458	2490.330000
844.132629	2492.850577
844.447756	2482.768269
844.762840	2502.932885
845.077881	2495.371154
845.392879	2520.576923
845.707833	2480.247692
846.022745	2455.041923
846.337613	2480.247692
846.652438	2548.303269
846.967221	2465.124231
847.281960	2560.906154
847.596656	2543.262115
847.911309	2460.083077
848.225919	2523.097500
848.540485	2447.480192
848.855009	2510.494615
849.169490	2525.618077
849.483928	2465.124231
849.798323	2475.206538
850.112675	2492.850577
850.426984	2530.659231
850.741251	2502.932885
851.055474	2553.344423
851.369654	2457.562500
851.683792	2465.124231
851.997887	2500.412308
852.311938	2495.371154
852.625947	2545.782692
852.939914	2497.891731
853.253837	2467.644808
853.567718	2510.494615
853.881555	2578.550192
854.195350	2477.727115
854.509103	2462.603654
854.822812	2472.685962
855.136479	2475.206538
855.450103	2543.262115
855.763685	2407.150962
856.077224	2550.823846
856.390720	2485.288846
856.704173	2381.945192
857.017584	2450.000769
857.330953	2482.768269
857.644278	2500.412308
857.957561	2487.809423
858.270802	2510.494615
858.584000	2429.836154
858.897155	2444.959615
859.210268	2475.206538
859.523339	2538.220962
859.836367	2560.906154
860.149352	2455.041923
860.462295	2462.603654
860.775195	2487.809423
861.088054	2457.562500
861.400869	2414.712692
861.713642	2472.685962
862.026373	2505.453462
862.339062	2467.644808
862.651708	2432.356731
862.964312	2482.768269
863.276873	2490.330000
863.589392	2553.344423
863.901869	2497.891731
864.214303	2439.918462
864.526696	2444.959615
864.839045	2591.153077
865.151353	2475.206538
865.463619	2518.056346
865.775842	2515.535769
866.088023	2502.932885
866.400162	2570.988462
866.712258	2513.015192
867.024313	2568.467885
867.336325	2523.097500
867.648296	2581.070769
867.960224	2485.288846
868.272110	2439.918462
868.583954	2543.262115
868.895755	2535.700385
869.207515	2404.630385
869.519233	2518.056346
869.830909	2530.659231
870.142542	2520.576923
870.454134	2548.303269
870.765684	2573.509038
871.077191	2558.385577
871.388657	2510.494615
871.700081	2450.000769
872.011463	2543.262115
872.322803	2515.535769
872.634101	2452.521346
872.945357	2500.412308
873.256571	2460.083077
873.567744	2510.494615
873.878874	2472.685962
874.189963	2465.124231
874.501010	2444.959615
874.812015	2495.371154
875.122979	2596.194231
875.433900	2485.288846
875.744780	2457.562500
876.055618	2563.426731
876.366415	2553.344423
876.677169	2432.356731
876.987882	2492.850577
877.298554	2558.385577
877.609183	2444.959615
877.919771	2439.918462
878.230317	2490.330000
878.540822	2414.712692
878.851285	2462.603654
879.161707	2442.439038
879.472087	2515.535769
879.782425	2475.206538
880.092722	2502.932885
880.402977	2424.795000
880.713191	2505.453462
881.023363	2452.521346
881.333494	2523.097500
881.643583	2500.412308
881.953631	2457.562500
882.263637	2457.562500
882.573602	2475.206538
882.883526	2460.083077
883.193408	2520.576923
883.503248	2472.685962
883.813048	2497.891731
884.122806	2492.850577
884.432522	2520.576923
884.742197	2434.877308
885.051831	2490.330000
885.361424	2497.891731
885.670975	2455.041923
885.980485	2475.206538
886.289954	2518.056346
886.599382	2500.412308
886.908768	2518.056346
887.218113	2558.385577
887.527417	2467.644808
887.836680	2518.056346
888.145901	2470.165385
888.455082	2492.850577
888.764221	2553.344423
889.073319	2482.768269
889.382376	2472.685962
889.691392	2520.576923
890.000366	2510.494615
890.309300	2500.412308
890.618193	2470.165385
890.927044	2485.288846
891.235855	2505.453462
891.544625	2465.124231
891.853353	2525.618077
892.162041	2540.741538
892.470687	2518.056346
892.779293	2472.685962
893.087858	2507.974038
893.396381	2442.439038
893.704864	2535.700385
894.013306	2487.809423
894.321707	2500.412308
894.630068	2477.727115
894.938387	2560.906154
895.246665	2543.262115
895.554903	2513.015192
895.863100	2434.877308
896.171256	2497.891731
896.479371	2404.630385
896.787446	2505.453462
897.095480	2505.453462
897.403473	2457.562500
897.711425	2482.768269
898.019336	2442.439038
898.327207	2523.097500
898.635038	2427.315577
898.942827	2442.439038
899.250576	2475.206538
899.558284	2490.330000
899.865952	2510.494615
900.173579	2482.768269
900.481165	2540.741538
900.788711	2507.974038
901.096216	2485.288846
901.403681	2545.782692
901.711105	2550.823846
902.018489	2515.535769
902.325832	2402.109808
902.633135	2533.179808
902.940397	2513.015192
903.247619	2570.988462
903.554800	2467.644808
903.861941	2515.535769
904.169041	2495.371154
904.476101	2450.000769
904.783121	2439.918462
905.090100	2462.603654
905.397039	2452.521346
905.703938	2497.891731
906.010796	2460.083077
906.317614	2500.412308
906.624391	2465.124231
906.931129	2439.918462
907.237826	2497.891731
907.544483	2510.494615
907.851099	2439.918462
908.157675	2442.439038
908.464211	2439.918462
908.770707	2477.727115
909.077163	2550.823846
909.383578	2555.865000
909.689954	2591.153077
909.996289	2485.288846
910.302584	2553.344423
910.608839	2480.247692
910.915054	2513.015192
911.221229	2530.659231
911.527363	2482.768269
911.833458	2540.741538
912.139513	2414.712692
912.445527	2429.836154
912.751502	2475.206538
913.057436	2576.029615
913.363331	2515.535769
913.669186	2467.644808
913.975000	2460.083077
914.280775	2472.685962
914.586510	2568.467885
914.892205	2452.521346
915.197859	2487.809423
915.503475	2439.918462
915.809050	2455.041923
916.114585	2533.179808
916.420081	2460.083077
916.725536	2513.015192
917.030952	2570.988462
917.336328	2457.562500
917.641665	2530.659231
917.946961	2565.947308
918.252218	2475.206538
918.557435	2515.535769
918.862612	2513.015192
919.167750	2525.618077
919.472848	2523.097500
919.777906	2497.891731
920.082925	2513.015192
920.387904	2515.535769
920.692843	2543.262115
920.997743	2470.165385
921.302603	2417.233269
921.607423	2414.712692
921.912204	2553.344423
922.216946	2470.165385
922.521647	2530.659231
922.826310	2452.521346
923.130932	2457.562500
923.435516	2470.165385
923.740059	2465.124231
924.044564	2480.247692
924.349028	2495.371154
924.653454	2492.850577
924.957840	2495.371154
925.262186	2573.509038
925.566493	2550.823846
925.870761	2366.821731
926.174989	2510.494615
926.479178	2563.426731
926.783328	2480.247692
927.087438	2500.412308
927.391509	2472.685962
927.695541	2485.288846
927.999533	2444.959615
928.303486	2460.083077
928.607400	2455.041923
928.911275	2520.576923
929.215110	2452.521346
929.518906	2528.138654
929.822663	2500.412308
930.126381	2507.974038
930.430060	2439.918462
930.733699	2500.412308
931.037299	2513.015192
931.340861	2510.494615
931.644383	2432.356731
931.947866	2520.576923
932.251309	2444.959615
932.554714	2485.288846
932.858080	2424.795000
933.161407	2414.712692
933.464694	2450.000769
933.767943	2457.562500
934.071153	2427.315577
934.374323	2392.027500
934.677455	2533.179808
934.980548	2465.124231
935.283602	2457.562500
935.586617	2432.356731
935.889593	2485.288846
936.192530	2545.782692
936.495428	2487.809423
936.798287	2432.356731
937.101108	2510.494615
937.403890	2437.397885
937.706632	2502.932885
938.009336	2507.974038
938.312002	2444.959615
938.614628	2485.288846
938.917216	2492.850577
939.219765	2520.576923
939.522275	2432.356731
939.824747	2477.727115
940.127179	2492.850577
940.429573	2525.618077
940.731929	2465.124231
941.034246	2424.795000
941.336524	2513.015192
941.638763	2455.041923
941.940964	2502.932885
942.243126	2528.138654
942.545250	2588.632500
942.847335	2485.288846
943.149381	2452.521346
943.451389	2510.494615
943.753359	2472.685962
944.055290	2538.220962
944.357182	2427.315577
944.659036	2409.671538
944.960851	2545.782692
945.262628	2550.823846
945.564367	2502.932885
945.866067	2523.097500
946.167729	2490.330000
946.469352	2513.015192
946.770937	2535.700385
947.072484	2429.836154
947.373992	2545.782692
947.675462	2419.753846
947.976893	2470.165385
948.278286	2467.644808
948.579641	2480.247692
948.880958	2502.932885
949.182236	2424.795000
949.483476	2450.000769
949.784678	2492.850577
950.085841	2419.753846
950.386967	2510.494615
950.688054	2472.685962
950.989103	2581.070769
951.290114	2495.371154
951.591087	2495.371154
951.892021	2439.918462
952.192917	2515.535769
952.493776	2450.000769
952.794596	2518.056346
953.095378	2407.150962
953.396122	2439.918462
953.696828	2487.809423
953.997496	2500.412308
954.298126	2502.932885
954.598718	2538.220962
954.899272	2596.194231
955.199788	2487.809423
955.500266	2434.877308
955.800706	2515.535769
956.101108	2437.397885
956.401472	2497.891731
956.701798	2533.179808
957.002087	2538.220962
957.302337	2578.550192
957.602550	2477.727115
957.902724	2432.356731
958.202861	2490.330000
958.502960	2457.562500
958.803022	2548.303269
959.103045	2543.262115
959.403031	2460.083077
959.702979	2535.700385
960.002889	2427.315577
960.302762	2467.644808
960.602596	2510.494615
960.902393	2525.618077
961.202153	2507.974038
961.501875	2573.509038
961.801559	2502.932885
962.101205	2455.041923
962.400814	2528.138654
962.700385	2457.562500
962.999918	2545.782692
963.299414	2520.576923
963.598873	2437.397885
963.898293	2518.056346
964.197677	2513.015192
964.497022	2482.768269
964.796331	2450.000769
965.095601	2467.644808
965.394835	2533.179808
965.694030	2535.700385
965.993189	2591.153077
966.292309	2434.877308
966.591393	2513.015192
966.890439	2429.836154
967.189447	2533.179808
967.488419	2515.535769
967.787353	2457.562500
968.086249	2586.111923
968.385108	2520.576923
968.683930	2505.453462
968.982714	2472.685962
969.281462	2593.673654
969.580172	2447.480192
969.878844	2520.576923
970.177480	2558.385577
970.476078	2525.618077
970.774639	2475.206538
971.073162	2543.262115
971.371649	2540.741538
971.670098	2492.850577
971.968510	2417.233269
972.266885	2492.850577
972.565223	2520.576923
972.863524	2530.659231
973.161788	2470.165385
973.460014	2467.644808
973.758204	2470.165385
974.056356	2460.083077
974.354471	2419.753846
974.652550	2530.659231
974.950591	2432.356731
975.248595	2495.371154
975.546563	2490.330000
975.844493	2515.535769
976.142386	2465.124231
976.440243	2515.535769
976.738062	2573.509038
977.035845	2475.206538
977.333590	2563.426731
977.631299	2482.768269
977.928971	2513.015192
978.226606	2490.330000
978.524204	2452.521346
978.821765	2455.041923
979.119290	2515.535769
979.416777	2480.247692
979.714228	2485.288846
980.011642	2500.412308
980.309020	2518.056346
980.606360	2497.891731
980.903664	2560.906154
981.200931	2538.220962
981.498162	2475.206538
981.795356	2543.262115
982.092513	2497.891731
982.389633	2500.412308
982.686717	2507.974038
982.983764	2523.097500
983.280775	2520.576923
983.577749	2507.974038
983.874686	2429.836154
984.171587	2507.974038
984.468451	2500.412308
984.765279	2465.124231
985.062070	2497.891731
985.358824	2450.000769
985.655543	2482.768269
985.952224	2515.535769
986.248869	2437.397885
986.545478	2523.097500
986.842050	2439.918462
987.138586	2465.124231
987.435086	2467.644808
987.731549	2507.974038
988.027975	2495.371154
988.324366	2495.371154
988.620719	2507.974038
988.917037	2502.932885
989.213318	2452.521346
989.509563	2442.439038
989.805772	2518.056346
990.101944	2467.644808
990.398080	2596.194231
990.694180	2409.671538
990.990244	2560.906154
991.286271	2492.850577
991.582262	2588.632500
991.878217	2518.056346
992.174136	2550.823846
992.470019	2505.453462
992.765865	2500.412308
993.061676	2487.809423
993.357450	2502.932885
993.653188	2465.124231
993.948890	2553.344423
994.244556	2409.671538
994.540186	2528.138654
994.835780	2485.288846
995.131337	2518.056346
995.426859	2460.083077
995.722345	2480.247692
996.017795	2482.768269
996.313208	2543.262115
996.608586	2482.768269
996.903928	2450.000769
997.199234	2510.494615
997.494504	2439.918462
997.789738	2490.330000
998.084936	2460.083077
998.380099	2500.412308
998.675225	2455.041923
998.970316	2515.535769
999.265371	2520.576923
999.560390	2510.494615
999.855373	2439.918462
1000.150320	2442.439038
1000.445232	2523.097500
1000.740108	2434.877308
1001.034948	2565.947308
1001.329752	2520.576923
1001.624521	2601.235385
1001.919254	2409.671538
1002.213951	2452.521346
1002.508613	2543.262115
1002.803239	2455.041923
1003.097829	2576.029615
1003.392384	2444.959615
1003.686903	2485.288846
1003.981386	2455.041923
1004.275834	2528.138654
1004.570246	2507.974038
1004.864623	2477.727115
1005.158964	2432.356731
1005.453270	2502.932885
1005.747540	2507.974038
1006.041775	2492.850577
1006.335974	2482.768269
1006.630138	2485.288846
1006.924266	2495.371154
1007.218359	2462.603654
1007.512416	2550.823846
1007.806438	2414.712692
1008.100425	2513.015192
1008.394376	2492.850577
1008.688292	2444.959615
1008.982172	2404.630385
1009.276017	2472.685962
1009.569827	2409.671538
1009.863602	2540.741538
1010.157341	2497.891731
1010.451045	2507.974038
1010.744714	2565.947308
1011.038347	2465.124231
1011.331945	2505.453462
1011.625508	2513.015192
1011.919036	2472.685962
1012.212528	2507.974038
1012.505986	2457.562500
1012.799408	2497.891731
1013.092795	2495.371154
1013.386147	2510.494615
1013.679464	2538.220962
1013.972745	2452.521346
1014.265992	2558.385577
1014.559204	2437.397885
1014.852380	2475.206538
1015.145521	2507.974038
1015.438628	2520.576923
1015.731699	2528.138654
1016.024736	2482.768269
1016.317737	2513.015192
1016.610703	2452.521346
1016.903635	2530.659231
1017.196531	2442.439038
1017.489393	2455.041923
1017.782219	2394.548077
1018.075011	2490.330000
1018.367768	2460.083077
1018.660490	2485.288846
1018.953177	2485.288846
1019.245829	2485.288846
