Dividing Wavelength (nm)	Counts (n)	Blue Motor Position (mm): 2.800000	Red Motor Position (mm): 0.000000	
326.493990	2107.202308
326.888308	2107.202308
327.282561	2107.202308
327.676750	2074.434808
328.070874	2061.831923
328.464933	2102.161154
328.858929	2064.352500
329.252859	2034.105577
329.646726	2069.393654
330.040528	2094.599423
330.434265	2145.010962
330.827938	2134.928654
331.221547	2155.093269
331.615091	2157.613846
332.008571	2170.216731
332.401986	2281.122115
332.795338	2210.545962
333.188625	2205.504808
333.581847	2313.889615
333.975006	2293.725000
334.368100	2298.766154
334.761129	2318.930769
335.154095	2286.163269
335.546996	2326.492500
335.939833	2381.945192
336.332606	2460.083077
336.725315	2384.465769
337.117960	2407.150962
337.510540	2326.492500
337.903056	2475.206538
338.295508	2439.918462
338.687896	2467.644808
339.080220	2386.986346
339.472480	2432.356731
339.864676	2518.056346
340.256807	2540.741538
340.648875	2371.862885
341.040879	2462.603654
341.432818	2455.041923
341.824694	2492.850577
342.216506	2470.165385
342.608253	2510.494615
342.999937	2419.753846
343.391557	2502.932885
343.783113	2576.029615
344.174605	2470.165385
344.566033	2434.877308
344.957397	2560.906154
345.348697	2465.124231
345.739934	2412.192115
346.131106	2540.741538
346.522215	2427.315577
346.913260	2480.247692
347.304241	2518.056346
347.695159	2465.124231
348.086012	2444.959615
348.476802	2437.397885
348.867528	2480.247692
349.258191	2437.397885
349.648789	2452.521346
350.039324	2402.109808
350.429796	2437.397885
350.820203	2515.535769
351.210548	2492.850577
351.600828	2495.371154
351.991045	2374.383462
352.381198	2392.027500
352.771288	2386.986346
353.161314	2419.753846
353.551276	2412.192115
353.941175	2492.850577
354.331010	2379.424615
354.720782	2437.397885
355.110490	2465.124231
355.500135	2505.453462
355.889717	2429.836154
356.279235	2525.618077
356.668689	2472.685962
357.058080	2457.562500
357.447408	2351.698269
357.836672	2465.124231
358.225873	2392.027500
358.615010	2475.206538
359.004084	2386.986346
359.393095	2439.918462
359.782043	2397.068654
360.170927	2485.288846
360.559748	2467.644808
360.948505	2427.315577
361.337199	2455.041923
361.725830	2553.344423
362.114398	2457.562500
362.502903	2462.603654
362.891344	2487.809423
363.279722	2452.521346
363.668037	2460.083077
364.056289	2452.521346
364.444478	2419.753846
364.832603	2457.562500
365.220665	2429.836154
365.608665	2500.412308
365.996601	2500.412308
366.384474	2470.165385
366.772284	2513.015192
367.160031	2470.165385
367.547715	2424.795000
367.935336	2455.041923
368.322893	2465.124231
368.710388	2394.548077
369.097820	2490.330000
369.485189	2457.562500
369.872495	2467.644808
370.259738	2472.685962
370.646918	2457.562500
371.034035	2520.576923
371.421090	2452.521346
371.808081	2482.768269
372.195010	2414.712692
372.581875	2462.603654
372.968678	2434.877308
373.355418	2399.589231
373.742096	2475.206538
374.128710	2477.727115
374.515262	2460.083077
374.901751	2437.397885
375.288177	2455.041923
375.674540	2437.397885
376.060841	2472.685962
376.447079	2419.753846
376.833254	2452.521346
377.219367	2467.644808
377.605417	2432.356731
377.991404	2465.124231
378.377329	2485.288846
378.763191	2444.959615
379.148991	2467.644808
379.534727	2409.671538
379.920402	2467.644808
380.306013	2523.097500
380.691563	2462.603654
381.077049	2487.809423
381.462474	2520.576923
381.847835	2482.768269
382.233134	2399.589231
382.618371	2444.959615
383.003545	2518.056346
383.388657	2475.206538
383.773706	2505.453462
384.158693	2429.836154
384.543618	2442.439038
384.928480	2452.521346
385.313280	2462.603654
385.698017	2553.344423
386.082692	2404.630385
386.467305	2530.659231
386.851856	2404.630385
387.236344	2450.000769
387.620770	2414.712692
388.005133	2563.426731
388.389435	2465.124231
388.773674	2523.097500
389.157851	2495.371154
389.541965	2487.809423
389.926018	2434.877308
390.310008	2447.480192
390.693936	2460.083077
391.077802	2442.439038
391.461606	2422.274423
391.845348	2432.356731
392.229027	2507.974038
392.612645	2470.165385
392.996200	2510.494615
393.379694	2409.671538
393.763125	2455.041923
394.146494	2397.068654
394.529801	2439.918462
394.913047	2465.124231
395.296230	2419.753846
395.679351	2402.109808
396.062410	2462.603654
396.445408	2460.083077
396.828343	2442.439038
397.211217	2520.576923
397.594028	2460.083077
397.976778	2465.124231
398.359466	2409.671538
398.742092	2505.453462
399.124656	2480.247692
399.507158	2480.247692
399.889598	2492.850577
400.271977	2475.206538
400.654294	2513.015192
401.036549	2404.630385
401.418742	2414.712692
401.800874	2560.906154
402.182944	2482.768269
402.564952	2500.412308
402.946898	2538.220962
403.328783	2558.385577
403.710606	2550.823846
404.092367	2535.700385
404.474067	2510.494615
404.855705	2447.480192
405.237282	2487.809423
405.618797	2495.371154
406.000250	2467.644808
406.381642	2339.095385
406.762972	2477.727115
407.144240	2502.932885
407.525447	2452.521346
407.906593	2467.644808
408.287677	2409.671538
408.668700	2452.521346
409.049661	2455.041923
409.430560	2520.576923
409.811399	2457.562500
410.192176	2505.453462
410.572891	2500.412308
410.953545	2513.015192
411.334138	2480.247692
411.714669	2432.356731
412.095139	2538.220962
412.475547	2404.630385
412.855894	2480.247692
413.236180	2530.659231
413.616405	2444.959615
413.996568	2462.603654
414.376670	2487.809423
414.756711	2409.671538
415.136691	2465.124231
415.516609	2472.685962
415.896466	2495.371154
416.276262	2507.974038
416.655997	2515.535769
417.035670	2497.891731
417.415283	2444.959615
417.794834	2437.397885
418.174324	2392.027500
418.553753	2528.138654
418.933121	2457.562500
419.312428	2482.768269
419.691674	2482.768269
420.070859	2455.041923
420.449983	2523.097500
420.829045	2603.755962
421.208047	2485.288846
421.586988	2450.000769
421.965867	2507.974038
422.344686	2535.700385
422.723444	2500.412308
423.102141	2472.685962
423.480777	2500.412308
423.859352	2523.097500
424.237866	2523.097500
424.616319	2404.630385
424.994712	2439.918462
425.373044	2444.959615
425.751314	2475.206538
426.129524	2414.712692
426.507673	2482.768269
426.885762	2434.877308
427.263789	2497.891731
427.641756	2497.891731
428.019662	2371.862885
428.397508	2505.453462
428.775292	2548.303269
429.153016	2528.138654
429.530679	2568.467885
429.908282	2475.206538
430.285824	2412.192115
430.663305	2497.891731
431.040726	2477.727115
431.418086	2502.932885
431.795385	2462.603654
432.172624	2485.288846
432.549802	2447.480192
432.926920	2492.850577
433.303977	2505.453462
433.680974	2439.918462
434.057910	2548.303269
434.434786	2513.015192
434.811601	2591.153077
435.188355	2558.385577
435.565050	2465.124231
435.941683	2523.097500
436.318257	2460.083077
436.694770	2565.947308
437.071222	2447.480192
437.447614	2482.768269
437.823946	2455.041923
438.200218	2434.877308
438.576429	2412.192115
438.952580	2528.138654
439.328670	2444.959615
439.704700	2487.809423
440.080670	2502.932885
440.456580	2505.453462
440.832429	2442.439038
441.208218	2497.891731
441.583947	2497.891731
441.959616	2389.506923
442.335224	2412.192115
442.710773	2540.741538
443.086261	2467.644808
443.461689	2386.986346
443.837057	2439.918462
444.212365	2444.959615
444.587612	2389.506923
444.962800	2518.056346
445.337927	2472.685962
445.712995	2505.453462
446.088002	2397.068654
446.462949	2465.124231
446.837837	2487.809423
447.212664	2485.288846
447.587431	2487.809423
447.962139	2563.426731
448.336786	2482.768269
448.711374	2417.233269
449.085901	2462.603654
449.460369	2563.426731
449.834776	2475.206538
450.209124	2485.288846
450.583412	2472.685962
450.957640	2379.424615
451.331808	2560.906154
451.705917	2422.274423
452.079965	2518.056346
452.453954	2505.453462
452.827883	2490.330000
453.201752	2490.330000
453.575562	2530.659231
453.949311	2482.768269
454.323001	2457.562500
454.696632	2560.906154
455.070202	2515.535769
455.443713	2495.371154
455.817164	2424.795000
456.190556	2432.356731
456.563888	2409.671538
456.937160	2558.385577
457.310373	2507.974038
457.683526	2497.891731
458.056619	2505.453462
458.429653	2480.247692
458.802628	2397.068654
459.175542	2452.521346
459.548398	2472.685962
459.921194	2507.974038
460.293930	2490.330000
460.666607	2482.768269
461.039224	2535.700385
461.411782	2460.083077
461.784280	2533.179808
462.156719	2424.795000
462.529099	2500.412308
462.901419	2507.974038
463.273680	2490.330000
463.645882	2475.206538
464.018024	2472.685962
464.390106	2429.836154
464.762130	2492.850577
465.134094	2465.124231
465.505999	2442.439038
465.877845	2581.070769
466.249631	2555.865000
466.621358	2429.836154
466.993026	2457.562500
467.364634	2611.317692
467.736184	2465.124231
468.107674	2497.891731
468.479105	2535.700385
468.850477	2437.397885
469.221790	2434.877308
469.593043	2477.727115
469.964238	2588.632500
470.335373	2487.809423
470.706449	2558.385577
471.077467	2452.521346
471.448425	2482.768269
471.819324	2523.097500
472.190164	2462.603654
472.560945	2447.480192
472.931667	2510.494615
473.302330	2530.659231
473.672934	2535.700385
474.043479	2424.795000
474.413965	2407.150962
474.784393	2555.865000
475.154761	2419.753846
475.525070	2482.768269
475.895321	2462.603654
476.265513	2487.809423
476.635645	2533.179808
477.005719	2404.630385
477.375734	2535.700385
477.745691	2424.795000
478.115588	2477.727115
478.485427	2404.630385
478.855207	2507.974038
479.224928	2442.439038
479.594591	2482.768269
479.964194	2482.768269
480.333739	2507.974038
480.703226	2472.685962
481.072653	2475.206538
481.442022	2485.288846
481.811333	2495.371154
482.180584	2442.439038
482.549777	2530.659231
482.918912	2407.150962
483.287988	2472.685962
483.657005	2442.439038
484.025964	2409.671538
484.394864	2550.823846
484.763706	2427.315577
485.132489	2540.741538
485.501213	2414.712692
485.869879	2550.823846
486.238487	2515.535769
486.607036	2497.891731
486.975527	2555.865000
487.343959	2462.603654
487.712333	2439.918462
488.080648	2432.356731
488.448905	2462.603654
488.817104	2568.467885
489.185244	2510.494615
489.553326	2535.700385
489.921350	2520.576923
490.289315	2601.235385
490.657222	2432.356731
491.025070	2555.865000
491.392861	2497.891731
491.760593	2475.206538
492.128267	2560.906154
492.495883	2505.453462
492.863440	2553.344423
493.230939	2528.138654
493.598380	2462.603654
493.965763	2540.741538
494.333088	2492.850577
494.700354	2525.618077
495.067563	2472.685962
495.434713	2460.083077
495.801805	2540.741538
496.168839	2510.494615
496.535815	2497.891731
496.902733	2530.659231
497.269593	2535.700385
497.636395	2510.494615
498.003139	2480.247692
498.369825	2507.974038
498.736453	2530.659231
499.103023	2422.274423
499.469535	2520.576923
499.835989	2510.494615
500.202385	2492.850577
500.568723	2545.782692
500.935003	2429.836154
501.301226	2530.659231
501.667390	2490.330000
502.033497	2465.124231
502.399546	2502.932885
502.765537	2460.083077
503.131470	2455.041923
503.497345	2515.535769
503.863163	2502.932885
504.228923	2555.865000
504.594625	2389.506923
504.960269	2538.220962
505.325856	2462.603654
505.691385	2520.576923
506.056856	2397.068654
506.422270	2545.782692
506.787625	2518.056346
507.152924	2495.371154
507.518164	2510.494615
507.883347	2487.809423
508.248472	2467.644808
508.613540	2523.097500
508.978550	2598.714808
509.343503	2485.288846
509.708398	2513.015192
510.073236	2523.097500
510.438016	2495.371154
510.802738	2538.220962
511.167403	2528.138654
511.532010	2510.494615
511.896561	2475.206538
512.261053	2588.632500
512.625488	2573.509038
512.989866	2523.097500
513.354186	2450.000769
513.718449	2417.233269
514.082655	2497.891731
514.446803	2560.906154
514.810894	2500.412308
515.174927	2515.535769
515.538904	2523.097500
515.902822	2477.727115
516.266684	2505.453462
516.630488	2434.877308
516.994235	2477.727115
517.357925	2505.453462
517.721558	2437.397885
518.085133	2492.850577
518.448651	2487.809423
518.812112	2462.603654
519.175516	2523.097500
519.538863	2492.850577
519.902152	2606.276538
520.265385	2507.974038
520.628560	2525.618077
520.991678	2399.589231
521.354739	2470.165385
521.717743	2492.850577
522.080690	2513.015192
522.443580	2507.974038
522.806413	2510.494615
523.169189	2525.618077
523.531908	2505.453462
523.894569	2480.247692
524.257174	2507.974038
524.619722	2450.000769
524.982213	2538.220962
525.344647	2487.809423
525.707025	2455.041923
526.069345	2442.439038
526.431608	2616.358846
526.793815	2492.850577
527.155964	2467.644808
527.518057	2533.179808
527.880093	2470.165385
528.242072	2422.274423
528.603995	2500.412308
528.965860	2502.932885
529.327669	2500.412308
529.689421	2480.247692
530.051117	2525.618077
530.412755	2480.247692
530.774337	2586.111923
531.135862	2450.000769
531.497331	2475.206538
531.858743	2427.315577
532.220098	2485.288846
532.581396	2482.768269
532.942638	2560.906154
533.303824	2487.809423
533.664953	2513.015192
534.026025	2502.932885
534.387040	2475.206538
534.747999	2439.918462
535.108902	2553.344423
535.469748	2480.247692
535.830537	2444.959615
536.191270	2462.603654
536.551947	2515.535769
536.912567	2495.371154
537.273131	2505.453462
537.633638	2538.220962
537.994089	2510.494615
538.354483	2447.480192
538.714821	2502.932885
539.075103	2442.439038
539.435328	2513.015192
539.795497	2515.535769
540.155609	2422.274423
540.515665	2419.753846
540.875665	2480.247692
541.235609	2515.535769
541.595496	2487.809423
541.955328	2596.194231
542.315102	2414.712692
542.674821	2475.206538
543.034483	2538.220962
543.394090	2533.179808
543.753640	2402.109808
544.113134	2477.727115
544.472571	2472.685962
544.831953	2518.056346
545.191278	2520.576923
545.550548	2495.371154
545.909761	2583.591346
546.268918	2515.535769
546.628019	2573.509038
546.987064	2485.288846
547.346053	2472.685962
547.704986	2510.494615
548.063863	2538.220962
548.422684	2485.288846
548.781449	2513.015192
549.140158	2480.247692
549.498811	2520.576923
549.857408	2543.262115
550.215949	2427.315577
550.574434	2485.288846
550.932864	2515.535769
551.291237	2520.576923
551.649555	2500.412308
552.007817	2497.891731
552.366022	2588.632500
552.724173	2563.426731
553.082267	2500.412308
553.440305	2439.918462
553.798288	2543.262115
554.156215	2422.274423
554.514086	2540.741538
554.871902	2530.659231
555.229661	2480.247692
555.587365	2465.124231
555.945014	2475.206538
556.302606	2460.083077
556.660143	2424.795000
557.017625	2510.494615
557.375050	2553.344423
557.732421	2427.315577
558.089735	2540.741538
558.446994	2482.768269
558.804197	2450.000769
559.161345	2560.906154
559.518437	2502.932885
559.875474	2525.618077
560.232455	2429.836154
560.589381	2505.453462
560.946251	2570.988462
561.303065	2500.412308
561.659825	2548.303269
562.016528	2495.371154
562.373177	2558.385577
562.729770	2485.288846
563.086307	2515.535769
563.442789	2553.344423
563.799216	2422.274423
564.155587	2507.974038
564.511904	2518.056346
564.868164	2442.439038
565.224370	2465.124231
565.580520	2414.712692
565.936615	2457.562500
566.292654	2477.727115
566.648638	2419.753846
567.004567	2487.809423
567.360441	2518.056346
567.716260	2492.850577
568.072023	2417.233269
568.427732	2480.247692
568.783385	2492.850577
569.138982	2497.891731
569.494525	2535.700385
569.850013	2523.097500
570.205445	2550.823846
570.560823	2465.124231
570.916145	2538.220962
571.271412	2472.685962
571.626625	2399.589231
571.981782	2515.535769
572.336884	2482.768269
572.691931	2467.644808
573.046923	2535.700385
573.401860	2535.700385
573.756743	2533.179808
574.111570	2414.712692
574.466342	2533.179808
574.821059	2447.480192
575.175722	2457.562500
575.530330	2505.453462
575.884882	2467.644808
576.239380	2500.412308
576.593823	2518.056346
576.948211	2588.632500
577.302544	2452.521346
577.656823	2417.233269
578.011047	2460.083077
578.365216	2518.056346
578.719330	2462.603654
579.073389	2515.535769
579.427394	2492.850577
579.781344	2535.700385
580.135239	2538.220962
580.489080	2550.823846
580.842866	2487.809423
581.196597	2500.412308
581.550273	2381.945192
581.903895	2427.315577
582.257463	2510.494615
582.610975	2492.850577
582.964434	2505.453462
583.317837	2550.823846
583.671186	2538.220962
584.024481	2460.083077
584.377721	2545.782692
584.730906	2467.644808
585.084037	2414.712692
585.437113	2497.891731
585.790135	2540.741538
586.143103	2452.521346
586.496016	2502.932885
586.848874	2593.673654
587.201679	2523.097500
587.554428	2510.494615
587.907124	2495.371154
588.259765	2565.947308
588.612352	2495.371154
588.964884	2490.330000
589.317362	2515.535769
589.669786	2528.138654
590.022155	2538.220962
590.374470	2528.138654
590.726731	2444.959615
591.078937	2447.480192
591.431090	2523.097500
591.783188	2502.932885
592.135232	2482.768269
592.487222	2497.891731
592.839157	2452.521346
593.191038	2465.124231
593.542866	2570.988462
593.894639	2490.330000
594.246358	2513.015192
594.598022	2505.453462
594.949633	2528.138654
595.301190	2505.453462
595.652692	2460.083077
596.004141	2550.823846
596.355535	2462.603654
596.706876	2442.439038
597.058162	2467.644808
597.409395	2596.194231
597.760573	2419.753846
598.111698	2444.959615
598.462768	2515.535769
598.813785	2477.727115
599.164748	2412.192115
599.515657	2490.330000
599.866511	2533.179808
600.217312	2563.426731
600.568060	2457.562500
600.918753	2409.671538
601.269392	2460.083077
601.619978	2545.782692
601.970510	2429.836154
602.320988	2482.768269
602.671412	2450.000769
603.021783	2429.836154
603.372100	2472.685962
603.722363	2500.412308
604.072572	2540.741538
604.422728	2394.548077
604.772830	2570.988462
605.122878	2520.576923
605.472872	2444.959615
605.822813	2424.795000
606.172701	2457.562500
606.522534	2520.576923
606.872314	2560.906154
607.222041	2482.768269
607.571714	2392.027500
607.921333	2487.809423
608.270899	2550.823846
608.620411	2525.618077
608.969870	2535.700385
609.319276	2485.288846
609.668627	2528.138654
610.017926	2455.041923
610.367171	2543.262115
610.716362	2497.891731
611.065500	2507.974038
611.414585	2467.644808
611.763616	2507.974038
612.112594	2520.576923
612.461518	2467.644808
612.810389	2518.056346
613.159207	2538.220962
613.507971	2513.015192
613.856682	2510.494615
614.205340	2462.603654
614.553945	2553.344423
614.902496	2452.521346
615.250994	2485.288846
615.599439	2490.330000
615.947830	2495.371154
616.296169	2379.424615
616.644454	2545.782692
616.992686	2412.192115
617.340864	2525.618077
617.688990	2417.233269
618.037063	2510.494615
618.385082	2558.385577
618.733048	2414.712692
619.080961	2492.850577
619.428821	2437.397885
619.776628	2450.000769
620.124382	2507.974038
620.472083	2558.385577
620.819731	2480.247692
621.167326	2492.850577
621.514868	2429.836154
621.862357	2533.179808
622.209793	2518.056346
622.557176	2465.124231
622.904506	2520.576923
623.251783	2444.959615
623.599007	2560.906154
623.946179	2442.439038
624.293297	2472.685962
624.640363	2490.330000
624.987376	2482.768269
625.334336	2444.959615
625.681243	2465.124231
626.028097	2485.288846
626.374899	2545.782692
626.721647	2535.700385
627.068343	2487.809423
627.414987	2482.768269
627.761577	2432.356731
628.108115	2548.303269
628.454600	2467.644808
628.801032	2533.179808
629.147412	2419.753846
629.493739	2475.206538
629.840014	2492.850577
630.186236	2402.109808
630.532405	2495.371154
630.878521	2485.288846
631.224585	2482.768269
631.570597	2455.041923
631.916556	2500.412308
632.262462	2507.974038
632.608316	2477.727115
632.954117	2510.494615
633.299866	2482.768269
633.645562	2500.412308
633.991206	2447.480192
634.336797	2608.797115
634.682336	2555.865000
635.027823	2460.083077
635.373257	2581.070769
635.718639	2528.138654
636.063968	2533.179808
636.409245	2497.891731
636.754470	2490.330000
637.099642	2455.041923
637.444762	2477.727115
637.789829	2465.124231
638.134845	2538.220962
638.479808	2490.330000
638.824719	2507.974038
639.169577	2568.467885
639.514383	2533.179808
639.859137	2402.109808
640.203839	2616.358846
640.548489	2497.891731
640.893086	2472.685962
641.237632	2399.589231
641.582125	2490.330000
641.926566	2462.603654
642.270955	2533.179808
642.615292	2540.741538
642.959576	2450.000769
643.303809	2495.371154
643.647990	2444.959615
643.992118	2409.671538
644.336195	2490.330000
644.680219	2439.918462
645.024192	2538.220962
645.368112	2492.850577
645.711981	2455.041923
646.055797	2530.659231
646.399562	2455.041923
646.743274	2507.974038
647.086935	2545.782692
647.430544	2593.673654
647.774101	2515.535769
648.117606	2513.015192
648.461059	2437.397885
648.804460	2472.685962
649.147810	2611.317692
649.491108	2497.891731
649.834354	2414.712692
650.177548	2487.809423
650.520690	2455.041923
650.863781	2450.000769
651.206820	2513.015192
651.549807	2467.644808
651.892742	2482.768269
652.235626	2543.262115
652.578458	2470.165385
652.921238	2555.865000
653.263967	2412.192115
653.606644	2439.918462
653.949269	2389.506923
654.291843	2485.288846
654.634365	2462.603654
654.976836	2369.342308
655.319255	2485.288846
655.661622	2540.741538
656.003938	2392.027500
656.346203	2540.741538
656.688416	2495.371154
657.030577	2467.644808
657.372687	2439.918462
657.714746	2500.412308
658.056753	2475.206538
658.398708	2523.097500
658.740612	2523.097500
659.082465	2525.618077
659.424266	2586.111923
659.766016	2497.891731
660.107715	2530.659231
660.449362	2500.412308
660.790958	2437.397885
661.132503	2497.891731
661.473996	2472.685962
661.815438	2460.083077
662.156829	2586.111923
662.498168	2497.891731
662.839456	2538.220962
663.180693	2475.206538
663.521879	2545.782692
663.863013	2553.344423
664.204097	2523.097500
664.545129	2432.356731
664.886110	2507.974038
665.227040	2543.262115
665.567918	2465.124231
665.908746	2555.865000
666.249522	2505.453462
666.590248	2467.644808
666.930922	2510.494615
667.271545	2482.768269
667.612118	2583.591346
667.952639	2502.932885
668.293109	2518.056346
668.633528	2540.741538
668.973896	2525.618077
669.314213	2450.000769
669.654480	2505.453462
669.994695	2482.768269
670.334859	2490.330000
670.674973	2437.397885
671.015035	2455.041923
671.355047	2543.262115
671.695008	2439.918462
672.034918	2510.494615
672.374777	2472.685962
672.714585	2497.891731
673.054342	2460.083077
673.394049	2495.371154
673.733705	2460.083077
674.073310	2545.782692
674.412864	2573.509038
674.752368	2490.330000
675.091820	2553.344423
675.431223	2515.535769
675.770574	2462.603654
676.109875	2515.535769
676.449125	2570.988462
676.788324	2490.330000
677.127473	2513.015192
677.466571	2419.753846
677.805619	2608.797115
678.144616	2485.288846
678.483562	2520.576923
678.822458	2505.453462
679.161303	2520.576923
679.500098	2502.932885
679.838842	2487.809423
680.177535	2500.412308
680.516179	2518.056346
680.854771	2490.330000
681.193314	2530.659231
681.531805	2462.603654
681.870247	2560.906154
682.208638	2558.385577
682.546978	2520.576923
682.885268	2520.576923
683.223508	2444.959615
683.561697	2450.000769
683.899836	2482.768269
684.237925	2505.453462
684.575963	2460.083077
684.913951	2588.632500
685.251889	2510.494615
685.589776	2560.906154
685.927614	2507.974038
686.265401	2576.029615
686.603137	2442.439038
686.940824	2475.206538
687.278460	2616.358846
687.616046	2497.891731
687.953582	2523.097500
688.291068	2601.235385
688.628504	2558.385577
688.965889	2492.850577
689.303224	2528.138654
689.640510	2550.823846
689.977745	2465.124231
690.314930	2528.138654
690.652065	2455.041923
690.989150	2447.480192
691.326185	2576.029615
691.663170	2447.480192
692.000105	2477.727115
692.336990	2563.426731
692.673825	2452.521346
693.010610	2467.644808
693.347345	2427.315577
693.684030	2533.179808
694.020665	2465.124231
694.357251	2576.029615
694.693786	2528.138654
695.030272	2513.015192
695.366707	2550.823846
695.703093	2523.097500
696.039429	2467.644808
696.375716	2518.056346
696.711952	2540.741538
697.048139	2520.576923
697.384276	2550.823846
697.720363	2487.809423
698.056400	2513.015192
698.392388	2434.877308
698.728326	2505.453462
699.064214	2565.947308
699.400053	2497.891731
699.735842	2570.988462
700.071581	2502.932885
700.407270	2497.891731
700.742910	2452.521346
701.078501	2437.397885
701.414042	2545.782692
701.749533	2545.782692
702.084974	2412.192115
702.420366	2550.823846
702.755709	2492.850577
703.091002	2543.262115
703.426246	2442.439038
703.761440	2500.412308
704.096584	2434.877308
704.431679	2490.330000
704.766725	2490.330000
705.101721	2520.576923
705.436668	2515.535769
705.771565	2523.097500
706.106413	2455.041923
706.441212	2490.330000
706.775961	2465.124231
707.110661	2543.262115
707.445311	2540.741538
707.779913	2447.480192
708.114465	2455.041923
708.448967	2513.015192
708.783421	2495.371154
709.117825	2419.753846
709.452180	2613.838269
709.786485	2553.344423
710.120742	2570.988462
710.454949	2507.974038
710.789107	2444.959615
711.123216	2475.206538
711.457275	2490.330000
711.791286	2525.618077
712.125247	2518.056346
712.459159	2513.015192
712.793023	2573.509038
713.126837	2475.206538
713.460602	2432.356731
713.794318	2462.603654
714.127985	2480.247692
714.461602	2450.000769
714.795171	2538.220962
715.128691	2535.700385
715.462162	2540.741538
715.795584	2455.041923
716.128957	2525.618077
716.462281	2553.344423
716.795556	2447.480192
717.128782	2460.083077
717.461960	2507.974038
717.795088	2482.768269
718.128167	2490.330000
718.461198	2523.097500
718.794180	2470.165385
719.127113	2528.138654
719.459997	2505.453462
719.792833	2555.865000
720.125619	2490.330000
720.458357	2485.288846
720.791046	2497.891731
721.123686	2528.138654
721.456278	2462.603654
721.788821	2455.041923
722.121315	2583.591346
722.453761	2442.439038
722.786158	2467.644808
723.118506	2434.877308
723.450805	2487.809423
723.783056	2525.618077
724.115259	2555.865000
724.447412	2502.932885
724.779518	2482.768269
725.111574	2472.685962
725.443582	2477.727115
725.775542	2533.179808
726.107453	2495.371154
726.439315	2500.412308
726.771129	2540.741538
727.102895	2462.603654
727.434612	2550.823846
727.766281	2528.138654
728.097901	2535.700385
728.429473	2429.836154
728.760996	2490.330000
729.092471	2455.041923
729.423897	2472.685962
729.755276	2588.632500
730.086606	2444.959615
730.417887	2530.659231
730.749120	2472.685962
731.080305	2545.782692
731.411442	2467.644808
731.742530	2513.015192
732.073570	2409.671538
732.404562	2540.741538
732.735506	2442.439038
733.066401	2618.879423
733.397249	2570.988462
733.728048	2550.823846
734.058798	2525.618077
734.389501	2460.083077
734.720156	2447.480192
735.050762	2641.564615
735.381320	2520.576923
735.711831	2477.727115
736.042293	2510.494615
736.372707	2417.233269
736.703073	2525.618077
737.033391	2460.083077
737.363661	2528.138654
737.693883	2444.959615
738.024056	2482.768269
738.354182	2467.644808
738.684260	2520.576923
739.014290	2568.467885
739.344272	2442.439038
739.674207	2450.000769
740.004093	2528.138654
740.333931	2460.083077
740.663722	2487.809423
740.993464	2565.947308
741.323159	2485.288846
741.652806	2477.727115
741.982405	2510.494615
742.311956	2472.685962
742.641460	2437.397885
742.970915	2467.644808
743.300323	2578.550192
743.629683	2419.753846
743.958996	2535.700385
744.288260	2507.974038
744.617477	2477.727115
744.946647	2548.303269
745.275768	2505.453462
745.604842	2497.891731
745.933869	2452.521346
746.262847	2482.768269
746.591778	2573.509038
746.920662	2588.632500
747.249498	2467.644808
747.578286	2555.865000
747.907027	2439.918462
748.235720	2485.288846
748.564365	2492.850577
748.892963	2507.974038
749.221514	2533.179808
749.550017	2429.836154
749.878473	2558.385577
750.206881	2510.494615
750.535242	2492.850577
750.863555	2570.988462
751.191821	2576.029615
751.520039	2518.056346
751.848210	2510.494615
752.176334	2404.630385
752.504411	2515.535769
752.832440	2467.644808
753.160421	2523.097500
753.488356	2520.576923
753.816243	2482.768269
754.144082	2482.768269
754.471875	2543.262115
754.799620	2460.083077
755.127318	2460.083077
755.454969	2545.782692
755.782572	2460.083077
756.110129	2460.083077
756.437638	2530.659231
756.765100	2495.371154
757.092515	2518.056346
757.419882	2465.124231
757.747203	2555.865000
758.074477	2530.659231
758.401703	2513.015192
758.728882	2502.932885
759.056014	2518.056346
759.383099	2467.644808
759.710138	2455.041923
760.037129	2570.988462
760.364073	2520.576923
760.690970	2452.521346
761.017820	2533.179808
761.344623	2437.397885
761.671379	2424.795000
761.998088	2505.453462
762.324751	2465.124231
762.651366	2520.576923
762.977935	2477.727115
763.304456	2578.550192
763.630931	2472.685962
763.957359	2412.192115
764.283740	2490.330000
764.610074	2563.426731
764.936362	2437.397885
765.262602	2520.576923
765.588796	2540.741538
765.914943	2490.330000
766.241044	2439.918462
766.567097	2513.015192
766.893104	2480.247692
767.219064	2470.165385
767.544978	2460.083077
767.870845	2530.659231
768.196665	2465.124231
768.522438	2470.165385
768.848165	2480.247692
769.173846	2349.177692
769.499479	2434.877308
769.825066	2442.439038
770.150607	2596.194231
770.476101	2485.288846
770.801548	2535.700385
771.126949	2422.274423
771.452303	2530.659231
771.777611	2558.385577
772.102872	2563.426731
772.428087	2437.397885
772.753256	2495.371154
773.078378	2480.247692
773.403453	2487.809423
773.728482	2555.865000
774.053465	2457.562500
774.378401	2467.644808
774.703291	2495.371154
775.028135	2437.397885
775.352932	2482.768269
775.677683	2518.056346
776.002388	2507.974038
776.327046	2563.426731
776.651658	2502.932885
776.976224	2535.700385
777.300743	2603.755962
777.625216	2497.891731
777.949643	2480.247692
778.274024	2480.247692
778.598359	2583.591346
778.922647	2495.371154
779.246889	2467.644808
779.571086	2419.753846
779.895236	2596.194231
780.219339	2465.124231
780.543397	2447.480192
780.867409	2558.385577
781.191374	2450.000769
781.515294	2548.303269
781.839167	2467.644808
782.162995	2467.644808
782.486776	2452.521346
782.810511	2555.865000
783.134201	2548.303269
783.457844	2467.644808
783.781441	2412.192115
784.104993	2485.288846
784.428498	2558.385577
784.751958	2442.439038
785.075372	2513.015192
785.398739	2475.206538
785.722061	2351.698269
786.045337	2462.603654
786.368568	2540.741538
786.691752	2535.700385
787.014891	2518.056346
787.337983	2424.795000
787.661030	2490.330000
787.984031	2444.959615
788.306987	2553.344423
788.629897	2477.727115
788.952760	2467.644808
789.275579	2470.165385
789.598351	2513.015192
789.921078	2475.206538
790.243759	2457.562500
790.566395	2462.603654
790.888984	2470.165385
791.211529	2434.877308
791.534027	2568.467885
791.856480	2417.233269
792.178888	2570.988462
792.501249	2525.618077
792.823566	2447.480192
793.145836	2518.056346
793.468062	2482.768269
793.790241	2581.070769
794.112375	2452.521346
794.434464	2553.344423
794.756507	2422.274423
795.078505	2444.959615
795.400457	2570.988462
795.722364	2500.412308
796.044226	2495.371154
796.366042	2414.712692
796.687812	2563.426731
797.009538	2465.124231
797.331218	2530.659231
797.652852	2507.974038
797.974442	2513.015192
798.295986	2586.111923
798.617484	2523.097500
798.938938	2581.070769
799.260346	2513.015192
799.581709	2505.453462
799.903026	2457.562500
800.224299	2450.000769
800.545526	2470.165385
800.866708	2520.576923
801.187845	2472.685962
801.508936	2558.385577
801.829983	2414.712692
802.150984	2490.330000
802.471940	2565.947308
802.792851	2465.124231
803.113717	2518.056346
803.434538	2452.521346
803.755314	2586.111923
804.076045	2437.397885
804.396731	2422.274423
804.717372	2462.603654
805.037967	2560.906154
805.358518	2523.097500
805.679024	2543.262115
805.999485	2495.371154
806.319901	2460.083077
806.640272	2560.906154
806.960598	2409.671538
807.280879	2525.618077
807.601115	2462.603654
807.921306	2500.412308
808.241453	2485.288846
808.561554	2470.165385
808.881611	2442.439038
809.201623	2465.124231
809.521590	2505.453462
809.841513	2538.220962
810.161390	2450.000769
810.481223	2520.576923
810.801011	2467.644808
811.120755	2568.467885
811.440453	2457.562500
811.760107	2520.576923
812.079716	2510.494615
812.399281	2477.727115
812.718801	2568.467885
813.038276	2492.850577
813.357707	2465.124231
813.677093	2455.041923
813.996434	2513.015192
814.315731	2472.685962
814.634983	2404.630385
814.954191	2397.068654
815.273354	2497.891731
815.592473	2424.795000
815.911547	2485.288846
816.230577	2558.385577
816.549562	2583.591346
816.868502	2573.509038
817.187399	2442.439038
817.506250	2533.179808
817.825058	2528.138654
818.143821	2530.659231
818.462539	2500.412308
818.781213	2490.330000
819.099843	2460.083077
819.418429	2538.220962
819.736970	2470.165385
820.055466	2455.041923
820.373919	2505.453462
820.692327	2535.700385
821.010691	2528.138654
821.329011	2540.741538
821.647286	2477.727115
821.965517	2523.097500
822.283704	2452.521346
822.601847	2558.385577
822.919945	2485.288846
823.237999	2528.138654
823.556010	2470.165385
823.873976	2439.918462
824.191897	2472.685962
824.509775	2507.974038
824.827609	2472.685962
825.145398	2495.371154
825.463144	2404.630385
825.780845	2510.494615
826.098502	2487.809423
826.416116	2560.906154
826.733685	2497.891731
827.051210	2502.932885
827.368692	2495.371154
827.686129	2502.932885
828.003522	2444.959615
828.320872	2523.097500
828.638177	2495.371154
828.955439	2442.439038
829.272656	2495.371154
829.589830	2467.644808
829.906960	2450.000769
830.224046	2422.274423
830.541088	2480.247692
830.858086	2482.768269
831.175041	2513.015192
831.491952	2470.165385
831.808819	2495.371154
832.125642	2460.083077
832.442421	2485.288846
832.759157	2495.371154
833.075849	2475.206538
833.392497	2543.262115
833.709101	2510.494615
834.025662	2523.097500
834.342179	2523.097500
834.658653	2472.685962
834.975083	2409.671538
835.291469	2460.083077
835.607811	2510.494615
835.924110	2450.000769
836.240366	2490.330000
836.556578	2485.288846
836.872746	2565.947308
837.188871	2530.659231
837.504952	2470.165385
837.820990	2565.947308
838.136984	2507.974038
838.452935	2467.644808
838.768842	2500.412308
839.084706	2444.959615
839.400526	2482.768269
839.716303	2528.138654
840.032037	2583.591346
840.347727	2480.247692
840.663373	2523.097500
840.978977	2480.247692
841.294537	2397.068654
841.610054	2525.618077
841.925527	2555.865000
842.240957	2525.618077
842.556344	2424.795000
842.871687	2447.480192
843.186987	2417.233269
843.502244	2502.932885
843.817458	2543.262115
844.132629	2518.056346
844.447756	2452.521346
844.762840	2457.562500
845.077881	2409.671538
845.392879	2500.412308
845.707833	2523.097500
846.022745	2424.795000
846.337613	2543.262115
846.652438	2460.083077
846.967221	2490.330000
847.281960	2455.041923
847.596656	2472.685962
847.911309	2555.865000
848.225919	2540.741538
848.540485	2470.165385
848.855009	2482.768269
849.169490	2444.959615
849.483928	2497.891731
849.798323	2434.877308
850.112675	2414.712692
850.426984	2480.247692
850.741251	2422.274423
851.055474	2487.809423
851.369654	2497.891731
851.683792	2442.439038
851.997887	2470.165385
852.311938	2525.618077
852.625947	2422.274423
852.939914	2472.685962
853.253837	2485.288846
853.567718	2535.700385
853.881555	2482.768269
854.195350	2490.330000
854.509103	2515.535769
854.822812	2502.932885
855.136479	2513.015192
855.450103	2444.959615
855.763685	2520.576923
856.077224	2412.192115
856.390720	2439.918462
856.704173	2540.741538
857.017584	2447.480192
857.330953	2550.823846
857.644278	2419.753846
857.957561	2485.288846
858.270802	2530.659231
858.584000	2497.891731
858.897155	2550.823846
859.210268	2495.371154
859.523339	2538.220962
859.836367	2495.371154
860.149352	2467.644808
860.462295	2419.753846
860.775195	2447.480192
861.088054	2482.768269
861.400869	2518.056346
861.713642	2417.233269
862.026373	2525.618077
862.339062	2497.891731
862.651708	2555.865000
862.964312	2578.550192
863.276873	2442.439038
863.589392	2528.138654
863.901869	2502.932885
864.214303	2548.303269
864.526696	2507.974038
864.839045	2485.288846
865.151353	2447.480192
865.463619	2530.659231
865.775842	2523.097500
866.088023	2492.850577
866.400162	2447.480192
866.712258	2472.685962
867.024313	2505.453462
867.336325	2500.412308
867.648296	2505.453462
867.960224	2492.850577
868.272110	2429.836154
868.583954	2467.644808
868.895755	2450.000769
869.207515	2548.303269
869.519233	2505.453462
869.830909	2525.618077
870.142542	2412.192115
870.454134	2495.371154
870.765684	2482.768269
871.077191	2472.685962
871.388657	2386.986346
871.700081	2550.823846
872.011463	2427.315577
872.322803	2530.659231
872.634101	2470.165385
872.945357	2543.262115
873.256571	2560.906154
873.567744	2467.644808
873.878874	2450.000769
874.189963	2450.000769
874.501010	2470.165385
874.812015	2510.494615
875.122979	2467.644808
875.433900	2485.288846
875.744780	2525.618077
876.055618	2550.823846
876.366415	2505.453462
876.677169	2482.768269
876.987882	2482.768269
877.298554	2528.138654
877.609183	2439.918462
877.919771	2497.891731
878.230317	2475.206538
878.540822	2485.288846
878.851285	2543.262115
879.161707	2530.659231
879.472087	2497.891731
879.782425	2533.179808
880.092722	2447.480192
880.402977	2500.412308
880.713191	2455.041923
881.023363	2507.974038
881.333494	2460.083077
881.643583	2437.397885
881.953631	2500.412308
882.263637	2573.509038
882.573602	2492.850577
882.883526	2500.412308
883.193408	2558.385577
883.503248	2550.823846
883.813048	2455.041923
884.122806	2505.453462
884.432522	2485.288846
884.742197	2492.850577
885.051831	2455.041923
885.361424	2502.932885
885.670975	2462.603654
885.980485	2523.097500
886.289954	2495.371154
886.599382	2447.480192
886.908768	2470.165385
887.218113	2480.247692
887.527417	2450.000769
887.836680	2477.727115
888.145901	2548.303269
888.455082	2485.288846
888.764221	2540.741538
889.073319	2465.124231
889.382376	2432.356731
889.691392	2487.809423
890.000366	2492.850577
890.309300	2495.371154
890.618193	2533.179808
890.927044	2485.288846
891.235855	2513.015192
891.544625	2450.000769
891.853353	2427.315577
892.162041	2530.659231
892.470687	2477.727115
892.779293	2460.083077
893.087858	2450.000769
893.396381	2573.509038
893.704864	2455.041923
894.013306	2472.685962
894.321707	2470.165385
894.630068	2591.153077
894.938387	2510.494615
895.246665	2492.850577
895.554903	2409.671538
895.863100	2444.959615
896.171256	2500.412308
896.479371	2550.823846
896.787446	2450.000769
897.095480	2470.165385
897.403473	2442.439038
897.711425	2480.247692
898.019336	2409.671538
898.327207	2545.782692
898.635038	2565.947308
898.942827	2525.618077
899.250576	2429.836154
899.558284	2500.412308
899.865952	2487.809423
900.173579	2492.850577
900.481165	2482.768269
900.788711	2424.795000
901.096216	2576.029615
901.403681	2432.356731
901.711105	2485.288846
902.018489	2535.700385
902.325832	2528.138654
902.633135	2412.192115
902.940397	2475.206538
903.247619	2427.315577
903.554800	2593.673654
903.861941	2447.480192
904.169041	2576.029615
904.476101	2538.220962
904.783121	2467.644808
905.090100	2480.247692
905.397039	2523.097500
905.703938	2452.521346
906.010796	2523.097500
906.317614	2523.097500
906.624391	2586.111923
906.931129	2515.535769
907.237826	2505.453462
907.544483	2535.700385
907.851099	2470.165385
908.157675	2386.986346
908.464211	2427.315577
908.770707	2487.809423
909.077163	2462.603654
909.383578	2429.836154
909.689954	2497.891731
909.996289	2407.150962
910.302584	2397.068654
910.608839	2465.124231
910.915054	2596.194231
911.221229	2452.521346
911.527363	2598.714808
911.833458	2482.768269
912.139513	2573.509038
912.445527	2442.439038
912.751502	2596.194231
913.057436	2497.891731
913.363331	2409.671538
913.669186	2490.330000
913.975000	2490.330000
914.280775	2518.056346
914.586510	2492.850577
914.892205	2485.288846
915.197859	2465.124231
915.503475	2530.659231
915.809050	2442.439038
916.114585	2510.494615
916.420081	2538.220962
916.725536	2472.685962
917.030952	2439.918462
917.336328	2555.865000
917.641665	2465.124231
917.946961	2502.932885
918.252218	2465.124231
918.557435	2460.083077
918.862612	2457.562500
919.167750	2462.603654
919.472848	2419.753846
919.777906	2442.439038
920.082925	2505.453462
920.387904	2523.097500
920.692843	2480.247692
920.997743	2429.836154
921.302603	2515.535769
921.607423	2422.274423
921.912204	2485.288846
922.216946	2404.630385
922.521647	2540.741538
922.826310	2452.521346
923.130932	2419.753846
923.435516	2528.138654
923.740059	2578.550192
924.044564	2455.041923
924.349028	2490.330000
924.653454	2515.535769
924.957840	2447.480192
925.262186	2543.262115
925.566493	2452.521346
925.870761	2520.576923
926.174989	2538.220962
926.479178	2492.850577
926.783328	2530.659231
927.087438	2434.877308
927.391509	2434.877308
927.695541	2482.768269
927.999533	2460.083077
928.303486	2404.630385
928.607400	2513.015192
928.911275	2457.562500
929.215110	2535.700385
929.518906	2510.494615
929.822663	2553.344423
930.126381	2460.083077
930.430060	2502.932885
930.733699	2533.179808
931.037299	2429.836154
931.340861	2515.535769
931.644383	2424.795000
931.947866	2394.548077
932.251309	2560.906154
932.554714	2500.412308
932.858080	2492.850577
933.161407	2447.480192
933.464694	2487.809423
933.767943	2455.041923
934.071153	2540.741538
934.374323	2475.206538
934.677455	2492.850577
934.980548	2407.150962
935.283602	2497.891731
935.586617	2510.494615
935.889593	2497.891731
936.192530	2515.535769
936.495428	2533.179808
936.798287	2543.262115
937.101108	2465.124231
937.403890	2507.974038
937.706632	2538.220962
938.009336	2450.000769
938.312002	2480.247692
938.614628	2462.603654
938.917216	2462.603654
939.219765	2502.932885
939.522275	2439.918462
939.824747	2540.741538
940.127179	2470.165385
940.429573	2490.330000
940.731929	2500.412308
941.034246	2424.795000
941.336524	2530.659231
941.638763	2470.165385
941.940964	2495.371154
942.243126	2475.206538
942.545250	2467.644808
942.847335	2555.865000
943.149381	2475.206538
943.451389	2533.179808
943.753359	2487.809423
944.055290	2513.015192
944.357182	2462.603654
944.659036	2492.850577
944.960851	2490.330000
945.262628	2513.015192
945.564367	2495.371154
945.866067	2515.535769
946.167729	2555.865000
946.469352	2505.453462
946.770937	2434.877308
947.072484	2497.891731
947.373992	2437.397885
947.675462	2472.685962
947.976893	2507.974038
948.278286	2507.974038
948.579641	2397.068654
948.880958	2533.179808
949.182236	2470.165385
949.483476	2467.644808
949.784678	2447.480192
950.085841	2472.685962
950.386967	2475.206538
950.688054	2520.576923
950.989103	2548.303269
951.290114	2543.262115
951.591087	2515.535769
951.892021	2437.397885
952.192917	2550.823846
952.493776	2472.685962
952.794596	2510.494615
953.095378	2477.727115
953.396122	2538.220962
953.696828	2455.041923
953.997496	2606.276538
954.298126	2460.083077
954.598718	2548.303269
954.899272	2477.727115
955.199788	2553.344423
955.500266	2462.603654
955.800706	2490.330000
956.101108	2497.891731
956.401472	2452.521346
956.701798	2475.206538
957.002087	2515.535769
957.302337	2490.330000
957.602550	2432.356731
957.902724	2470.165385
958.202861	2492.850577
958.502960	2528.138654
958.803022	2455.041923
959.103045	2480.247692
959.403031	2460.083077
959.702979	2460.083077
960.002889	2492.850577
960.302762	2452.521346
960.602596	2545.782692
960.902393	2470.165385
961.202153	2485.288846
961.501875	2434.877308
961.801559	2535.700385
962.101205	2502.932885
962.400814	2500.412308
962.700385	2432.356731
962.999918	2538.220962
963.299414	2523.097500
963.598873	2465.124231
963.898293	2414.712692
964.197677	2560.906154
964.497022	2573.509038
964.796331	2515.535769
965.095601	2482.768269
965.394835	2472.685962
965.694030	2505.453462
965.993189	2510.494615
966.292309	2533.179808
966.591393	2495.371154
966.890439	2485.288846
967.189447	2331.533654
967.488419	2455.041923
967.787353	2530.659231
968.086249	2467.644808
968.385108	2492.850577
968.683930	2419.753846
968.982714	2533.179808
969.281462	2500.412308
969.580172	2442.439038
969.878844	2404.630385
970.177480	2439.918462
970.476078	2414.712692
970.774639	2535.700385
971.073162	2581.070769
971.371649	2518.056346
971.670098	2475.206538
971.968510	2467.644808
972.266885	2518.056346
972.565223	2555.865000
972.863524	2528.138654
973.161788	2477.727115
973.460014	2472.685962
973.758204	2467.644808
974.056356	2528.138654
974.354471	2553.344423
974.652550	2553.344423
974.950591	2510.494615
975.248595	2427.315577
975.546563	2442.439038
975.844493	2434.877308
976.142386	2404.630385
976.440243	2399.589231
976.738062	2507.974038
977.035845	2520.576923
977.333590	2528.138654
977.631299	2568.467885
977.928971	2485.288846
978.226606	2507.974038
978.524204	2450.000769
978.821765	2477.727115
979.119290	2457.562500
979.416777	2407.150962
979.714228	2528.138654
980.011642	2490.330000
980.309020	2528.138654
980.606360	2568.467885
980.903664	2528.138654
981.200931	2462.603654
981.498162	2510.494615
981.795356	2452.521346
982.092513	2447.480192
982.389633	2392.027500
982.686717	2475.206538
982.983764	2475.206538
983.280775	2444.959615
983.577749	2502.932885
983.874686	2530.659231
984.171587	2376.904038
984.468451	2381.945192
984.765279	2477.727115
985.062070	2439.918462
985.358824	2394.548077
985.655543	2457.562500
985.952224	2470.165385
986.248869	2477.727115
986.545478	2429.836154
986.842050	2528.138654
987.138586	2497.891731
987.435086	2419.753846
987.731549	2472.685962
988.027975	2520.576923
988.324366	2523.097500
988.620719	2502.932885
988.917037	2414.712692
989.213318	2520.576923
989.509563	2444.959615
989.805772	2560.906154
990.101944	2470.165385
990.398080	2452.521346
990.694180	2475.206538
990.990244	2487.809423
991.286271	2500.412308
991.582262	2439.918462
991.878217	2530.659231
992.174136	2457.562500
992.470019	2538.220962
992.765865	2485.288846
993.061676	2460.083077
993.357450	2439.918462
993.653188	2528.138654
993.948890	2447.480192
994.244556	2583.591346
994.540186	2500.412308
994.835780	2505.453462
995.131337	2467.644808
995.426859	2513.015192
995.722345	2535.700385
996.017795	2560.906154
996.313208	2442.439038
996.608586	2528.138654
996.903928	2450.000769
997.199234	2422.274423
997.494504	2560.906154
997.789738	2455.041923
998.084936	2492.850577
998.380099	2460.083077
998.675225	2520.576923
998.970316	2439.918462
999.265371	2563.426731
999.560390	2439.918462
999.855373	2439.918462
1000.150320	2515.535769
1000.445232	2429.836154
1000.740108	2495.371154
1001.034948	2470.165385
1001.329752	2485.288846
1001.624521	2472.685962
1001.919254	2475.206538
1002.213951	2507.974038
1002.508613	2429.836154
1002.803239	2477.727115
1003.097829	2424.795000
1003.392384	2437.397885
1003.686903	2507.974038
1003.981386	2460.083077
1004.275834	2472.685962
1004.570246	2528.138654
1004.864623	2457.562500
1005.158964	2462.603654
1005.453270	2515.535769
1005.747540	2455.041923
1006.041775	2538.220962
1006.335974	2518.056346
1006.630138	2399.589231
1006.924266	2386.986346
1007.218359	2543.262115
1007.512416	2432.356731
1007.806438	2513.015192
1008.100425	2510.494615
1008.394376	2452.521346
1008.688292	2505.453462
1008.982172	2596.194231
1009.276017	2465.124231
1009.569827	2565.947308
1009.863602	2480.247692
1010.157341	2467.644808
1010.451045	2482.768269
1010.744714	2412.192115
1011.038347	2457.562500
1011.331945	2490.330000
1011.625508	2437.397885
1011.919036	2505.453462
1012.212528	2505.453462
1012.505986	2412.192115
1012.799408	2485.288846
1013.092795	2513.015192
1013.386147	2518.056346
1013.679464	2462.603654
1013.972745	2465.124231
1014.265992	2462.603654
1014.559204	2465.124231
1014.852380	2507.974038
1015.145521	2439.918462
1015.438628	2472.685962
1015.731699	2480.247692
1016.024736	2497.891731
1016.317737	2442.439038
1016.610703	2424.795000
1016.903635	2510.494615
1017.196531	2475.206538
1017.489393	2578.550192
1017.782219	2505.453462
1018.075011	2563.426731
1018.367768	2424.795000
1018.660490	2472.685962
1018.953177	2472.685962
1019.245829	2472.685962
