Dividing Wavelength (nm)	Counts (n)	Blue Motor Position (mm): 2.600000	Red Motor Position (mm): 0.000000	
326.493990	2079.475962
326.888308	2079.475962
327.282561	2079.475962
327.676750	2034.105577
328.070874	2087.037692
328.464933	1981.173462
328.858929	2059.311346
329.252859	2064.352500
329.646726	2094.599423
330.040528	2127.366923
330.434265	2129.887500
330.827938	2076.955385
331.221547	2089.558269
331.615091	2170.216731
332.008571	2177.778462
332.401986	2182.819615
332.795338	2208.025385
333.188625	2233.231154
333.581847	2238.272308
333.975006	2263.478077
334.368100	2265.998654
334.761129	2218.107692
335.154095	2296.245577
335.546996	2404.630385
335.939833	2351.698269
336.332606	2351.698269
336.725315	2369.342308
337.117960	2407.150962
337.510540	2371.862885
337.903056	2460.083077
338.295508	2424.795000
338.687896	2455.041923
339.080220	2412.192115
339.472480	2450.000769
339.864676	2404.630385
340.256807	2427.315577
340.648875	2507.974038
341.040879	2460.083077
341.432818	2555.865000
341.824694	2523.097500
342.216506	2482.768269
342.608253	2442.439038
342.999937	2444.959615
343.391557	2457.562500
343.783113	2505.453462
344.174605	2414.712692
344.566033	2555.865000
344.957397	2523.097500
345.348697	2442.439038
345.739934	2482.768269
346.131106	2477.727115
346.522215	2407.150962
346.913260	2485.288846
347.304241	2470.165385
347.695159	2384.465769
348.086012	2482.768269
348.476802	2427.315577
348.867528	2482.768269
349.258191	2429.836154
349.648789	2452.521346
350.039324	2465.124231
350.429796	2482.768269
350.820203	2414.712692
351.210548	2450.000769
351.600828	2490.330000
351.991045	2462.603654
352.381198	2379.424615
352.771288	2346.657115
353.161314	2394.548077
353.551276	2409.671538
353.941175	2439.918462
354.331010	2419.753846
354.720782	2492.850577
355.110490	2482.768269
355.500135	2399.589231
355.889717	2419.753846
356.279235	2424.795000
356.668689	2439.918462
357.058080	2480.247692
357.447408	2429.836154
357.836672	2384.465769
358.225873	2472.685962
358.615010	2409.671538
359.004084	2384.465769
359.393095	2429.836154
359.782043	2553.344423
360.170927	2525.618077
360.559748	2439.918462
360.948505	2447.480192
361.337199	2429.836154
361.725830	2429.836154
362.114398	2457.562500
362.502903	2460.083077
362.891344	2392.027500
363.279722	2394.548077
363.668037	2414.712692
364.056289	2397.068654
364.444478	2495.371154
364.832603	2460.083077
365.220665	2477.727115
365.608665	2366.821731
365.996601	2462.603654
366.384474	2412.192115
366.772284	2485.288846
367.160031	2437.397885
367.547715	2386.986346
367.935336	2434.877308
368.322893	2444.959615
368.710388	2417.233269
369.097820	2497.891731
369.485189	2482.768269
369.872495	2432.356731
370.259738	2407.150962
370.646918	2477.727115
371.034035	2477.727115
371.421090	2485.288846
371.808081	2424.795000
372.195010	2482.768269
372.581875	2502.932885
372.968678	2467.644808
373.355418	2462.603654
373.742096	2417.233269
374.128710	2414.712692
374.515262	2424.795000
374.901751	2442.439038
375.288177	2475.206538
375.674540	2472.685962
376.060841	2472.685962
376.447079	2376.904038
376.833254	2444.959615
377.219367	2437.397885
377.605417	2455.041923
377.991404	2500.412308
378.377329	2452.521346
378.763191	2376.904038
379.148991	2492.850577
379.534727	2412.192115
379.920402	2535.700385
380.306013	2515.535769
380.691563	2472.685962
381.077049	2460.083077
381.462474	2404.630385
381.847835	2477.727115
382.233134	2492.850577
382.618371	2505.453462
383.003545	2470.165385
383.388657	2482.768269
383.773706	2437.397885
384.158693	2520.576923
384.543618	2407.150962
384.928480	2394.548077
385.313280	2500.412308
385.698017	2533.179808
386.082692	2414.712692
386.467305	2492.850577
386.851856	2442.439038
387.236344	2434.877308
387.620770	2444.959615
388.005133	2407.150962
388.389435	2485.288846
388.773674	2500.412308
389.157851	2477.727115
389.541965	2412.192115
389.926018	2507.974038
390.310008	2452.521346
390.693936	2525.618077
391.077802	2427.315577
391.461606	2510.494615
391.845348	2487.809423
392.229027	2455.041923
392.612645	2467.644808
392.996200	2472.685962
393.379694	2485.288846
393.763125	2477.727115
394.146494	2442.439038
394.529801	2528.138654
394.913047	2444.959615
395.296230	2417.233269
395.679351	2437.397885
396.062410	2460.083077
396.445408	2462.603654
396.828343	2386.986346
397.211217	2513.015192
397.594028	2427.315577
397.976778	2510.494615
398.359466	2510.494615
398.742092	2442.439038
399.124656	2409.671538
399.507158	2417.233269
399.889598	2414.712692
400.271977	2424.795000
400.654294	2444.959615
401.036549	2470.165385
401.418742	2432.356731
401.800874	2538.220962
402.182944	2477.727115
402.564952	2548.303269
402.946898	2424.795000
403.328783	2455.041923
403.710606	2472.685962
404.092367	2477.727115
404.474067	2371.862885
404.855705	2543.262115
405.237282	2437.397885
405.618797	2455.041923
406.000250	2492.850577
406.381642	2490.330000
406.762972	2414.712692
407.144240	2442.439038
407.525447	2528.138654
407.906593	2480.247692
408.287677	2470.165385
408.668700	2482.768269
409.049661	2495.371154
409.430560	2392.027500
409.811399	2490.330000
410.192176	2515.535769
410.572891	2470.165385
410.953545	2442.439038
411.334138	2465.124231
411.714669	2475.206538
412.095139	2482.768269
412.475547	2444.959615
412.855894	2510.494615
413.236180	2538.220962
413.616405	2487.809423
413.996568	2429.836154
414.376670	2487.809423
414.756711	2510.494615
415.136691	2578.550192
415.516609	2386.986346
415.896466	2490.330000
416.276262	2482.768269
416.655997	2444.959615
417.035670	2432.356731
417.415283	2452.521346
417.794834	2495.371154
418.174324	2424.795000
418.553753	2467.644808
418.933121	2525.618077
419.312428	2475.206538
419.691674	2518.056346
420.070859	2381.945192
420.449983	2427.315577
420.829045	2427.315577
421.208047	2492.850577
421.586988	2432.356731
421.965867	2465.124231
422.344686	2487.809423
422.723444	2538.220962
423.102141	2500.412308
423.480777	2500.412308
423.859352	2366.821731
424.237866	2477.727115
424.616319	2492.850577
424.994712	2404.630385
425.373044	2515.535769
425.751314	2437.397885
426.129524	2457.562500
426.507673	2530.659231
426.885762	2462.603654
427.263789	2427.315577
427.641756	2447.480192
428.019662	2457.562500
428.397508	2460.083077
428.775292	2515.535769
429.153016	2447.480192
429.530679	2548.303269
429.908282	2563.426731
430.285824	2505.453462
430.663305	2442.439038
431.040726	2361.780577
431.418086	2412.192115
431.795385	2500.412308
432.172624	2608.797115
432.549802	2439.918462
432.926920	2485.288846
433.303977	2565.947308
433.680974	2424.795000
434.057910	2422.274423
434.434786	2545.782692
434.811601	2432.356731
435.188355	2482.768269
435.565050	2548.303269
435.941683	2520.576923
436.318257	2482.768269
436.694770	2439.918462
437.071222	2424.795000
437.447614	2477.727115
437.823946	2510.494615
438.200218	2520.576923
438.576429	2444.959615
438.952580	2543.262115
439.328670	2487.809423
439.704700	2460.083077
440.080670	2475.206538
440.456580	2513.015192
440.832429	2475.206538
441.208218	2452.521346
441.583947	2535.700385
441.959616	2502.932885
442.335224	2460.083077
442.710773	2447.480192
443.086261	2409.671538
443.461689	2568.467885
443.837057	2444.959615
444.212365	2384.465769
444.587612	2528.138654
444.962800	2500.412308
445.337927	2492.850577
445.712995	2482.768269
446.088002	2447.480192
446.462949	2583.591346
446.837837	2434.877308
447.212664	2465.124231
447.587431	2490.330000
447.962139	2543.262115
448.336786	2470.165385
448.711374	2462.603654
449.085901	2523.097500
449.460369	2470.165385
449.834776	2480.247692
450.209124	2480.247692
450.583412	2485.288846
450.957640	2505.453462
451.331808	2455.041923
451.705917	2510.494615
452.079965	2434.877308
452.453954	2553.344423
452.827883	2477.727115
453.201752	2502.932885
453.575562	2419.753846
453.949311	2513.015192
454.323001	2450.000769
454.696632	2497.891731
455.070202	2470.165385
455.443713	2475.206538
455.817164	2495.371154
456.190556	2409.671538
456.563888	2502.932885
456.937160	2475.206538
457.310373	2477.727115
457.683526	2487.809423
458.056619	2495.371154
458.429653	2404.630385
458.802628	2523.097500
459.175542	2573.509038
459.548398	2502.932885
459.921194	2533.179808
460.293930	2457.562500
460.666607	2450.000769
461.039224	2470.165385
461.411782	2470.165385
461.784280	2505.453462
462.156719	2502.932885
462.529099	2495.371154
462.901419	2470.165385
463.273680	2475.206538
463.645882	2502.932885
464.018024	2485.288846
464.390106	2477.727115
464.762130	2510.494615
465.134094	2558.385577
465.505999	2450.000769
465.877845	2462.603654
466.249631	2568.467885
466.621358	2434.877308
466.993026	2492.850577
467.364634	2550.823846
467.736184	2450.000769
468.107674	2578.550192
468.479105	2533.179808
468.850477	2525.618077
469.221790	2495.371154
469.593043	2490.330000
469.964238	2462.603654
470.335373	2505.453462
470.706449	2452.521346
471.077467	2523.097500
471.448425	2450.000769
471.819324	2540.741538
472.190164	2492.850577
472.560945	2535.700385
472.931667	2465.124231
473.302330	2475.206538
473.672934	2470.165385
474.043479	2515.535769
474.413965	2467.644808
474.784393	2563.426731
475.154761	2457.562500
475.525070	2439.918462
475.895321	2573.509038
476.265513	2462.603654
476.635645	2455.041923
477.005719	2543.262115
477.375734	2414.712692
477.745691	2515.535769
478.115588	2591.153077
478.485427	2538.220962
478.855207	2495.371154
479.224928	2457.562500
479.594591	2513.015192
479.964194	2475.206538
480.333739	2487.809423
480.703226	2402.109808
481.072653	2533.179808
481.442022	2530.659231
481.811333	2523.097500
482.180584	2457.562500
482.549777	2505.453462
482.918912	2485.288846
483.287988	2515.535769
483.657005	2520.576923
484.025964	2518.056346
484.394864	2432.356731
484.763706	2502.932885
485.132489	2397.068654
485.501213	2591.153077
485.869879	2487.809423
486.238487	2444.959615
486.607036	2444.959615
486.975527	2548.303269
487.343959	2510.494615
487.712333	2452.521346
488.080648	2457.562500
488.448905	2487.809423
488.817104	2558.385577
489.185244	2520.576923
489.553326	2530.659231
489.921350	2457.562500
490.289315	2553.344423
490.657222	2523.097500
491.025070	2500.412308
491.392861	2444.959615
491.760593	2523.097500
492.128267	2455.041923
492.495883	2439.918462
492.863440	2465.124231
493.230939	2497.891731
493.598380	2434.877308
493.965763	2472.685962
494.333088	2545.782692
494.700354	2452.521346
495.067563	2548.303269
495.434713	2462.603654
495.801805	2429.836154
496.168839	2477.727115
496.535815	2530.659231
496.902733	2513.015192
497.269593	2500.412308
497.636395	2450.000769
498.003139	2487.809423
498.369825	2505.453462
498.736453	2475.206538
499.103023	2510.494615
499.469535	2439.918462
499.835989	2538.220962
500.202385	2482.768269
500.568723	2462.603654
500.935003	2480.247692
501.301226	2505.453462
501.667390	2392.027500
502.033497	2520.576923
502.399546	2434.877308
502.765537	2480.247692
503.131470	2543.262115
503.497345	2460.083077
503.863163	2475.206538
504.228923	2477.727115
504.594625	2485.288846
504.960269	2485.288846
505.325856	2510.494615
505.691385	2528.138654
506.056856	2523.097500
506.422270	2482.768269
506.787625	2442.439038
507.152924	2399.589231
507.518164	2513.015192
507.883347	2434.877308
508.248472	2485.288846
508.613540	2434.877308
508.978550	2530.659231
509.343503	2470.165385
509.708398	2497.891731
510.073236	2457.562500
510.438016	2538.220962
510.802738	2424.795000
511.167403	2525.618077
511.532010	2472.685962
511.896561	2492.850577
512.261053	2533.179808
512.625488	2462.603654
512.989866	2386.986346
513.354186	2570.988462
513.718449	2545.782692
514.082655	2439.918462
514.446803	2505.453462
514.810894	2402.109808
515.174927	2505.453462
515.538904	2639.044038
515.902822	2490.330000
516.266684	2502.932885
516.630488	2510.494615
516.994235	2502.932885
517.357925	2462.603654
517.721558	2394.548077
518.085133	2510.494615
518.448651	2460.083077
518.812112	2465.124231
519.175516	2495.371154
519.538863	2472.685962
519.902152	2450.000769
520.265385	2500.412308
520.628560	2477.727115
520.991678	2412.192115
521.354739	2515.535769
521.717743	2470.165385
522.080690	2480.247692
522.443580	2563.426731
522.806413	2480.247692
523.169189	2442.439038
523.531908	2535.700385
523.894569	2495.371154
524.257174	2510.494615
524.619722	2520.576923
524.982213	2444.959615
525.344647	2487.809423
525.707025	2432.356731
526.069345	2515.535769
526.431608	2545.782692
526.793815	2477.727115
527.155964	2502.932885
527.518057	2525.618077
527.880093	2482.768269
528.242072	2452.521346
528.603995	2543.262115
528.965860	2414.712692
529.327669	2472.685962
529.689421	2480.247692
530.051117	2485.288846
530.412755	2429.836154
530.774337	2548.303269
531.135862	2545.782692
531.497331	2530.659231
531.858743	2482.768269
532.220098	2525.618077
532.581396	2472.685962
532.942638	2477.727115
533.303824	2460.083077
533.664953	2495.371154
534.026025	2477.727115
534.387040	2555.865000
534.747999	2543.262115
535.108902	2480.247692
535.469748	2568.467885
535.830537	2502.932885
536.191270	2628.961731
536.551947	2439.918462
536.912567	2520.576923
537.273131	2447.480192
537.633638	2535.700385
537.994089	2507.974038
538.354483	2555.865000
538.714821	2550.823846
539.075103	2507.974038
539.435328	2397.068654
539.795497	2432.356731
540.155609	2538.220962
540.515665	2495.371154
540.875665	2573.509038
541.235609	2482.768269
541.595496	2470.165385
541.955328	2578.550192
542.315102	2462.603654
542.674821	2520.576923
543.034483	2570.988462
543.394090	2505.453462
543.753640	2507.974038
544.113134	2470.165385
544.472571	2520.576923
544.831953	2475.206538
545.191278	2518.056346
545.550548	2442.439038
545.909761	2470.165385
546.268918	2535.700385
546.628019	2533.179808
546.987064	2437.397885
547.346053	2545.782692
547.704986	2525.618077
548.063863	2437.397885
548.422684	2555.865000
548.781449	2417.233269
549.140158	2553.344423
549.498811	2482.768269
549.857408	2432.356731
550.215949	2447.480192
550.574434	2548.303269
550.932864	2450.000769
551.291237	2460.083077
551.649555	2450.000769
552.007817	2507.974038
552.366022	2482.768269
552.724173	2525.618077
553.082267	2379.424615
553.440305	2444.959615
553.798288	2502.932885
554.156215	2455.041923
554.514086	2548.303269
554.871902	2439.918462
555.229661	2507.974038
555.587365	2450.000769
555.945014	2518.056346
556.302606	2487.809423
556.660143	2455.041923
557.017625	2412.192115
557.375050	2419.753846
557.732421	2442.439038
558.089735	2533.179808
558.446994	2432.356731
558.804197	2424.795000
559.161345	2490.330000
559.518437	2450.000769
559.875474	2460.083077
560.232455	2555.865000
560.589381	2553.344423
560.946251	2510.494615
561.303065	2480.247692
561.659825	2450.000769
562.016528	2492.850577
562.373177	2485.288846
562.729770	2515.535769
563.086307	2495.371154
563.442789	2500.412308
563.799216	2460.083077
564.155587	2518.056346
564.511904	2573.509038
564.868164	2502.932885
565.224370	2530.659231
565.580520	2460.083077
565.936615	2477.727115
566.292654	2485.288846
566.648638	2550.823846
567.004567	2515.535769
567.360441	2465.124231
567.716260	2482.768269
568.072023	2462.603654
568.427732	2475.206538
568.783385	2467.644808
569.138982	2513.015192
569.494525	2475.206538
569.850013	2545.782692
570.205445	2482.768269
570.560823	2583.591346
570.916145	2490.330000
571.271412	2523.097500
571.626625	2553.344423
571.981782	2505.453462
572.336884	2505.453462
572.691931	2485.288846
573.046923	2530.659231
573.401860	2485.288846
573.756743	2472.685962
574.111570	2482.768269
574.466342	2447.480192
574.821059	2515.535769
575.175722	2518.056346
575.530330	2434.877308
575.884882	2550.823846
576.239380	2518.056346
576.593823	2502.932885
576.948211	2487.809423
577.302544	2457.562500
577.656823	2505.453462
578.011047	2568.467885
578.365216	2581.070769
578.719330	2442.439038
579.073389	2518.056346
579.427394	2477.727115
579.781344	2523.097500
580.135239	2450.000769
580.489080	2460.083077
580.842866	2472.685962
581.196597	2497.891731
581.550273	2510.494615
581.903895	2495.371154
582.257463	2444.959615
582.610975	2470.165385
582.964434	2462.603654
583.317837	2565.947308
583.671186	2603.755962
584.024481	2487.809423
584.377721	2500.412308
584.730906	2439.918462
585.084037	2548.303269
585.437113	2470.165385
585.790135	2528.138654
586.143103	2460.083077
586.496016	2460.083077
586.848874	2518.056346
587.201679	2439.918462
587.554428	2578.550192
587.907124	2480.247692
588.259765	2470.165385
588.612352	2487.809423
588.964884	2490.330000
589.317362	2437.397885
589.669786	2540.741538
590.022155	2495.371154
590.374470	2518.056346
590.726731	2490.330000
591.078937	2497.891731
591.431090	2505.453462
591.783188	2392.027500
592.135232	2523.097500
592.487222	2475.206538
592.839157	2568.467885
593.191038	2518.056346
593.542866	2419.753846
593.894639	2480.247692
594.246358	2528.138654
594.598022	2467.644808
594.949633	2558.385577
595.301190	2510.494615
595.652692	2450.000769
596.004141	2447.480192
596.355535	2528.138654
596.706876	2487.809423
597.058162	2500.412308
597.409395	2530.659231
597.760573	2492.850577
598.111698	2538.220962
598.462768	2487.809423
598.813785	2495.371154
599.164748	2485.288846
599.515657	2495.371154
599.866511	2583.591346
600.217312	2477.727115
600.568060	2533.179808
600.918753	2472.685962
601.269392	2533.179808
601.619978	2429.836154
601.970510	2507.974038
602.320988	2550.823846
602.671412	2520.576923
603.021783	2530.659231
603.372100	2480.247692
603.722363	2528.138654
604.072572	2591.153077
604.422728	2429.836154
604.772830	2439.918462
605.122878	2460.083077
605.472872	2482.768269
605.822813	2520.576923
606.172701	2460.083077
606.522534	2570.988462
606.872314	2535.700385
607.222041	2485.288846
607.571714	2480.247692
607.921333	2465.124231
608.270899	2581.070769
608.620411	2568.467885
608.969870	2412.192115
609.319276	2465.124231
609.668627	2392.027500
610.017926	2525.618077
610.367171	2528.138654
610.716362	2510.494615
611.065500	2497.891731
611.414585	2450.000769
611.763616	2477.727115
612.112594	2437.397885
612.461518	2510.494615
612.810389	2427.315577
613.159207	2545.782692
613.507971	2457.562500
613.856682	2518.056346
614.205340	2495.371154
614.553945	2553.344423
614.902496	2523.097500
615.250994	2427.315577
615.599439	2407.150962
615.947830	2482.768269
616.296169	2460.083077
616.644454	2500.412308
616.992686	2513.015192
617.340864	2482.768269
617.688990	2510.494615
618.037063	2475.206538
618.385082	2465.124231
618.733048	2545.782692
619.080961	2480.247692
619.428821	2520.576923
619.776628	2507.974038
620.124382	2477.727115
620.472083	2467.644808
620.819731	2555.865000
621.167326	2480.247692
621.514868	2477.727115
621.862357	2558.385577
622.209793	2452.521346
622.557176	2553.344423
622.904506	2495.371154
623.251783	2432.356731
623.599007	2477.727115
623.946179	2510.494615
624.293297	2550.823846
624.640363	2417.233269
624.987376	2576.029615
625.334336	2487.809423
625.681243	2409.671538
626.028097	2560.906154
626.374899	2392.027500
626.721647	2422.274423
627.068343	2472.685962
627.414987	2455.041923
627.761577	2490.330000
628.108115	2510.494615
628.454600	2495.371154
628.801032	2510.494615
629.147412	2507.974038
629.493739	2545.782692
629.840014	2505.453462
630.186236	2482.768269
630.532405	2485.288846
630.878521	2397.068654
631.224585	2533.179808
631.570597	2533.179808
631.916556	2414.712692
632.262462	2528.138654
632.608316	2573.509038
632.954117	2480.247692
633.299866	2480.247692
633.645562	2502.932885
633.991206	2462.603654
634.336797	2535.700385
634.682336	2525.618077
635.027823	2450.000769
635.373257	2535.700385
635.718639	2495.371154
636.063968	2497.891731
636.409245	2528.138654
636.754470	2560.906154
637.099642	2457.562500
637.444762	2553.344423
637.789829	2553.344423
638.134845	2427.315577
638.479808	2475.206538
638.824719	2568.467885
639.169577	2470.165385
639.514383	2515.535769
639.859137	2462.603654
640.203839	2507.974038
640.548489	2452.521346
640.893086	2510.494615
641.237632	2497.891731
641.582125	2545.782692
641.926566	2482.768269
642.270955	2530.659231
642.615292	2455.041923
642.959576	2477.727115
643.303809	2497.891731
643.647990	2490.330000
643.992118	2505.453462
644.336195	2472.685962
644.680219	2467.644808
645.024192	2472.685962
645.368112	2545.782692
645.711981	2427.315577
646.055797	2450.000769
646.399562	2513.015192
646.743274	2429.836154
647.086935	2437.397885
647.430544	2452.521346
647.774101	2460.083077
648.117606	2490.330000
648.461059	2545.782692
648.804460	2467.644808
649.147810	2500.412308
649.491108	2465.124231
649.834354	2550.823846
650.177548	2467.644808
650.520690	2543.262115
650.863781	2460.083077
651.206820	2513.015192
651.549807	2535.700385
651.892742	2462.603654
652.235626	2429.836154
652.578458	2480.247692
652.921238	2419.753846
653.263967	2447.480192
653.606644	2495.371154
653.949269	2450.000769
654.291843	2439.918462
654.634365	2540.741538
654.976836	2437.397885
655.319255	2518.056346
655.661622	2520.576923
656.003938	2480.247692
656.346203	2439.918462
656.688416	2518.056346
657.030577	2518.056346
657.372687	2591.153077
657.714746	2510.494615
658.056753	2480.247692
658.398708	2427.315577
658.740612	2392.027500
659.082465	2419.753846
659.424266	2515.535769
659.766016	2555.865000
660.107715	2462.603654
660.449362	2576.029615
660.790958	2510.494615
661.132503	2533.179808
661.473996	2528.138654
661.815438	2470.165385
662.156829	2553.344423
662.498168	2490.330000
662.839456	2540.741538
663.180693	2507.974038
663.521879	2530.659231
663.863013	2520.576923
664.204097	2540.741538
664.545129	2470.165385
664.886110	2507.974038
665.227040	2409.671538
665.567918	2460.083077
665.908746	2581.070769
666.249522	2414.712692
666.590248	2528.138654
666.930922	2616.358846
667.271545	2520.576923
667.612118	2465.124231
667.952639	2528.138654
668.293109	2452.521346
668.633528	2507.974038
668.973896	2545.782692
669.314213	2507.974038
669.654480	2538.220962
669.994695	2530.659231
670.334859	2497.891731
670.674973	2442.439038
671.015035	2578.550192
671.355047	2487.809423
671.695008	2530.659231
672.034918	2447.480192
672.374777	2470.165385
672.714585	2518.056346
673.054342	2518.056346
673.394049	2450.000769
673.733705	2482.768269
674.073310	2500.412308
674.412864	2533.179808
674.752368	2492.850577
675.091820	2555.865000
675.431223	2404.630385
675.770574	2505.453462
676.109875	2424.795000
676.449125	2455.041923
676.788324	2462.603654
677.127473	2467.644808
677.466571	2513.015192
677.805619	2477.727115
678.144616	2553.344423
678.483562	2570.988462
678.822458	2417.233269
679.161303	2465.124231
679.500098	2538.220962
679.838842	2540.741538
680.177535	2419.753846
680.516179	2507.974038
680.854771	2487.809423
681.193314	2462.603654
681.531805	2500.412308
681.870247	2495.371154
682.208638	2477.727115
682.546978	2543.262115
682.885268	2450.000769
683.223508	2540.741538
683.561697	2427.315577
683.899836	2477.727115
684.237925	2520.576923
684.575963	2475.206538
684.913951	2450.000769
685.251889	2533.179808
685.589776	2502.932885
685.927614	2485.288846
686.265401	2467.644808
686.603137	2450.000769
686.940824	2530.659231
687.278460	2510.494615
687.616046	2452.521346
687.953582	2497.891731
688.291068	2480.247692
688.628504	2475.206538
688.965889	2500.412308
689.303224	2515.535769
689.640510	2422.274423
689.977745	2555.865000
690.314930	2442.439038
690.652065	2439.918462
690.989150	2533.179808
691.326185	2540.741538
691.663170	2467.644808
692.000105	2434.877308
692.336990	2520.576923
692.673825	2495.371154
693.010610	2570.988462
693.347345	2563.426731
693.684030	2452.521346
694.020665	2525.618077
694.357251	2492.850577
694.693786	2480.247692
695.030272	2525.618077
695.366707	2439.918462
695.703093	2497.891731
696.039429	2520.576923
696.375716	2530.659231
696.711952	2502.932885
697.048139	2439.918462
697.384276	2482.768269
697.720363	2520.576923
698.056400	2535.700385
698.392388	2460.083077
698.728326	2434.877308
699.064214	2520.576923
699.400053	2450.000769
699.735842	2568.467885
700.071581	2555.865000
700.407270	2392.027500
700.742910	2555.865000
701.078501	2520.576923
701.414042	2472.685962
701.749533	2507.974038
702.084974	2565.947308
702.420366	2457.562500
702.755709	2525.618077
703.091002	2480.247692
703.426246	2432.356731
703.761440	2538.220962
704.096584	2452.521346
704.431679	2497.891731
704.766725	2475.206538
705.101721	2455.041923
705.436668	2482.768269
705.771565	2525.618077
706.106413	2502.932885
706.441212	2492.850577
706.775961	2457.562500
707.110661	2525.618077
707.445311	2392.027500
707.779913	2515.535769
708.114465	2465.124231
708.448967	2492.850577
708.783421	2538.220962
709.117825	2505.453462
709.452180	2432.356731
709.786485	2513.015192
710.120742	2576.029615
710.454949	2492.850577
710.789107	2452.521346
711.123216	2475.206538
711.457275	2525.618077
711.791286	2513.015192
712.125247	2485.288846
712.459159	2429.836154
712.793023	2432.356731
713.126837	2477.727115
713.460602	2470.165385
713.794318	2528.138654
714.127985	2555.865000
714.461602	2570.988462
714.795171	2437.397885
715.128691	2434.877308
715.462162	2417.233269
715.795584	2467.644808
716.128957	2515.535769
716.462281	2578.550192
716.795556	2507.974038
717.128782	2543.262115
717.461960	2487.809423
717.795088	2467.644808
718.128167	2407.150962
718.461198	2487.809423
718.794180	2480.247692
719.127113	2507.974038
719.459997	2477.727115
719.792833	2472.685962
720.125619	2477.727115
720.458357	2444.959615
720.791046	2548.303269
721.123686	2563.426731
721.456278	2485.288846
721.788821	2538.220962
722.121315	2417.233269
722.453761	2487.809423
722.786158	2570.988462
723.118506	2457.562500
723.450805	2477.727115
723.783056	2457.562500
724.115259	2518.056346
724.447412	2540.741538
724.779518	2427.315577
725.111574	2507.974038
725.443582	2553.344423
725.775542	2467.644808
726.107453	2490.330000
726.439315	2457.562500
726.771129	2497.891731
727.102895	2535.700385
727.434612	2497.891731
727.766281	2525.618077
728.097901	2523.097500
728.429473	2492.850577
728.760996	2447.480192
729.092471	2528.138654
729.423897	2432.356731
729.755276	2515.535769
730.086606	2520.576923
730.417887	2608.797115
730.749120	2437.397885
731.080305	2520.576923
731.411442	2477.727115
731.742530	2490.330000
732.073570	2518.056346
732.404562	2477.727115
732.735506	2535.700385
733.066401	2518.056346
733.397249	2520.576923
733.728048	2462.603654
734.058798	2497.891731
734.389501	2513.015192
734.720156	2417.233269
735.050762	2525.618077
735.381320	2439.918462
735.711831	2462.603654
736.042293	2434.877308
736.372707	2482.768269
736.703073	2467.644808
737.033391	2475.206538
737.363661	2429.836154
737.693883	2482.768269
738.024056	2465.124231
738.354182	2437.397885
738.684260	2397.068654
739.014290	2500.412308
739.344272	2480.247692
739.674207	2528.138654
740.004093	2432.356731
740.333931	2417.233269
740.663722	2460.083077
740.993464	2470.165385
741.323159	2588.632500
741.652806	2475.206538
741.982405	2553.344423
742.311956	2485.288846
742.641460	2465.124231
742.970915	2392.027500
743.300323	2588.632500
743.629683	2535.700385
743.958996	2462.603654
744.288260	2497.891731
744.617477	2434.877308
744.946647	2513.015192
745.275768	2497.891731
745.604842	2450.000769
745.933869	2593.673654
746.262847	2442.439038
746.591778	2429.836154
746.920662	2457.562500
747.249498	2535.700385
747.578286	2540.741538
747.907027	2450.000769
748.235720	2424.795000
748.564365	2457.562500
748.892963	2513.015192
749.221514	2495.371154
749.550017	2475.206538
749.878473	2497.891731
750.206881	2417.233269
750.535242	2404.630385
750.863555	2538.220962
751.191821	2447.480192
751.520039	2558.385577
751.848210	2538.220962
752.176334	2477.727115
752.504411	2538.220962
752.832440	2472.685962
753.160421	2507.974038
753.488356	2482.768269
753.816243	2548.303269
754.144082	2482.768269
754.471875	2510.494615
754.799620	2528.138654
755.127318	2450.000769
755.454969	2528.138654
755.782572	2439.918462
756.110129	2475.206538
756.437638	2497.891731
756.765100	2525.618077
757.092515	2563.426731
757.419882	2323.971923
757.747203	2538.220962
758.074477	2507.974038
758.401703	2477.727115
758.728882	2525.618077
759.056014	2467.644808
759.383099	2487.809423
759.710138	2467.644808
760.037129	2462.603654
760.364073	2518.056346
760.690970	2523.097500
761.017820	2513.015192
761.344623	2573.509038
761.671379	2465.124231
761.998088	2487.809423
762.324751	2495.371154
762.651366	2480.247692
762.977935	2500.412308
763.304456	2563.426731
763.630931	2538.220962
763.957359	2513.015192
764.283740	2490.330000
764.610074	2576.029615
764.936362	2485.288846
765.262602	2563.426731
765.588796	2434.877308
765.914943	2576.029615
766.241044	2497.891731
766.567097	2447.480192
766.893104	2485.288846
767.219064	2482.768269
767.544978	2518.056346
767.870845	2502.932885
768.196665	2507.974038
768.522438	2472.685962
768.848165	2540.741538
769.173846	2563.426731
769.499479	2439.918462
769.825066	2502.932885
770.150607	2419.753846
770.476101	2520.576923
770.801548	2419.753846
771.126949	2485.288846
771.452303	2465.124231
771.777611	2465.124231
772.102872	2470.165385
772.428087	2475.206538
772.753256	2467.644808
773.078378	2578.550192
773.403453	2533.179808
773.728482	2616.358846
774.053465	2588.632500
774.378401	2472.685962
774.703291	2457.562500
775.028135	2490.330000
775.352932	2482.768269
775.677683	2462.603654
776.002388	2455.041923
776.327046	2492.850577
776.651658	2424.795000
776.976224	2505.453462
777.300743	2485.288846
777.625216	2507.974038
777.949643	2485.288846
778.274024	2472.685962
778.598359	2502.932885
778.922647	2402.109808
779.246889	2412.192115
779.571086	2407.150962
779.895236	2404.630385
780.219339	2439.918462
780.543397	2510.494615
780.867409	2535.700385
781.191374	2386.986346
781.515294	2528.138654
781.839167	2465.124231
782.162995	2450.000769
782.486776	2447.480192
782.810511	2502.932885
783.134201	2502.932885
783.457844	2497.891731
783.781441	2500.412308
784.104993	2487.809423
784.428498	2439.918462
784.751958	2545.782692
785.075372	2397.068654
785.398739	2460.083077
785.722061	2533.179808
786.045337	2510.494615
786.368568	2497.891731
786.691752	2523.097500
787.014891	2540.741538
787.337983	2475.206538
787.661030	2470.165385
787.984031	2558.385577
788.306987	2480.247692
788.629897	2460.083077
788.952760	2497.891731
789.275579	2450.000769
789.598351	2477.727115
789.921078	2500.412308
790.243759	2505.453462
790.566395	2518.056346
790.888984	2505.453462
791.211529	2553.344423
791.534027	2460.083077
791.856480	2513.015192
792.178888	2518.056346
792.501249	2497.891731
792.823566	2520.576923
793.145836	2550.823846
793.468062	2480.247692
793.790241	2528.138654
794.112375	2437.397885
794.434464	2434.877308
794.756507	2525.618077
795.078505	2530.659231
795.400457	2502.932885
795.722364	2447.480192
796.044226	2447.480192
796.366042	2467.644808
796.687812	2490.330000
797.009538	2500.412308
797.331218	2452.521346
797.652852	2487.809423
797.974442	2502.932885
798.295986	2530.659231
798.617484	2490.330000
798.938938	2490.330000
799.260346	2462.603654
799.581709	2470.165385
799.903026	2465.124231
800.224299	2419.753846
800.545526	2490.330000
800.866708	2460.083077
801.187845	2520.576923
801.508936	2502.932885
801.829983	2505.453462
802.150984	2409.671538
802.471940	2480.247692
802.792851	2465.124231
803.113717	2490.330000
803.434538	2482.768269
803.755314	2460.083077
804.076045	2500.412308
804.396731	2472.685962
804.717372	2560.906154
805.037967	2424.795000
805.358518	2525.618077
805.679024	2560.906154
805.999485	2495.371154
806.319901	2495.371154
806.640272	2437.397885
806.960598	2452.521346
807.280879	2414.712692
807.601115	2518.056346
807.921306	2533.179808
808.241453	2548.303269
808.561554	2465.124231
808.881611	2472.685962
809.201623	2467.644808
809.521590	2505.453462
809.841513	2518.056346
810.161390	2467.644808
810.481223	2525.618077
810.801011	2472.685962
811.120755	2457.562500
811.440453	2457.562500
811.760107	2507.974038
812.079716	2452.521346
812.399281	2439.918462
812.718801	2457.562500
813.038276	2467.644808
813.357707	2528.138654
813.677093	2510.494615
813.996434	2500.412308
814.315731	2397.068654
814.634983	2588.632500
814.954191	2487.809423
815.273354	2565.947308
815.592473	2515.535769
815.911547	2487.809423
816.230577	2528.138654
816.549562	2518.056346
816.868502	2492.850577
817.187399	2558.385577
817.506250	2578.550192
817.825058	2452.521346
818.143821	2417.233269
818.462539	2465.124231
818.781213	2462.603654
819.099843	2533.179808
819.418429	2520.576923
819.736970	2548.303269
820.055466	2402.109808
820.373919	2450.000769
820.692327	2460.083077
821.010691	2460.083077
821.329011	2487.809423
821.647286	2530.659231
821.965517	2550.823846
822.283704	2485.288846
822.601847	2485.288846
822.919945	2507.974038
823.237999	2545.782692
823.556010	2475.206538
823.873976	2523.097500
824.191897	2507.974038
824.509775	2497.891731
824.827609	2487.809423
825.145398	2477.727115
825.463144	2394.548077
825.780845	2518.056346
826.098502	2553.344423
826.416116	2381.945192
826.733685	2583.591346
827.051210	2467.644808
827.368692	2467.644808
827.686129	2429.836154
828.003522	2545.782692
828.320872	2550.823846
828.638177	2467.644808
828.955439	2518.056346
829.272656	2444.959615
829.589830	2452.521346
829.906960	2540.741538
830.224046	2497.891731
830.541088	2497.891731
830.858086	2482.768269
831.175041	2465.124231
831.491952	2525.618077
831.808819	2422.274423
832.125642	2477.727115
832.442421	2465.124231
832.759157	2497.891731
833.075849	2513.015192
833.392497	2490.330000
833.709101	2462.603654
834.025662	2462.603654
834.342179	2513.015192
834.658653	2465.124231
834.975083	2505.453462
835.291469	2480.247692
835.607811	2480.247692
835.924110	2485.288846
836.240366	2482.768269
836.556578	2472.685962
836.872746	2419.753846
837.188871	2444.959615
837.504952	2502.932885
837.820990	2485.288846
838.136984	2505.453462
838.452935	2485.288846
838.768842	2538.220962
839.084706	2475.206538
839.400526	2528.138654
839.716303	2492.850577
840.032037	2432.356731
840.347727	2462.603654
840.663373	2563.426731
840.978977	2548.303269
841.294537	2414.712692
841.610054	2550.823846
841.925527	2500.412308
842.240957	2535.700385
842.556344	2402.109808
842.871687	2518.056346
843.186987	2545.782692
843.502244	2495.371154
843.817458	2432.356731
844.132629	2490.330000
844.447756	2487.809423
844.762840	2452.521346
845.077881	2457.562500
845.392879	2450.000769
845.707833	2444.959615
846.022745	2477.727115
846.337613	2535.700385
846.652438	2482.768269
846.967221	2591.153077
847.281960	2472.685962
847.596656	2457.562500
847.911309	2492.850577
848.225919	2480.247692
848.540485	2475.206538
848.855009	2389.506923
849.169490	2356.739423
849.483928	2515.535769
849.798323	2500.412308
850.112675	2548.303269
850.426984	2540.741538
850.741251	2462.603654
851.055474	2462.603654
851.369654	2535.700385
851.683792	2528.138654
851.997887	2470.165385
852.311938	2470.165385
852.625947	2439.918462
852.939914	2497.891731
853.253837	2543.262115
853.567718	2470.165385
853.881555	2550.823846
854.195350	2530.659231
854.509103	2563.426731
854.822812	2495.371154
855.136479	2485.288846
855.450103	2465.124231
855.763685	2505.453462
856.077224	2480.247692
856.390720	2437.397885
856.704173	2366.821731
857.017584	2417.233269
857.330953	2502.932885
857.644278	2495.371154
857.957561	2492.850577
858.270802	2442.439038
858.584000	2583.591346
858.897155	2434.877308
859.210268	2462.603654
859.523339	2510.494615
859.836367	2570.988462
860.149352	2485.288846
860.462295	2447.480192
860.775195	2500.412308
861.088054	2495.371154
861.400869	2444.959615
861.713642	2452.521346
862.026373	2513.015192
862.339062	2500.412308
862.651708	2528.138654
862.964312	2492.850577
863.276873	2545.782692
863.589392	2475.206538
863.901869	2510.494615
864.214303	2502.932885
864.526696	2495.371154
864.839045	2462.603654
865.151353	2457.562500
865.463619	2450.000769
865.775842	2470.165385
866.088023	2507.974038
866.400162	2545.782692
866.712258	2452.521346
867.024313	2500.412308
867.336325	2540.741538
867.648296	2477.727115
867.960224	2467.644808
868.272110	2555.865000
868.583954	2455.041923
868.895755	2520.576923
869.207515	2422.274423
869.519233	2442.439038
869.830909	2477.727115
870.142542	2452.521346
870.454134	2576.029615
870.765684	2475.206538
871.077191	2530.659231
871.388657	2507.974038
871.700081	2515.535769
872.011463	2442.439038
872.322803	2513.015192
872.634101	2475.206538
872.945357	2568.467885
873.256571	2442.439038
873.567744	2576.029615
873.878874	2419.753846
874.189963	2472.685962
874.501010	2402.109808
874.812015	2510.494615
875.122979	2482.768269
875.433900	2455.041923
875.744780	2470.165385
876.055618	2500.412308
876.366415	2409.671538
876.677169	2510.494615
876.987882	2447.480192
877.298554	2389.506923
877.609183	2515.535769
877.919771	2495.371154
878.230317	2505.453462
878.540822	2518.056346
878.851285	2485.288846
879.161707	2422.274423
879.472087	2578.550192
879.782425	2462.603654
880.092722	2477.727115
880.402977	2558.385577
880.713191	2520.576923
881.023363	2568.467885
881.333494	2470.165385
881.643583	2497.891731
881.953631	2487.809423
882.263637	2439.918462
882.573602	2487.809423
882.883526	2475.206538
883.193408	2513.015192
883.503248	2447.480192
883.813048	2510.494615
884.122806	2518.056346
884.432522	2502.932885
884.742197	2525.618077
885.051831	2452.521346
885.361424	2525.618077
885.670975	2538.220962
885.980485	2490.330000
886.289954	2507.974038
886.599382	2429.836154
886.908768	2553.344423
887.218113	2477.727115
887.527417	2555.865000
887.836680	2467.644808
888.145901	2490.330000
888.455082	2470.165385
888.764221	2477.727115
889.073319	2447.480192
889.382376	2548.303269
889.691392	2525.618077
890.000366	2414.712692
890.309300	2497.891731
890.618193	2523.097500
890.927044	2442.439038
891.235855	2513.015192
891.544625	2482.768269
891.853353	2432.356731
892.162041	2520.576923
892.470687	2485.288846
892.779293	2495.371154
893.087858	2515.535769
893.396381	2520.576923
893.704864	2404.630385
894.013306	2467.644808
894.321707	2523.097500
894.630068	2442.439038
894.938387	2470.165385
895.246665	2553.344423
895.554903	2528.138654
895.863100	2510.494615
896.171256	2530.659231
896.479371	2555.865000
896.787446	2444.959615
897.095480	2538.220962
897.403473	2490.330000
897.711425	2500.412308
898.019336	2502.932885
898.327207	2397.068654
898.635038	2507.974038
898.942827	2404.630385
899.250576	2470.165385
899.558284	2450.000769
899.865952	2482.768269
900.173579	2472.685962
900.481165	2487.809423
900.788711	2525.618077
901.096216	2495.371154
901.403681	2429.836154
901.711105	2581.070769
902.018489	2447.480192
902.325832	2381.945192
902.633135	2528.138654
902.940397	2414.712692
903.247619	2545.782692
903.554800	2533.179808
903.861941	2480.247692
904.169041	2422.274423
904.476101	2513.015192
904.783121	2432.356731
905.090100	2510.494615
905.397039	2520.576923
905.703938	2530.659231
906.010796	2419.753846
906.317614	2490.330000
906.624391	2480.247692
906.931129	2485.288846
907.237826	2450.000769
907.544483	2439.918462
907.851099	2490.330000
908.157675	2470.165385
908.464211	2492.850577
908.770707	2565.947308
909.077163	2535.700385
909.383578	2601.235385
909.689954	2444.959615
909.996289	2480.247692
910.302584	2492.850577
910.608839	2432.356731
910.915054	2470.165385
911.221229	2477.727115
911.527363	2475.206538
911.833458	2515.535769
912.139513	2576.029615
912.445527	2515.535769
912.751502	2467.644808
913.057436	2457.562500
913.363331	2518.056346
913.669186	2482.768269
913.975000	2457.562500
914.280775	2437.397885
914.586510	2482.768269
914.892205	2467.644808
915.197859	2424.795000
915.503475	2492.850577
915.809050	2533.179808
916.114585	2485.288846
916.420081	2538.220962
916.725536	2523.097500
917.030952	2485.288846
917.336328	2439.918462
917.641665	2386.986346
917.946961	2462.603654
918.252218	2490.330000
918.557435	2553.344423
918.862612	2475.206538
919.167750	2457.562500
919.472848	2535.700385
919.777906	2444.959615
920.082925	2475.206538
920.387904	2482.768269
920.692843	2477.727115
920.997743	2507.974038
921.302603	2386.986346
921.607423	2467.644808
921.912204	2465.124231
922.216946	2437.397885
922.521647	2563.426731
922.826310	2558.385577
923.130932	2472.685962
923.435516	2497.891731
923.740059	2437.397885
924.044564	2439.918462
924.349028	2492.850577
924.653454	2470.165385
924.957840	2497.891731
925.262186	2492.850577
925.566493	2439.918462
925.870761	2480.247692
926.174989	2470.165385
926.479178	2507.974038
926.783328	2555.865000
927.087438	2490.330000
927.391509	2455.041923
927.695541	2404.630385
927.999533	2442.439038
928.303486	2528.138654
928.607400	2535.700385
928.911275	2427.315577
929.215110	2462.603654
929.518906	2475.206538
929.822663	2543.262115
930.126381	2563.426731
930.430060	2518.056346
930.733699	2475.206538
931.037299	2502.932885
931.340861	2510.494615
931.644383	2439.918462
931.947866	2507.974038
932.251309	2497.891731
932.554714	2460.083077
932.858080	2475.206538
933.161407	2520.576923
933.464694	2482.768269
933.767943	2548.303269
934.071153	2455.041923
934.374323	2608.797115
934.677455	2475.206538
934.980548	2555.865000
935.283602	2528.138654
935.586617	2583.591346
935.889593	2452.521346
936.192530	2447.480192
936.495428	2482.768269
936.798287	2487.809423
937.101108	2475.206538
937.403890	2500.412308
937.706632	2477.727115
938.009336	2470.165385
938.312002	2442.439038
938.614628	2513.015192
938.917216	2520.576923
939.219765	2467.644808
939.522275	2525.618077
939.824747	2581.070769
940.127179	2545.782692
940.429573	2555.865000
940.731929	2442.439038
941.034246	2462.603654
941.336524	2505.453462
941.638763	2507.974038
941.940964	2447.480192
942.243126	2540.741538
942.545250	2470.165385
942.847335	2507.974038
943.149381	2477.727115
943.451389	2422.274423
943.753359	2576.029615
944.055290	2505.453462
944.357182	2578.550192
944.659036	2412.192115
944.960851	2586.111923
945.262628	2553.344423
945.564367	2538.220962
945.866067	2533.179808
946.167729	2480.247692
946.469352	2487.809423
946.770937	2515.535769
947.072484	2548.303269
947.373992	2495.371154
947.675462	2500.412308
947.976893	2467.644808
948.278286	2462.603654
948.579641	2462.603654
948.880958	2482.768269
949.182236	2560.906154
949.483476	2507.974038
949.784678	2399.589231
950.085841	2505.453462
950.386967	2455.041923
950.688054	2495.371154
950.989103	2432.356731
951.290114	2510.494615
951.591087	2507.974038
951.892021	2502.932885
952.192917	2442.439038
952.493776	2520.576923
952.794596	2465.124231
953.095378	2437.397885
953.396122	2520.576923
953.696828	2490.330000
953.997496	2485.288846
954.298126	2513.015192
954.598718	2538.220962
954.899272	2520.576923
955.199788	2434.877308
955.500266	2482.768269
955.800706	2475.206538
956.101108	2432.356731
956.401472	2495.371154
956.701798	2482.768269
957.002087	2505.453462
957.302337	2432.356731
957.602550	2470.165385
957.902724	2482.768269
958.202861	2485.288846
958.502960	2538.220962
958.803022	2535.700385
959.103045	2490.330000
959.403031	2460.083077
959.702979	2442.439038
960.002889	2548.303269
960.302762	2482.768269
960.602596	2565.947308
960.902393	2576.029615
961.202153	2500.412308
961.501875	2462.603654
961.801559	2490.330000
962.101205	2482.768269
962.400814	2623.920577
962.700385	2520.576923
962.999918	2500.412308
963.299414	2530.659231
963.598873	2490.330000
963.898293	2480.247692
964.197677	2545.782692
964.497022	2500.412308
964.796331	2530.659231
965.095601	2460.083077
965.394835	2470.165385
965.694030	2452.521346
965.993189	2550.823846
966.292309	2520.576923
966.591393	2530.659231
966.890439	2475.206538
967.189447	2530.659231
967.488419	2485.288846
967.787353	2495.371154
968.086249	2550.823846
968.385108	2452.521346
968.683930	2404.630385
968.982714	2507.974038
969.281462	2538.220962
969.580172	2495.371154
969.878844	2586.111923
970.177480	2568.467885
970.476078	2548.303269
970.774639	2452.521346
971.073162	2457.562500
971.371649	2497.891731
971.670098	2392.027500
971.968510	2497.891731
972.266885	2444.959615
972.565223	2467.644808
972.863524	2538.220962
973.161788	2535.700385
973.460014	2452.521346
973.758204	2497.891731
974.056356	2452.521346
974.354471	2457.562500
974.652550	2467.644808
974.950591	2500.412308
975.248595	2447.480192
975.546563	2500.412308
975.844493	2452.521346
976.142386	2497.891731
976.440243	2495.371154
976.738062	2507.974038
977.035845	2434.877308
977.333590	2429.836154
977.631299	2558.385577
977.928971	2467.644808
978.226606	2528.138654
978.524204	2467.644808
978.821765	2586.111923
979.119290	2462.603654
979.416777	2477.727115
979.714228	2538.220962
980.011642	2422.274423
980.309020	2457.562500
980.606360	2550.823846
980.903664	2462.603654
981.200931	2497.891731
981.498162	2455.041923
981.795356	2397.068654
982.092513	2419.753846
982.389633	2444.959615
982.686717	2497.891731
982.983764	2502.932885
983.280775	2432.356731
983.577749	2465.124231
983.874686	2442.439038
984.171587	2356.739423
984.468451	2495.371154
984.765279	2439.918462
985.062070	2507.974038
985.358824	2444.959615
985.655543	2492.850577
985.952224	2407.150962
986.248869	2576.029615
986.545478	2487.809423
986.842050	2427.315577
987.138586	2570.988462
987.435086	2407.150962
987.731549	2467.644808
988.027975	2422.274423
988.324366	2543.262115
988.620719	2470.165385
988.917037	2457.562500
989.213318	2457.562500
989.509563	2535.700385
989.805772	2419.753846
990.101944	2394.548077
990.398080	2477.727115
990.694180	2492.850577
990.990244	2497.891731
991.286271	2475.206538
991.582262	2447.480192
991.878217	2437.397885
992.174136	2475.206538
992.470019	2477.727115
992.765865	2477.727115
993.061676	2422.274423
993.357450	2417.233269
993.653188	2513.015192
993.948890	2477.727115
994.244556	2437.397885
994.540186	2475.206538
994.835780	2432.356731
995.131337	2500.412308
995.426859	2432.356731
995.722345	2533.179808
996.017795	2482.768269
996.313208	2490.330000
996.608586	2475.206538
996.903928	2495.371154
997.199234	2465.124231
997.494504	2505.453462
997.789738	2515.535769
998.084936	2472.685962
998.380099	2457.562500
998.675225	2467.644808
998.970316	2538.220962
999.265371	2528.138654
999.560390	2429.836154
999.855373	2528.138654
1000.150320	2492.850577
1000.445232	2462.603654
1000.740108	2437.397885
1001.034948	2460.083077
1001.329752	2472.685962
1001.624521	2500.412308
1001.919254	2439.918462
1002.213951	2507.974038
1002.508613	2505.453462
1002.803239	2444.959615
1003.097829	2480.247692
1003.392384	2480.247692
1003.686903	2502.932885
1003.981386	2467.644808
1004.275834	2497.891731
1004.570246	2439.918462
1004.864623	2515.535769
1005.158964	2505.453462
1005.453270	2472.685962
1005.747540	2417.233269
1006.041775	2520.576923
1006.335974	2467.644808
1006.630138	2502.932885
1006.924266	2525.618077
1007.218359	2447.480192
1007.512416	2505.453462
1007.806438	2477.727115
1008.100425	2470.165385
1008.394376	2507.974038
1008.688292	2482.768269
1008.982172	2392.027500
1009.276017	2502.932885
1009.569827	2480.247692
1009.863602	2492.850577
1010.157341	2500.412308
1010.451045	2530.659231
1010.744714	2480.247692
1011.038347	2545.782692
1011.331945	2505.453462
1011.625508	2475.206538
1011.919036	2535.700385
1012.212528	2444.959615
1012.505986	2482.768269
1012.799408	2432.356731
1013.092795	2472.685962
1013.386147	2462.603654
1013.679464	2497.891731
1013.972745	2429.836154
1014.265992	2525.618077
1014.559204	2550.823846
1014.852380	2525.618077
1015.145521	2502.932885
1015.438628	2414.712692
1015.731699	2462.603654
1016.024736	2475.206538
1016.317737	2497.891731
1016.610703	2525.618077
1016.903635	2417.233269
1017.196531	2455.041923
1017.489393	2502.932885
1017.782219	2523.097500
1018.075011	2553.344423
1018.367768	2457.562500
1018.660490	2477.727115
1018.953177	2477.727115
1019.245829	2477.727115
