Dividing Wavelength (nm)	Counts (n)	Blue Motor Position (mm): 6.400000	Red Motor Position (mm): 0.000000	
326.493990	2155.093269
326.888308	2155.093269
327.282561	2155.093269
327.676750	1991.255769
328.070874	2099.640577
328.464933	2024.023269
328.858929	2041.667308
329.252859	2039.146731
329.646726	2059.311346
330.040528	2056.790769
330.434265	2155.093269
330.827938	2180.299038
331.221547	2177.778462
331.615091	2137.449231
332.008571	2142.490385
332.401986	2145.010962
332.795338	2213.066538
333.188625	2288.683846
333.581847	2228.190000
333.975006	2271.039808
334.368100	2271.039808
334.761129	2306.327885
335.154095	2359.260000
335.546996	2323.971923
335.939833	2323.971923
336.332606	2313.889615
336.725315	2417.233269
337.117960	2364.301154
337.510540	2407.150962
337.903056	2427.315577
338.295508	2442.439038
338.687896	2331.533654
339.080220	2482.768269
339.472480	2528.138654
339.864676	2477.727115
340.256807	2510.494615
340.648875	2439.918462
341.040879	2520.576923
341.432818	2462.603654
341.824694	2412.192115
342.216506	2550.823846
342.608253	2450.000769
342.999937	2444.959615
343.391557	2419.753846
343.783113	2485.288846
344.174605	2480.247692
344.566033	2515.535769
344.957397	2432.356731
345.348697	2434.877308
345.739934	2467.644808
346.131106	2515.535769
346.522215	2447.480192
346.913260	2480.247692
347.304241	2462.603654
347.695159	2472.685962
348.086012	2462.603654
348.476802	2412.192115
348.867528	2465.124231
349.258191	2389.506923
349.648789	2540.741538
350.039324	2424.795000
350.429796	2414.712692
350.820203	2427.315577
351.210548	2475.206538
351.600828	2439.918462
351.991045	2487.809423
352.381198	2432.356731
352.771288	2341.615962
353.161314	2442.439038
353.551276	2399.589231
353.941175	2452.521346
354.331010	2414.712692
354.720782	2369.342308
355.110490	2455.041923
355.500135	2470.165385
355.889717	2419.753846
356.279235	2422.274423
356.668689	2364.301154
357.058080	2417.233269
357.447408	2480.247692
357.836672	2434.877308
358.225873	2495.371154
358.615010	2467.644808
359.004084	2402.109808
359.393095	2399.589231
359.782043	2507.974038
360.170927	2422.274423
360.559748	2497.891731
360.948505	2419.753846
361.337199	2424.795000
361.725830	2381.945192
362.114398	2404.630385
362.502903	2407.150962
362.891344	2480.247692
363.279722	2518.056346
363.668037	2470.165385
364.056289	2402.109808
364.444478	2447.480192
364.832603	2450.000769
365.220665	2442.439038
365.608665	2450.000769
365.996601	2434.877308
366.384474	2437.397885
366.772284	2515.535769
367.160031	2480.247692
367.547715	2480.247692
367.935336	2442.439038
368.322893	2366.821731
368.710388	2366.821731
369.097820	2510.494615
369.485189	2409.671538
369.872495	2450.000769
370.259738	2351.698269
370.646918	2492.850577
371.034035	2495.371154
371.421090	2384.465769
371.808081	2505.453462
372.195010	2439.918462
372.581875	2434.877308
372.968678	2467.644808
373.355418	2376.904038
373.742096	2457.562500
374.128710	2450.000769
374.515262	2472.685962
374.901751	2502.932885
375.288177	2422.274423
375.674540	2432.356731
376.060841	2429.836154
376.447079	2460.083077
376.833254	2510.494615
377.219367	2409.671538
377.605417	2465.124231
377.991404	2490.330000
378.377329	2490.330000
378.763191	2444.959615
379.148991	2475.206538
379.534727	2502.932885
379.920402	2450.000769
380.306013	2439.918462
380.691563	2412.192115
381.077049	2427.315577
381.462474	2444.959615
381.847835	2500.412308
382.233134	2485.288846
382.618371	2500.412308
383.003545	2502.932885
383.388657	2432.356731
383.773706	2505.453462
384.158693	2497.891731
384.543618	2495.371154
384.928480	2495.371154
385.313280	2535.700385
385.698017	2497.891731
386.082692	2402.109808
386.467305	2467.644808
386.851856	2538.220962
387.236344	2437.397885
387.620770	2492.850577
388.005133	2465.124231
388.389435	2543.262115
388.773674	2472.685962
389.157851	2457.562500
389.541965	2500.412308
389.926018	2543.262115
390.310008	2444.959615
390.693936	2515.535769
391.077802	2502.932885
391.461606	2434.877308
391.845348	2419.753846
392.229027	2442.439038
392.612645	2523.097500
392.996200	2429.836154
393.379694	2487.809423
393.763125	2505.453462
394.146494	2505.453462
394.529801	2500.412308
394.913047	2485.288846
395.296230	2407.150962
395.679351	2452.521346
396.062410	2442.439038
396.445408	2444.959615
396.828343	2502.932885
397.211217	2427.315577
397.594028	2424.795000
397.976778	2424.795000
398.359466	2447.480192
398.742092	2485.288846
399.124656	2573.509038
399.507158	2477.727115
399.889598	2497.891731
400.271977	2533.179808
400.654294	2497.891731
401.036549	2490.330000
401.418742	2477.727115
401.800874	2523.097500
402.182944	2550.823846
402.564952	2513.015192
402.946898	2470.165385
403.328783	2497.891731
403.710606	2475.206538
404.092367	2455.041923
404.474067	2510.494615
404.855705	2495.371154
405.237282	2447.480192
405.618797	2422.274423
406.000250	2477.727115
406.381642	2470.165385
406.762972	2467.644808
407.144240	2417.233269
407.525447	2409.671538
407.906593	2477.727115
408.287677	2424.795000
408.668700	2407.150962
409.049661	2447.480192
409.430560	2450.000769
409.811399	2523.097500
410.192176	2422.274423
410.572891	2386.986346
410.953545	2442.439038
411.334138	2565.947308
411.714669	2540.741538
412.095139	2540.741538
412.475547	2482.768269
412.855894	2510.494615
413.236180	2487.809423
413.616405	2323.971923
413.996568	2495.371154
414.376670	2545.782692
414.756711	2439.918462
415.136691	2442.439038
415.516609	2528.138654
415.896466	2528.138654
416.276262	2457.562500
416.655997	2444.959615
417.035670	2379.424615
417.415283	2417.233269
417.794834	2513.015192
418.174324	2432.356731
418.553753	2563.426731
418.933121	2389.506923
419.312428	2507.974038
419.691674	2450.000769
420.070859	2399.589231
420.449983	2515.535769
420.829045	2500.412308
421.208047	2538.220962
421.586988	2429.836154
421.965867	2560.906154
422.344686	2422.274423
422.723444	2475.206538
423.102141	2452.521346
423.480777	2490.330000
423.859352	2525.618077
424.237866	2530.659231
424.616319	2533.179808
424.994712	2545.782692
425.373044	2470.165385
425.751314	2477.727115
426.129524	2500.412308
426.507673	2475.206538
426.885762	2442.439038
427.263789	2444.959615
427.641756	2371.862885
428.019662	2525.618077
428.397508	2457.562500
428.775292	2515.535769
429.153016	2376.904038
429.530679	2480.247692
429.908282	2422.274423
430.285824	2518.056346
430.663305	2502.932885
431.040726	2533.179808
431.418086	2455.041923
431.795385	2455.041923
432.172624	2568.467885
432.549802	2505.453462
432.926920	2374.383462
433.303977	2437.397885
433.680974	2528.138654
434.057910	2422.274423
434.434786	2462.603654
434.811601	2492.850577
435.188355	2452.521346
435.565050	2472.685962
435.941683	2379.424615
436.318257	2470.165385
436.694770	2565.947308
437.071222	2460.083077
437.447614	2455.041923
437.823946	2520.576923
438.200218	2570.988462
438.576429	2477.727115
438.952580	2404.630385
439.328670	2477.727115
439.704700	2414.712692
440.080670	2490.330000
440.456580	2482.768269
440.832429	2487.809423
441.208218	2487.809423
441.583947	2518.056346
441.959616	2444.959615
442.335224	2470.165385
442.710773	2422.274423
443.086261	2543.262115
443.461689	2457.562500
443.837057	2427.315577
444.212365	2485.288846
444.587612	2505.453462
444.962800	2530.659231
445.337927	2467.644808
445.712995	2502.932885
446.088002	2452.521346
446.462949	2417.233269
446.837837	2455.041923
447.212664	2543.262115
447.587431	2439.918462
447.962139	2495.371154
448.336786	2502.932885
448.711374	2523.097500
449.085901	2475.206538
449.460369	2500.412308
449.834776	2513.015192
450.209124	2525.618077
450.583412	2490.330000
450.957640	2502.932885
451.331808	2439.918462
451.705917	2439.918462
452.079965	2492.850577
452.453954	2439.918462
452.827883	2465.124231
453.201752	2480.247692
453.575562	2455.041923
453.949311	2500.412308
454.323001	2545.782692
454.696632	2507.974038
455.070202	2419.753846
455.443713	2467.644808
455.817164	2500.412308
456.190556	2477.727115
456.563888	2538.220962
456.937160	2455.041923
457.310373	2528.138654
457.683526	2465.124231
458.056619	2558.385577
458.429653	2497.891731
458.802628	2487.809423
459.175542	2558.385577
459.548398	2472.685962
459.921194	2447.480192
460.293930	2477.727115
460.666607	2477.727115
461.039224	2462.603654
461.411782	2505.453462
461.784280	2513.015192
462.156719	2533.179808
462.529099	2533.179808
462.901419	2455.041923
463.273680	2477.727115
463.645882	2465.124231
464.018024	2450.000769
464.390106	2560.906154
464.762130	2528.138654
465.134094	2492.850577
465.505999	2447.480192
465.877845	2525.618077
466.249631	2495.371154
466.621358	2397.068654
466.993026	2394.548077
467.364634	2507.974038
467.736184	2472.685962
468.107674	2467.644808
468.479105	2457.562500
468.850477	2553.344423
469.221790	2472.685962
469.593043	2465.124231
469.964238	2482.768269
470.335373	2568.467885
470.706449	2439.918462
471.077467	2500.412308
471.448425	2533.179808
471.819324	2581.070769
472.190164	2523.097500
472.560945	2560.906154
472.931667	2535.700385
473.302330	2485.288846
473.672934	2480.247692
474.043479	2434.877308
474.413965	2480.247692
474.784393	2507.974038
475.154761	2437.397885
475.525070	2475.206538
475.895321	2513.015192
476.265513	2424.795000
476.635645	2407.150962
477.005719	2487.809423
477.375734	2452.521346
477.745691	2525.618077
478.115588	2497.891731
478.485427	2513.015192
478.855207	2492.850577
479.224928	2535.700385
479.594591	2482.768269
479.964194	2518.056346
480.333739	2434.877308
480.703226	2434.877308
481.072653	2482.768269
481.442022	2439.918462
481.811333	2477.727115
482.180584	2507.974038
482.549777	2452.521346
482.918912	2520.576923
483.287988	2465.124231
483.657005	2432.356731
484.025964	2392.027500
484.394864	2606.276538
484.763706	2465.124231
485.132489	2513.015192
485.501213	2419.753846
485.869879	2455.041923
486.238487	2447.480192
486.607036	2507.974038
486.975527	2520.576923
487.343959	2475.206538
487.712333	2437.397885
488.080648	2513.015192
488.448905	2477.727115
488.817104	2540.741538
489.185244	2543.262115
489.553326	2432.356731
489.921350	2485.288846
490.289315	2543.262115
490.657222	2444.959615
491.025070	2520.576923
491.392861	2485.288846
491.760593	2507.974038
492.128267	2444.959615
492.495883	2528.138654
492.863440	2470.165385
493.230939	2588.632500
493.598380	2553.344423
493.965763	2477.727115
494.333088	2513.015192
494.700354	2510.494615
495.067563	2482.768269
495.434713	2525.618077
495.801805	2497.891731
496.168839	2565.947308
496.535815	2586.111923
496.902733	2591.153077
497.269593	2477.727115
497.636395	2513.015192
498.003139	2422.274423
498.369825	2417.233269
498.736453	2510.494615
499.103023	2523.097500
499.469535	2500.412308
499.835989	2444.959615
500.202385	2502.932885
500.568723	2545.782692
500.935003	2490.330000
501.301226	2515.535769
501.667390	2543.262115
502.033497	2470.165385
502.399546	2462.603654
502.765537	2424.795000
503.131470	2462.603654
503.497345	2530.659231
503.863163	2470.165385
504.228923	2500.412308
504.594625	2497.891731
504.960269	2530.659231
505.325856	2485.288846
505.691385	2510.494615
506.056856	2545.782692
506.422270	2437.397885
506.787625	2485.288846
507.152924	2518.056346
507.518164	2510.494615
507.883347	2533.179808
508.248472	2497.891731
508.613540	2422.274423
508.978550	2513.015192
509.343503	2510.494615
509.708398	2520.576923
510.073236	2477.727115
510.438016	2500.412308
510.802738	2480.247692
511.167403	2495.371154
511.532010	2485.288846
511.896561	2492.850577
512.261053	2515.535769
512.625488	2581.070769
512.989866	2497.891731
513.354186	2472.685962
513.718449	2490.330000
514.082655	2452.521346
514.446803	2515.535769
514.810894	2412.192115
515.174927	2515.535769
515.538904	2581.070769
515.902822	2510.494615
516.266684	2528.138654
516.630488	2455.041923
516.994235	2497.891731
517.357925	2570.988462
517.721558	2465.124231
518.085133	2412.192115
518.448651	2528.138654
518.812112	2528.138654
519.175516	2465.124231
519.538863	2422.274423
519.902152	2545.782692
520.265385	2538.220962
520.628560	2543.262115
520.991678	2523.097500
521.354739	2490.330000
521.717743	2497.891731
522.080690	2452.521346
522.443580	2500.412308
522.806413	2485.288846
523.169189	2450.000769
523.531908	2482.768269
523.894569	2515.535769
524.257174	2434.877308
524.619722	2513.015192
524.982213	2470.165385
525.344647	2389.506923
525.707025	2467.644808
526.069345	2623.920577
526.431608	2490.330000
526.793815	2424.795000
527.155964	2439.918462
527.518057	2472.685962
527.880093	2495.371154
528.242072	2485.288846
528.603995	2558.385577
528.965860	2570.988462
529.327669	2480.247692
529.689421	2482.768269
530.051117	2548.303269
530.412755	2467.644808
530.774337	2545.782692
531.135862	2525.618077
531.497331	2485.288846
531.858743	2507.974038
532.220098	2472.685962
532.581396	2518.056346
532.942638	2543.262115
533.303824	2452.521346
533.664953	2422.274423
534.026025	2444.959615
534.387040	2518.056346
534.747999	2525.618077
535.108902	2475.206538
535.469748	2455.041923
535.830537	2467.644808
536.191270	2523.097500
536.551947	2482.768269
536.912567	2452.521346
537.273131	2523.097500
537.633638	2462.603654
537.994089	2530.659231
538.354483	2581.070769
538.714821	2530.659231
539.075103	2535.700385
539.435328	2424.795000
539.795497	2465.124231
540.155609	2460.083077
540.515665	2475.206538
540.875665	2452.521346
541.235609	2427.315577
541.595496	2502.932885
541.955328	2500.412308
542.315102	2553.344423
542.674821	2409.671538
543.034483	2548.303269
543.394090	2495.371154
543.753640	2505.453462
544.113134	2470.165385
544.472571	2480.247692
544.831953	2492.850577
545.191278	2457.562500
545.550548	2548.303269
545.909761	2414.712692
546.268918	2455.041923
546.628019	2626.441154
546.987064	2513.015192
547.346053	2523.097500
547.704986	2462.603654
548.063863	2492.850577
548.422684	2477.727115
548.781449	2460.083077
549.140158	2540.741538
549.498811	2510.494615
549.857408	2455.041923
550.215949	2472.685962
550.574434	2465.124231
550.932864	2419.753846
551.291237	2510.494615
551.649555	2502.932885
552.007817	2601.235385
552.366022	2452.521346
552.724173	2530.659231
553.082267	2510.494615
553.440305	2570.988462
553.798288	2560.906154
554.156215	2495.371154
554.514086	2485.288846
554.871902	2470.165385
555.229661	2470.165385
555.587365	2490.330000
555.945014	2467.644808
556.302606	2502.932885
556.660143	2565.947308
557.017625	2525.618077
557.375050	2490.330000
557.732421	2422.274423
558.089735	2505.453462
558.446994	2513.015192
558.804197	2452.521346
559.161345	2535.700385
559.518437	2500.412308
559.875474	2477.727115
560.232455	2475.206538
560.589381	2485.288846
560.946251	2437.397885
561.303065	2515.535769
561.659825	2417.233269
562.016528	2492.850577
562.373177	2482.768269
562.729770	2497.891731
563.086307	2482.768269
563.442789	2553.344423
563.799216	2480.247692
564.155587	2475.206538
564.511904	2492.850577
564.868164	2455.041923
565.224370	2444.959615
565.580520	2450.000769
565.936615	2497.891731
566.292654	2525.618077
566.648638	2507.974038
567.004567	2447.480192
567.360441	2525.618077
567.716260	2573.509038
568.072023	2447.480192
568.427732	2513.015192
568.783385	2407.150962
569.138982	2427.315577
569.494525	2505.453462
569.850013	2502.932885
570.205445	2550.823846
570.560823	2417.233269
570.916145	2538.220962
571.271412	2518.056346
571.626625	2490.330000
571.981782	2429.836154
572.336884	2467.644808
572.691931	2502.932885
573.046923	2518.056346
573.401860	2515.535769
573.756743	2455.041923
574.111570	2447.480192
574.466342	2520.576923
574.821059	2417.233269
575.175722	2407.150962
575.530330	2563.426731
575.884882	2467.644808
576.239380	2520.576923
576.593823	2523.097500
576.948211	2437.397885
577.302544	2510.494615
577.656823	2502.932885
578.011047	2470.165385
578.365216	2455.041923
578.719330	2462.603654
579.073389	2439.918462
579.427394	2500.412308
579.781344	2601.235385
580.135239	2528.138654
580.489080	2525.618077
580.842866	2460.083077
581.196597	2525.618077
581.550273	2450.000769
581.903895	2467.644808
582.257463	2513.015192
582.610975	2495.371154
582.964434	2528.138654
583.317837	2495.371154
583.671186	2497.891731
584.024481	2500.412308
584.377721	2477.727115
584.730906	2558.385577
585.084037	2477.727115
585.437113	2507.974038
585.790135	2460.083077
586.143103	2513.015192
586.496016	2558.385577
586.848874	2437.397885
587.201679	2472.685962
587.554428	2515.535769
587.907124	2450.000769
588.259765	2502.932885
588.612352	2578.550192
588.964884	2495.371154
589.317362	2452.521346
589.669786	2490.330000
590.022155	2470.165385
590.374470	2523.097500
590.726731	2467.644808
591.078937	2510.494615
591.431090	2505.453462
591.783188	2560.906154
592.135232	2525.618077
592.487222	2558.385577
592.839157	2591.153077
593.191038	2487.809423
593.542866	2500.412308
593.894639	2402.109808
594.246358	2467.644808
594.598022	2510.494615
594.949633	2507.974038
595.301190	2515.535769
595.652692	2510.494615
596.004141	2528.138654
596.355535	2434.877308
596.706876	2482.768269
597.058162	2598.714808
597.409395	2570.988462
597.760573	2482.768269
598.111698	2477.727115
598.462768	2621.400000
598.813785	2497.891731
599.164748	2480.247692
599.515657	2460.083077
599.866511	2462.603654
600.217312	2535.700385
600.568060	2447.480192
600.918753	2505.453462
601.269392	2530.659231
601.619978	2576.029615
601.970510	2487.809423
602.320988	2507.974038
602.671412	2452.521346
603.021783	2515.535769
603.372100	2467.644808
603.722363	2497.891731
604.072572	2467.644808
604.422728	2424.795000
604.772830	2467.644808
605.122878	2432.356731
605.472872	2568.467885
605.822813	2356.739423
606.172701	2487.809423
606.522534	2472.685962
606.872314	2500.412308
607.222041	2568.467885
607.571714	2482.768269
607.921333	2482.768269
608.270899	2510.494615
608.620411	2500.412308
608.969870	2553.344423
609.319276	2485.288846
609.668627	2545.782692
610.017926	2470.165385
610.367171	2470.165385
610.716362	2535.700385
611.065500	2528.138654
611.414585	2422.274423
611.763616	2475.206538
612.112594	2495.371154
612.461518	2497.891731
612.810389	2432.356731
613.159207	2525.618077
613.507971	2507.974038
613.856682	2563.426731
614.205340	2513.015192
614.553945	2530.659231
614.902496	2497.891731
615.250994	2528.138654
615.599439	2545.782692
615.947830	2540.741538
616.296169	2444.959615
616.644454	2507.974038
616.992686	2472.685962
617.340864	2412.192115
617.688990	2515.535769
618.037063	2492.850577
618.385082	2487.809423
618.733048	2460.083077
619.080961	2586.111923
619.428821	2507.974038
619.776628	2515.535769
620.124382	2472.685962
620.472083	2470.165385
620.819731	2538.220962
621.167326	2497.891731
621.514868	2457.562500
621.862357	2530.659231
622.209793	2490.330000
622.557176	2513.015192
622.904506	2502.932885
623.251783	2553.344423
623.599007	2520.576923
623.946179	2444.959615
624.293297	2576.029615
624.640363	2495.371154
624.987376	2510.494615
625.334336	2555.865000
625.681243	2336.574808
626.028097	2432.356731
626.374899	2412.192115
626.721647	2480.247692
627.068343	2477.727115
627.414987	2553.344423
627.761577	2419.753846
628.108115	2450.000769
628.454600	2414.712692
628.801032	2523.097500
629.147412	2530.659231
629.493739	2470.165385
629.840014	2500.412308
630.186236	2452.521346
630.532405	2455.041923
630.878521	2485.288846
631.224585	2535.700385
631.570597	2510.494615
631.916556	2409.671538
632.262462	2472.685962
632.608316	2472.685962
632.954117	2528.138654
633.299866	2515.535769
633.645562	2444.959615
633.991206	2460.083077
634.336797	2500.412308
634.682336	2462.603654
635.027823	2538.220962
635.373257	2447.480192
635.718639	2530.659231
636.063968	2490.330000
636.409245	2505.453462
636.754470	2477.727115
637.099642	2482.768269
637.444762	2485.288846
637.789829	2515.535769
638.134845	2472.685962
638.479808	2543.262115
638.824719	2450.000769
639.169577	2432.356731
639.514383	2502.932885
639.859137	2550.823846
640.203839	2505.453462
640.548489	2470.165385
640.893086	2480.247692
641.237632	2500.412308
641.582125	2570.988462
641.926566	2462.603654
642.270955	2439.918462
642.615292	2470.165385
642.959576	2560.906154
643.303809	2485.288846
643.647990	2409.671538
643.992118	2505.453462
644.336195	2429.836154
644.680219	2565.947308
645.024192	2548.303269
645.368112	2495.371154
645.711981	2467.644808
646.055797	2510.494615
646.399562	2523.097500
646.743274	2497.891731
647.086935	2467.644808
647.430544	2457.562500
647.774101	2450.000769
648.117606	2525.618077
648.461059	2518.056346
648.804460	2513.015192
649.147810	2467.644808
649.491108	2535.700385
649.834354	2467.644808
650.177548	2578.550192
650.520690	2505.453462
650.863781	2502.932885
651.206820	2417.233269
651.549807	2523.097500
651.892742	2502.932885
652.235626	2563.426731
652.578458	2525.618077
652.921238	2482.768269
653.263967	2485.288846
653.606644	2500.412308
653.949269	2560.906154
654.291843	2447.480192
654.634365	2510.494615
654.976836	2502.932885
655.319255	2510.494615
655.661622	2475.206538
656.003938	2477.727115
656.346203	2455.041923
656.688416	2485.288846
657.030577	2505.453462
657.372687	2452.521346
657.714746	2487.809423
658.056753	2417.233269
658.398708	2533.179808
658.740612	2457.562500
659.082465	2460.083077
659.424266	2457.562500
659.766016	2452.521346
660.107715	2500.412308
660.449362	2518.056346
660.790958	2480.247692
661.132503	2543.262115
661.473996	2525.618077
661.815438	2465.124231
662.156829	2467.644808
662.498168	2525.618077
662.839456	2570.988462
663.180693	2533.179808
663.521879	2482.768269
663.863013	2502.932885
664.204097	2477.727115
664.545129	2495.371154
664.886110	2560.906154
665.227040	2465.124231
665.567918	2515.535769
665.908746	2407.150962
666.249522	2618.879423
666.590248	2439.918462
666.930922	2432.356731
667.271545	2492.850577
667.612118	2487.809423
667.952639	2507.974038
668.293109	2465.124231
668.633528	2505.453462
668.973896	2485.288846
669.314213	2563.426731
669.654480	2442.439038
669.994695	2507.974038
670.334859	2553.344423
670.674973	2452.521346
671.015035	2470.165385
671.355047	2565.947308
671.695008	2432.356731
672.034918	2530.659231
672.374777	2465.124231
672.714585	2545.782692
673.054342	2437.397885
673.394049	2490.330000
673.733705	2444.959615
674.073310	2492.850577
674.412864	2502.932885
674.752368	2563.426731
675.091820	2470.165385
675.431223	2422.274423
675.770574	2611.317692
676.109875	2475.206538
676.449125	2555.865000
676.788324	2470.165385
677.127473	2520.576923
677.466571	2485.288846
677.805619	2457.562500
678.144616	2497.891731
678.483562	2540.741538
678.822458	2530.659231
679.161303	2447.480192
679.500098	2507.974038
679.838842	2437.397885
680.177535	2490.330000
680.516179	2510.494615
680.854771	2462.603654
681.193314	2578.550192
681.531805	2422.274423
681.870247	2525.618077
682.208638	2500.412308
682.546978	2515.535769
682.885268	2477.727115
683.223508	2475.206538
683.561697	2472.685962
683.899836	2480.247692
684.237925	2467.644808
684.575963	2623.920577
684.913951	2457.562500
685.251889	2470.165385
685.589776	2450.000769
685.927614	2492.850577
686.265401	2510.494615
686.603137	2507.974038
686.940824	2520.576923
687.278460	2550.823846
687.616046	2510.494615
687.953582	2470.165385
688.291068	2452.521346
688.628504	2480.247692
688.965889	2505.453462
689.303224	2500.412308
689.640510	2480.247692
689.977745	2510.494615
690.314930	2505.453462
690.652065	2482.768269
690.989150	2530.659231
691.326185	2520.576923
691.663170	2475.206538
692.000105	2518.056346
692.336990	2540.741538
692.673825	2510.494615
693.010610	2485.288846
693.347345	2492.850577
693.684030	2407.150962
694.020665	2470.165385
694.357251	2495.371154
694.693786	2548.303269
695.030272	2470.165385
695.366707	2477.727115
695.703093	2465.124231
696.039429	2497.891731
696.375716	2513.015192
696.711952	2565.947308
697.048139	2447.480192
697.384276	2533.179808
697.720363	2452.521346
698.056400	2535.700385
698.392388	2447.480192
698.728326	2432.356731
699.064214	2581.070769
699.400053	2570.988462
699.735842	2528.138654
700.071581	2472.685962
700.407270	2545.782692
700.742910	2455.041923
701.078501	2460.083077
701.414042	2462.603654
701.749533	2450.000769
702.084974	2497.891731
702.420366	2457.562500
702.755709	2505.453462
703.091002	2404.630385
703.426246	2530.659231
703.761440	2513.015192
704.096584	2437.397885
704.431679	2457.562500
704.766725	2518.056346
705.101721	2500.412308
705.436668	2505.453462
705.771565	2563.426731
706.106413	2437.397885
706.441212	2502.932885
706.775961	2389.506923
707.110661	2533.179808
707.445311	2465.124231
707.779913	2513.015192
708.114465	2495.371154
708.448967	2465.124231
708.783421	2550.823846
709.117825	2513.015192
709.452180	2460.083077
709.786485	2502.932885
710.120742	2533.179808
710.454949	2455.041923
710.789107	2409.671538
711.123216	2460.083077
711.457275	2565.947308
711.791286	2429.836154
712.125247	2492.850577
712.459159	2480.247692
712.793023	2465.124231
713.126837	2422.274423
713.460602	2520.576923
713.794318	2480.247692
714.127985	2485.288846
714.461602	2533.179808
714.795171	2429.836154
715.128691	2485.288846
715.462162	2510.494615
715.795584	2477.727115
716.128957	2525.618077
716.462281	2540.741538
716.795556	2492.850577
717.128782	2535.700385
717.461960	2588.632500
717.795088	2533.179808
718.128167	2475.206538
718.461198	2455.041923
718.794180	2507.974038
719.127113	2467.644808
719.459997	2535.700385
719.792833	2472.685962
720.125619	2462.603654
720.458357	2477.727115
720.791046	2497.891731
721.123686	2492.850577
721.456278	2530.659231
721.788821	2424.795000
722.121315	2497.891731
722.453761	2477.727115
722.786158	2525.618077
723.118506	2540.741538
723.450805	2477.727115
723.783056	2497.891731
724.115259	2553.344423
724.447412	2507.974038
724.779518	2470.165385
725.111574	2518.056346
725.443582	2518.056346
725.775542	2434.877308
726.107453	2472.685962
726.439315	2485.288846
726.771129	2578.550192
727.102895	2422.274423
727.434612	2482.768269
727.766281	2414.712692
728.097901	2523.097500
728.429473	2487.809423
728.760996	2490.330000
729.092471	2525.618077
729.423897	2533.179808
729.755276	2550.823846
730.086606	2477.727115
730.417887	2470.165385
730.749120	2497.891731
731.080305	2485.288846
731.411442	2515.535769
731.742530	2528.138654
732.073570	2570.988462
732.404562	2492.850577
732.735506	2437.397885
733.066401	2502.932885
733.397249	2502.932885
733.728048	2535.700385
734.058798	2565.947308
734.389501	2437.397885
734.720156	2520.576923
735.050762	2444.959615
735.381320	2417.233269
735.711831	2543.262115
736.042293	2523.097500
736.372707	2460.083077
736.703073	2513.015192
737.033391	2386.986346
737.363661	2495.371154
737.693883	2525.618077
738.024056	2550.823846
738.354182	2485.288846
738.684260	2543.262115
739.014290	2507.974038
739.344272	2472.685962
739.674207	2480.247692
740.004093	2507.974038
740.333931	2505.453462
740.663722	2528.138654
740.993464	2455.041923
741.323159	2540.741538
741.652806	2492.850577
741.982405	2492.850577
742.311956	2548.303269
742.641460	2507.974038
742.970915	2495.371154
743.300323	2560.906154
743.629683	2419.753846
743.958996	2477.727115
744.288260	2452.521346
744.617477	2492.850577
744.946647	2450.000769
745.275768	2470.165385
745.604842	2507.974038
745.933869	2450.000769
746.262847	2409.671538
746.591778	2490.330000
746.920662	2455.041923
747.249498	2538.220962
747.578286	2510.494615
747.907027	2409.671538
748.235720	2465.124231
748.564365	2492.850577
748.892963	2543.262115
749.221514	2470.165385
749.550017	2429.836154
749.878473	2543.262115
750.206881	2520.576923
750.535242	2460.083077
750.863555	2530.659231
751.191821	2444.959615
751.520039	2475.206538
751.848210	2475.206538
752.176334	2570.988462
752.504411	2475.206538
752.832440	2523.097500
753.160421	2507.974038
753.488356	2477.727115
753.816243	2470.165385
754.144082	2502.932885
754.471875	2490.330000
754.799620	2528.138654
755.127318	2583.591346
755.454969	2565.947308
755.782572	2545.782692
756.110129	2465.124231
756.437638	2442.439038
756.765100	2465.124231
757.092515	2497.891731
757.419882	2497.891731
757.747203	2487.809423
758.074477	2485.288846
758.401703	2492.850577
758.728882	2472.685962
759.056014	2442.439038
759.383099	2492.850577
759.710138	2457.562500
760.037129	2450.000769
760.364073	2540.741538
760.690970	2434.877308
761.017820	2525.618077
761.344623	2523.097500
761.671379	2540.741538
761.998088	2480.247692
762.324751	2467.644808
762.651366	2452.521346
762.977935	2515.535769
763.304456	2510.494615
763.630931	2470.165385
763.957359	2528.138654
764.283740	2495.371154
764.610074	2472.685962
764.936362	2555.865000
765.262602	2485.288846
765.588796	2462.603654
765.914943	2402.109808
766.241044	2470.165385
766.567097	2518.056346
766.893104	2492.850577
767.219064	2535.700385
767.544978	2596.194231
767.870845	2495.371154
768.196665	2462.603654
768.522438	2475.206538
768.848165	2533.179808
769.173846	2402.109808
769.499479	2543.262115
769.825066	2444.959615
770.150607	2513.015192
770.476101	2439.918462
770.801548	2505.453462
771.126949	2465.124231
771.452303	2563.426731
771.777611	2525.618077
772.102872	2465.124231
772.428087	2507.974038
772.753256	2497.891731
773.078378	2530.659231
773.403453	2482.768269
773.728482	2533.179808
774.053465	2538.220962
774.378401	2523.097500
774.703291	2475.206538
775.028135	2480.247692
775.352932	2460.083077
775.677683	2528.138654
776.002388	2530.659231
776.327046	2518.056346
776.651658	2520.576923
776.976224	2470.165385
777.300743	2538.220962
777.625216	2475.206538
777.949643	2457.562500
778.274024	2419.753846
778.598359	2565.947308
778.922647	2548.303269
779.246889	2437.397885
779.571086	2472.685962
779.895236	2455.041923
780.219339	2422.274423
780.543397	2482.768269
780.867409	2422.274423
781.191374	2470.165385
781.515294	2447.480192
781.839167	2550.823846
782.162995	2399.589231
782.486776	2515.535769
782.810511	2495.371154
783.134201	2477.727115
783.457844	2560.906154
783.781441	2419.753846
784.104993	2518.056346
784.428498	2507.974038
784.751958	2513.015192
785.075372	2419.753846
785.398739	2450.000769
785.722061	2548.303269
786.045337	2538.220962
786.368568	2460.083077
786.691752	2429.836154
787.014891	2434.877308
787.337983	2543.262115
787.661030	2518.056346
787.984031	2550.823846
788.306987	2444.959615
788.629897	2593.673654
788.952760	2444.959615
789.275579	2457.562500
789.598351	2485.288846
789.921078	2432.356731
790.243759	2439.918462
790.566395	2492.850577
790.888984	2533.179808
791.211529	2467.644808
791.534027	2500.412308
791.856480	2485.288846
792.178888	2500.412308
792.501249	2460.083077
792.823566	2553.344423
793.145836	2419.753846
793.468062	2538.220962
793.790241	2439.918462
794.112375	2465.124231
794.434464	2424.795000
794.756507	2520.576923
795.078505	2381.945192
795.400457	2480.247692
795.722364	2492.850577
796.044226	2472.685962
796.366042	2475.206538
796.687812	2510.494615
797.009538	2470.165385
797.331218	2560.906154
797.652852	2510.494615
797.974442	2548.303269
798.295986	2500.412308
798.617484	2465.124231
798.938938	2389.506923
799.260346	2500.412308
799.581709	2497.891731
799.903026	2460.083077
800.224299	2467.644808
800.545526	2490.330000
800.866708	2535.700385
801.187845	2533.179808
801.508936	2485.288846
801.829983	2477.727115
802.150984	2510.494615
802.471940	2482.768269
802.792851	2535.700385
803.113717	2538.220962
803.434538	2502.932885
803.755314	2495.371154
804.076045	2555.865000
804.396731	2482.768269
804.717372	2538.220962
805.037967	2450.000769
805.358518	2457.562500
805.679024	2492.850577
805.999485	2439.918462
806.319901	2518.056346
806.640272	2505.453462
806.960598	2397.068654
807.280879	2470.165385
807.601115	2470.165385
807.921306	2502.932885
808.241453	2381.945192
808.561554	2553.344423
808.881611	2555.865000
809.201623	2535.700385
809.521590	2520.576923
809.841513	2495.371154
810.161390	2591.153077
810.481223	2407.150962
810.801011	2497.891731
811.120755	2485.288846
811.440453	2487.809423
811.760107	2414.712692
812.079716	2553.344423
812.399281	2472.685962
812.718801	2432.356731
813.038276	2528.138654
813.357707	2477.727115
813.677093	2570.988462
813.996434	2429.836154
814.315731	2480.247692
814.634983	2462.603654
814.954191	2533.179808
815.273354	2455.041923
815.592473	2535.700385
815.911547	2490.330000
816.230577	2379.424615
816.549562	2495.371154
816.868502	2568.467885
817.187399	2492.850577
817.506250	2490.330000
817.825058	2475.206538
818.143821	2422.274423
818.462539	2477.727115
818.781213	2565.947308
819.099843	2530.659231
819.418429	2482.768269
819.736970	2510.494615
820.055466	2472.685962
820.373919	2492.850577
820.692327	2475.206538
821.010691	2530.659231
821.329011	2460.083077
821.647286	2465.124231
821.965517	2495.371154
822.283704	2553.344423
822.601847	2399.589231
822.919945	2495.371154
823.237999	2523.097500
823.556010	2487.809423
823.873976	2540.741538
824.191897	2525.618077
824.509775	2482.768269
824.827609	2626.441154
825.145398	2538.220962
825.463144	2530.659231
825.780845	2437.397885
826.098502	2485.288846
826.416116	2432.356731
826.733685	2402.109808
827.051210	2576.029615
827.368692	2487.809423
827.686129	2523.097500
828.003522	2475.206538
828.320872	2394.548077
828.638177	2477.727115
828.955439	2412.192115
829.272656	2414.712692
829.589830	2502.932885
829.906960	2497.891731
830.224046	2548.303269
830.541088	2450.000769
830.858086	2533.179808
831.175041	2510.494615
831.491952	2492.850577
831.808819	2462.603654
832.125642	2444.959615
832.442421	2455.041923
832.759157	2576.029615
833.075849	2465.124231
833.392497	2525.618077
833.709101	2402.109808
834.025662	2487.809423
834.342179	2442.439038
834.658653	2538.220962
834.975083	2447.480192
835.291469	2455.041923
835.607811	2482.768269
835.924110	2419.753846
836.240366	2507.974038
836.556578	2442.439038
836.872746	2543.262115
837.188871	2545.782692
837.504952	2525.618077
837.820990	2533.179808
838.136984	2429.836154
838.452935	2565.947308
838.768842	2618.879423
839.084706	2432.356731
839.400526	2500.412308
839.716303	2570.988462
840.032037	2518.056346
840.347727	2528.138654
840.663373	2419.753846
840.978977	2565.947308
841.294537	2540.741538
841.610054	2472.685962
841.925527	2467.644808
842.240957	2520.576923
842.556344	2452.521346
842.871687	2490.330000
843.186987	2455.041923
843.502244	2588.632500
843.817458	2444.959615
844.132629	2495.371154
844.447756	2470.165385
844.762840	2477.727115
845.077881	2513.015192
845.392879	2528.138654
845.707833	2392.027500
846.022745	2535.700385
846.337613	2432.356731
846.652438	2480.247692
846.967221	2513.015192
847.281960	2500.412308
847.596656	2528.138654
847.911309	2505.453462
848.225919	2470.165385
848.540485	2475.206538
848.855009	2505.453462
849.169490	2497.891731
849.483928	2427.315577
849.798323	2530.659231
850.112675	2492.850577
850.426984	2573.509038
850.741251	2553.344423
851.055474	2467.644808
851.369654	2510.494615
851.683792	2515.535769
851.997887	2510.494615
852.311938	2480.247692
852.625947	2553.344423
852.939914	2530.659231
853.253837	2513.015192
853.567718	2434.877308
853.881555	2460.083077
854.195350	2424.795000
854.509103	2460.083077
854.822812	2480.247692
855.136479	2548.303269
855.450103	2475.206538
855.763685	2518.056346
856.077224	2480.247692
856.390720	2495.371154
856.704173	2482.768269
857.017584	2422.274423
857.330953	2492.850577
857.644278	2434.877308
857.957561	2523.097500
858.270802	2505.453462
858.584000	2560.906154
858.897155	2470.165385
859.210268	2467.644808
859.523339	2520.576923
859.836367	2588.632500
860.149352	2455.041923
860.462295	2500.412308
860.775195	2447.480192
861.088054	2520.576923
861.400869	2502.932885
861.713642	2477.727115
862.026373	2414.712692
862.339062	2523.097500
862.651708	2470.165385
862.964312	2480.247692
863.276873	2568.467885
863.589392	2523.097500
863.901869	2565.947308
864.214303	2450.000769
864.526696	2500.412308
864.839045	2447.480192
865.151353	2480.247692
865.463619	2472.685962
865.775842	2515.535769
866.088023	2455.041923
866.400162	2548.303269
866.712258	2490.330000
867.024313	2444.959615
867.336325	2467.644808
867.648296	2518.056346
867.960224	2452.521346
868.272110	2465.124231
868.583954	2497.891731
868.895755	2432.356731
869.207515	2507.974038
869.519233	2500.412308
869.830909	2563.426731
870.142542	2392.027500
870.454134	2485.288846
870.765684	2452.521346
871.077191	2520.576923
871.388657	2525.618077
871.700081	2475.206538
872.011463	2538.220962
872.322803	2434.877308
872.634101	2495.371154
872.945357	2432.356731
873.256571	2422.274423
873.567744	2492.850577
873.878874	2447.480192
874.189963	2558.385577
874.501010	2450.000769
874.812015	2500.412308
875.122979	2465.124231
875.433900	2497.891731
875.744780	2518.056346
876.055618	2545.782692
876.366415	2540.741538
876.677169	2447.480192
876.987882	2533.179808
877.298554	2462.603654
877.609183	2467.644808
877.919771	2434.877308
878.230317	2407.150962
878.540822	2480.247692
878.851285	2439.918462
879.161707	2467.644808
879.472087	2518.056346
879.782425	2513.015192
880.092722	2490.330000
880.402977	2510.494615
880.713191	2502.932885
881.023363	2492.850577
881.333494	2444.959615
881.643583	2500.412308
881.953631	2444.959615
882.263637	2520.576923
882.573602	2490.330000
882.883526	2507.974038
883.193408	2470.165385
883.503248	2538.220962
883.813048	2520.576923
884.122806	2455.041923
884.432522	2457.562500
884.742197	2480.247692
885.051831	2432.356731
885.361424	2419.753846
885.670975	2502.932885
885.980485	2437.397885
886.289954	2439.918462
886.599382	2515.535769
886.908768	2581.070769
887.218113	2550.823846
887.527417	2457.562500
887.836680	2495.371154
888.145901	2412.192115
888.455082	2495.371154
888.764221	2439.918462
889.073319	2533.179808
889.382376	2507.974038
889.691392	2485.288846
890.000366	2558.385577
890.309300	2470.165385
890.618193	2550.823846
890.927044	2513.015192
891.235855	2518.056346
891.544625	2487.809423
891.853353	2540.741538
892.162041	2480.247692
892.470687	2545.782692
892.779293	2523.097500
893.087858	2467.644808
893.396381	2470.165385
893.704864	2480.247692
894.013306	2437.397885
894.321707	2424.795000
894.630068	2482.768269
894.938387	2475.206538
895.246665	2535.700385
895.554903	2422.274423
895.863100	2497.891731
896.171256	2475.206538
896.479371	2492.850577
896.787446	2462.603654
897.095480	2429.836154
897.403473	2492.850577
897.711425	2492.850577
898.019336	2460.083077
898.327207	2480.247692
898.635038	2505.453462
898.942827	2520.576923
899.250576	2485.288846
899.558284	2545.782692
899.865952	2480.247692
900.173579	2432.356731
900.481165	2535.700385
900.788711	2376.904038
901.096216	2533.179808
901.403681	2515.535769
901.711105	2434.877308
902.018489	2457.562500
902.325832	2467.644808
902.633135	2455.041923
902.940397	2417.233269
903.247619	2457.562500
903.554800	2523.097500
903.861941	2402.109808
904.169041	2437.397885
904.476101	2518.056346
904.783121	2447.480192
905.090100	2515.535769
905.397039	2470.165385
905.703938	2346.657115
906.010796	2502.932885
906.317614	2518.056346
906.624391	2467.644808
906.931129	2560.906154
907.237826	2477.727115
907.544483	2490.330000
907.851099	2518.056346
908.157675	2467.644808
908.464211	2535.700385
908.770707	2432.356731
909.077163	2545.782692
909.383578	2497.891731
909.689954	2487.809423
909.996289	2528.138654
910.302584	2480.247692
910.608839	2472.685962
910.915054	2427.315577
911.221229	2523.097500
911.527363	2523.097500
911.833458	2505.453462
912.139513	2550.823846
912.445527	2518.056346
912.751502	2450.000769
913.057436	2480.247692
913.363331	2558.385577
913.669186	2495.371154
913.975000	2487.809423
914.280775	2429.836154
914.586510	2500.412308
914.892205	2568.467885
915.197859	2472.685962
915.503475	2492.850577
915.809050	2555.865000
916.114585	2515.535769
916.420081	2422.274423
916.725536	2515.535769
917.030952	2450.000769
917.336328	2371.862885
917.641665	2578.550192
917.946961	2444.959615
918.252218	2507.974038
918.557435	2444.959615
918.862612	2495.371154
919.167750	2553.344423
919.472848	2492.850577
919.777906	2477.727115
920.082925	2568.467885
920.387904	2442.439038
920.692843	2550.823846
920.997743	2520.576923
921.302603	2492.850577
921.607423	2447.480192
921.912204	2495.371154
922.216946	2485.288846
922.521647	2555.865000
922.826310	2439.918462
923.130932	2467.644808
923.435516	2528.138654
923.740059	2482.768269
924.044564	2437.397885
924.349028	2495.371154
924.653454	2492.850577
924.957840	2523.097500
925.262186	2455.041923
925.566493	2538.220962
925.870761	2502.932885
926.174989	2500.412308
926.479178	2495.371154
926.783328	2442.439038
927.087438	2558.385577
927.391509	2480.247692
927.695541	2510.494615
927.999533	2487.809423
928.303486	2409.671538
928.607400	2482.768269
928.911275	2530.659231
929.215110	2475.206538
929.518906	2502.932885
929.822663	2535.700385
930.126381	2475.206538
930.430060	2475.206538
930.733699	2477.727115
931.037299	2535.700385
931.340861	2518.056346
931.644383	2442.439038
931.947866	2397.068654
932.251309	2523.097500
932.554714	2447.480192
932.858080	2432.356731
933.161407	2444.959615
933.464694	2467.644808
933.767943	2500.412308
934.071153	2553.344423
934.374323	2505.453462
934.677455	2497.891731
934.980548	2487.809423
935.283602	2495.371154
935.586617	2500.412308
935.889593	2533.179808
936.192530	2467.644808
936.495428	2492.850577
936.798287	2447.480192
937.101108	2470.165385
937.403890	2485.288846
937.706632	2507.974038
938.009336	2414.712692
938.312002	2523.097500
938.614628	2515.535769
938.917216	2472.685962
939.219765	2472.685962
939.522275	2492.850577
939.824747	2439.918462
940.127179	2507.974038
940.429573	2434.877308
940.731929	2550.823846
941.034246	2475.206538
941.336524	2510.494615
941.638763	2513.015192
941.940964	2568.467885
942.243126	2520.576923
942.545250	2452.521346
942.847335	2495.371154
943.149381	2495.371154
943.451389	2492.850577
943.753359	2480.247692
944.055290	2439.918462
944.357182	2518.056346
944.659036	2442.439038
944.960851	2500.412308
945.262628	2455.041923
945.564367	2581.070769
945.866067	2447.480192
946.167729	2419.753846
946.469352	2525.618077
946.770937	2523.097500
947.072484	2470.165385
947.373992	2417.233269
947.675462	2525.618077
947.976893	2462.603654
948.278286	2465.124231
948.579641	2465.124231
948.880958	2518.056346
949.182236	2528.138654
949.483476	2384.465769
949.784678	2573.509038
950.085841	2437.397885
950.386967	2442.439038
950.688054	2523.097500
950.989103	2432.356731
951.290114	2535.700385
951.591087	2457.562500
951.892021	2485.288846
952.192917	2475.206538
952.493776	2530.659231
952.794596	2432.356731
953.095378	2543.262115
953.396122	2553.344423
953.696828	2507.974038
953.997496	2596.194231
954.298126	2500.412308
954.598718	2465.124231
954.899272	2444.959615
955.199788	2518.056346
955.500266	2442.439038
955.800706	2485.288846
956.101108	2487.809423
956.401472	2402.109808
956.701798	2477.727115
957.002087	2409.671538
957.302337	2457.562500
957.602550	2502.932885
957.902724	2490.330000
958.202861	2432.356731
958.502960	2520.576923
958.803022	2427.315577
959.103045	2570.988462
959.403031	2520.576923
959.702979	2510.494615
960.002889	2565.947308
960.302762	2492.850577
960.602596	2520.576923
960.902393	2555.865000
961.202153	2465.124231
961.501875	2538.220962
961.801559	2490.330000
962.101205	2500.412308
962.400814	2457.562500
962.700385	2497.891731
962.999918	2477.727115
963.299414	2495.371154
963.598873	2490.330000
963.898293	2513.015192
964.197677	2523.097500
964.497022	2558.385577
964.796331	2513.015192
965.095601	2485.288846
965.394835	2510.494615
965.694030	2455.041923
965.993189	2507.974038
966.292309	2500.412308
966.591393	2513.015192
966.890439	2404.630385
967.189447	2538.220962
967.488419	2497.891731
967.787353	2540.741538
968.086249	2520.576923
968.385108	2513.015192
968.683930	2482.768269
968.982714	2477.727115
969.281462	2470.165385
969.580172	2480.247692
969.878844	2465.124231
970.177480	2480.247692
970.476078	2533.179808
970.774639	2550.823846
971.073162	2530.659231
971.371649	2548.303269
971.670098	2450.000769
971.968510	2399.589231
972.266885	2550.823846
972.565223	2505.453462
972.863524	2518.056346
973.161788	2470.165385
973.460014	2475.206538
973.758204	2550.823846
974.056356	2472.685962
974.354471	2422.274423
974.652550	2460.083077
974.950591	2533.179808
975.248595	2465.124231
975.546563	2520.576923
975.844493	2444.959615
976.142386	2455.041923
976.440243	2545.782692
976.738062	2528.138654
977.035845	2505.453462
977.333590	2472.685962
977.631299	2518.056346
977.928971	2492.850577
978.226606	2497.891731
978.524204	2457.562500
978.821765	2450.000769
979.119290	2492.850577
979.416777	2500.412308
979.714228	2467.644808
980.011642	2467.644808
980.309020	2379.424615
980.606360	2535.700385
980.903664	2520.576923
981.200931	2437.397885
981.498162	2528.138654
981.795356	2570.988462
982.092513	2417.233269
982.389633	2500.412308
982.686717	2457.562500
982.983764	2442.439038
983.280775	2465.124231
983.577749	2507.974038
983.874686	2470.165385
984.171587	2497.891731
984.468451	2500.412308
984.765279	2502.932885
985.062070	2487.809423
985.358824	2455.041923
985.655543	2553.344423
985.952224	2460.083077
986.248869	2520.576923
986.545478	2472.685962
986.842050	2386.986346
987.138586	2495.371154
987.435086	2389.506923
987.731549	2490.330000
988.027975	2414.712692
988.324366	2568.467885
988.620719	2507.974038
988.917037	2490.330000
989.213318	2419.753846
989.509563	2472.685962
989.805772	2523.097500
990.101944	2407.150962
990.398080	2576.029615
990.694180	2455.041923
990.990244	2490.330000
991.286271	2505.453462
991.582262	2518.056346
991.878217	2442.439038
992.174136	2407.150962
992.470019	2520.576923
992.765865	2412.192115
993.061676	2528.138654
993.357450	2439.918462
993.653188	2523.097500
993.948890	2455.041923
994.244556	2530.659231
994.540186	2467.644808
994.835780	2500.412308
995.131337	2429.836154
995.426859	2442.439038
995.722345	2591.153077
996.017795	2412.192115
996.313208	2384.465769
996.608586	2490.330000
996.903928	2500.412308
997.199234	2450.000769
997.494504	2470.165385
997.789738	2487.809423
998.084936	2505.453462
998.380099	2434.877308
998.675225	2515.535769
998.970316	2450.000769
999.265371	2528.138654
999.560390	2477.727115
999.855373	2528.138654
1000.150320	2437.397885
1000.445232	2404.630385
1000.740108	2487.809423
1001.034948	2523.097500
1001.329752	2492.850577
1001.624521	2437.397885
1001.919254	2492.850577
1002.213951	2538.220962
1002.508613	2434.877308
1002.803239	2399.589231
1003.097829	2477.727115
1003.392384	2525.618077
1003.686903	2502.932885
1003.981386	2497.891731
1004.275834	2480.247692
1004.570246	2492.850577
1004.864623	2502.932885
1005.158964	2465.124231
1005.453270	2513.015192
1005.747540	2525.618077
1006.041775	2404.630385
1006.335974	2540.741538
1006.630138	2518.056346
1006.924266	2545.782692
1007.218359	2518.056346
1007.512416	2513.015192
1007.806438	2500.412308
1008.100425	2507.974038
1008.394376	2427.315577
1008.688292	2432.356731
1008.982172	2475.206538
1009.276017	2434.877308
1009.569827	2477.727115
1009.863602	2467.644808
1010.157341	2555.865000
1010.451045	2558.385577
1010.744714	2422.274423
1011.038347	2407.150962
1011.331945	2492.850577
1011.625508	2492.850577
1011.919036	2608.797115
1012.212528	2409.671538
1012.505986	2487.809423
1012.799408	2414.712692
1013.092795	2495.371154
1013.386147	2467.644808
1013.679464	2490.330000
1013.972745	2523.097500
1014.265992	2462.603654
1014.559204	2507.974038
1014.852380	2472.685962
1015.145521	2555.865000
1015.438628	2444.959615
1015.731699	2424.795000
1016.024736	2452.521346
1016.317737	2495.371154
1016.610703	2376.904038
1016.903635	2477.727115
1017.196531	2462.603654
1017.489393	2485.288846
1017.782219	2392.027500
1018.075011	2518.056346
1018.367768	2447.480192
1018.660490	2505.453462
1018.953177	2505.453462
1019.245829	2505.453462
