Dividing Wavelength (nm)	Counts (n)	Blue Motor Position (mm): 4.100000	Red Motor Position (mm): 0.000000	
326.493990	2124.846346
326.888308	2124.846346
327.282561	2124.846346
327.676750	2041.667308
328.070874	2079.475962
328.464933	2044.187885
328.858929	2132.408077
329.252859	2087.037692
329.646726	2185.340192
330.040528	2066.873077
330.434265	2124.846346
330.827938	2124.846346
331.221547	2112.243462
331.615091	2180.299038
332.008571	2223.148846
332.401986	2215.587115
332.795338	2225.669423
333.188625	2260.957500
333.581847	2303.807308
333.975006	2311.369038
334.368100	2281.122115
334.761129	2245.834038
335.154095	2243.313462
335.546996	2397.068654
335.939833	2329.013077
336.332606	2364.301154
336.725315	2346.657115
337.117960	2402.109808
337.510540	2356.739423
337.903056	2485.288846
338.295508	2487.809423
338.687896	2361.780577
339.080220	2429.836154
339.472480	2407.150962
339.864676	2381.945192
340.256807	2452.521346
340.648875	2455.041923
341.040879	2414.712692
341.432818	2523.097500
341.824694	2439.918462
342.216506	2485.288846
342.608253	2482.768269
342.999937	2507.974038
343.391557	2535.700385
343.783113	2520.576923
344.174605	2452.521346
344.566033	2450.000769
344.957397	2497.891731
345.348697	2417.233269
345.739934	2455.041923
346.131106	2414.712692
346.522215	2424.795000
346.913260	2482.768269
347.304241	2442.439038
347.695159	2371.862885
348.086012	2397.068654
348.476802	2568.467885
348.867528	2404.630385
349.258191	2465.124231
349.648789	2500.412308
350.039324	2427.315577
350.429796	2422.274423
350.820203	2447.480192
351.210548	2437.397885
351.600828	2510.494615
351.991045	2407.150962
352.381198	2495.371154
352.771288	2392.027500
353.161314	2513.015192
353.551276	2419.753846
353.941175	2462.603654
354.331010	2442.439038
354.720782	2434.877308
355.110490	2475.206538
355.500135	2480.247692
355.889717	2439.918462
356.279235	2520.576923
356.668689	2472.685962
357.058080	2422.274423
357.447408	2460.083077
357.836672	2384.465769
358.225873	2419.753846
358.615010	2465.124231
359.004084	2409.671538
359.393095	2450.000769
359.782043	2477.727115
360.170927	2424.795000
360.559748	2457.562500
360.948505	2414.712692
361.337199	2485.288846
361.725830	2412.192115
362.114398	2432.356731
362.502903	2427.315577
362.891344	2437.397885
363.279722	2432.356731
363.668037	2399.589231
364.056289	2465.124231
364.444478	2442.439038
364.832603	2371.862885
365.220665	2475.206538
365.608665	2424.795000
365.996601	2477.727115
366.384474	2540.741538
366.772284	2535.700385
367.160031	2442.439038
367.547715	2502.932885
367.935336	2366.821731
368.322893	2424.795000
368.710388	2381.945192
369.097820	2389.506923
369.485189	2424.795000
369.872495	2467.644808
370.259738	2452.521346
370.646918	2369.342308
371.034035	2505.453462
371.421090	2422.274423
371.808081	2376.904038
372.195010	2409.671538
372.581875	2505.453462
372.968678	2407.150962
373.355418	2394.548077
373.742096	2437.397885
374.128710	2490.330000
374.515262	2472.685962
374.901751	2513.015192
375.288177	2457.562500
375.674540	2523.097500
376.060841	2495.371154
376.447079	2404.630385
376.833254	2419.753846
377.219367	2417.233269
377.605417	2439.918462
377.991404	2397.068654
378.377329	2513.015192
378.763191	2455.041923
379.148991	2422.274423
379.534727	2465.124231
379.920402	2417.233269
380.306013	2359.260000
380.691563	2452.521346
381.077049	2429.836154
381.462474	2437.397885
381.847835	2492.850577
382.233134	2465.124231
382.618371	2470.165385
383.003545	2409.671538
383.388657	2432.356731
383.773706	2550.823846
384.158693	2467.644808
384.543618	2500.412308
384.928480	2434.877308
385.313280	2444.959615
385.698017	2444.959615
386.082692	2412.192115
386.467305	2419.753846
386.851856	2442.439038
387.236344	2432.356731
387.620770	2482.768269
388.005133	2450.000769
388.389435	2424.795000
388.773674	2495.371154
389.157851	2480.247692
389.541965	2480.247692
389.926018	2460.083077
390.310008	2397.068654
390.693936	2361.780577
391.077802	2490.330000
391.461606	2404.630385
391.845348	2490.330000
392.229027	2417.233269
392.612645	2409.671538
392.996200	2424.795000
393.379694	2533.179808
393.763125	2515.535769
394.146494	2452.521346
394.529801	2490.330000
394.913047	2452.521346
395.296230	2389.506923
395.679351	2467.644808
396.062410	2535.700385
396.445408	2465.124231
396.828343	2399.589231
397.211217	2470.165385
397.594028	2538.220962
397.976778	2422.274423
398.359466	2432.356731
398.742092	2389.506923
399.124656	2475.206538
399.507158	2457.562500
399.889598	2525.618077
400.271977	2505.453462
400.654294	2500.412308
401.036549	2482.768269
401.418742	2472.685962
401.800874	2462.603654
402.182944	2482.768269
402.564952	2480.247692
402.946898	2545.782692
403.328783	2480.247692
403.710606	2475.206538
404.092367	2530.659231
404.474067	2510.494615
404.855705	2502.932885
405.237282	2450.000769
405.618797	2492.850577
406.000250	2414.712692
406.381642	2475.206538
406.762972	2404.630385
407.144240	2480.247692
407.525447	2389.506923
407.906593	2442.439038
408.287677	2462.603654
408.668700	2447.480192
409.049661	2510.494615
409.430560	2409.671538
409.811399	2429.836154
410.192176	2545.782692
410.572891	2487.809423
410.953545	2515.535769
411.334138	2439.918462
411.714669	2505.453462
412.095139	2533.179808
412.475547	2462.603654
412.855894	2447.480192
413.236180	2480.247692
413.616405	2437.397885
413.996568	2424.795000
414.376670	2409.671538
414.756711	2442.439038
415.136691	2470.165385
415.516609	2452.521346
415.896466	2452.521346
416.276262	2409.671538
416.655997	2465.124231
417.035670	2510.494615
417.415283	2465.124231
417.794834	2495.371154
418.174324	2439.918462
418.553753	2422.274423
418.933121	2470.165385
419.312428	2583.591346
419.691674	2482.768269
420.070859	2565.947308
420.449983	2439.918462
420.829045	2444.959615
421.208047	2465.124231
421.586988	2434.877308
421.965867	2482.768269
422.344686	2495.371154
422.723444	2447.480192
423.102141	2492.850577
423.480777	2412.192115
423.859352	2414.712692
424.237866	2417.233269
424.616319	2477.727115
424.994712	2520.576923
425.373044	2555.865000
425.751314	2412.192115
426.129524	2507.974038
426.507673	2477.727115
426.885762	2429.836154
427.263789	2462.603654
427.641756	2545.782692
428.019662	2497.891731
428.397508	2502.932885
428.775292	2535.700385
429.153016	2450.000769
429.530679	2487.809423
429.908282	2442.439038
430.285824	2570.988462
430.663305	2507.974038
431.040726	2525.618077
431.418086	2477.727115
431.795385	2470.165385
432.172624	2424.795000
432.549802	2472.685962
432.926920	2482.768269
433.303977	2513.015192
433.680974	2434.877308
434.057910	2523.097500
434.434786	2530.659231
434.811601	2485.288846
435.188355	2444.959615
435.565050	2533.179808
435.941683	2495.371154
436.318257	2540.741538
436.694770	2417.233269
437.071222	2507.974038
437.447614	2460.083077
437.823946	2523.097500
438.200218	2460.083077
438.576429	2558.385577
438.952580	2477.727115
439.328670	2530.659231
439.704700	2359.260000
440.080670	2409.671538
440.456580	2467.644808
440.832429	2472.685962
441.208218	2535.700385
441.583947	2480.247692
441.959616	2480.247692
442.335224	2487.809423
442.710773	2404.630385
443.086261	2417.233269
443.461689	2581.070769
443.837057	2394.548077
444.212365	2437.397885
444.587612	2543.262115
444.962800	2462.603654
445.337927	2505.453462
445.712995	2518.056346
446.088002	2573.509038
446.462949	2399.589231
446.837837	2530.659231
447.212664	2553.344423
447.587431	2507.974038
447.962139	2500.412308
448.336786	2500.412308
448.711374	2480.247692
449.085901	2535.700385
449.460369	2482.768269
449.834776	2439.918462
450.209124	2465.124231
450.583412	2535.700385
450.957640	2422.274423
451.331808	2490.330000
451.705917	2470.165385
452.079965	2548.303269
452.453954	2407.150962
452.827883	2444.959615
453.201752	2439.918462
453.575562	2485.288846
453.949311	2502.932885
454.323001	2548.303269
454.696632	2422.274423
455.070202	2470.165385
455.443713	2417.233269
455.817164	2429.836154
456.190556	2407.150962
456.563888	2515.535769
456.937160	2530.659231
457.310373	2492.850577
457.683526	2535.700385
458.056619	2477.727115
458.429653	2507.974038
458.802628	2450.000769
459.175542	2414.712692
459.548398	2523.097500
459.921194	2462.603654
460.293930	2492.850577
460.666607	2480.247692
461.039224	2432.356731
461.411782	2560.906154
461.784280	2434.877308
462.156719	2510.494615
462.529099	2540.741538
462.901419	2429.836154
463.273680	2354.218846
463.645882	2407.150962
464.018024	2374.383462
464.390106	2550.823846
464.762130	2455.041923
465.134094	2376.904038
465.505999	2502.932885
465.877845	2457.562500
466.249631	2480.247692
466.621358	2462.603654
466.993026	2502.932885
467.364634	2465.124231
467.736184	2502.932885
468.107674	2475.206538
468.479105	2450.000769
468.850477	2465.124231
469.221790	2487.809423
469.593043	2495.371154
469.964238	2533.179808
470.335373	2455.041923
470.706449	2528.138654
471.077467	2513.015192
471.448425	2523.097500
471.819324	2460.083077
472.190164	2452.521346
472.560945	2513.015192
472.931667	2434.877308
473.302330	2505.453462
473.672934	2495.371154
474.043479	2475.206538
474.413965	2510.494615
474.784393	2608.797115
475.154761	2513.015192
475.525070	2462.603654
475.895321	2487.809423
476.265513	2560.906154
476.635645	2442.439038
477.005719	2530.659231
477.375734	2475.206538
477.745691	2553.344423
478.115588	2460.083077
478.485427	2555.865000
478.855207	2455.041923
479.224928	2457.562500
479.594591	2550.823846
479.964194	2460.083077
480.333739	2437.397885
480.703226	2558.385577
481.072653	2392.027500
481.442022	2550.823846
481.811333	2591.153077
482.180584	2507.974038
482.549777	2563.426731
482.918912	2455.041923
483.287988	2429.836154
483.657005	2485.288846
484.025964	2497.891731
484.394864	2515.535769
484.763706	2407.150962
485.132489	2490.330000
485.501213	2442.439038
485.869879	2477.727115
486.238487	2457.562500
486.607036	2497.891731
486.975527	2399.589231
487.343959	2439.918462
487.712333	2553.344423
488.080648	2492.850577
488.448905	2608.797115
488.817104	2470.165385
489.185244	2455.041923
489.553326	2530.659231
489.921350	2500.412308
490.289315	2472.685962
490.657222	2515.535769
491.025070	2523.097500
491.392861	2439.918462
491.760593	2540.741538
492.128267	2505.453462
492.495883	2502.932885
492.863440	2455.041923
493.230939	2470.165385
493.598380	2439.918462
493.965763	2497.891731
494.333088	2379.424615
494.700354	2563.426731
495.067563	2470.165385
495.434713	2530.659231
495.801805	2513.015192
496.168839	2545.782692
496.535815	2429.836154
496.902733	2565.947308
497.269593	2470.165385
497.636395	2550.823846
498.003139	2467.644808
498.369825	2560.906154
498.736453	2452.521346
499.103023	2576.029615
499.469535	2576.029615
499.835989	2492.850577
500.202385	2570.988462
500.568723	2545.782692
500.935003	2513.015192
501.301226	2523.097500
501.667390	2545.782692
502.033497	2455.041923
502.399546	2487.809423
502.765537	2505.453462
503.131470	2470.165385
503.497345	2467.644808
503.863163	2437.397885
504.228923	2513.015192
504.594625	2538.220962
504.960269	2490.330000
505.325856	2442.439038
505.691385	2507.974038
506.056856	2586.111923
506.422270	2397.068654
506.787625	2525.618077
507.152924	2455.041923
507.518164	2432.356731
507.883347	2487.809423
508.248472	2492.850577
508.613540	2477.727115
508.978550	2477.727115
509.343503	2485.288846
509.708398	2437.397885
510.073236	2500.412308
510.438016	2492.850577
510.802738	2518.056346
511.167403	2573.509038
511.532010	2497.891731
511.896561	2525.618077
512.261053	2515.535769
512.625488	2558.385577
512.989866	2490.330000
513.354186	2518.056346
513.718449	2528.138654
514.082655	2392.027500
514.446803	2513.015192
514.810894	2485.288846
515.174927	2518.056346
515.538904	2452.521346
515.902822	2505.453462
516.266684	2520.576923
516.630488	2523.097500
516.994235	2487.809423
517.357925	2439.918462
517.721558	2558.385577
518.085133	2470.165385
518.448651	2470.165385
518.812112	2427.315577
519.175516	2404.630385
519.538863	2513.015192
519.902152	2535.700385
520.265385	2500.412308
520.628560	2477.727115
520.991678	2573.509038
521.354739	2495.371154
521.717743	2427.315577
522.080690	2414.712692
522.443580	2502.932885
522.806413	2465.124231
523.169189	2533.179808
523.531908	2376.904038
523.894569	2487.809423
524.257174	2480.247692
524.619722	2518.056346
524.982213	2555.865000
525.344647	2578.550192
525.707025	2492.850577
526.069345	2470.165385
526.431608	2528.138654
526.793815	2507.974038
527.155964	2462.603654
527.518057	2495.371154
527.880093	2505.453462
528.242072	2543.262115
528.603995	2502.932885
528.965860	2490.330000
529.327669	2492.850577
529.689421	2467.644808
530.051117	2520.576923
530.412755	2480.247692
530.774337	2485.288846
531.135862	2510.494615
531.497331	2543.262115
531.858743	2465.124231
532.220098	2535.700385
532.581396	2477.727115
532.942638	2414.712692
533.303824	2470.165385
533.664953	2513.015192
534.026025	2442.439038
534.387040	2548.303269
534.747999	2492.850577
535.108902	2525.618077
535.469748	2535.700385
535.830537	2485.288846
536.191270	2447.480192
536.551947	2520.576923
536.912567	2472.685962
537.273131	2518.056346
537.633638	2492.850577
537.994089	2518.056346
538.354483	2404.630385
538.714821	2515.535769
539.075103	2507.974038
539.435328	2485.288846
539.795497	2528.138654
540.155609	2533.179808
540.515665	2392.027500
540.875665	2497.891731
541.235609	2462.603654
541.595496	2543.262115
541.955328	2450.000769
542.315102	2490.330000
542.674821	2477.727115
543.034483	2510.494615
543.394090	2515.535769
543.753640	2460.083077
544.113134	2444.959615
544.472571	2462.603654
544.831953	2500.412308
545.191278	2558.385577
545.550548	2404.630385
545.909761	2553.344423
546.268918	2505.453462
546.628019	2550.823846
546.987064	2518.056346
547.346053	2538.220962
547.704986	2455.041923
548.063863	2432.356731
548.422684	2460.083077
548.781449	2437.397885
549.140158	2538.220962
549.498811	2447.480192
549.857408	2470.165385
550.215949	2505.453462
550.574434	2482.768269
550.932864	2558.385577
551.291237	2553.344423
551.649555	2450.000769
552.007817	2533.179808
552.366022	2540.741538
552.724173	2548.303269
553.082267	2505.453462
553.440305	2510.494615
553.798288	2475.206538
554.156215	2495.371154
554.514086	2472.685962
554.871902	2492.850577
555.229661	2565.947308
555.587365	2432.356731
555.945014	2422.274423
556.302606	2409.671538
556.660143	2455.041923
557.017625	2502.932885
557.375050	2500.412308
557.732421	2470.165385
558.089735	2535.700385
558.446994	2523.097500
558.804197	2530.659231
559.161345	2429.836154
559.518437	2414.712692
559.875474	2543.262115
560.232455	2475.206538
560.589381	2540.741538
560.946251	2500.412308
561.303065	2497.891731
561.659825	2505.453462
562.016528	2497.891731
562.373177	2444.959615
562.729770	2570.988462
563.086307	2437.397885
563.442789	2518.056346
563.799216	2437.397885
564.155587	2452.521346
564.511904	2510.494615
564.868164	2497.891731
565.224370	2528.138654
565.580520	2543.262115
565.936615	2480.247692
566.292654	2495.371154
566.648638	2447.480192
567.004567	2523.097500
567.360441	2581.070769
567.716260	2515.535769
568.072023	2533.179808
568.427732	2553.344423
568.783385	2505.453462
569.138982	2505.453462
569.494525	2513.015192
569.850013	2460.083077
570.205445	2404.630385
570.560823	2472.685962
570.916145	2407.150962
571.271412	2555.865000
571.626625	2500.412308
571.981782	2462.603654
572.336884	2500.412308
572.691931	2518.056346
573.046923	2533.179808
573.401860	2505.453462
573.756743	2460.083077
574.111570	2525.618077
574.466342	2492.850577
574.821059	2555.865000
575.175722	2502.932885
575.530330	2485.288846
575.884882	2578.550192
576.239380	2505.453462
576.593823	2598.714808
576.948211	2510.494615
577.302544	2457.562500
577.656823	2402.109808
578.011047	2497.891731
578.365216	2457.562500
578.719330	2490.330000
579.073389	2487.809423
579.427394	2525.618077
579.781344	2452.521346
580.135239	2472.685962
580.489080	2520.576923
580.842866	2548.303269
581.196597	2432.356731
581.550273	2520.576923
581.903895	2500.412308
582.257463	2510.494615
582.610975	2513.015192
582.964434	2470.165385
583.317837	2520.576923
583.671186	2424.795000
584.024481	2470.165385
584.377721	2475.206538
584.730906	2460.083077
585.084037	2495.371154
585.437113	2462.603654
585.790135	2550.823846
586.143103	2447.480192
586.496016	2485.288846
586.848874	2518.056346
587.201679	2545.782692
587.554428	2576.029615
587.907124	2482.768269
588.259765	2533.179808
588.612352	2482.768269
588.964884	2528.138654
589.317362	2457.562500
589.669786	2510.494615
590.022155	2485.288846
590.374470	2525.618077
590.726731	2477.727115
591.078937	2507.974038
591.431090	2460.083077
591.783188	2467.644808
592.135232	2513.015192
592.487222	2523.097500
592.839157	2432.356731
593.191038	2480.247692
593.542866	2507.974038
593.894639	2404.630385
594.246358	2510.494615
594.598022	2500.412308
594.949633	2465.124231
595.301190	2548.303269
595.652692	2472.685962
596.004141	2540.741538
596.355535	2510.494615
596.706876	2472.685962
597.058162	2452.521346
597.409395	2545.782692
597.760573	2505.453462
598.111698	2465.124231
598.462768	2409.671538
598.813785	2505.453462
599.164748	2502.932885
599.515657	2417.233269
599.866511	2492.850577
600.217312	2394.548077
600.568060	2502.932885
600.918753	2434.877308
601.269392	2462.603654
601.619978	2510.494615
601.970510	2437.397885
602.320988	2500.412308
602.671412	2487.809423
603.021783	2510.494615
603.372100	2616.358846
603.722363	2462.603654
604.072572	2470.165385
604.422728	2507.974038
604.772830	2495.371154
605.122878	2492.850577
605.472872	2490.330000
605.822813	2540.741538
606.172701	2472.685962
606.522534	2487.809423
606.872314	2520.576923
607.222041	2530.659231
607.571714	2510.494615
607.921333	2490.330000
608.270899	2502.932885
608.620411	2480.247692
608.969870	2490.330000
609.319276	2495.371154
609.668627	2485.288846
610.017926	2414.712692
610.367171	2470.165385
610.716362	2470.165385
611.065500	2482.768269
611.414585	2563.426731
611.763616	2548.303269
612.112594	2485.288846
612.461518	2439.918462
612.810389	2495.371154
613.159207	2510.494615
613.507971	2523.097500
613.856682	2447.480192
614.205340	2530.659231
614.553945	2427.315577
614.902496	2515.535769
615.250994	2500.412308
615.599439	2558.385577
615.947830	2505.453462
616.296169	2467.644808
616.644454	2548.303269
616.992686	2510.494615
617.340864	2462.603654
617.688990	2452.521346
618.037063	2502.932885
618.385082	2543.262115
618.733048	2520.576923
619.080961	2475.206538
619.428821	2480.247692
619.776628	2490.330000
620.124382	2455.041923
620.472083	2485.288846
620.819731	2402.109808
621.167326	2525.618077
621.514868	2485.288846
621.862357	2497.891731
622.209793	2523.097500
622.557176	2505.453462
622.904506	2447.480192
623.251783	2528.138654
623.599007	2487.809423
623.946179	2601.235385
624.293297	2427.315577
624.640363	2492.850577
624.987376	2502.932885
625.334336	2482.768269
625.681243	2485.288846
626.028097	2427.315577
626.374899	2434.877308
626.721647	2470.165385
627.068343	2515.535769
627.414987	2558.385577
627.761577	2437.397885
628.108115	2543.262115
628.454600	2505.453462
628.801032	2548.303269
629.147412	2467.644808
629.493739	2533.179808
629.840014	2480.247692
630.186236	2447.480192
630.532405	2457.562500
630.878521	2593.673654
631.224585	2475.206538
631.570597	2500.412308
631.916556	2457.562500
632.262462	2492.850577
632.608316	2455.041923
632.954117	2513.015192
633.299866	2490.330000
633.645562	2523.097500
633.991206	2581.070769
634.336797	2402.109808
634.682336	2485.288846
635.027823	2465.124231
635.373257	2439.918462
635.718639	2480.247692
636.063968	2475.206538
636.409245	2417.233269
636.754470	2432.356731
637.099642	2399.589231
637.444762	2480.247692
637.789829	2507.974038
638.134845	2523.097500
638.479808	2434.877308
638.824719	2616.358846
639.169577	2490.330000
639.514383	2472.685962
639.859137	2510.494615
640.203839	2442.439038
640.548489	2533.179808
640.893086	2414.712692
641.237632	2500.412308
641.582125	2505.453462
641.926566	2505.453462
642.270955	2540.741538
642.615292	2492.850577
642.959576	2495.371154
643.303809	2523.097500
643.647990	2477.727115
643.992118	2520.576923
644.336195	2475.206538
644.680219	2482.768269
645.024192	2490.330000
645.368112	2563.426731
645.711981	2495.371154
646.055797	2593.673654
646.399562	2515.535769
646.743274	2545.782692
647.086935	2540.741538
647.430544	2502.932885
647.774101	2495.371154
648.117606	2477.727115
648.461059	2452.521346
648.804460	2475.206538
649.147810	2510.494615
649.491108	2487.809423
649.834354	2558.385577
650.177548	2500.412308
650.520690	2507.974038
650.863781	2596.194231
651.206820	2523.097500
651.549807	2543.262115
651.892742	2490.330000
652.235626	2523.097500
652.578458	2507.974038
652.921238	2540.741538
653.263967	2570.988462
653.606644	2495.371154
653.949269	2540.741538
654.291843	2578.550192
654.634365	2495.371154
654.976836	2510.494615
655.319255	2578.550192
655.661622	2510.494615
656.003938	2538.220962
656.346203	2477.727115
656.688416	2500.412308
657.030577	2432.356731
657.372687	2505.453462
657.714746	2487.809423
658.056753	2507.974038
658.398708	2414.712692
658.740612	2455.041923
659.082465	2543.262115
659.424266	2523.097500
659.766016	2467.644808
660.107715	2553.344423
660.449362	2447.480192
660.790958	2505.453462
661.132503	2455.041923
661.473996	2507.974038
661.815438	2560.906154
662.156829	2497.891731
662.498168	2588.632500
662.839456	2497.891731
663.180693	2462.603654
663.521879	2419.753846
663.863013	2427.315577
664.204097	2447.480192
664.545129	2361.780577
664.886110	2525.618077
665.227040	2450.000769
665.567918	2502.932885
665.908746	2598.714808
666.249522	2465.124231
666.590248	2502.932885
666.930922	2419.753846
667.271545	2535.700385
667.612118	2608.797115
667.952639	2472.685962
668.293109	2475.206538
668.633528	2460.083077
668.973896	2528.138654
669.314213	2513.015192
669.654480	2495.371154
669.994695	2467.644808
670.334859	2560.906154
670.674973	2432.356731
671.015035	2530.659231
671.355047	2457.562500
671.695008	2472.685962
672.034918	2465.124231
672.374777	2505.453462
672.714585	2500.412308
673.054342	2528.138654
673.394049	2565.947308
673.733705	2543.262115
674.073310	2548.303269
674.412864	2500.412308
674.752368	2518.056346
675.091820	2533.179808
675.431223	2495.371154
675.770574	2407.150962
676.109875	2520.576923
676.449125	2462.603654
676.788324	2500.412308
677.127473	2523.097500
677.466571	2467.644808
677.805619	2495.371154
678.144616	2520.576923
678.483562	2450.000769
678.822458	2480.247692
679.161303	2457.562500
679.500098	2523.097500
679.838842	2495.371154
680.177535	2465.124231
680.516179	2545.782692
680.854771	2447.480192
681.193314	2515.535769
681.531805	2447.480192
681.870247	2533.179808
682.208638	2523.097500
682.546978	2543.262115
682.885268	2523.097500
683.223508	2518.056346
683.561697	2515.535769
683.899836	2429.836154
684.237925	2500.412308
684.575963	2424.795000
684.913951	2513.015192
685.251889	2482.768269
685.589776	2404.630385
685.927614	2450.000769
686.265401	2553.344423
686.603137	2480.247692
686.940824	2525.618077
687.278460	2432.356731
687.616046	2545.782692
687.953582	2470.165385
688.291068	2465.124231
688.628504	2497.891731
688.965889	2485.288846
689.303224	2462.603654
689.640510	2500.412308
689.977745	2452.521346
690.314930	2397.068654
690.652065	2513.015192
690.989150	2540.741538
691.326185	2555.865000
691.663170	2409.671538
692.000105	2497.891731
692.336990	2495.371154
692.673825	2515.535769
693.010610	2487.809423
693.347345	2555.865000
693.684030	2528.138654
694.020665	2432.356731
694.357251	2482.768269
694.693786	2578.550192
695.030272	2523.097500
695.366707	2462.603654
695.703093	2510.494615
696.039429	2535.700385
696.375716	2442.439038
696.711952	2560.906154
697.048139	2470.165385
697.384276	2520.576923
697.720363	2492.850577
698.056400	2545.782692
698.392388	2555.865000
698.728326	2434.877308
699.064214	2495.371154
699.400053	2490.330000
699.735842	2427.315577
700.071581	2492.850577
700.407270	2437.397885
700.742910	2518.056346
701.078501	2475.206538
701.414042	2513.015192
701.749533	2520.576923
702.084974	2457.562500
702.420366	2507.974038
702.755709	2528.138654
703.091002	2450.000769
703.426246	2510.494615
703.761440	2528.138654
704.096584	2497.891731
704.431679	2502.932885
704.766725	2485.288846
705.101721	2565.947308
705.436668	2492.850577
705.771565	2563.426731
706.106413	2540.741538
706.441212	2487.809423
706.775961	2482.768269
707.110661	2515.535769
707.445311	2480.247692
707.779913	2550.823846
708.114465	2487.809423
708.448967	2460.083077
708.783421	2502.932885
709.117825	2510.494615
709.452180	2485.288846
709.786485	2502.932885
710.120742	2510.494615
710.454949	2450.000769
710.789107	2399.589231
711.123216	2487.809423
711.457275	2429.836154
711.791286	2434.877308
712.125247	2495.371154
712.459159	2515.535769
712.793023	2457.562500
713.126837	2520.576923
713.460602	2502.932885
713.794318	2502.932885
714.127985	2447.480192
714.461602	2553.344423
714.795171	2490.330000
715.128691	2485.288846
715.462162	2535.700385
715.795584	2528.138654
716.128957	2505.453462
716.462281	2490.330000
716.795556	2472.685962
717.128782	2528.138654
717.461960	2528.138654
717.795088	2502.932885
718.128167	2465.124231
718.461198	2500.412308
718.794180	2507.974038
719.127113	2442.439038
719.459997	2555.865000
719.792833	2502.932885
720.125619	2515.535769
720.458357	2472.685962
720.791046	2490.330000
721.123686	2492.850577
721.456278	2490.330000
721.788821	2558.385577
722.121315	2495.371154
722.453761	2434.877308
722.786158	2510.494615
723.118506	2520.576923
723.450805	2497.891731
723.783056	2513.015192
724.115259	2533.179808
724.447412	2535.700385
724.779518	2540.741538
725.111574	2487.809423
725.443582	2525.618077
725.775542	2490.330000
726.107453	2533.179808
726.439315	2480.247692
726.771129	2492.850577
727.102895	2442.439038
727.434612	2550.823846
727.766281	2470.165385
728.097901	2485.288846
728.429473	2419.753846
728.760996	2485.288846
729.092471	2490.330000
729.423897	2510.494615
729.755276	2492.850577
730.086606	2510.494615
730.417887	2462.603654
730.749120	2525.618077
731.080305	2424.795000
731.411442	2424.795000
731.742530	2505.453462
732.073570	2475.206538
732.404562	2472.685962
732.735506	2487.809423
733.066401	2447.480192
733.397249	2462.603654
733.728048	2502.932885
734.058798	2596.194231
734.389501	2538.220962
734.720156	2487.809423
735.050762	2525.618077
735.381320	2470.165385
735.711831	2507.974038
736.042293	2442.439038
736.372707	2482.768269
736.703073	2518.056346
737.033391	2500.412308
737.363661	2487.809423
737.693883	2525.618077
738.024056	2520.576923
738.354182	2432.356731
738.684260	2480.247692
739.014290	2507.974038
739.344272	2457.562500
739.674207	2429.836154
740.004093	2505.453462
740.333931	2586.111923
740.663722	2507.974038
740.993464	2523.097500
741.323159	2525.618077
741.652806	2513.015192
741.982405	2442.439038
742.311956	2467.644808
742.641460	2540.741538
742.970915	2568.467885
743.300323	2611.317692
743.629683	2444.959615
743.958996	2487.809423
744.288260	2434.877308
744.617477	2523.097500
744.946647	2525.618077
745.275768	2528.138654
745.604842	2654.167500
745.933869	2422.274423
746.262847	2530.659231
746.591778	2402.109808
746.920662	2497.891731
747.249498	2455.041923
747.578286	2545.782692
747.907027	2439.918462
748.235720	2490.330000
748.564365	2538.220962
748.892963	2513.015192
749.221514	2518.056346
749.550017	2394.548077
749.878473	2525.618077
750.206881	2533.179808
750.535242	2460.083077
750.863555	2392.027500
751.191821	2588.632500
751.520039	2553.344423
751.848210	2500.412308
752.176334	2485.288846
752.504411	2515.535769
752.832440	2407.150962
753.160421	2470.165385
753.488356	2500.412308
753.816243	2578.550192
754.144082	2422.274423
754.471875	2482.768269
754.799620	2480.247692
755.127318	2470.165385
755.454969	2573.509038
755.782572	2515.535769
756.110129	2475.206538
756.437638	2500.412308
756.765100	2505.453462
757.092515	2500.412308
757.419882	2482.768269
757.747203	2462.603654
758.074477	2480.247692
758.401703	2492.850577
758.728882	2525.618077
759.056014	2465.124231
759.383099	2495.371154
759.710138	2530.659231
760.037129	2490.330000
760.364073	2462.603654
760.690970	2583.591346
761.017820	2497.891731
761.344623	2545.782692
761.671379	2525.618077
761.998088	2510.494615
762.324751	2495.371154
762.651366	2497.891731
762.977935	2502.932885
763.304456	2543.262115
763.630931	2444.959615
763.957359	2497.891731
764.283740	2543.262115
764.610074	2505.453462
764.936362	2510.494615
765.262602	2417.233269
765.588796	2548.303269
765.914943	2500.412308
766.241044	2513.015192
766.567097	2439.918462
766.893104	2482.768269
767.219064	2452.521346
767.544978	2510.494615
767.870845	2485.288846
768.196665	2399.589231
768.522438	2490.330000
768.848165	2460.083077
769.173846	2520.576923
769.499479	2497.891731
769.825066	2485.288846
770.150607	2455.041923
770.476101	2470.165385
770.801548	2475.206538
771.126949	2452.521346
771.452303	2558.385577
771.777611	2538.220962
772.102872	2591.153077
772.428087	2502.932885
772.753256	2444.959615
773.078378	2568.467885
773.403453	2553.344423
773.728482	2490.330000
774.053465	2465.124231
774.378401	2417.233269
774.703291	2437.397885
775.028135	2470.165385
775.352932	2495.371154
775.677683	2417.233269
776.002388	2523.097500
776.327046	2407.150962
776.651658	2500.412308
776.976224	2472.685962
777.300743	2613.838269
777.625216	2490.330000
777.949643	2497.891731
778.274024	2510.494615
778.598359	2510.494615
778.922647	2475.206538
779.246889	2535.700385
779.571086	2513.015192
779.895236	2515.535769
780.219339	2510.494615
780.543397	2528.138654
780.867409	2422.274423
781.191374	2465.124231
781.515294	2553.344423
781.839167	2510.494615
782.162995	2523.097500
782.486776	2505.453462
782.810511	2457.562500
783.134201	2505.453462
783.457844	2495.371154
783.781441	2570.988462
784.104993	2467.644808
784.428498	2482.768269
784.751958	2497.891731
785.075372	2543.262115
785.398739	2455.041923
785.722061	2437.397885
786.045337	2465.124231
786.368568	2502.932885
786.691752	2485.288846
787.014891	2538.220962
787.337983	2452.521346
787.661030	2432.356731
787.984031	2530.659231
788.306987	2452.521346
788.629897	2513.015192
788.952760	2485.288846
789.275579	2570.988462
789.598351	2429.836154
789.921078	2510.494615
790.243759	2460.083077
790.566395	2427.315577
790.888984	2490.330000
791.211529	2515.535769
791.534027	2520.576923
791.856480	2490.330000
792.178888	2553.344423
792.501249	2439.918462
792.823566	2447.480192
793.145836	2490.330000
793.468062	2591.153077
793.790241	2505.453462
794.112375	2414.712692
794.434464	2578.550192
794.756507	2520.576923
795.078505	2460.083077
795.400457	2437.397885
795.722364	2528.138654
796.044226	2482.768269
796.366042	2505.453462
796.687812	2475.206538
797.009538	2553.344423
797.331218	2578.550192
797.652852	2450.000769
797.974442	2618.879423
798.295986	2502.932885
798.617484	2530.659231
798.938938	2487.809423
799.260346	2450.000769
799.581709	2356.739423
799.903026	2419.753846
800.224299	2525.618077
800.545526	2467.644808
800.866708	2535.700385
801.187845	2432.356731
801.508936	2490.330000
801.829983	2452.521346
802.150984	2412.192115
802.471940	2548.303269
802.792851	2480.247692
803.113717	2485.288846
803.434538	2515.535769
803.755314	2475.206538
804.076045	2538.220962
804.396731	2495.371154
804.717372	2502.932885
805.037967	2462.603654
805.358518	2523.097500
805.679024	2447.480192
805.999485	2507.974038
806.319901	2485.288846
806.640272	2490.330000
806.960598	2419.753846
807.280879	2523.097500
807.601115	2457.562500
807.921306	2432.356731
808.241453	2490.330000
808.561554	2500.412308
808.881611	2450.000769
809.201623	2467.644808
809.521590	2480.247692
809.841513	2475.206538
810.161390	2500.412308
810.481223	2455.041923
810.801011	2452.521346
811.120755	2495.371154
811.440453	2457.562500
811.760107	2439.918462
812.079716	2392.027500
812.399281	2439.918462
812.718801	2482.768269
813.038276	2482.768269
813.357707	2429.836154
813.677093	2510.494615
813.996434	2470.165385
814.315731	2510.494615
814.634983	2470.165385
814.954191	2545.782692
815.273354	2596.194231
815.592473	2560.906154
815.911547	2545.782692
816.230577	2490.330000
816.549562	2437.397885
816.868502	2462.603654
817.187399	2490.330000
817.506250	2482.768269
817.825058	2480.247692
818.143821	2523.097500
818.462539	2485.288846
818.781213	2434.877308
819.099843	2540.741538
819.418429	2510.494615
819.736970	2495.371154
820.055466	2538.220962
820.373919	2558.385577
820.692327	2515.535769
821.010691	2596.194231
821.329011	2447.480192
821.647286	2538.220962
821.965517	2412.192115
822.283704	2533.179808
822.601847	2487.809423
822.919945	2528.138654
823.237999	2432.356731
823.556010	2530.659231
823.873976	2530.659231
824.191897	2477.727115
824.509775	2482.768269
824.827609	2545.782692
825.145398	2404.630385
825.463144	2439.918462
825.780845	2452.521346
826.098502	2505.453462
826.416116	2553.344423
826.733685	2507.974038
827.051210	2550.823846
827.368692	2520.576923
827.686129	2477.727115
828.003522	2374.383462
828.320872	2518.056346
828.638177	2455.041923
828.955439	2480.247692
829.272656	2462.603654
829.589830	2467.644808
829.906960	2462.603654
830.224046	2497.891731
830.541088	2520.576923
830.858086	2480.247692
831.175041	2583.591346
831.491952	2424.795000
831.808819	2533.179808
832.125642	2505.453462
832.442421	2525.618077
832.759157	2570.988462
833.075849	2548.303269
833.392497	2455.041923
833.709101	2452.521346
834.025662	2502.932885
834.342179	2475.206538
834.658653	2457.562500
834.975083	2442.439038
835.291469	2530.659231
835.607811	2475.206538
835.924110	2492.850577
836.240366	2482.768269
836.556578	2525.618077
836.872746	2424.795000
837.188871	2502.932885
837.504952	2601.235385
837.820990	2495.371154
838.136984	2432.356731
838.452935	2472.685962
838.768842	2455.041923
839.084706	2419.753846
839.400526	2457.562500
839.716303	2404.630385
840.032037	2465.124231
840.347727	2457.562500
840.663373	2525.618077
840.978977	2543.262115
841.294537	2457.562500
841.610054	2502.932885
841.925527	2477.727115
842.240957	2492.850577
842.556344	2404.630385
842.871687	2447.480192
843.186987	2525.618077
843.502244	2538.220962
843.817458	2490.330000
844.132629	2477.727115
844.447756	2442.439038
844.762840	2417.233269
845.077881	2497.891731
845.392879	2525.618077
845.707833	2417.233269
846.022745	2485.288846
846.337613	2523.097500
846.652438	2588.632500
846.967221	2472.685962
847.281960	2507.974038
847.596656	2457.562500
847.911309	2500.412308
848.225919	2507.974038
848.540485	2540.741538
848.855009	2462.603654
849.169490	2533.179808
849.483928	2530.659231
849.798323	2538.220962
850.112675	2540.741538
850.426984	2515.535769
850.741251	2520.576923
851.055474	2576.029615
851.369654	2381.945192
851.683792	2530.659231
851.997887	2518.056346
852.311938	2460.083077
852.625947	2518.056346
852.939914	2384.465769
853.253837	2500.412308
853.567718	2477.727115
853.881555	2591.153077
854.195350	2472.685962
854.509103	2397.068654
854.822812	2434.877308
855.136479	2477.727115
855.450103	2591.153077
855.763685	2485.288846
856.077224	2502.932885
856.390720	2457.562500
856.704173	2472.685962
857.017584	2485.288846
857.330953	2533.179808
857.644278	2530.659231
857.957561	2583.591346
858.270802	2470.165385
858.584000	2507.974038
858.897155	2475.206538
859.210268	2495.371154
859.523339	2470.165385
859.836367	2515.535769
860.149352	2518.056346
860.462295	2518.056346
860.775195	2513.015192
861.088054	2485.288846
861.400869	2477.727115
861.713642	2482.768269
862.026373	2502.932885
862.339062	2520.576923
862.651708	2548.303269
862.964312	2492.850577
863.276873	2540.741538
863.589392	2470.165385
863.901869	2450.000769
864.214303	2482.768269
864.526696	2545.782692
864.839045	2429.836154
865.151353	2384.465769
865.463619	2510.494615
865.775842	2500.412308
866.088023	2452.521346
866.400162	2550.823846
866.712258	2487.809423
867.024313	2455.041923
867.336325	2429.836154
867.648296	2550.823846
867.960224	2424.795000
868.272110	2538.220962
868.583954	2538.220962
868.895755	2540.741538
869.207515	2530.659231
869.519233	2533.179808
869.830909	2467.644808
870.142542	2487.809423
870.454134	2540.741538
870.765684	2404.630385
871.077191	2475.206538
871.388657	2513.015192
871.700081	2548.303269
872.011463	2470.165385
872.322803	2472.685962
872.634101	2548.303269
872.945357	2550.823846
873.256571	2528.138654
873.567744	2470.165385
873.878874	2450.000769
874.189963	2548.303269
874.501010	2500.412308
874.812015	2528.138654
875.122979	2470.165385
875.433900	2530.659231
875.744780	2442.439038
876.055618	2530.659231
876.366415	2502.932885
876.677169	2460.083077
876.987882	2490.330000
877.298554	2485.288846
877.609183	2434.877308
877.919771	2495.371154
878.230317	2505.453462
878.540822	2505.453462
878.851285	2482.768269
879.161707	2457.562500
879.472087	2477.727115
879.782425	2407.150962
880.092722	2422.274423
880.402977	2500.412308
880.713191	2477.727115
881.023363	2507.974038
881.333494	2447.480192
881.643583	2490.330000
881.953631	2550.823846
882.263637	2447.480192
882.573602	2422.274423
882.883526	2487.809423
883.193408	2465.124231
883.503248	2495.371154
883.813048	2507.974038
884.122806	2540.741538
884.432522	2472.685962
884.742197	2553.344423
885.051831	2528.138654
885.361424	2538.220962
885.670975	2409.671538
885.980485	2444.959615
886.289954	2465.124231
886.599382	2492.850577
886.908768	2513.015192
887.218113	2470.165385
887.527417	2497.891731
887.836680	2543.262115
888.145901	2490.330000
888.455082	2409.671538
888.764221	2480.247692
889.073319	2467.644808
889.382376	2485.288846
889.691392	2560.906154
890.000366	2444.959615
890.309300	2470.165385
890.618193	2548.303269
890.927044	2422.274423
891.235855	2510.494615
891.544625	2513.015192
891.853353	2510.494615
892.162041	2523.097500
892.470687	2455.041923
892.779293	2475.206538
893.087858	2434.877308
893.396381	2495.371154
893.704864	2419.753846
894.013306	2452.521346
894.321707	2523.097500
894.630068	2336.574808
894.938387	2568.467885
895.246665	2480.247692
895.554903	2444.959615
895.863100	2419.753846
896.171256	2583.591346
896.479371	2457.562500
896.787446	2565.947308
897.095480	2533.179808
897.403473	2399.589231
897.711425	2500.412308
898.019336	2427.315577
898.327207	2462.603654
898.635038	2515.535769
898.942827	2495.371154
899.250576	2470.165385
899.558284	2472.685962
899.865952	2450.000769
900.173579	2457.562500
900.481165	2482.768269
900.788711	2500.412308
901.096216	2500.412308
901.403681	2530.659231
901.711105	2492.850577
902.018489	2414.712692
902.325832	2475.206538
902.633135	2560.906154
902.940397	2475.206538
903.247619	2535.700385
903.554800	2482.768269
903.861941	2518.056346
904.169041	2550.823846
904.476101	2492.850577
904.783121	2442.439038
905.090100	2545.782692
905.397039	2462.603654
905.703938	2434.877308
906.010796	2455.041923
906.317614	2470.165385
906.624391	2472.685962
906.931129	2450.000769
907.237826	2497.891731
907.544483	2538.220962
907.851099	2470.165385
908.157675	2485.288846
908.464211	2444.959615
908.770707	2452.521346
909.077163	2462.603654
909.383578	2455.041923
909.689954	2417.233269
909.996289	2407.150962
910.302584	2465.124231
910.608839	2465.124231
910.915054	2533.179808
911.221229	2457.562500
911.527363	2442.439038
911.833458	2492.850577
912.139513	2447.480192
912.445527	2409.671538
912.751502	2417.233269
913.057436	2485.288846
913.363331	2460.083077
913.669186	2472.685962
913.975000	2500.412308
914.280775	2563.426731
914.586510	2548.303269
914.892205	2434.877308
915.197859	2485.288846
915.503475	2495.371154
915.809050	2500.412308
916.114585	2518.056346
916.420081	2553.344423
916.725536	2482.768269
917.030952	2487.809423
917.336328	2465.124231
917.641665	2402.109808
917.946961	2515.535769
918.252218	2490.330000
918.557435	2568.467885
918.862612	2477.727115
919.167750	2475.206538
919.472848	2533.179808
919.777906	2434.877308
920.082925	2467.644808
920.387904	2412.192115
920.692843	2472.685962
920.997743	2465.124231
921.302603	2482.768269
921.607423	2462.603654
921.912204	2560.906154
922.216946	2424.795000
922.521647	2452.521346
922.826310	2525.618077
923.130932	2510.494615
923.435516	2384.465769
923.740059	2477.727115
924.044564	2490.330000
924.349028	2477.727115
924.653454	2465.124231
924.957840	2533.179808
925.262186	2513.015192
925.566493	2455.041923
925.870761	2553.344423
926.174989	2422.274423
926.479178	2515.535769
926.783328	2576.029615
927.087438	2457.562500
927.391509	2570.988462
927.695541	2424.795000
927.999533	2487.809423
928.303486	2417.233269
928.607400	2543.262115
928.911275	2480.247692
929.215110	2518.056346
929.518906	2502.932885
929.822663	2553.344423
930.126381	2429.836154
930.430060	2485.288846
930.733699	2447.480192
931.037299	2465.124231
931.340861	2515.535769
931.644383	2485.288846
931.947866	2523.097500
932.251309	2447.480192
932.554714	2538.220962
932.858080	2558.385577
933.161407	2518.056346
933.464694	2480.247692
933.767943	2513.015192
934.071153	2402.109808
934.374323	2548.303269
934.677455	2598.714808
934.980548	2560.906154
935.283602	2460.083077
935.586617	2460.083077
935.889593	2518.056346
936.192530	2437.397885
936.495428	2505.453462
936.798287	2470.165385
937.101108	2540.741538
937.403890	2603.755962
937.706632	2472.685962
938.009336	2538.220962
938.312002	2434.877308
938.614628	2379.424615
938.917216	2495.371154
939.219765	2485.288846
939.522275	2492.850577
939.824747	2417.233269
940.127179	2460.083077
940.429573	2442.439038
940.731929	2462.603654
941.034246	2460.083077
941.336524	2482.768269
941.638763	2576.029615
941.940964	2480.247692
942.243126	2500.412308
942.545250	2409.671538
942.847335	2439.918462
943.149381	2492.850577
943.451389	2460.083077
943.753359	2591.153077
944.055290	2419.753846
944.357182	2384.465769
944.659036	2439.918462
944.960851	2460.083077
945.262628	2565.947308
945.564367	2505.453462
945.866067	2457.562500
946.167729	2485.288846
946.469352	2515.535769
946.770937	2492.850577
947.072484	2487.809423
947.373992	2492.850577
947.675462	2427.315577
947.976893	2457.562500
948.278286	2520.576923
948.579641	2467.644808
948.880958	2555.865000
949.182236	2442.439038
949.483476	2487.809423
949.784678	2455.041923
950.085841	2538.220962
950.386967	2447.480192
950.688054	2444.959615
950.989103	2482.768269
951.290114	2497.891731
951.591087	2477.727115
951.892021	2447.480192
952.192917	2422.274423
952.493776	2520.576923
952.794596	2447.480192
953.095378	2548.303269
953.396122	2462.603654
953.696828	2505.453462
953.997496	2439.918462
954.298126	2573.509038
954.598718	2538.220962
954.899272	2555.865000
955.199788	2538.220962
955.500266	2525.618077
955.800706	2535.700385
956.101108	2437.397885
956.401472	2548.303269
956.701798	2442.439038
957.002087	2477.727115
957.302337	2507.974038
957.602550	2533.179808
957.902724	2437.397885
958.202861	2465.124231
958.502960	2472.685962
958.803022	2472.685962
959.103045	2510.494615
959.403031	2548.303269
959.702979	2381.945192
960.002889	2424.795000
960.302762	2565.947308
960.602596	2530.659231
960.902393	2487.809423
961.202153	2525.618077
961.501875	2462.603654
961.801559	2482.768269
962.101205	2394.548077
962.400814	2507.974038
962.700385	2467.644808
962.999918	2535.700385
963.299414	2429.836154
963.598873	2487.809423
963.898293	2487.809423
964.197677	2437.397885
964.497022	2407.150962
964.796331	2576.029615
965.095601	2528.138654
965.394835	2482.768269
965.694030	2502.932885
965.993189	2553.344423
966.292309	2427.315577
966.591393	2492.850577
966.890439	2485.288846
967.189447	2485.288846
967.488419	2444.959615
967.787353	2507.974038
968.086249	2505.453462
968.385108	2482.768269
968.683930	2568.467885
968.982714	2482.768269
969.281462	2523.097500
969.580172	2507.974038
969.878844	2500.412308
970.177480	2548.303269
970.476078	2505.453462
970.774639	2429.836154
971.073162	2507.974038
971.371649	2505.453462
971.670098	2538.220962
971.968510	2502.932885
972.266885	2419.753846
972.565223	2432.356731
972.863524	2533.179808
973.161788	2477.727115
973.460014	2490.330000
973.758204	2565.947308
974.056356	2490.330000
974.354471	2485.288846
974.652550	2487.809423
974.950591	2500.412308
975.248595	2558.385577
975.546563	2480.247692
975.844493	2477.727115
976.142386	2518.056346
976.440243	2485.288846
976.738062	2502.932885
977.035845	2495.371154
977.333590	2437.397885
977.631299	2487.809423
977.928971	2467.644808
978.226606	2530.659231
978.524204	2412.192115
978.821765	2513.015192
979.119290	2492.850577
979.416777	2447.480192
979.714228	2460.083077
980.011642	2505.453462
980.309020	2490.330000
980.606360	2399.589231
980.903664	2412.192115
981.200931	2565.947308
981.498162	2467.644808
981.795356	2565.947308
982.092513	2510.494615
982.389633	2480.247692
982.686717	2568.467885
982.983764	2432.356731
983.280775	2513.015192
983.577749	2465.124231
983.874686	2515.535769
984.171587	2462.603654
984.468451	2515.535769
984.765279	2460.083077
985.062070	2482.768269
985.358824	2472.685962
985.655543	2475.206538
985.952224	2422.274423
986.248869	2465.124231
986.545478	2460.083077
986.842050	2429.836154
987.138586	2397.068654
987.435086	2429.836154
987.731549	2502.932885
988.027975	2460.083077
988.324366	2490.330000
988.620719	2422.274423
988.917037	2460.083077
989.213318	2465.124231
989.509563	2475.206538
989.805772	2485.288846
990.101944	2525.618077
990.398080	2510.494615
990.694180	2417.233269
990.990244	2487.809423
991.286271	2402.109808
991.582262	2447.480192
991.878217	2601.235385
992.174136	2492.850577
992.470019	2427.315577
992.765865	2570.988462
993.061676	2492.850577
993.357450	2485.288846
993.653188	2475.206538
993.948890	2467.644808
994.244556	2495.371154
994.540186	2429.836154
994.835780	2528.138654
995.131337	2397.068654
995.426859	2558.385577
995.722345	2513.015192
996.017795	2450.000769
996.313208	2513.015192
996.608586	2437.397885
996.903928	2513.015192
997.199234	2616.358846
997.494504	2465.124231
997.789738	2495.371154
998.084936	2507.974038
998.380099	2490.330000
998.675225	2477.727115
998.970316	2467.644808
999.265371	2437.397885
999.560390	2497.891731
999.855373	2525.618077
1000.150320	2492.850577
1000.445232	2482.768269
1000.740108	2528.138654
1001.034948	2593.673654
1001.329752	2457.562500
1001.624521	2535.700385
1001.919254	2460.083077
1002.213951	2482.768269
1002.508613	2409.671538
1002.803239	2492.850577
1003.097829	2462.603654
1003.392384	2495.371154
1003.686903	2409.671538
1003.981386	2555.865000
1004.275834	2480.247692
1004.570246	2495.371154
1004.864623	2442.439038
1005.158964	2485.288846
1005.453270	2427.315577
1005.747540	2500.412308
1006.041775	2518.056346
1006.335974	2505.453462
1006.630138	2392.027500
1006.924266	2553.344423
1007.218359	2495.371154
1007.512416	2487.809423
1007.806438	2402.109808
1008.100425	2576.029615
1008.394376	2434.877308
1008.688292	2442.439038
1008.982172	2492.850577
1009.276017	2515.535769
1009.569827	2467.644808
1009.863602	2472.685962
1010.157341	2505.453462
1010.451045	2470.165385
1010.744714	2502.932885
1011.038347	2462.603654
1011.331945	2560.906154
1011.625508	2533.179808
1011.919036	2495.371154
1012.212528	2505.453462
1012.505986	2576.029615
1012.799408	2505.453462
1013.092795	2444.959615
1013.386147	2492.850577
1013.679464	2447.480192
1013.972745	2472.685962
1014.265992	2457.562500
1014.559204	2538.220962
1014.852380	2475.206538
1015.145521	2548.303269
1015.438628	2470.165385
1015.731699	2437.397885
1016.024736	2543.262115
1016.317737	2518.056346
1016.610703	2487.809423
1016.903635	2480.247692
1017.196531	2538.220962
1017.489393	2470.165385
1017.782219	2487.809423
1018.075011	2487.809423
1018.367768	2460.083077
1018.660490	2513.015192
1018.953177	2513.015192
1019.245829	2513.015192
