Dividing Wavelength (nm)	Counts (n)	Blue Motor Position (mm): 2.000000	Red Motor Position (mm): 0.000000	
326.493990	2094.599423
326.888308	2094.599423
327.282561	2094.599423
327.676750	2081.996538
328.070874	2112.243462
328.464933	2064.352500
328.858929	2046.708462
329.252859	2039.146731
329.646726	2099.640577
330.040528	2155.093269
330.434265	2119.805192
330.827938	2097.120000
331.221547	2157.613846
331.615091	2147.531538
332.008571	2145.010962
332.401986	2167.696154
332.795338	2202.984231
333.188625	2218.107692
333.581847	2263.478077
333.975006	2321.451346
334.368100	2288.683846
334.761129	2331.533654
335.154095	2344.136538
335.546996	2346.657115
335.939833	2379.424615
336.332606	2374.383462
336.725315	2470.165385
337.117960	2437.397885
337.510540	2472.685962
337.903056	2470.165385
338.295508	2412.192115
338.687896	2419.753846
339.080220	2518.056346
339.472480	2525.618077
339.864676	2490.330000
340.256807	2414.712692
340.648875	2500.412308
341.040879	2467.644808
341.432818	2492.850577
341.824694	2439.918462
342.216506	2513.015192
342.608253	2480.247692
342.999937	2497.891731
343.391557	2450.000769
343.783113	2470.165385
344.174605	2470.165385
344.566033	2455.041923
344.957397	2447.480192
345.348697	2419.753846
345.739934	2570.988462
346.131106	2379.424615
346.522215	2497.891731
346.913260	2452.521346
347.304241	2414.712692
347.695159	2419.753846
348.086012	2490.330000
348.476802	2538.220962
348.867528	2434.877308
349.258191	2412.192115
349.648789	2480.247692
350.039324	2470.165385
350.429796	2457.562500
350.820203	2442.439038
351.210548	2434.877308
351.600828	2379.424615
351.991045	2424.795000
352.381198	2477.727115
352.771288	2480.247692
353.161314	2432.356731
353.551276	2369.342308
353.941175	2386.986346
354.331010	2482.768269
354.720782	2429.836154
355.110490	2399.589231
355.500135	2344.136538
355.889717	2482.768269
356.279235	2399.589231
356.668689	2384.465769
357.058080	2414.712692
357.447408	2462.603654
357.836672	2475.206538
358.225873	2419.753846
358.615010	2462.603654
359.004084	2412.192115
359.393095	2475.206538
359.782043	2381.945192
360.170927	2399.589231
360.559748	2439.918462
360.948505	2414.712692
361.337199	2518.056346
361.725830	2429.836154
362.114398	2359.260000
362.502903	2480.247692
362.891344	2467.644808
363.279722	2437.397885
363.668037	2419.753846
364.056289	2389.506923
364.444478	2515.535769
364.832603	2437.397885
365.220665	2437.397885
365.608665	2439.918462
365.996601	2444.959615
366.384474	2397.068654
366.772284	2523.097500
367.160031	2397.068654
367.547715	2520.576923
367.935336	2422.274423
368.322893	2447.480192
368.710388	2414.712692
369.097820	2432.356731
369.485189	2460.083077
369.872495	2450.000769
370.259738	2366.821731
370.646918	2422.274423
371.034035	2429.836154
371.421090	2470.165385
371.808081	2369.342308
372.195010	2518.056346
372.581875	2409.671538
372.968678	2364.301154
373.355418	2500.412308
373.742096	2419.753846
374.128710	2462.603654
374.515262	2444.959615
374.901751	2457.562500
375.288177	2495.371154
375.674540	2475.206538
376.060841	2480.247692
376.447079	2397.068654
376.833254	2467.644808
377.219367	2422.274423
377.605417	2386.986346
377.991404	2379.424615
378.377329	2513.015192
378.763191	2412.192115
379.148991	2465.124231
379.534727	2386.986346
379.920402	2480.247692
380.306013	2424.795000
380.691563	2470.165385
381.077049	2487.809423
381.462474	2543.262115
381.847835	2409.671538
382.233134	2447.480192
382.618371	2470.165385
383.003545	2462.603654
383.388657	2450.000769
383.773706	2480.247692
384.158693	2397.068654
384.543618	2520.576923
384.928480	2374.383462
385.313280	2424.795000
385.698017	2535.700385
386.082692	2457.562500
386.467305	2490.330000
386.851856	2477.727115
387.236344	2472.685962
387.620770	2472.685962
388.005133	2502.932885
388.389435	2475.206538
388.773674	2497.891731
389.157851	2490.330000
389.541965	2480.247692
389.926018	2450.000769
390.310008	2477.727115
390.693936	2528.138654
391.077802	2404.630385
391.461606	2374.383462
391.845348	2550.823846
392.229027	2417.233269
392.612645	2523.097500
392.996200	2467.644808
393.379694	2462.603654
393.763125	2455.041923
394.146494	2371.862885
394.529801	2485.288846
394.913047	2462.603654
395.296230	2465.124231
395.679351	2472.685962
396.062410	2444.959615
396.445408	2563.426731
396.828343	2419.753846
397.211217	2412.192115
397.594028	2374.383462
397.976778	2432.356731
398.359466	2450.000769
398.742092	2520.576923
399.124656	2510.494615
399.507158	2462.603654
399.889598	2475.206538
400.271977	2450.000769
400.654294	2475.206538
401.036549	2450.000769
401.418742	2409.671538
401.800874	2533.179808
402.182944	2389.506923
402.564952	2442.439038
402.946898	2460.083077
403.328783	2450.000769
403.710606	2429.836154
404.092367	2510.494615
404.474067	2490.330000
404.855705	2460.083077
405.237282	2475.206538
405.618797	2399.589231
406.000250	2429.836154
406.381642	2444.959615
406.762972	2475.206538
407.144240	2452.521346
407.525447	2465.124231
407.906593	2414.712692
408.287677	2533.179808
408.668700	2447.480192
409.049661	2389.506923
409.430560	2442.439038
409.811399	2447.480192
410.192176	2490.330000
410.572891	2407.150962
410.953545	2434.877308
411.334138	2455.041923
411.714669	2427.315577
412.095139	2525.618077
412.475547	2518.056346
412.855894	2437.397885
413.236180	2497.891731
413.616405	2371.862885
413.996568	2487.809423
414.376670	2477.727115
414.756711	2538.220962
415.136691	2442.439038
415.516609	2505.453462
415.896466	2386.986346
416.276262	2507.974038
416.655997	2467.644808
417.035670	2465.124231
417.415283	2422.274423
417.794834	2518.056346
418.174324	2437.397885
418.553753	2447.480192
418.933121	2402.109808
419.312428	2505.453462
419.691674	2492.850577
420.070859	2578.550192
420.449983	2467.644808
420.829045	2485.288846
421.208047	2467.644808
421.586988	2465.124231
421.965867	2402.109808
422.344686	2407.150962
422.723444	2548.303269
423.102141	2432.356731
423.480777	2462.603654
423.859352	2505.453462
424.237866	2497.891731
424.616319	2462.603654
424.994712	2455.041923
425.373044	2565.947308
425.751314	2502.932885
426.129524	2477.727115
426.507673	2485.288846
426.885762	2523.097500
427.263789	2513.015192
427.641756	2475.206538
428.019662	2543.262115
428.397508	2452.521346
428.775292	2515.535769
429.153016	2490.330000
429.530679	2417.233269
429.908282	2555.865000
430.285824	2570.988462
430.663305	2437.397885
431.040726	2505.453462
431.418086	2497.891731
431.795385	2482.768269
432.172624	2485.288846
432.549802	2533.179808
432.926920	2497.891731
433.303977	2487.809423
433.680974	2475.206538
434.057910	2417.233269
434.434786	2515.535769
434.811601	2457.562500
435.188355	2518.056346
435.565050	2442.439038
435.941683	2518.056346
436.318257	2528.138654
436.694770	2507.974038
437.071222	2477.727115
437.447614	2525.618077
437.823946	2472.685962
438.200218	2477.727115
438.576429	2538.220962
438.952580	2487.809423
439.328670	2457.562500
439.704700	2460.083077
440.080670	2513.015192
440.456580	2487.809423
440.832429	2452.521346
441.208218	2502.932885
441.583947	2465.124231
441.959616	2510.494615
442.335224	2497.891731
442.710773	2434.877308
443.086261	2535.700385
443.461689	2568.467885
443.837057	2450.000769
444.212365	2427.315577
444.587612	2518.056346
444.962800	2422.274423
445.337927	2528.138654
445.712995	2505.453462
446.088002	2371.862885
446.462949	2487.809423
446.837837	2515.535769
447.212664	2563.426731
447.587431	2417.233269
447.962139	2369.342308
448.336786	2533.179808
448.711374	2588.632500
449.085901	2475.206538
449.460369	2487.809423
449.834776	2495.371154
450.209124	2555.865000
450.583412	2533.179808
450.957640	2507.974038
451.331808	2432.356731
451.705917	2528.138654
452.079965	2412.192115
452.453954	2505.453462
452.827883	2538.220962
453.201752	2545.782692
453.575562	2487.809423
453.949311	2565.947308
454.323001	2507.974038
454.696632	2558.385577
455.070202	2437.397885
455.443713	2437.397885
455.817164	2487.809423
456.190556	2533.179808
456.563888	2427.315577
456.937160	2477.727115
457.310373	2533.179808
457.683526	2492.850577
458.056619	2374.383462
458.429653	2518.056346
458.802628	2523.097500
459.175542	2394.548077
459.548398	2560.906154
459.921194	2513.015192
460.293930	2553.344423
460.666607	2409.671538
461.039224	2518.056346
461.411782	2560.906154
461.784280	2515.535769
462.156719	2495.371154
462.529099	2485.288846
462.901419	2518.056346
463.273680	2525.618077
463.645882	2507.974038
464.018024	2487.809423
464.390106	2492.850577
464.762130	2417.233269
465.134094	2447.480192
465.505999	2477.727115
465.877845	2543.262115
466.249631	2455.041923
466.621358	2492.850577
466.993026	2467.644808
467.364634	2528.138654
467.736184	2550.823846
468.107674	2487.809423
468.479105	2480.247692
468.850477	2427.315577
469.221790	2472.685962
469.593043	2475.206538
469.964238	2482.768269
470.335373	2505.453462
470.706449	2472.685962
471.077467	2475.206538
471.448425	2487.809423
471.819324	2455.041923
472.190164	2467.644808
472.560945	2520.576923
472.931667	2507.974038
473.302330	2457.562500
473.672934	2583.591346
474.043479	2432.356731
474.413965	2515.535769
474.784393	2563.426731
475.154761	2553.344423
475.525070	2495.371154
475.895321	2525.618077
476.265513	2447.480192
476.635645	2450.000769
477.005719	2460.083077
477.375734	2553.344423
477.745691	2472.685962
478.115588	2442.439038
478.485427	2470.165385
478.855207	2591.153077
479.224928	2470.165385
479.594591	2465.124231
479.964194	2460.083077
480.333739	2545.782692
480.703226	2510.494615
481.072653	2495.371154
481.442022	2457.562500
481.811333	2455.041923
482.180584	2513.015192
482.549777	2535.700385
482.918912	2437.397885
483.287988	2487.809423
483.657005	2487.809423
484.025964	2500.412308
484.394864	2492.850577
484.763706	2492.850577
485.132489	2523.097500
485.501213	2452.521346
485.869879	2545.782692
486.238487	2465.124231
486.607036	2485.288846
486.975527	2515.535769
487.343959	2525.618077
487.712333	2533.179808
488.080648	2497.891731
488.448905	2563.426731
488.817104	2462.603654
489.185244	2472.685962
489.553326	2576.029615
489.921350	2543.262115
490.289315	2500.412308
490.657222	2525.618077
491.025070	2495.371154
491.392861	2513.015192
491.760593	2495.371154
492.128267	2520.576923
492.495883	2432.356731
492.863440	2472.685962
493.230939	2485.288846
493.598380	2538.220962
493.965763	2490.330000
494.333088	2490.330000
494.700354	2439.918462
495.067563	2477.727115
495.434713	2548.303269
495.801805	2409.671538
496.168839	2535.700385
496.535815	2550.823846
496.902733	2548.303269
497.269593	2513.015192
497.636395	2591.153077
498.003139	2487.809423
498.369825	2545.782692
498.736453	2497.891731
499.103023	2540.741538
499.469535	2515.535769
499.835989	2447.480192
500.202385	2573.509038
500.568723	2568.467885
500.935003	2570.988462
501.301226	2543.262115
501.667390	2573.509038
502.033497	2394.548077
502.399546	2502.932885
502.765537	2520.576923
503.131470	2540.741538
503.497345	2480.247692
503.863163	2497.891731
504.228923	2465.124231
504.594625	2570.988462
504.960269	2460.083077
505.325856	2439.918462
505.691385	2437.397885
506.056856	2487.809423
506.422270	2520.576923
506.787625	2480.247692
507.152924	2520.576923
507.518164	2548.303269
507.883347	2507.974038
508.248472	2495.371154
508.613540	2404.630385
508.978550	2450.000769
509.343503	2507.974038
509.708398	2513.015192
510.073236	2452.521346
510.438016	2487.809423
510.802738	2525.618077
511.167403	2472.685962
511.532010	2565.947308
511.896561	2550.823846
512.261053	2472.685962
512.625488	2497.891731
512.989866	2490.330000
513.354186	2482.768269
513.718449	2389.506923
514.082655	2470.165385
514.446803	2528.138654
514.810894	2439.918462
515.174927	2570.988462
515.538904	2500.412308
515.902822	2520.576923
516.266684	2472.685962
516.630488	2565.947308
516.994235	2450.000769
517.357925	2606.276538
517.721558	2480.247692
518.085133	2465.124231
518.448651	2538.220962
518.812112	2540.741538
519.175516	2497.891731
519.538863	2485.288846
519.902152	2492.850577
520.265385	2477.727115
520.628560	2535.700385
520.991678	2497.891731
521.354739	2487.809423
521.717743	2530.659231
522.080690	2598.714808
522.443580	2553.344423
522.806413	2477.727115
523.169189	2507.974038
523.531908	2500.412308
523.894569	2507.974038
524.257174	2555.865000
524.619722	2533.179808
524.982213	2467.644808
525.344647	2490.330000
525.707025	2502.932885
526.069345	2513.015192
526.431608	2515.535769
526.793815	2588.632500
527.155964	2475.206538
527.518057	2465.124231
527.880093	2455.041923
528.242072	2437.397885
528.603995	2457.562500
528.965860	2492.850577
529.327669	2507.974038
529.689421	2553.344423
530.051117	2497.891731
530.412755	2452.521346
530.774337	2470.165385
531.135862	2477.727115
531.497331	2485.288846
531.858743	2477.727115
532.220098	2505.453462
532.581396	2495.371154
532.942638	2558.385577
533.303824	2482.768269
533.664953	2518.056346
534.026025	2432.356731
534.387040	2502.932885
534.747999	2462.603654
535.108902	2480.247692
535.469748	2497.891731
535.830537	2434.877308
536.191270	2455.041923
536.551947	2485.288846
536.912567	2439.918462
537.273131	2528.138654
537.633638	2563.426731
537.994089	2482.768269
538.354483	2472.685962
538.714821	2475.206538
539.075103	2497.891731
539.435328	2490.330000
539.795497	2490.330000
540.155609	2606.276538
540.515665	2528.138654
540.875665	2487.809423
541.235609	2470.165385
541.595496	2505.453462
541.955328	2543.262115
542.315102	2467.644808
542.674821	2462.603654
543.034483	2465.124231
543.394090	2513.015192
543.753640	2540.741538
544.113134	2513.015192
544.472571	2525.618077
544.831953	2492.850577
545.191278	2475.206538
545.550548	2520.576923
545.909761	2444.959615
546.268918	2502.932885
546.628019	2550.823846
546.987064	2492.850577
547.346053	2444.959615
547.704986	2482.768269
548.063863	2505.453462
548.422684	2540.741538
548.781449	2520.576923
549.140158	2462.603654
549.498811	2495.371154
549.857408	2563.426731
550.215949	2510.494615
550.574434	2500.412308
550.932864	2429.836154
551.291237	2472.685962
551.649555	2515.535769
552.007817	2460.083077
552.366022	2510.494615
552.724173	2475.206538
553.082267	2480.247692
553.440305	2472.685962
553.798288	2500.412308
554.156215	2490.330000
554.514086	2588.632500
554.871902	2470.165385
555.229661	2540.741538
555.587365	2475.206538
555.945014	2510.494615
556.302606	2442.439038
556.660143	2404.630385
557.017625	2460.083077
557.375050	2492.850577
557.732421	2485.288846
558.089735	2535.700385
558.446994	2472.685962
558.804197	2525.618077
559.161345	2444.959615
559.518437	2553.344423
559.875474	2608.797115
560.232455	2576.029615
560.589381	2427.315577
560.946251	2497.891731
561.303065	2495.371154
561.659825	2523.097500
562.016528	2538.220962
562.373177	2472.685962
562.729770	2467.644808
563.086307	2507.974038
563.442789	2465.124231
563.799216	2427.315577
564.155587	2475.206538
564.511904	2467.644808
564.868164	2497.891731
565.224370	2457.562500
565.580520	2507.974038
565.936615	2432.356731
566.292654	2507.974038
566.648638	2457.562500
567.004567	2518.056346
567.360441	2477.727115
567.716260	2505.453462
568.072023	2538.220962
568.427732	2533.179808
568.783385	2417.233269
569.138982	2568.467885
569.494525	2452.521346
569.850013	2427.315577
570.205445	2530.659231
570.560823	2523.097500
570.916145	2457.562500
571.271412	2510.494615
571.626625	2497.891731
571.981782	2505.453462
572.336884	2555.865000
572.691931	2407.150962
573.046923	2475.206538
573.401860	2528.138654
573.756743	2482.768269
574.111570	2507.974038
574.466342	2487.809423
574.821059	2523.097500
575.175722	2548.303269
575.530330	2465.124231
575.884882	2518.056346
576.239380	2533.179808
576.593823	2535.700385
576.948211	2497.891731
577.302544	2487.809423
577.656823	2457.562500
578.011047	2500.412308
578.365216	2437.397885
578.719330	2447.480192
579.073389	2427.315577
579.427394	2472.685962
579.781344	2565.947308
580.135239	2563.426731
580.489080	2457.562500
580.842866	2528.138654
581.196597	2485.288846
581.550273	2502.932885
581.903895	2616.358846
582.257463	2467.644808
582.610975	2477.727115
582.964434	2518.056346
583.317837	2525.618077
583.671186	2573.509038
584.024481	2482.768269
584.377721	2487.809423
584.730906	2457.562500
585.084037	2523.097500
585.437113	2414.712692
585.790135	2530.659231
586.143103	2548.303269
586.496016	2467.644808
586.848874	2500.412308
587.201679	2442.439038
587.554428	2485.288846
587.907124	2543.262115
588.259765	2452.521346
588.612352	2475.206538
588.964884	2520.576923
589.317362	2502.932885
589.669786	2444.959615
590.022155	2535.700385
590.374470	2482.768269
590.726731	2475.206538
591.078937	2555.865000
591.431090	2543.262115
591.783188	2492.850577
592.135232	2444.959615
592.487222	2462.603654
592.839157	2538.220962
593.191038	2485.288846
593.542866	2500.412308
593.894639	2422.274423
594.246358	2444.959615
594.598022	2477.727115
594.949633	2492.850577
595.301190	2515.535769
595.652692	2535.700385
596.004141	2608.797115
596.355535	2467.644808
596.706876	2444.959615
597.058162	2457.562500
597.409395	2507.974038
597.760573	2492.850577
598.111698	2447.480192
598.462768	2487.809423
598.813785	2487.809423
599.164748	2417.233269
599.515657	2570.988462
599.866511	2417.233269
600.217312	2457.562500
600.568060	2462.603654
600.918753	2578.550192
601.269392	2495.371154
601.619978	2492.850577
601.970510	2487.809423
602.320988	2520.576923
602.671412	2457.562500
603.021783	2518.056346
603.372100	2444.959615
603.722363	2513.015192
604.072572	2576.029615
604.422728	2538.220962
604.772830	2457.562500
605.122878	2457.562500
605.472872	2520.576923
605.822813	2437.397885
606.172701	2568.467885
606.522534	2442.439038
606.872314	2538.220962
607.222041	2450.000769
607.571714	2518.056346
607.921333	2518.056346
608.270899	2525.618077
608.620411	2467.644808
608.969870	2515.535769
609.319276	2568.467885
609.668627	2507.974038
610.017926	2462.603654
610.367171	2462.603654
610.716362	2477.727115
611.065500	2553.344423
611.414585	2492.850577
611.763616	2455.041923
612.112594	2515.535769
612.461518	2462.603654
612.810389	2465.124231
613.159207	2409.671538
613.507971	2518.056346
613.856682	2568.467885
614.205340	2444.959615
614.553945	2518.056346
614.902496	2570.988462
615.250994	2553.344423
615.599439	2518.056346
615.947830	2472.685962
616.296169	2437.397885
616.644454	2455.041923
616.992686	2455.041923
617.340864	2538.220962
617.688990	2520.576923
618.037063	2502.932885
618.385082	2447.480192
618.733048	2457.562500
619.080961	2497.891731
619.428821	2455.041923
619.776628	2550.823846
620.124382	2487.809423
620.472083	2598.714808
620.819731	2523.097500
621.167326	2583.591346
621.514868	2424.795000
621.862357	2513.015192
622.209793	2417.233269
622.557176	2530.659231
622.904506	2550.823846
623.251783	2538.220962
623.599007	2576.029615
623.946179	2533.179808
624.293297	2424.795000
624.640363	2480.247692
624.987376	2477.727115
625.334336	2452.521346
625.681243	2490.330000
626.028097	2467.644808
626.374899	2500.412308
626.721647	2472.685962
627.068343	2555.865000
627.414987	2409.671538
627.761577	2497.891731
628.108115	2475.206538
628.454600	2555.865000
628.801032	2432.356731
629.147412	2444.959615
629.493739	2507.974038
629.840014	2502.932885
630.186236	2502.932885
630.532405	2545.782692
630.878521	2497.891731
631.224585	2482.768269
631.570597	2414.712692
631.916556	2475.206538
632.262462	2462.603654
632.608316	2563.426731
632.954117	2470.165385
633.299866	2518.056346
633.645562	2427.315577
633.991206	2515.535769
634.336797	2505.453462
634.682336	2455.041923
635.027823	2528.138654
635.373257	2472.685962
635.718639	2477.727115
636.063968	2482.768269
636.409245	2452.521346
636.754470	2507.974038
637.099642	2505.453462
637.444762	2507.974038
637.789829	2540.741538
638.134845	2525.618077
638.479808	2513.015192
638.824719	2477.727115
639.169577	2477.727115
639.514383	2495.371154
639.859137	2477.727115
640.203839	2500.412308
640.548489	2533.179808
640.893086	2492.850577
641.237632	2513.015192
641.582125	2452.521346
641.926566	2495.371154
642.270955	2505.453462
642.615292	2545.782692
642.959576	2500.412308
643.303809	2465.124231
643.647990	2422.274423
643.992118	2497.891731
644.336195	2528.138654
644.680219	2490.330000
645.024192	2523.097500
645.368112	2399.589231
645.711981	2467.644808
646.055797	2452.521346
646.399562	2450.000769
646.743274	2505.453462
647.086935	2490.330000
647.430544	2507.974038
647.774101	2490.330000
648.117606	2550.823846
648.461059	2543.262115
648.804460	2505.453462
649.147810	2497.891731
649.491108	2470.165385
649.834354	2500.412308
650.177548	2490.330000
650.520690	2523.097500
650.863781	2477.727115
651.206820	2480.247692
651.549807	2510.494615
651.892742	2505.453462
652.235626	2455.041923
652.578458	2482.768269
652.921238	2530.659231
653.263967	2570.988462
653.606644	2518.056346
653.949269	2447.480192
654.291843	2545.782692
654.634365	2576.029615
654.976836	2409.671538
655.319255	2462.603654
655.661622	2497.891731
656.003938	2462.603654
656.346203	2452.521346
656.688416	2439.918462
657.030577	2555.865000
657.372687	2553.344423
657.714746	2570.988462
658.056753	2475.206538
658.398708	2540.741538
658.740612	2528.138654
659.082465	2505.453462
659.424266	2535.700385
659.766016	2432.356731
660.107715	2515.535769
660.449362	2502.932885
660.790958	2553.344423
661.132503	2472.685962
661.473996	2480.247692
661.815438	2563.426731
662.156829	2525.618077
662.498168	2490.330000
662.839456	2490.330000
663.180693	2475.206538
663.521879	2495.371154
663.863013	2578.550192
664.204097	2520.576923
664.545129	2520.576923
664.886110	2477.727115
665.227040	2528.138654
665.567918	2427.315577
665.908746	2424.795000
666.249522	2520.576923
666.590248	2507.974038
666.930922	2432.356731
667.271545	2432.356731
667.612118	2467.644808
667.952639	2510.494615
668.293109	2417.233269
668.633528	2520.576923
668.973896	2565.947308
669.314213	2568.467885
669.654480	2500.412308
669.994695	2558.385577
670.334859	2525.618077
670.674973	2528.138654
671.015035	2482.768269
671.355047	2560.906154
671.695008	2472.685962
672.034918	2543.262115
672.374777	2528.138654
672.714585	2419.753846
673.054342	2520.576923
673.394049	2485.288846
673.733705	2550.823846
674.073310	2487.809423
674.412864	2570.988462
674.752368	2434.877308
675.091820	2558.385577
675.431223	2515.535769
675.770574	2502.932885
676.109875	2510.494615
676.449125	2482.768269
676.788324	2548.303269
677.127473	2356.739423
677.466571	2505.453462
677.805619	2434.877308
678.144616	2520.576923
678.483562	2502.932885
678.822458	2553.344423
679.161303	2472.685962
679.500098	2497.891731
679.838842	2520.576923
680.177535	2465.124231
680.516179	2565.947308
680.854771	2465.124231
681.193314	2518.056346
681.531805	2439.918462
681.870247	2513.015192
682.208638	2513.015192
682.546978	2447.480192
682.885268	2563.426731
683.223508	2560.906154
683.561697	2470.165385
683.899836	2530.659231
684.237925	2492.850577
684.575963	2500.412308
684.913951	2470.165385
685.251889	2545.782692
685.589776	2460.083077
685.927614	2540.741538
686.265401	2490.330000
686.603137	2455.041923
686.940824	2462.603654
687.278460	2475.206538
687.616046	2450.000769
687.953582	2455.041923
688.291068	2432.356731
688.628504	2495.371154
688.965889	2543.262115
689.303224	2591.153077
689.640510	2523.097500
689.977745	2500.412308
690.314930	2538.220962
690.652065	2455.041923
690.989150	2500.412308
691.326185	2455.041923
691.663170	2495.371154
692.000105	2507.974038
692.336990	2528.138654
692.673825	2530.659231
693.010610	2507.974038
693.347345	2507.974038
693.684030	2462.603654
694.020665	2513.015192
694.357251	2525.618077
694.693786	2502.932885
695.030272	2523.097500
695.366707	2500.412308
695.703093	2429.836154
696.039429	2523.097500
696.375716	2450.000769
696.711952	2515.535769
697.048139	2490.330000
697.384276	2576.029615
697.720363	2429.836154
698.056400	2520.576923
698.392388	2558.385577
698.728326	2434.877308
699.064214	2507.974038
699.400053	2540.741538
699.735842	2475.206538
700.071581	2492.850577
700.407270	2548.303269
700.742910	2437.397885
701.078501	2515.535769
701.414042	2462.603654
701.749533	2495.371154
702.084974	2457.562500
702.420366	2568.467885
702.755709	2462.603654
703.091002	2576.029615
703.426246	2558.385577
703.761440	2487.809423
704.096584	2502.932885
704.431679	2475.206538
704.766725	2482.768269
705.101721	2523.097500
705.436668	2487.809423
705.771565	2475.206538
706.106413	2432.356731
706.441212	2409.671538
706.775961	2460.083077
707.110661	2568.467885
707.445311	2442.439038
707.779913	2530.659231
708.114465	2444.959615
708.448967	2520.576923
708.783421	2462.603654
709.117825	2495.371154
709.452180	2455.041923
709.786485	2502.932885
710.120742	2470.165385
710.454949	2555.865000
710.789107	2497.891731
711.123216	2513.015192
711.457275	2490.330000
711.791286	2495.371154
712.125247	2492.850577
712.459159	2538.220962
712.793023	2505.453462
713.126837	2399.589231
713.460602	2588.632500
713.794318	2520.576923
714.127985	2472.685962
714.461602	2442.439038
714.795171	2495.371154
715.128691	2437.397885
715.462162	2455.041923
715.795584	2465.124231
716.128957	2455.041923
716.462281	2437.397885
716.795556	2502.932885
717.128782	2437.397885
717.461960	2402.109808
717.795088	2588.632500
718.128167	2422.274423
718.461198	2424.795000
718.794180	2513.015192
719.127113	2465.124231
719.459997	2447.480192
719.792833	2570.988462
720.125619	2558.385577
720.458357	2565.947308
720.791046	2497.891731
721.123686	2482.768269
721.456278	2485.288846
721.788821	2573.509038
722.121315	2422.274423
722.453761	2452.521346
722.786158	2460.083077
723.118506	2477.727115
723.450805	2424.795000
723.783056	2555.865000
724.115259	2439.918462
724.447412	2495.371154
724.779518	2422.274423
725.111574	2523.097500
725.443582	2563.426731
725.775542	2480.247692
726.107453	2412.192115
726.439315	2460.083077
726.771129	2495.371154
727.102895	2434.877308
727.434612	2505.453462
727.766281	2485.288846
728.097901	2490.330000
728.429473	2392.027500
728.760996	2477.727115
729.092471	2482.768269
729.423897	2437.397885
729.755276	2460.083077
730.086606	2495.371154
730.417887	2472.685962
730.749120	2520.576923
731.080305	2422.274423
731.411442	2530.659231
731.742530	2407.150962
732.073570	2540.741538
732.404562	2545.782692
732.735506	2470.165385
733.066401	2515.535769
733.397249	2407.150962
733.728048	2475.206538
734.058798	2523.097500
734.389501	2500.412308
734.720156	2492.850577
735.050762	2507.974038
735.381320	2523.097500
735.711831	2540.741538
736.042293	2485.288846
736.372707	2475.206538
736.703073	2543.262115
737.033391	2560.906154
737.363661	2500.412308
737.693883	2543.262115
738.024056	2487.809423
738.354182	2500.412308
738.684260	2444.959615
739.014290	2520.576923
739.344272	2545.782692
739.674207	2492.850577
740.004093	2450.000769
740.333931	2472.685962
740.663722	2525.618077
740.993464	2492.850577
741.323159	2570.988462
741.652806	2510.494615
741.982405	2480.247692
742.311956	2432.356731
742.641460	2475.206538
742.970915	2495.371154
743.300323	2515.535769
743.629683	2419.753846
743.958996	2505.453462
744.288260	2513.015192
744.617477	2523.097500
744.946647	2437.397885
745.275768	2560.906154
745.604842	2518.056346
745.933869	2450.000769
746.262847	2470.165385
746.591778	2563.426731
746.920662	2429.836154
747.249498	2497.891731
747.578286	2500.412308
747.907027	2510.494615
748.235720	2565.947308
748.564365	2586.111923
748.892963	2502.932885
749.221514	2444.959615
749.550017	2455.041923
749.878473	2523.097500
750.206881	2472.685962
750.535242	2560.906154
750.863555	2442.439038
751.191821	2457.562500
751.520039	2530.659231
751.848210	2495.371154
752.176334	2576.029615
752.504411	2455.041923
752.832440	2402.109808
753.160421	2570.988462
753.488356	2518.056346
753.816243	2412.192115
754.144082	2477.727115
754.471875	2500.412308
754.799620	2505.453462
755.127318	2417.233269
755.454969	2465.124231
755.782572	2472.685962
756.110129	2505.453462
756.437638	2528.138654
756.765100	2528.138654
757.092515	2467.644808
757.419882	2560.906154
757.747203	2543.262115
758.074477	2538.220962
758.401703	2593.673654
758.728882	2548.303269
759.056014	2470.165385
759.383099	2455.041923
759.710138	2462.603654
760.037129	2480.247692
760.364073	2502.932885
760.690970	2555.865000
761.017820	2568.467885
761.344623	2480.247692
761.671379	2530.659231
761.998088	2470.165385
762.324751	2487.809423
762.651366	2553.344423
762.977935	2470.165385
763.304456	2545.782692
763.630931	2465.124231
763.957359	2563.426731
764.283740	2444.959615
764.610074	2530.659231
764.936362	2523.097500
765.262602	2528.138654
765.588796	2434.877308
765.914943	2492.850577
766.241044	2510.494615
766.567097	2470.165385
766.893104	2492.850577
767.219064	2528.138654
767.544978	2439.918462
767.870845	2470.165385
768.196665	2490.330000
768.522438	2515.535769
768.848165	2392.027500
769.173846	2510.494615
769.499479	2530.659231
769.825066	2495.371154
770.150607	2427.315577
770.476101	2475.206538
770.801548	2540.741538
771.126949	2545.782692
771.452303	2497.891731
771.777611	2442.439038
772.102872	2477.727115
772.428087	2475.206538
772.753256	2533.179808
773.078378	2386.986346
773.403453	2560.906154
773.728482	2492.850577
774.053465	2437.397885
774.378401	2530.659231
774.703291	2467.644808
775.028135	2535.700385
775.352932	2510.494615
775.677683	2523.097500
776.002388	2545.782692
776.327046	2397.068654
776.651658	2523.097500
776.976224	2520.576923
777.300743	2450.000769
777.625216	2533.179808
777.949643	2452.521346
778.274024	2465.124231
778.598359	2364.301154
778.922647	2465.124231
779.246889	2465.124231
779.571086	2495.371154
779.895236	2487.809423
780.219339	2518.056346
780.543397	2412.192115
780.867409	2477.727115
781.191374	2487.809423
781.515294	2467.644808
781.839167	2432.356731
782.162995	2576.029615
782.486776	2477.727115
782.810511	2543.262115
783.134201	2467.644808
783.457844	2530.659231
783.781441	2507.974038
784.104993	2482.768269
784.428498	2450.000769
784.751958	2518.056346
785.075372	2475.206538
785.398739	2513.015192
785.722061	2490.330000
786.045337	2570.988462
786.368568	2538.220962
786.691752	2467.644808
787.014891	2525.618077
787.337983	2465.124231
787.661030	2450.000769
787.984031	2507.974038
788.306987	2528.138654
788.629897	2533.179808
788.952760	2492.850577
789.275579	2495.371154
789.598351	2507.974038
789.921078	2447.480192
790.243759	2455.041923
790.566395	2490.330000
790.888984	2523.097500
791.211529	2492.850577
791.534027	2497.891731
791.856480	2447.480192
792.178888	2470.165385
792.501249	2475.206538
792.823566	2510.494615
793.145836	2452.521346
793.468062	2553.344423
793.790241	2480.247692
794.112375	2573.509038
794.434464	2505.453462
794.756507	2460.083077
795.078505	2434.877308
795.400457	2485.288846
795.722364	2414.712692
796.044226	2472.685962
796.366042	2495.371154
796.687812	2482.768269
797.009538	2482.768269
797.331218	2487.809423
797.652852	2550.823846
797.974442	2482.768269
798.295986	2510.494615
798.617484	2480.247692
798.938938	2492.850577
799.260346	2465.124231
799.581709	2424.795000
799.903026	2450.000769
800.224299	2545.782692
800.545526	2419.753846
800.866708	2528.138654
801.187845	2447.480192
801.508936	2510.494615
801.829983	2538.220962
802.150984	2429.836154
802.471940	2497.891731
802.792851	2432.356731
803.113717	2500.412308
803.434538	2457.562500
803.755314	2460.083077
804.076045	2437.397885
804.396731	2384.465769
804.717372	2485.288846
805.037967	2528.138654
805.358518	2429.836154
805.679024	2497.891731
805.999485	2467.644808
806.319901	2533.179808
806.640272	2523.097500
806.960598	2475.206538
807.280879	2437.397885
807.601115	2543.262115
807.921306	2510.494615
808.241453	2515.535769
808.561554	2437.397885
808.881611	2457.562500
809.201623	2520.576923
809.521590	2450.000769
809.841513	2513.015192
810.161390	2487.809423
810.481223	2417.233269
810.801011	2525.618077
811.120755	2550.823846
811.440453	2555.865000
811.760107	2462.603654
812.079716	2507.974038
812.399281	2472.685962
812.718801	2535.700385
813.038276	2507.974038
813.357707	2525.618077
813.677093	2432.356731
813.996434	2465.124231
814.315731	2543.262115
814.634983	2568.467885
814.954191	2492.850577
815.273354	2485.288846
815.592473	2462.603654
815.911547	2520.576923
816.230577	2442.439038
816.549562	2450.000769
816.868502	2482.768269
817.187399	2500.412308
817.506250	2560.906154
817.825058	2581.070769
818.143821	2429.836154
818.462539	2434.877308
818.781213	2480.247692
819.099843	2480.247692
819.418429	2510.494615
819.736970	2581.070769
820.055466	2497.891731
820.373919	2520.576923
820.692327	2510.494615
821.010691	2424.795000
821.329011	2621.400000
821.647286	2472.685962
821.965517	2500.412308
822.283704	2560.906154
822.601847	2482.768269
822.919945	2475.206538
823.237999	2470.165385
823.556010	2475.206538
823.873976	2515.535769
824.191897	2485.288846
824.509775	2477.727115
824.827609	2505.453462
825.145398	2437.397885
825.463144	2553.344423
825.780845	2518.056346
826.098502	2538.220962
826.416116	2502.932885
826.733685	2427.315577
827.051210	2510.494615
827.368692	2427.315577
827.686129	2407.150962
828.003522	2485.288846
828.320872	2487.809423
828.638177	2465.124231
828.955439	2472.685962
829.272656	2518.056346
829.589830	2548.303269
829.906960	2502.932885
830.224046	2487.809423
830.541088	2460.083077
830.858086	2528.138654
831.175041	2412.192115
831.491952	2475.206538
831.808819	2497.891731
832.125642	2535.700385
832.442421	2442.439038
832.759157	2434.877308
833.075849	2437.397885
833.392497	2467.644808
833.709101	2487.809423
834.025662	2601.235385
834.342179	2442.439038
834.658653	2477.727115
834.975083	2472.685962
835.291469	2518.056346
835.607811	2555.865000
835.924110	2460.083077
836.240366	2417.233269
836.556578	2505.453462
836.872746	2437.397885
837.188871	2487.809423
837.504952	2460.083077
837.820990	2432.356731
838.136984	2462.603654
838.452935	2523.097500
838.768842	2477.727115
839.084706	2450.000769
839.400526	2409.671538
839.716303	2465.124231
840.032037	2525.618077
840.347727	2593.673654
840.663373	2475.206538
840.978977	2500.412308
841.294537	2482.768269
841.610054	2447.480192
841.925527	2515.535769
842.240957	2462.603654
842.556344	2525.618077
842.871687	2485.288846
843.186987	2538.220962
843.502244	2588.632500
843.817458	2500.412308
844.132629	2467.644808
844.447756	2472.685962
844.762840	2452.521346
845.077881	2513.015192
845.392879	2455.041923
845.707833	2533.179808
846.022745	2465.124231
846.337613	2485.288846
846.652438	2515.535769
846.967221	2603.755962
847.281960	2475.206538
847.596656	2538.220962
847.911309	2472.685962
848.225919	2528.138654
848.540485	2495.371154
848.855009	2502.932885
849.169490	2397.068654
849.483928	2434.877308
849.798323	2467.644808
850.112675	2533.179808
850.426984	2505.453462
850.741251	2422.274423
851.055474	2447.480192
851.369654	2482.768269
851.683792	2455.041923
851.997887	2502.932885
852.311938	2560.906154
852.625947	2497.891731
852.939914	2419.753846
853.253837	2447.480192
853.567718	2500.412308
853.881555	2480.247692
854.195350	2548.303269
854.509103	2475.206538
854.822812	2437.397885
855.136479	2495.371154
855.450103	2596.194231
855.763685	2578.550192
856.077224	2477.727115
856.390720	2487.809423
856.704173	2533.179808
857.017584	2543.262115
857.330953	2407.150962
857.644278	2583.591346
857.957561	2462.603654
858.270802	2510.494615
858.584000	2550.823846
858.897155	2462.603654
859.210268	2455.041923
859.523339	2495.371154
859.836367	2455.041923
860.149352	2439.918462
860.462295	2530.659231
860.775195	2477.727115
861.088054	2467.644808
861.400869	2523.097500
861.713642	2409.671538
862.026373	2465.124231
862.339062	2497.891731
862.651708	2507.974038
862.964312	2485.288846
863.276873	2495.371154
863.589392	2553.344423
863.901869	2553.344423
864.214303	2457.562500
864.526696	2548.303269
864.839045	2437.397885
865.151353	2490.330000
865.463619	2384.465769
865.775842	2507.974038
866.088023	2462.603654
866.400162	2523.097500
866.712258	2490.330000
867.024313	2513.015192
867.336325	2482.768269
867.648296	2505.453462
867.960224	2480.247692
868.272110	2444.959615
868.583954	2480.247692
868.895755	2475.206538
869.207515	2523.097500
869.519233	2470.165385
869.830909	2447.480192
870.142542	2515.535769
870.454134	2492.850577
870.765684	2520.576923
871.077191	2465.124231
871.388657	2553.344423
871.700081	2543.262115
872.011463	2591.153077
872.322803	2444.959615
872.634101	2457.562500
872.945357	2394.548077
873.256571	2470.165385
873.567744	2490.330000
873.878874	2568.467885
874.189963	2598.714808
874.501010	2482.768269
874.812015	2535.700385
875.122979	2510.494615
875.433900	2492.850577
875.744780	2452.521346
876.055618	2460.083077
876.366415	2538.220962
876.677169	2424.795000
876.987882	2409.671538
877.298554	2535.700385
877.609183	2470.165385
877.919771	2447.480192
878.230317	2507.974038
878.540822	2525.618077
878.851285	2502.932885
879.161707	2550.823846
879.472087	2482.768269
879.782425	2442.439038
880.092722	2513.015192
880.402977	2450.000769
880.713191	2475.206538
881.023363	2520.576923
881.333494	2545.782692
881.643583	2485.288846
881.953631	2530.659231
882.263637	2487.809423
882.573602	2540.741538
882.883526	2588.632500
883.193408	2402.109808
883.503248	2500.412308
883.813048	2639.044038
884.122806	2424.795000
884.432522	2523.097500
884.742197	2450.000769
885.051831	2444.959615
885.361424	2402.109808
885.670975	2442.439038
885.980485	2540.741538
886.289954	2591.153077
886.599382	2518.056346
886.908768	2505.453462
887.218113	2495.371154
887.527417	2450.000769
887.836680	2535.700385
888.145901	2472.685962
888.455082	2467.644808
888.764221	2578.550192
889.073319	2424.795000
889.382376	2472.685962
889.691392	2540.741538
890.000366	2482.768269
890.309300	2497.891731
890.618193	2497.891731
890.927044	2470.165385
891.235855	2434.877308
891.544625	2540.741538
891.853353	2487.809423
892.162041	2417.233269
892.470687	2475.206538
892.779293	2492.850577
893.087858	2505.453462
893.396381	2462.603654
893.704864	2553.344423
894.013306	2472.685962
894.321707	2510.494615
894.630068	2487.809423
894.938387	2470.165385
895.246665	2480.247692
895.554903	2515.535769
895.863100	2419.753846
896.171256	2523.097500
896.479371	2520.576923
896.787446	2470.165385
897.095480	2543.262115
897.403473	2570.988462
897.711425	2465.124231
898.019336	2455.041923
898.327207	2560.906154
898.635038	2490.330000
898.942827	2525.618077
899.250576	2422.274423
899.558284	2513.015192
899.865952	2444.959615
900.173579	2419.753846
900.481165	2518.056346
900.788711	2500.412308
901.096216	2545.782692
901.403681	2492.850577
901.711105	2434.877308
902.018489	2538.220962
902.325832	2505.453462
902.633135	2518.056346
902.940397	2424.795000
903.247619	2422.274423
903.554800	2447.480192
903.861941	2457.562500
904.169041	2568.467885
904.476101	2513.015192
904.783121	2530.659231
905.090100	2457.562500
905.397039	2553.344423
905.703938	2467.644808
906.010796	2525.618077
906.317614	2495.371154
906.624391	2497.891731
906.931129	2555.865000
907.237826	2482.768269
907.544483	2543.262115
907.851099	2502.932885
908.157675	2472.685962
908.464211	2432.356731
908.770707	2465.124231
909.077163	2399.589231
909.383578	2475.206538
909.689954	2444.959615
909.996289	2480.247692
910.302584	2457.562500
910.608839	2475.206538
910.915054	2452.521346
911.221229	2482.768269
911.527363	2439.918462
911.833458	2497.891731
912.139513	2467.644808
912.445527	2520.576923
912.751502	2455.041923
913.057436	2480.247692
913.363331	2548.303269
913.669186	2477.727115
913.975000	2550.823846
914.280775	2543.262115
914.586510	2460.083077
914.892205	2518.056346
915.197859	2558.385577
915.503475	2490.330000
915.809050	2515.535769
916.114585	2419.753846
916.420081	2467.644808
916.725536	2608.797115
917.030952	2475.206538
917.336328	2467.644808
917.641665	2495.371154
917.946961	2492.850577
918.252218	2412.192115
918.557435	2543.262115
918.862612	2523.097500
919.167750	2578.550192
919.472848	2465.124231
919.777906	2460.083077
920.082925	2470.165385
920.387904	2495.371154
920.692843	2447.480192
920.997743	2482.768269
921.302603	2490.330000
921.607423	2439.918462
921.912204	2492.850577
922.216946	2397.068654
922.521647	2444.959615
922.826310	2460.083077
923.130932	2490.330000
923.435516	2485.288846
923.740059	2442.439038
924.044564	2518.056346
924.349028	2475.206538
924.653454	2490.330000
924.957840	2402.109808
925.262186	2550.823846
925.566493	2497.891731
925.870761	2452.521346
926.174989	2540.741538
926.479178	2465.124231
926.783328	2419.753846
927.087438	2457.562500
927.391509	2520.576923
927.695541	2576.029615
927.999533	2523.097500
928.303486	2570.988462
928.607400	2558.385577
928.911275	2480.247692
929.215110	2472.685962
929.518906	2485.288846
929.822663	2500.412308
930.126381	2447.480192
930.430060	2455.041923
930.733699	2520.576923
931.037299	2487.809423
931.340861	2525.618077
931.644383	2513.015192
931.947866	2593.673654
932.251309	2500.412308
932.554714	2487.809423
932.858080	2477.727115
933.161407	2535.700385
933.464694	2404.630385
933.767943	2439.918462
934.071153	2462.603654
934.374323	2563.426731
934.677455	2432.356731
934.980548	2558.385577
935.283602	2455.041923
935.586617	2455.041923
935.889593	2495.371154
936.192530	2495.371154
936.495428	2477.727115
936.798287	2462.603654
937.101108	2507.974038
937.403890	2528.138654
937.706632	2518.056346
938.009336	2477.727115
938.312002	2525.618077
938.614628	2432.356731
938.917216	2482.768269
939.219765	2412.192115
939.522275	2472.685962
939.824747	2412.192115
940.127179	2535.700385
940.429573	2500.412308
940.731929	2591.153077
941.034246	2591.153077
941.336524	2535.700385
941.638763	2543.262115
941.940964	2490.330000
942.243126	2510.494615
942.545250	2545.782692
942.847335	2548.303269
943.149381	2555.865000
943.451389	2419.753846
943.753359	2535.700385
944.055290	2417.233269
944.357182	2523.097500
944.659036	2477.727115
944.960851	2525.618077
945.262628	2392.027500
945.564367	2442.439038
945.866067	2540.741538
946.167729	2467.644808
946.469352	2437.397885
946.770937	2439.918462
947.072484	2555.865000
947.373992	2545.782692
947.675462	2513.015192
947.976893	2442.439038
948.278286	2475.206538
948.579641	2497.891731
948.880958	2553.344423
949.182236	2520.576923
949.483476	2439.918462
949.784678	2492.850577
950.085841	2432.356731
950.386967	2495.371154
950.688054	2475.206538
950.989103	2475.206538
951.290114	2475.206538
951.591087	2444.959615
951.892021	2477.727115
952.192917	2523.097500
952.493776	2452.521346
952.794596	2422.274423
953.095378	2502.932885
953.396122	2548.303269
953.696828	2475.206538
953.997496	2545.782692
954.298126	2505.453462
954.598718	2470.165385
954.899272	2507.974038
955.199788	2472.685962
955.500266	2538.220962
955.800706	2502.932885
956.101108	2480.247692
956.401472	2467.644808
956.701798	2525.618077
957.002087	2502.932885
957.302337	2500.412308
957.602550	2631.482308
957.902724	2558.385577
958.202861	2427.315577
958.502960	2565.947308
958.803022	2500.412308
959.103045	2470.165385
959.403031	2472.685962
959.702979	2548.303269
960.002889	2452.521346
960.302762	2500.412308
960.602596	2490.330000
960.902393	2475.206538
961.202153	2432.356731
961.501875	2525.618077
961.801559	2470.165385
962.101205	2530.659231
962.400814	2513.015192
962.700385	2515.535769
962.999918	2528.138654
963.299414	2520.576923
963.598873	2515.535769
963.898293	2460.083077
964.197677	2472.685962
964.497022	2533.179808
964.796331	2530.659231
965.095601	2462.603654
965.394835	2470.165385
965.694030	2429.836154
965.993189	2550.823846
966.292309	2450.000769
966.591393	2485.288846
966.890439	2565.947308
967.189447	2500.412308
967.488419	2550.823846
967.787353	2485.288846
968.086249	2593.673654
968.385108	2422.274423
968.683930	2495.371154
968.982714	2490.330000
969.281462	2513.015192
969.580172	2490.330000
969.878844	2465.124231
970.177480	2457.562500
970.476078	2439.918462
970.774639	2465.124231
971.073162	2490.330000
971.371649	2477.727115
971.670098	2467.644808
971.968510	2465.124231
972.266885	2497.891731
972.565223	2505.453462
972.863524	2507.974038
973.161788	2462.603654
973.460014	2523.097500
973.758204	2568.467885
974.056356	2412.192115
974.354471	2437.397885
974.652550	2414.712692
974.950591	2545.782692
975.248595	2427.315577
975.546563	2475.206538
975.844493	2477.727115
976.142386	2422.274423
976.440243	2432.356731
976.738062	2513.015192
977.035845	2417.233269
977.333590	2457.562500
977.631299	2500.412308
977.928971	2530.659231
978.226606	2485.288846
978.524204	2583.591346
978.821765	2507.974038
979.119290	2465.124231
979.416777	2525.618077
979.714228	2472.685962
980.011642	2510.494615
980.309020	2558.385577
980.606360	2518.056346
980.903664	2543.262115
981.200931	2465.124231
981.498162	2490.330000
981.795356	2407.150962
982.092513	2578.550192
982.389633	2465.124231
982.686717	2513.015192
982.983764	2500.412308
983.280775	2492.850577
983.577749	2523.097500
983.874686	2502.932885
984.171587	2455.041923
984.468451	2520.576923
984.765279	2495.371154
985.062070	2364.301154
985.358824	2500.412308
985.655543	2518.056346
985.952224	2520.576923
986.248869	2492.850577
986.545478	2523.097500
986.842050	2515.535769
987.138586	2422.274423
987.435086	2434.877308
987.731549	2505.453462
988.027975	2480.247692
988.324366	2502.932885
988.620719	2545.782692
988.917037	2482.768269
989.213318	2472.685962
989.509563	2510.494615
989.805772	2399.589231
990.101944	2507.974038
990.398080	2444.959615
990.694180	2500.412308
990.990244	2424.795000
991.286271	2490.330000
991.582262	2528.138654
991.878217	2507.974038
992.174136	2434.877308
992.470019	2482.768269
992.765865	2444.959615
993.061676	2472.685962
993.357450	2482.768269
993.653188	2487.809423
993.948890	2490.330000
994.244556	2507.974038
994.540186	2515.535769
994.835780	2439.918462
995.131337	2437.397885
995.426859	2495.371154
995.722345	2538.220962
996.017795	2533.179808
996.313208	2555.865000
996.608586	2543.262115
996.903928	2543.262115
997.199234	2578.550192
997.494504	2515.535769
997.789738	2371.862885
998.084936	2450.000769
998.380099	2455.041923
998.675225	2553.344423
998.970316	2533.179808
999.265371	2535.700385
999.560390	2460.083077
999.855373	2427.315577
1000.150320	2475.206538
1000.445232	2525.618077
1000.740108	2513.015192
1001.034948	2535.700385
1001.329752	2376.904038
1001.624521	2518.056346
1001.919254	2507.974038
1002.213951	2500.412308
1002.508613	2583.591346
1002.803239	2497.891731
1003.097829	2543.262115
1003.392384	2447.480192
1003.686903	2505.453462
1003.981386	2429.836154
1004.275834	2467.644808
1004.570246	2520.576923
1004.864623	2558.385577
1005.158964	2538.220962
1005.453270	2535.700385
1005.747540	2447.480192
1006.041775	2525.618077
1006.335974	2432.356731
1006.630138	2457.562500
1006.924266	2482.768269
1007.218359	2412.192115
1007.512416	2447.480192
1007.806438	2586.111923
1008.100425	2613.838269
1008.394376	2475.206538
1008.688292	2480.247692
1008.982172	2513.015192
1009.276017	2487.809423
1009.569827	2444.959615
1009.863602	2492.850577
1010.157341	2555.865000
1010.451045	2465.124231
1010.744714	2518.056346
1011.038347	2573.509038
1011.331945	2460.083077
1011.625508	2518.056346
1011.919036	2513.015192
1012.212528	2477.727115
1012.505986	2525.618077
1012.799408	2530.659231
1013.092795	2507.974038
1013.386147	2460.083077
1013.679464	2386.986346
1013.972745	2467.644808
1014.265992	2500.412308
1014.559204	2467.644808
1014.852380	2465.124231
1015.145521	2392.027500
1015.438628	2437.397885
1015.731699	2495.371154
1016.024736	2402.109808
1016.317737	2467.644808
1016.610703	2414.712692
1016.903635	2447.480192
1017.196531	2492.850577
1017.489393	2520.576923
1017.782219	2452.521346
1018.075011	2507.974038
1018.367768	2497.891731
1018.660490	2460.083077
1018.953177	2460.083077
1019.245829	2460.083077
