Dividing Wavelength (nm)	Counts (n)	Blue Motor Position (mm): 6.100000	Red Motor Position (mm): 0.000000	
326.493990	2087.037692
326.888308	2087.037692
327.282561	2087.037692
327.676750	2054.270192
328.070874	2056.790769
328.464933	2107.202308
328.858929	2036.626154
329.252859	2079.475962
329.646726	2064.352500
330.040528	2087.037692
330.434265	2172.737308
330.827938	2192.901923
331.221547	2142.490385
331.615091	2094.599423
332.008571	2187.860769
332.401986	2245.834038
332.795338	2230.710577
333.188625	2210.545962
333.581847	2255.916346
333.975006	2313.889615
334.368100	2250.875192
334.761129	2313.889615
335.154095	2354.218846
335.546996	2331.533654
335.939833	2331.533654
336.332606	2329.013077
336.725315	2366.821731
337.117960	2361.780577
337.510540	2349.177692
337.903056	2414.712692
338.295508	2439.918462
338.687896	2366.821731
339.080220	2399.589231
339.472480	2434.877308
339.864676	2462.603654
340.256807	2495.371154
340.648875	2492.850577
341.040879	2444.959615
341.432818	2523.097500
341.824694	2455.041923
342.216506	2558.385577
342.608253	2419.753846
342.999937	2467.644808
343.391557	2535.700385
343.783113	2437.397885
344.174605	2507.974038
344.566033	2550.823846
344.957397	2462.603654
345.348697	2442.439038
345.739934	2497.891731
346.131106	2457.562500
346.522215	2485.288846
346.913260	2434.877308
347.304241	2490.330000
347.695159	2422.274423
348.086012	2361.780577
348.476802	2432.356731
348.867528	2462.603654
349.258191	2480.247692
349.648789	2439.918462
350.039324	2450.000769
350.429796	2530.659231
350.820203	2475.206538
351.210548	2354.218846
351.600828	2495.371154
351.991045	2444.959615
352.381198	2470.165385
352.771288	2407.150962
353.161314	2402.109808
353.551276	2502.932885
353.941175	2422.274423
354.331010	2419.753846
354.720782	2432.356731
355.110490	2409.671538
355.500135	2434.877308
355.889717	2480.247692
356.279235	2419.753846
356.668689	2450.000769
357.058080	2414.712692
357.447408	2427.315577
357.836672	2394.548077
358.225873	2545.782692
358.615010	2384.465769
359.004084	2507.974038
359.393095	2412.192115
359.782043	2523.097500
360.170927	2381.945192
360.559748	2417.233269
360.948505	2442.439038
361.337199	2434.877308
361.725830	2450.000769
362.114398	2475.206538
362.502903	2513.015192
362.891344	2434.877308
363.279722	2477.727115
363.668037	2434.877308
364.056289	2442.439038
364.444478	2485.288846
364.832603	2467.644808
365.220665	2452.521346
365.608665	2482.768269
365.996601	2490.330000
366.384474	2502.932885
366.772284	2407.150962
367.160031	2505.453462
367.547715	2434.877308
367.935336	2550.823846
368.322893	2520.576923
368.710388	2422.274423
369.097820	2462.603654
369.485189	2447.480192
369.872495	2429.836154
370.259738	2419.753846
370.646918	2490.330000
371.034035	2460.083077
371.421090	2523.097500
371.808081	2475.206538
372.195010	2490.330000
372.581875	2490.330000
372.968678	2475.206538
373.355418	2555.865000
373.742096	2487.809423
374.128710	2429.836154
374.515262	2450.000769
374.901751	2477.727115
375.288177	2523.097500
375.674540	2442.439038
376.060841	2500.412308
376.447079	2470.165385
376.833254	2402.109808
377.219367	2500.412308
377.605417	2434.877308
377.991404	2470.165385
378.377329	2515.535769
378.763191	2434.877308
379.148991	2429.836154
379.534727	2447.480192
379.920402	2485.288846
380.306013	2442.439038
380.691563	2457.562500
381.077049	2434.877308
381.462474	2467.644808
381.847835	2452.521346
382.233134	2439.918462
382.618371	2442.439038
383.003545	2472.685962
383.388657	2407.150962
383.773706	2455.041923
384.158693	2424.795000
384.543618	2429.836154
384.928480	2455.041923
385.313280	2518.056346
385.698017	2437.397885
386.082692	2492.850577
386.467305	2485.288846
386.851856	2422.274423
387.236344	2467.644808
387.620770	2457.562500
388.005133	2455.041923
388.389435	2477.727115
388.773674	2475.206538
389.157851	2356.739423
389.541965	2417.233269
389.926018	2523.097500
390.310008	2422.274423
390.693936	2472.685962
391.077802	2472.685962
391.461606	2518.056346
391.845348	2490.330000
392.229027	2460.083077
392.612645	2540.741538
392.996200	2470.165385
393.379694	2507.974038
393.763125	2455.041923
394.146494	2439.918462
394.529801	2480.247692
394.913047	2535.700385
395.296230	2543.262115
395.679351	2432.356731
396.062410	2455.041923
396.445408	2510.494615
396.828343	2507.974038
397.211217	2394.548077
397.594028	2525.618077
397.976778	2397.068654
398.359466	2429.836154
398.742092	2502.932885
399.124656	2452.521346
399.507158	2447.480192
399.889598	2472.685962
400.271977	2475.206538
400.654294	2394.548077
401.036549	2530.659231
401.418742	2467.644808
401.800874	2500.412308
402.182944	2553.344423
402.564952	2528.138654
402.946898	2490.330000
403.328783	2507.974038
403.710606	2404.630385
404.092367	2475.206538
404.474067	2427.315577
404.855705	2475.206538
405.237282	2502.932885
405.618797	2457.562500
406.000250	2442.439038
406.381642	2507.974038
406.762972	2502.932885
407.144240	2470.165385
407.525447	2472.685962
407.906593	2399.589231
408.287677	2558.385577
408.668700	2480.247692
409.049661	2475.206538
409.430560	2475.206538
409.811399	2455.041923
410.192176	2462.603654
410.572891	2434.877308
410.953545	2437.397885
411.334138	2447.480192
411.714669	2482.768269
412.095139	2495.371154
412.475547	2412.192115
412.855894	2397.068654
413.236180	2487.809423
413.616405	2550.823846
413.996568	2467.644808
414.376670	2510.494615
414.756711	2442.439038
415.136691	2492.850577
415.516609	2525.618077
415.896466	2492.850577
416.276262	2485.288846
416.655997	2429.836154
417.035670	2555.865000
417.415283	2513.015192
417.794834	2485.288846
418.174324	2432.356731
418.553753	2460.083077
418.933121	2457.562500
419.312428	2455.041923
419.691674	2482.768269
420.070859	2419.753846
420.449983	2424.795000
420.829045	2553.344423
421.208047	2412.192115
421.586988	2404.630385
421.965867	2455.041923
422.344686	2487.809423
422.723444	2540.741538
423.102141	2414.712692
423.480777	2482.768269
423.859352	2482.768269
424.237866	2497.891731
424.616319	2530.659231
424.994712	2513.015192
425.373044	2540.741538
425.751314	2560.906154
426.129524	2371.862885
426.507673	2460.083077
426.885762	2545.782692
427.263789	2495.371154
427.641756	2490.330000
428.019662	2424.795000
428.397508	2460.083077
428.775292	2538.220962
429.153016	2548.303269
429.530679	2495.371154
429.908282	2497.891731
430.285824	2490.330000
430.663305	2371.862885
431.040726	2452.521346
431.418086	2427.315577
431.795385	2422.274423
432.172624	2455.041923
432.549802	2555.865000
432.926920	2465.124231
433.303977	2548.303269
433.680974	2409.671538
434.057910	2487.809423
434.434786	2518.056346
434.811601	2507.974038
435.188355	2472.685962
435.565050	2570.988462
435.941683	2578.550192
436.318257	2548.303269
436.694770	2472.685962
437.071222	2460.083077
437.447614	2465.124231
437.823946	2472.685962
438.200218	2487.809423
438.576429	2419.753846
438.952580	2540.741538
439.328670	2523.097500
439.704700	2450.000769
440.080670	2518.056346
440.456580	2550.823846
440.832429	2475.206538
441.208218	2470.165385
441.583947	2465.124231
441.959616	2523.097500
442.335224	2444.959615
442.710773	2437.397885
443.086261	2500.412308
443.461689	2402.109808
443.837057	2500.412308
444.212365	2507.974038
444.587612	2472.685962
444.962800	2576.029615
445.337927	2500.412308
445.712995	2555.865000
446.088002	2618.879423
446.462949	2429.836154
446.837837	2432.356731
447.212664	2384.465769
447.587431	2523.097500
447.962139	2487.809423
448.336786	2550.823846
448.711374	2545.782692
449.085901	2543.262115
449.460369	2490.330000
449.834776	2513.015192
450.209124	2530.659231
450.583412	2482.768269
450.957640	2535.700385
451.331808	2576.029615
451.705917	2450.000769
452.079965	2460.083077
452.453954	2520.576923
452.827883	2437.397885
453.201752	2462.603654
453.575562	2560.906154
453.949311	2439.918462
454.323001	2495.371154
454.696632	2366.821731
455.070202	2510.494615
455.443713	2495.371154
455.817164	2555.865000
456.190556	2472.685962
456.563888	2492.850577
456.937160	2389.506923
457.310373	2533.179808
457.683526	2497.891731
458.056619	2570.988462
458.429653	2444.959615
458.802628	2525.618077
459.175542	2591.153077
459.548398	2462.603654
459.921194	2444.959615
460.293930	2482.768269
460.666607	2482.768269
461.039224	2480.247692
461.411782	2455.041923
461.784280	2407.150962
462.156719	2550.823846
462.529099	2450.000769
462.901419	2530.659231
463.273680	2447.480192
463.645882	2467.644808
464.018024	2485.288846
464.390106	2455.041923
464.762130	2439.918462
465.134094	2482.768269
465.505999	2487.809423
465.877845	2482.768269
466.249631	2548.303269
466.621358	2389.506923
466.993026	2495.371154
467.364634	2437.397885
467.736184	2480.247692
468.107674	2457.562500
468.479105	2455.041923
468.850477	2467.644808
469.221790	2472.685962
469.593043	2450.000769
469.964238	2452.521346
470.335373	2487.809423
470.706449	2563.426731
471.077467	2480.247692
471.448425	2460.083077
471.819324	2500.412308
472.190164	2523.097500
472.560945	2404.630385
472.931667	2560.906154
473.302330	2480.247692
473.672934	2495.371154
474.043479	2465.124231
474.413965	2553.344423
474.784393	2500.412308
475.154761	2520.576923
475.525070	2447.480192
475.895321	2447.480192
476.265513	2384.465769
476.635645	2465.124231
477.005719	2550.823846
477.375734	2442.439038
477.745691	2553.344423
478.115588	2523.097500
478.485427	2563.426731
478.855207	2515.535769
479.224928	2495.371154
479.594591	2439.918462
479.964194	2465.124231
480.333739	2495.371154
480.703226	2513.015192
481.072653	2427.315577
481.442022	2475.206538
481.811333	2507.974038
482.180584	2502.932885
482.549777	2535.700385
482.918912	2603.755962
483.287988	2533.179808
483.657005	2603.755962
484.025964	2480.247692
484.394864	2442.439038
484.763706	2475.206538
485.132489	2540.741538
485.501213	2550.823846
485.869879	2450.000769
486.238487	2535.700385
486.607036	2538.220962
486.975527	2581.070769
487.343959	2601.235385
487.712333	2505.453462
488.080648	2518.056346
488.448905	2528.138654
488.817104	2455.041923
489.185244	2515.535769
489.553326	2497.891731
489.921350	2492.850577
490.289315	2492.850577
490.657222	2497.891731
491.025070	2472.685962
491.392861	2447.480192
491.760593	2500.412308
492.128267	2455.041923
492.495883	2487.809423
492.863440	2399.589231
493.230939	2518.056346
493.598380	2404.630385
493.965763	2523.097500
494.333088	2482.768269
494.700354	2490.330000
495.067563	2427.315577
495.434713	2533.179808
495.801805	2535.700385
496.168839	2520.576923
496.535815	2460.083077
496.902733	2407.150962
497.269593	2475.206538
497.636395	2497.891731
498.003139	2540.741538
498.369825	2510.494615
498.736453	2487.809423
499.103023	2518.056346
499.469535	2472.685962
499.835989	2510.494615
500.202385	2520.576923
500.568723	2528.138654
500.935003	2427.315577
501.301226	2485.288846
501.667390	2505.453462
502.033497	2555.865000
502.399546	2472.685962
502.765537	2553.344423
503.131470	2523.097500
503.497345	2427.315577
503.863163	2392.027500
504.228923	2510.494615
504.594625	2455.041923
504.960269	2475.206538
505.325856	2533.179808
505.691385	2480.247692
506.056856	2480.247692
506.422270	2472.685962
506.787625	2568.467885
507.152924	2460.083077
507.518164	2475.206538
507.883347	2450.000769
508.248472	2490.330000
508.613540	2573.509038
508.978550	2520.576923
509.343503	2573.509038
509.708398	2465.124231
510.073236	2535.700385
510.438016	2500.412308
510.802738	2470.165385
511.167403	2439.918462
511.532010	2543.262115
511.896561	2487.809423
512.261053	2535.700385
512.625488	2485.288846
512.989866	2480.247692
513.354186	2525.618077
513.718449	2472.685962
514.082655	2523.097500
514.446803	2417.233269
514.810894	2470.165385
515.174927	2497.891731
515.538904	2409.671538
515.902822	2510.494615
516.266684	2457.562500
516.630488	2611.317692
516.994235	2507.974038
517.357925	2535.700385
517.721558	2500.412308
518.085133	2553.344423
518.448651	2535.700385
518.812112	2533.179808
519.175516	2482.768269
519.538863	2444.959615
519.902152	2470.165385
520.265385	2402.109808
520.628560	2510.494615
520.991678	2500.412308
521.354739	2538.220962
521.717743	2560.906154
522.080690	2545.782692
522.443580	2424.795000
522.806413	2455.041923
523.169189	2502.932885
523.531908	2530.659231
523.894569	2518.056346
524.257174	2467.644808
524.619722	2437.397885
524.982213	2439.918462
525.344647	2475.206538
525.707025	2447.480192
526.069345	2553.344423
526.431608	2568.467885
526.793815	2485.288846
527.155964	2518.056346
527.518057	2548.303269
527.880093	2434.877308
528.242072	2497.891731
528.603995	2543.262115
528.965860	2447.480192
529.327669	2492.850577
529.689421	2457.562500
530.051117	2442.439038
530.412755	2515.535769
530.774337	2432.356731
531.135862	2480.247692
531.497331	2492.850577
531.858743	2515.535769
532.220098	2482.768269
532.581396	2409.671538
532.942638	2470.165385
533.303824	2465.124231
533.664953	2548.303269
534.026025	2535.700385
534.387040	2495.371154
534.747999	2545.782692
535.108902	2573.509038
535.469748	2507.974038
535.830537	2548.303269
536.191270	2447.480192
536.551947	2533.179808
536.912567	2505.453462
537.273131	2492.850577
537.633638	2502.932885
537.994089	2472.685962
538.354483	2470.165385
538.714821	2442.439038
539.075103	2394.548077
539.435328	2470.165385
539.795497	2470.165385
540.155609	2475.206538
540.515665	2525.618077
540.875665	2513.015192
541.235609	2419.753846
541.595496	2520.576923
541.955328	2523.097500
542.315102	2467.644808
542.674821	2545.782692
543.034483	2601.235385
543.394090	2444.959615
543.753640	2495.371154
544.113134	2462.603654
544.472571	2573.509038
544.831953	2495.371154
545.191278	2502.932885
545.550548	2477.727115
545.909761	2520.576923
546.268918	2414.712692
546.628019	2518.056346
546.987064	2500.412308
547.346053	2558.385577
547.704986	2586.111923
548.063863	2518.056346
548.422684	2523.097500
548.781449	2535.700385
549.140158	2523.097500
549.498811	2533.179808
549.857408	2588.632500
550.215949	2480.247692
550.574434	2513.015192
550.932864	2495.371154
551.291237	2525.618077
551.649555	2457.562500
552.007817	2455.041923
552.366022	2439.918462
552.724173	2497.891731
553.082267	2437.397885
553.440305	2492.850577
553.798288	2502.932885
554.156215	2490.330000
554.514086	2518.056346
554.871902	2528.138654
555.229661	2495.371154
555.587365	2414.712692
555.945014	2450.000769
556.302606	2523.097500
556.660143	2487.809423
557.017625	2482.768269
557.375050	2528.138654
557.732421	2515.535769
558.089735	2495.371154
558.446994	2497.891731
558.804197	2555.865000
559.161345	2472.685962
559.518437	2533.179808
559.875474	2497.891731
560.232455	2462.603654
560.589381	2497.891731
560.946251	2545.782692
561.303065	2424.795000
561.659825	2502.932885
562.016528	2520.576923
562.373177	2553.344423
562.729770	2432.356731
563.086307	2472.685962
563.442789	2465.124231
563.799216	2530.659231
564.155587	2550.823846
564.511904	2515.535769
564.868164	2555.865000
565.224370	2573.509038
565.580520	2434.877308
565.936615	2450.000769
566.292654	2487.809423
566.648638	2528.138654
567.004567	2470.165385
567.360441	2523.097500
567.716260	2475.206538
568.072023	2528.138654
568.427732	2432.356731
568.783385	2515.535769
569.138982	2439.918462
569.494525	2422.274423
569.850013	2482.768269
570.205445	2530.659231
570.560823	2518.056346
570.916145	2515.535769
571.271412	2480.247692
571.626625	2525.618077
571.981782	2455.041923
572.336884	2447.480192
572.691931	2452.521346
573.046923	2505.453462
573.401860	2548.303269
573.756743	2472.685962
574.111570	2513.015192
574.466342	2434.877308
574.821059	2558.385577
575.175722	2583.591346
575.530330	2555.865000
575.884882	2550.823846
576.239380	2497.891731
576.593823	2507.974038
576.948211	2540.741538
577.302544	2487.809423
577.656823	2490.330000
578.011047	2548.303269
578.365216	2452.521346
578.719330	2480.247692
579.073389	2528.138654
579.427394	2515.535769
579.781344	2518.056346
580.135239	2470.165385
580.489080	2510.494615
580.842866	2467.644808
581.196597	2487.809423
581.550273	2507.974038
581.903895	2510.494615
582.257463	2434.877308
582.610975	2492.850577
582.964434	2447.480192
583.317837	2467.644808
583.671186	2470.165385
584.024481	2513.015192
584.377721	2465.124231
584.730906	2397.068654
585.084037	2477.727115
585.437113	2550.823846
585.790135	2439.918462
586.143103	2533.179808
586.496016	2457.562500
586.848874	2457.562500
587.201679	2591.153077
587.554428	2460.083077
587.907124	2520.576923
588.259765	2472.685962
588.612352	2518.056346
588.964884	2530.659231
589.317362	2611.317692
589.669786	2409.671538
590.022155	2485.288846
590.374470	2492.850577
590.726731	2460.083077
591.078937	2444.959615
591.431090	2495.371154
591.783188	2472.685962
592.135232	2505.453462
592.487222	2510.494615
592.839157	2523.097500
593.191038	2543.262115
593.542866	2480.247692
593.894639	2543.262115
594.246358	2520.576923
594.598022	2470.165385
594.949633	2535.700385
595.301190	2480.247692
595.652692	2550.823846
596.004141	2545.782692
596.355535	2460.083077
596.706876	2457.562500
597.058162	2404.630385
597.409395	2460.083077
597.760573	2502.932885
598.111698	2565.947308
598.462768	2487.809423
598.813785	2548.303269
599.164748	2419.753846
599.515657	2565.947308
599.866511	2528.138654
600.217312	2513.015192
600.568060	2518.056346
600.918753	2581.070769
601.269392	2578.550192
601.619978	2528.138654
601.970510	2505.453462
602.320988	2497.891731
602.671412	2500.412308
603.021783	2427.315577
603.372100	2467.644808
603.722363	2507.974038
604.072572	2538.220962
604.422728	2419.753846
604.772830	2518.056346
605.122878	2558.385577
605.472872	2472.685962
605.822813	2477.727115
606.172701	2480.247692
606.522534	2513.015192
606.872314	2462.603654
607.222041	2455.041923
607.571714	2518.056346
607.921333	2515.535769
608.270899	2455.041923
608.620411	2520.576923
608.969870	2472.685962
609.319276	2538.220962
609.668627	2482.768269
610.017926	2538.220962
610.367171	2560.906154
610.716362	2475.206538
611.065500	2548.303269
611.414585	2550.823846
611.763616	2528.138654
612.112594	2550.823846
612.461518	2548.303269
612.810389	2518.056346
613.159207	2495.371154
613.507971	2427.315577
613.856682	2520.576923
614.205340	2477.727115
614.553945	2472.685962
614.902496	2452.521346
615.250994	2553.344423
615.599439	2450.000769
615.947830	2548.303269
616.296169	2550.823846
616.644454	2419.753846
616.992686	2495.371154
617.340864	2475.206538
617.688990	2502.932885
618.037063	2550.823846
618.385082	2480.247692
618.733048	2558.385577
619.080961	2487.809423
619.428821	2434.877308
619.776628	2530.659231
620.124382	2490.330000
620.472083	2427.315577
620.819731	2523.097500
621.167326	2507.974038
621.514868	2480.247692
621.862357	2505.453462
622.209793	2513.015192
622.557176	2465.124231
622.904506	2523.097500
623.251783	2424.795000
623.599007	2523.097500
623.946179	2485.288846
624.293297	2568.467885
624.640363	2505.453462
624.987376	2553.344423
625.334336	2455.041923
625.681243	2543.262115
626.028097	2492.850577
626.374899	2492.850577
626.721647	2460.083077
627.068343	2381.945192
627.414987	2540.741538
627.761577	2520.576923
628.108115	2515.535769
628.454600	2505.453462
628.801032	2490.330000
629.147412	2500.412308
629.493739	2480.247692
629.840014	2502.932885
630.186236	2533.179808
630.532405	2510.494615
630.878521	2450.000769
631.224585	2490.330000
631.570597	2429.836154
631.916556	2475.206538
632.262462	2540.741538
632.608316	2409.671538
632.954117	2434.877308
633.299866	2480.247692
633.645562	2467.644808
633.991206	2550.823846
634.336797	2515.535769
634.682336	2457.562500
635.027823	2404.630385
635.373257	2598.714808
635.718639	2540.741538
636.063968	2563.426731
636.409245	2568.467885
636.754470	2442.439038
637.099642	2462.603654
637.444762	2525.618077
637.789829	2434.877308
638.134845	2497.891731
638.479808	2525.618077
638.824719	2475.206538
639.169577	2437.397885
639.514383	2533.179808
639.859137	2528.138654
640.203839	2528.138654
640.548489	2477.727115
640.893086	2568.467885
641.237632	2460.083077
641.582125	2482.768269
641.926566	2442.439038
642.270955	2507.974038
642.615292	2573.509038
642.959576	2505.453462
643.303809	2570.988462
643.647990	2500.412308
643.992118	2477.727115
644.336195	2465.124231
644.680219	2518.056346
645.024192	2475.206538
645.368112	2591.153077
645.711981	2553.344423
646.055797	2487.809423
646.399562	2538.220962
646.743274	2477.727115
647.086935	2540.741538
647.430544	2505.453462
647.774101	2487.809423
648.117606	2553.344423
648.461059	2548.303269
648.804460	2470.165385
649.147810	2513.015192
649.491108	2543.262115
649.834354	2530.659231
650.177548	2437.397885
650.520690	2429.836154
650.863781	2480.247692
651.206820	2475.206538
651.549807	2475.206538
651.892742	2452.521346
652.235626	2490.330000
652.578458	2555.865000
652.921238	2533.179808
653.263967	2533.179808
653.606644	2424.795000
653.949269	2540.741538
654.291843	2482.768269
654.634365	2490.330000
654.976836	2434.877308
655.319255	2548.303269
655.661622	2424.795000
656.003938	2414.712692
656.346203	2550.823846
656.688416	2477.727115
657.030577	2523.097500
657.372687	2497.891731
657.714746	2492.850577
658.056753	2535.700385
658.398708	2558.385577
658.740612	2485.288846
659.082465	2482.768269
659.424266	2565.947308
659.766016	2472.685962
660.107715	2518.056346
660.449362	2467.644808
660.790958	2495.371154
661.132503	2457.562500
661.473996	2515.535769
661.815438	2497.891731
662.156829	2492.850577
662.498168	2422.274423
662.839456	2543.262115
663.180693	2513.015192
663.521879	2518.056346
663.863013	2520.576923
664.204097	2545.782692
664.545129	2500.412308
664.886110	2520.576923
665.227040	2573.509038
665.567918	2540.741538
665.908746	2447.480192
666.249522	2530.659231
666.590248	2470.165385
666.930922	2565.947308
667.271545	2480.247692
667.612118	2603.755962
667.952639	2465.124231
668.293109	2500.412308
668.633528	2427.315577
668.973896	2515.535769
669.314213	2444.959615
669.654480	2482.768269
669.994695	2439.918462
670.334859	2523.097500
670.674973	2497.891731
671.015035	2533.179808
671.355047	2505.453462
671.695008	2480.247692
672.034918	2510.494615
672.374777	2467.644808
672.714585	2570.988462
673.054342	2407.150962
673.394049	2460.083077
673.733705	2485.288846
674.073310	2528.138654
674.412864	2616.358846
674.752368	2548.303269
675.091820	2525.618077
675.431223	2518.056346
675.770574	2568.467885
676.109875	2492.850577
676.449125	2477.727115
676.788324	2492.850577
677.127473	2432.356731
677.466571	2533.179808
677.805619	2490.330000
678.144616	2422.274423
678.483562	2525.618077
678.822458	2550.823846
679.161303	2460.083077
679.500098	2444.959615
679.838842	2525.618077
680.177535	2507.974038
680.516179	2470.165385
680.854771	2379.424615
681.193314	2563.426731
681.531805	2467.644808
681.870247	2513.015192
682.208638	2455.041923
682.546978	2525.618077
682.885268	2495.371154
683.223508	2397.068654
683.561697	2369.342308
683.899836	2417.233269
684.237925	2553.344423
684.575963	2477.727115
684.913951	2583.591346
685.251889	2485.288846
685.589776	2507.974038
685.927614	2530.659231
686.265401	2467.644808
686.603137	2475.206538
686.940824	2518.056346
687.278460	2543.262115
687.616046	2460.083077
687.953582	2482.768269
688.291068	2492.850577
688.628504	2412.192115
688.965889	2500.412308
689.303224	2414.712692
689.640510	2500.412308
689.977745	2485.288846
690.314930	2480.247692
690.652065	2515.535769
690.989150	2513.015192
691.326185	2515.535769
691.663170	2452.521346
692.000105	2530.659231
692.336990	2513.015192
692.673825	2560.906154
693.010610	2588.632500
693.347345	2535.700385
693.684030	2485.288846
694.020665	2455.041923
694.357251	2500.412308
694.693786	2452.521346
695.030272	2502.932885
695.366707	2513.015192
695.703093	2497.891731
696.039429	2455.041923
696.375716	2485.288846
696.711952	2439.918462
697.048139	2535.700385
697.384276	2432.356731
697.720363	2513.015192
698.056400	2553.344423
698.392388	2439.918462
698.728326	2472.685962
699.064214	2480.247692
699.400053	2455.041923
699.735842	2450.000769
700.071581	2434.877308
700.407270	2520.576923
700.742910	2470.165385
701.078501	2482.768269
701.414042	2565.947308
701.749533	2482.768269
702.084974	2530.659231
702.420366	2429.836154
702.755709	2525.618077
703.091002	2634.002885
703.426246	2429.836154
703.761440	2500.412308
704.096584	2490.330000
704.431679	2507.974038
704.766725	2470.165385
705.101721	2525.618077
705.436668	2520.576923
705.771565	2444.959615
706.106413	2497.891731
706.441212	2495.371154
706.775961	2533.179808
707.110661	2495.371154
707.445311	2593.673654
707.779913	2513.015192
708.114465	2548.303269
708.448967	2450.000769
708.783421	2482.768269
709.117825	2465.124231
709.452180	2444.959615
709.786485	2603.755962
710.120742	2560.906154
710.454949	2485.288846
710.789107	2487.809423
711.123216	2462.603654
711.457275	2586.111923
711.791286	2490.330000
712.125247	2477.727115
712.459159	2543.262115
712.793023	2470.165385
713.126837	2513.015192
713.460602	2444.959615
713.794318	2583.591346
714.127985	2450.000769
714.461602	2555.865000
714.795171	2460.083077
715.128691	2518.056346
715.462162	2515.535769
715.795584	2525.618077
716.128957	2477.727115
716.462281	2485.288846
716.795556	2422.274423
717.128782	2487.809423
717.461960	2513.015192
717.795088	2447.480192
718.128167	2583.591346
718.461198	2455.041923
718.794180	2427.315577
719.127113	2490.330000
719.459997	2492.850577
719.792833	2570.988462
720.125619	2528.138654
720.458357	2432.356731
720.791046	2480.247692
721.123686	2535.700385
721.456278	2475.206538
721.788821	2477.727115
722.121315	2455.041923
722.453761	2439.918462
722.786158	2427.315577
723.118506	2533.179808
723.450805	2507.974038
723.783056	2457.562500
724.115259	2460.083077
724.447412	2477.727115
724.779518	2429.836154
725.111574	2533.179808
725.443582	2513.015192
725.775542	2520.576923
726.107453	2447.480192
726.439315	2545.782692
726.771129	2520.576923
727.102895	2470.165385
727.434612	2520.576923
727.766281	2548.303269
728.097901	2477.727115
728.429473	2525.618077
728.760996	2470.165385
729.092471	2570.988462
729.423897	2588.632500
729.755276	2543.262115
730.086606	2497.891731
730.417887	2601.235385
730.749120	2409.671538
731.080305	2487.809423
731.411442	2444.959615
731.742530	2397.068654
732.073570	2490.330000
732.404562	2465.124231
732.735506	2442.439038
733.066401	2467.644808
733.397249	2513.015192
733.728048	2540.741538
734.058798	2477.727115
734.389501	2490.330000
734.720156	2442.439038
735.050762	2530.659231
735.381320	2530.659231
735.711831	2573.509038
736.042293	2460.083077
736.372707	2560.906154
736.703073	2414.712692
737.033391	2364.301154
737.363661	2490.330000
737.693883	2419.753846
738.024056	2424.795000
738.354182	2497.891731
738.684260	2533.179808
739.014290	2490.330000
739.344272	2530.659231
739.674207	2528.138654
740.004093	2472.685962
740.333931	2470.165385
740.663722	2470.165385
740.993464	2525.618077
741.323159	2528.138654
741.652806	2424.795000
741.982405	2505.453462
742.311956	2520.576923
742.641460	2477.727115
742.970915	2518.056346
743.300323	2538.220962
743.629683	2447.480192
743.958996	2460.083077
744.288260	2492.850577
744.617477	2578.550192
744.946647	2472.685962
745.275768	2507.974038
745.604842	2389.506923
745.933869	2576.029615
746.262847	2462.603654
746.591778	2500.412308
746.920662	2452.521346
747.249498	2525.618077
747.578286	2548.303269
747.907027	2460.083077
748.235720	2550.823846
748.564365	2490.330000
748.892963	2432.356731
749.221514	2528.138654
749.550017	2550.823846
749.878473	2485.288846
750.206881	2495.371154
750.535242	2439.918462
750.863555	2548.303269
751.191821	2439.918462
751.520039	2452.521346
751.848210	2528.138654
752.176334	2465.124231
752.504411	2472.685962
752.832440	2450.000769
753.160421	2470.165385
753.488356	2452.521346
753.816243	2487.809423
754.144082	2520.576923
754.471875	2450.000769
754.799620	2510.494615
755.127318	2535.700385
755.454969	2422.274423
755.782572	2500.412308
756.110129	2434.877308
756.437638	2530.659231
756.765100	2407.150962
757.092515	2500.412308
757.419882	2495.371154
757.747203	2477.727115
758.074477	2455.041923
758.401703	2533.179808
758.728882	2434.877308
759.056014	2507.974038
759.383099	2492.850577
759.710138	2548.303269
760.037129	2540.741538
760.364073	2492.850577
760.690970	2538.220962
761.017820	2570.988462
761.344623	2497.891731
761.671379	2565.947308
761.998088	2470.165385
762.324751	2563.426731
762.651366	2465.124231
762.977935	2457.562500
763.304456	2558.385577
763.630931	2444.959615
763.957359	2520.576923
764.283740	2603.755962
764.610074	2523.097500
764.936362	2518.056346
765.262602	2482.768269
765.588796	2520.576923
765.914943	2444.959615
766.241044	2495.371154
766.567097	2386.986346
766.893104	2505.453462
767.219064	2490.330000
767.544978	2538.220962
767.870845	2447.480192
768.196665	2528.138654
768.522438	2502.932885
768.848165	2505.453462
769.173846	2568.467885
769.499479	2502.932885
769.825066	2518.056346
770.150607	2379.424615
770.476101	2502.932885
770.801548	2467.644808
771.126949	2470.165385
771.452303	2513.015192
771.777611	2490.330000
772.102872	2540.741538
772.428087	2538.220962
772.753256	2515.535769
773.078378	2485.288846
773.403453	2560.906154
773.728482	2450.000769
774.053465	2467.644808
774.378401	2472.685962
774.703291	2558.385577
775.028135	2535.700385
775.352932	2419.753846
775.677683	2523.097500
776.002388	2475.206538
776.327046	2487.809423
776.651658	2548.303269
776.976224	2475.206538
777.300743	2470.165385
777.625216	2528.138654
777.949643	2518.056346
778.274024	2457.562500
778.598359	2437.397885
778.922647	2470.165385
779.246889	2477.727115
779.571086	2553.344423
779.895236	2513.015192
780.219339	2442.439038
780.543397	2520.576923
780.867409	2432.356731
781.191374	2485.288846
781.515294	2545.782692
781.839167	2460.083077
782.162995	2555.865000
782.486776	2565.947308
782.810511	2412.192115
783.134201	2507.974038
783.457844	2480.247692
783.781441	2523.097500
784.104993	2417.233269
784.428498	2500.412308
784.751958	2518.056346
785.075372	2465.124231
785.398739	2510.494615
785.722061	2538.220962
786.045337	2490.330000
786.368568	2467.644808
786.691752	2452.521346
787.014891	2576.029615
787.337983	2533.179808
787.661030	2535.700385
787.984031	2568.467885
788.306987	2460.083077
788.629897	2543.262115
788.952760	2555.865000
789.275579	2457.562500
789.598351	2507.974038
789.921078	2455.041923
790.243759	2555.865000
790.566395	2513.015192
790.888984	2507.974038
791.211529	2548.303269
791.534027	2558.385577
791.856480	2513.015192
792.178888	2545.782692
792.501249	2437.397885
792.823566	2507.974038
793.145836	2583.591346
793.468062	2470.165385
793.790241	2472.685962
794.112375	2533.179808
794.434464	2553.344423
794.756507	2460.083077
795.078505	2475.206538
795.400457	2475.206538
795.722364	2439.918462
796.044226	2525.618077
796.366042	2480.247692
796.687812	2543.262115
797.009538	2467.644808
797.331218	2535.700385
797.652852	2523.097500
797.974442	2535.700385
798.295986	2495.371154
798.617484	2492.850577
798.938938	2543.262115
799.260346	2485.288846
799.581709	2558.385577
799.903026	2482.768269
800.224299	2460.083077
800.545526	2570.988462
800.866708	2482.768269
801.187845	2437.397885
801.508936	2465.124231
801.829983	2535.700385
802.150984	2510.494615
802.471940	2490.330000
802.792851	2497.891731
803.113717	2487.809423
803.434538	2502.932885
803.755314	2505.453462
804.076045	2515.535769
804.396731	2492.850577
804.717372	2497.891731
805.037967	2535.700385
805.358518	2507.974038
805.679024	2447.480192
805.999485	2550.823846
806.319901	2497.891731
806.640272	2563.426731
806.960598	2447.480192
807.280879	2472.685962
807.601115	2490.330000
807.921306	2417.233269
808.241453	2450.000769
808.561554	2523.097500
808.881611	2480.247692
809.201623	2480.247692
809.521590	2492.850577
809.841513	2545.782692
810.161390	2560.906154
810.481223	2555.865000
810.801011	2515.535769
811.120755	2495.371154
811.440453	2467.644808
811.760107	2515.535769
812.079716	2548.303269
812.399281	2492.850577
812.718801	2487.809423
813.038276	2442.439038
813.357707	2558.385577
813.677093	2472.685962
813.996434	2550.823846
814.315731	2432.356731
814.634983	2434.877308
814.954191	2528.138654
815.273354	2485.288846
815.592473	2525.618077
815.911547	2429.836154
816.230577	2548.303269
816.549562	2507.974038
816.868502	2523.097500
817.187399	2507.974038
817.506250	2500.412308
817.825058	2538.220962
818.143821	2472.685962
818.462539	2465.124231
818.781213	2507.974038
819.099843	2434.877308
819.418429	2523.097500
819.736970	2404.630385
820.055466	2482.768269
820.373919	2502.932885
820.692327	2513.015192
821.010691	2485.288846
821.329011	2442.439038
821.647286	2510.494615
821.965517	2480.247692
822.283704	2500.412308
822.601847	2568.467885
822.919945	2520.576923
823.237999	2505.453462
823.556010	2434.877308
823.873976	2555.865000
824.191897	2497.891731
824.509775	2460.083077
824.827609	2412.192115
825.145398	2492.850577
825.463144	2482.768269
825.780845	2457.562500
826.098502	2520.576923
826.416116	2520.576923
826.733685	2455.041923
827.051210	2490.330000
827.368692	2467.644808
827.686129	2429.836154
828.003522	2460.083077
828.320872	2487.809423
828.638177	2455.041923
828.955439	2563.426731
829.272656	2505.453462
829.589830	2581.070769
829.906960	2487.809423
830.224046	2553.344423
830.541088	2545.782692
830.858086	2422.274423
831.175041	2404.630385
831.491952	2583.591346
831.808819	2470.165385
832.125642	2533.179808
832.442421	2515.535769
832.759157	2422.274423
833.075849	2475.206538
833.392497	2444.959615
833.709101	2424.795000
834.025662	2457.562500
834.342179	2480.247692
834.658653	2472.685962
834.975083	2447.480192
835.291469	2427.315577
835.607811	2492.850577
835.924110	2485.288846
836.240366	2515.535769
836.556578	2492.850577
836.872746	2452.521346
837.188871	2450.000769
837.504952	2523.097500
837.820990	2492.850577
838.136984	2389.506923
838.452935	2460.083077
838.768842	2495.371154
839.084706	2510.494615
839.400526	2470.165385
839.716303	2444.959615
840.032037	2530.659231
840.347727	2528.138654
840.663373	2490.330000
840.978977	2495.371154
841.294537	2513.015192
841.610054	2560.906154
841.925527	2447.480192
842.240957	2560.906154
842.556344	2538.220962
842.871687	2455.041923
843.186987	2555.865000
843.502244	2497.891731
843.817458	2470.165385
844.132629	2573.509038
844.447756	2528.138654
844.762840	2487.809423
845.077881	2457.562500
845.392879	2555.865000
845.707833	2409.671538
846.022745	2477.727115
846.337613	2497.891731
846.652438	2528.138654
846.967221	2487.809423
847.281960	2570.988462
847.596656	2452.521346
847.911309	2553.344423
848.225919	2513.015192
848.540485	2487.809423
848.855009	2535.700385
849.169490	2565.947308
849.483928	2490.330000
849.798323	2485.288846
850.112675	2573.509038
850.426984	2538.220962
850.741251	2543.262115
851.055474	2480.247692
851.369654	2528.138654
851.683792	2450.000769
851.997887	2533.179808
852.311938	2545.782692
852.625947	2480.247692
852.939914	2477.727115
853.253837	2465.124231
853.567718	2429.836154
853.881555	2528.138654
854.195350	2500.412308
854.509103	2462.603654
854.822812	2482.768269
855.136479	2434.877308
855.450103	2472.685962
855.763685	2510.494615
856.077224	2500.412308
856.390720	2510.494615
856.704173	2487.809423
857.017584	2460.083077
857.330953	2500.412308
857.644278	2439.918462
857.957561	2515.535769
858.270802	2507.974038
858.584000	2515.535769
858.897155	2505.453462
859.210268	2495.371154
859.523339	2417.233269
859.836367	2492.850577
860.149352	2528.138654
860.462295	2447.480192
860.775195	2497.891731
861.088054	2523.097500
861.400869	2404.630385
861.713642	2533.179808
862.026373	2513.015192
862.339062	2487.809423
862.651708	2495.371154
862.964312	2482.768269
863.276873	2465.124231
863.589392	2460.083077
863.901869	2457.562500
864.214303	2507.974038
864.526696	2520.576923
864.839045	2523.097500
865.151353	2470.165385
865.463619	2492.850577
865.775842	2518.056346
866.088023	2576.029615
866.400162	2535.700385
866.712258	2591.153077
867.024313	2586.111923
867.336325	2447.480192
867.648296	2533.179808
867.960224	2452.521346
868.272110	2485.288846
868.583954	2482.768269
868.895755	2497.891731
869.207515	2495.371154
869.519233	2480.247692
869.830909	2467.644808
870.142542	2434.877308
870.454134	2472.685962
870.765684	2472.685962
871.077191	2475.206538
871.388657	2467.644808
871.700081	2533.179808
872.011463	2470.165385
872.322803	2565.947308
872.634101	2442.439038
872.945357	2513.015192
873.256571	2570.988462
873.567744	2460.083077
873.878874	2407.150962
874.189963	2444.959615
874.501010	2465.124231
874.812015	2550.823846
875.122979	2485.288846
875.433900	2477.727115
875.744780	2573.509038
876.055618	2538.220962
876.366415	2495.371154
876.677169	2538.220962
876.987882	2518.056346
877.298554	2505.453462
877.609183	2543.262115
877.919771	2477.727115
878.230317	2533.179808
878.540822	2528.138654
878.851285	2523.097500
879.161707	2434.877308
879.472087	2477.727115
879.782425	2495.371154
880.092722	2492.850577
880.402977	2535.700385
880.713191	2513.015192
881.023363	2452.521346
881.333494	2502.932885
881.643583	2540.741538
881.953631	2477.727115
882.263637	2485.288846
882.573602	2485.288846
882.883526	2515.535769
883.193408	2465.124231
883.503248	2543.262115
883.813048	2487.809423
884.122806	2558.385577
884.432522	2442.439038
884.742197	2497.891731
885.051831	2480.247692
885.361424	2492.850577
885.670975	2533.179808
885.980485	2470.165385
886.289954	2487.809423
886.599382	2480.247692
886.908768	2490.330000
887.218113	2505.453462
887.527417	2570.988462
887.836680	2477.727115
888.145901	2550.823846
888.455082	2586.111923
888.764221	2492.850577
889.073319	2530.659231
889.382376	2513.015192
889.691392	2485.288846
890.000366	2538.220962
890.309300	2520.576923
890.618193	2455.041923
890.927044	2515.535769
891.235855	2477.727115
891.544625	2477.727115
891.853353	2520.576923
892.162041	2427.315577
892.470687	2563.426731
892.779293	2457.562500
893.087858	2472.685962
893.396381	2545.782692
893.704864	2477.727115
894.013306	2455.041923
894.321707	2386.986346
894.630068	2460.083077
894.938387	2513.015192
895.246665	2432.356731
895.554903	2513.015192
895.863100	2497.891731
896.171256	2419.753846
896.479371	2550.823846
896.787446	2490.330000
897.095480	2495.371154
897.403473	2477.727115
897.711425	2424.795000
898.019336	2520.576923
898.327207	2475.206538
898.635038	2523.097500
898.942827	2457.562500
899.250576	2523.097500
899.558284	2470.165385
899.865952	2523.097500
900.173579	2439.918462
900.481165	2467.644808
900.788711	2500.412308
901.096216	2485.288846
901.403681	2460.083077
901.711105	2439.918462
902.018489	2513.015192
902.325832	2455.041923
902.633135	2402.109808
902.940397	2475.206538
903.247619	2465.124231
903.554800	2500.412308
903.861941	2492.850577
904.169041	2460.083077
904.476101	2442.439038
904.783121	2502.932885
905.090100	2525.618077
905.397039	2570.988462
905.703938	2419.753846
906.010796	2470.165385
906.317614	2485.288846
906.624391	2492.850577
906.931129	2485.288846
907.237826	2500.412308
907.544483	2434.877308
907.851099	2553.344423
908.157675	2520.576923
908.464211	2507.974038
908.770707	2399.589231
909.077163	2543.262115
909.383578	2424.795000
909.689954	2460.083077
909.996289	2407.150962
910.302584	2424.795000
910.608839	2520.576923
910.915054	2452.521346
911.221229	2535.700385
911.527363	2477.727115
911.833458	2452.521346
912.139513	2515.535769
912.445527	2444.959615
912.751502	2563.426731
913.057436	2543.262115
913.363331	2475.206538
913.669186	2613.838269
913.975000	2472.685962
914.280775	2490.330000
914.586510	2550.823846
914.892205	2477.727115
915.197859	2576.029615
915.503475	2565.947308
915.809050	2465.124231
916.114585	2555.865000
916.420081	2467.644808
916.725536	2472.685962
917.030952	2538.220962
917.336328	2528.138654
917.641665	2482.768269
917.946961	2447.480192
918.252218	2550.823846
918.557435	2457.562500
918.862612	2497.891731
919.167750	2495.371154
919.472848	2507.974038
919.777906	2470.165385
920.082925	2477.727115
920.387904	2437.397885
920.692843	2507.974038
920.997743	2513.015192
921.302603	2455.041923
921.607423	2412.192115
921.912204	2543.262115
922.216946	2462.603654
922.521647	2515.535769
922.826310	2578.550192
923.130932	2434.877308
923.435516	2480.247692
923.740059	2434.877308
924.044564	2487.809423
924.349028	2427.315577
924.653454	2548.303269
924.957840	2460.083077
925.262186	2513.015192
925.566493	2447.480192
925.870761	2482.768269
926.174989	2467.644808
926.479178	2570.988462
926.783328	2565.947308
927.087438	2427.315577
927.391509	2520.576923
927.695541	2513.015192
927.999533	2535.700385
928.303486	2543.262115
928.607400	2578.550192
928.911275	2530.659231
929.215110	2550.823846
929.518906	2543.262115
929.822663	2470.165385
930.126381	2492.850577
930.430060	2505.453462
930.733699	2424.795000
931.037299	2550.823846
931.340861	2414.712692
931.644383	2500.412308
931.947866	2432.356731
932.251309	2457.562500
932.554714	2555.865000
932.858080	2533.179808
933.161407	2510.494615
933.464694	2470.165385
933.767943	2477.727115
934.071153	2447.480192
934.374323	2500.412308
934.677455	2455.041923
934.980548	2505.453462
935.283602	2593.673654
935.586617	2442.439038
935.889593	2525.618077
936.192530	2462.603654
936.495428	2427.315577
936.798287	2545.782692
937.101108	2480.247692
937.403890	2482.768269
937.706632	2525.618077
938.009336	2538.220962
938.312002	2462.603654
938.614628	2565.947308
938.917216	2465.124231
939.219765	2482.768269
939.522275	2518.056346
939.824747	2520.576923
940.127179	2442.439038
940.429573	2472.685962
940.731929	2470.165385
941.034246	2427.315577
941.336524	2374.383462
941.638763	2455.041923
941.940964	2414.712692
942.243126	2560.906154
942.545250	2568.467885
942.847335	2487.809423
943.149381	2513.015192
943.451389	2518.056346
943.753359	2444.959615
944.055290	2523.097500
944.357182	2457.562500
944.659036	2429.836154
944.960851	2507.974038
945.262628	2437.397885
945.564367	2515.535769
945.866067	2477.727115
946.167729	2424.795000
946.469352	2553.344423
946.770937	2467.644808
947.072484	2442.439038
947.373992	2467.644808
947.675462	2513.015192
947.976893	2480.247692
948.278286	2432.356731
948.579641	2505.453462
948.880958	2472.685962
949.182236	2485.288846
949.483476	2455.041923
949.784678	2525.618077
950.085841	2437.397885
950.386967	2545.782692
950.688054	2447.480192
950.989103	2518.056346
951.290114	2502.932885
951.591087	2462.603654
951.892021	2467.644808
952.192917	2563.426731
952.493776	2528.138654
952.794596	2535.700385
953.095378	2460.083077
953.396122	2507.974038
953.696828	2550.823846
953.997496	2492.850577
954.298126	2462.603654
954.598718	2455.041923
954.899272	2432.356731
955.199788	2450.000769
955.500266	2485.288846
955.800706	2359.260000
956.101108	2487.809423
956.401472	2540.741538
956.701798	2394.548077
957.002087	2427.315577
957.302337	2505.453462
957.602550	2487.809423
957.902724	2550.823846
958.202861	2472.685962
958.502960	2467.644808
958.803022	2437.397885
959.103045	2482.768269
959.403031	2485.288846
959.702979	2414.712692
960.002889	2467.644808
960.302762	2392.027500
960.602596	2505.453462
960.902393	2482.768269
961.202153	2523.097500
961.501875	2487.809423
961.801559	2545.782692
962.101205	2477.727115
962.400814	2434.877308
962.700385	2540.741538
962.999918	2563.426731
963.299414	2553.344423
963.598873	2437.397885
963.898293	2482.768269
964.197677	2434.877308
964.497022	2520.576923
964.796331	2419.753846
965.095601	2507.974038
965.394835	2480.247692
965.694030	2548.303269
965.993189	2495.371154
966.292309	2394.548077
966.591393	2513.015192
966.890439	2450.000769
967.189447	2437.397885
967.488419	2462.603654
967.787353	2538.220962
968.086249	2515.535769
968.385108	2450.000769
968.683930	2442.439038
968.982714	2434.877308
969.281462	2472.685962
969.580172	2452.521346
969.878844	2399.589231
970.177480	2510.494615
970.476078	2477.727115
970.774639	2540.741538
971.073162	2500.412308
971.371649	2515.535769
971.670098	2414.712692
971.968510	2487.809423
972.266885	2490.330000
972.565223	2596.194231
972.863524	2573.509038
973.161788	2452.521346
973.460014	2482.768269
973.758204	2475.206538
974.056356	2507.974038
974.354471	2460.083077
974.652550	2535.700385
974.950591	2434.877308
975.248595	2472.685962
975.546563	2487.809423
975.844493	2455.041923
976.142386	2538.220962
976.440243	2462.603654
976.738062	2505.453462
977.035845	2472.685962
977.333590	2518.056346
977.631299	2497.891731
977.928971	2495.371154
978.226606	2502.932885
978.524204	2540.741538
978.821765	2432.356731
979.119290	2558.385577
979.416777	2472.685962
979.714228	2394.548077
980.011642	2490.330000
980.309020	2550.823846
980.606360	2452.521346
980.903664	2475.206538
981.200931	2477.727115
981.498162	2525.618077
981.795356	2525.618077
982.092513	2515.535769
982.389633	2477.727115
982.686717	2422.274423
982.983764	2472.685962
983.280775	2507.974038
983.577749	2492.850577
983.874686	2563.426731
984.171587	2515.535769
984.468451	2510.494615
984.765279	2462.603654
985.062070	2480.247692
985.358824	2419.753846
985.655543	2513.015192
985.952224	2535.700385
986.248869	2460.083077
986.545478	2510.494615
986.842050	2505.453462
987.138586	2439.918462
987.435086	2533.179808
987.731549	2490.330000
988.027975	2510.494615
988.324366	2457.562500
988.620719	2495.371154
988.917037	2465.124231
989.213318	2510.494615
989.509563	2470.165385
989.805772	2497.891731
990.101944	2507.974038
990.398080	2437.397885
990.694180	2545.782692
990.990244	2515.535769
991.286271	2487.809423
991.582262	2482.768269
991.878217	2477.727115
992.174136	2507.974038
992.470019	2432.356731
992.765865	2467.644808
993.061676	2465.124231
993.357450	2528.138654
993.653188	2477.727115
993.948890	2505.453462
994.244556	2593.673654
994.540186	2497.891731
994.835780	2472.685962
995.131337	2573.509038
995.426859	2502.932885
995.722345	2470.165385
996.017795	2472.685962
996.313208	2485.288846
996.608586	2540.741538
996.903928	2470.165385
997.199234	2465.124231
997.494504	2525.618077
997.789738	2518.056346
998.084936	2581.070769
998.380099	2495.371154
998.675225	2427.315577
998.970316	2427.315577
999.265371	2507.974038
999.560390	2465.124231
999.855373	2513.015192
1000.150320	2376.904038
1000.445232	2558.385577
1000.740108	2513.015192
1001.034948	2417.233269
1001.329752	2470.165385
1001.624521	2427.315577
1001.919254	2482.768269
1002.213951	2465.124231
1002.508613	2477.727115
1002.803239	2470.165385
1003.097829	2477.727115
1003.392384	2434.877308
1003.686903	2528.138654
1003.981386	2553.344423
1004.275834	2460.083077
1004.570246	2492.850577
1004.864623	2548.303269
1005.158964	2487.809423
1005.453270	2560.906154
1005.747540	2485.288846
1006.041775	2434.877308
1006.335974	2523.097500
1006.630138	2477.727115
1006.924266	2444.959615
1007.218359	2487.809423
1007.512416	2538.220962
1007.806438	2470.165385
1008.100425	2452.521346
1008.394376	2472.685962
1008.688292	2472.685962
1008.982172	2457.562500
1009.276017	2455.041923
1009.569827	2545.782692
1009.863602	2434.877308
1010.157341	2560.906154
1010.451045	2553.344423
1010.744714	2492.850577
1011.038347	2502.932885
1011.331945	2492.850577
1011.625508	2439.918462
1011.919036	2455.041923
1012.212528	2545.782692
1012.505986	2465.124231
1012.799408	2434.877308
1013.092795	2525.618077
1013.386147	2548.303269
1013.679464	2513.015192
1013.972745	2518.056346
1014.265992	2442.439038
1014.559204	2502.932885
1014.852380	2482.768269
1015.145521	2505.453462
1015.438628	2462.603654
1015.731699	2510.494615
1016.024736	2439.918462
1016.317737	2525.618077
1016.610703	2533.179808
1016.903635	2500.412308
1017.196531	2510.494615
1017.489393	2515.535769
1017.782219	2518.056346
1018.075011	2444.959615
1018.367768	2470.165385
1018.660490	2480.247692
1018.953177	2480.247692
1019.245829	2480.247692
