Dividing Wavelength (nm)	Counts (n)	Blue Motor Position (mm): 47.700000	Red Motor Position (mm): 0.000000	
326.493990	2278.692279
326.888308	2278.692279
327.282561	2278.692279
327.676750	2239.540158
328.070874	2234.786350
328.464933	2235.277862
328.858929	2238.536968
329.252859	2243.263050
329.646726	2252.490882
330.040528	2265.068561
330.434265	2279.103133
330.827938	2298.325053
331.221547	2310.852320
331.615091	2331.631956
332.008571	2349.399503
332.401986	2369.501104
332.795338	2390.089176
333.188625	2409.616086
333.581847	2428.343972
333.975006	2449.829370
334.368100	2465.396453
334.761129	2487.544762
335.154095	2500.866012
335.546996	2530.076977
335.939833	2569.821434
336.332606	2586.497571
336.725315	2599.823862
337.117960	2611.549585
337.510540	2621.394959
337.903056	2630.935342
338.295508	2639.979172
338.687896	2645.521921
339.080220	2659.095228
339.472480	2662.258552
339.864676	2668.922957
340.256807	2672.335818
340.648875	2674.188442
341.040879	2675.587363
341.432818	2679.267405
341.824694	2683.975843
342.216506	2684.689166
342.608253	2682.592046
342.999937	2683.990966
343.391557	2683.454083
343.783113	2686.395597
344.174605	2683.595236
344.566033	2684.721933
344.957397	2683.191943
345.348697	2682.239165
345.739934	2680.973836
346.131106	2677.409740
346.522215	2677.182888
346.913260	2675.060562
347.304241	2676.121725
347.695159	2671.262053
348.086012	2670.417659
348.476802	2668.922957
348.867528	2665.537822
349.258191	2663.249139
349.648789	2661.119251
350.039324	2660.297543
350.429796	2662.543377
350.820203	2660.148829
351.210548	2656.695639
351.600828	2658.417193
351.991045	2655.357212
352.381198	2654.855617
352.771288	2657.603046
353.161314	2657.981133
353.551276	2654.190185
353.941175	2655.997439
354.331010	2655.354692
354.720782	2653.643220
355.110490	2654.898467
355.500135	2655.266472
355.889717	2658.112203
356.279235	2654.638848
356.668689	2653.108858
357.058080	2652.705565
357.447408	2654.527942
357.836672	2656.345278
358.225873	2655.251348
358.615010	2657.955927
359.004084	2655.941986
359.393095	2656.625062
359.782043	2658.621359
360.170927	2659.705207
360.559748	2660.224446
360.948505	2660.337872
361.337199	2662.492966
361.725830	2662.709735
362.114398	2660.479025
362.502903	2660.138747
362.891344	2663.649910
363.279722	2662.462719
363.668037	2663.448264
364.056289	2665.240394
364.444478	2667.680313
364.832603	2665.351300
365.220665	2668.156702
365.608665	2668.461692
365.996601	2669.492608
366.384474	2668.343225
366.772284	2669.537978
367.160031	2671.161230
367.547715	2671.221723
367.935336	2669.157371
368.322893	2668.146620
368.710388	2667.539161
369.097820	2670.480674
369.485189	2668.048317
369.872495	2675.184070
370.259738	2676.303207
370.646918	2677.452590
371.034035	2680.729340
371.421090	2684.048939
371.808081	2684.386697
372.195010	2692.780218
372.581875	2696.208203
372.968678	2703.868236
373.355418	2715.193188
373.742096	2727.322204
374.128710	2739.897362
374.515262	2750.768611
374.901751	2768.475663
375.288177	2781.318003
375.674540	2803.854481
376.060841	2824.407265
376.447079	2846.343846
376.833254	2871.844523
377.219367	2893.166083
377.605417	2928.544901
377.991404	2949.143056
378.377329	2987.153356
378.763191	3009.407529
379.148991	3054.205743
379.534727	3094.532453
379.920402	3132.414204
380.306013	3153.219046
380.691563	3220.417626
381.077049	3240.544433
381.462474	3284.813326
381.847835	3339.678723
382.233134	3382.044580
382.618371	3414.081113
383.003545	3478.300372
383.388657	3502.233250
383.773706	3565.136767
384.158693	3594.501489
384.543618	3626.434678
384.928480	3686.046322
385.313280	3742.487080
385.698017	3767.448354
386.082692	3859.865307
386.467305	3857.997559
386.851856	3894.624062
387.236344	3973.495435
387.620770	3997.670288
388.005133	4051.587949
388.389435	4096.640741
388.773674	4103.852112
389.157851	4179.623174
389.541965	4250.653032
389.926018	4212.398236
390.310008	4317.443279
390.693936	4367.685939
391.077802	4403.868821
391.461606	4401.718769
391.845348	4464.392914
392.229027	4530.961351
392.612645	4529.569992
392.996200	4632.122185
393.379694	4684.953477
393.763125	4790.842914
394.146494	4823.963294
394.529801	4874.241242
394.913047	4962.257268
395.296230	4910.923198
395.679351	5016.237943
396.062410	5071.388166
396.445408	5042.487231
396.828343	5102.640800
397.211217	5160.286394
397.594028	5040.861459
397.976778	5156.964273
398.359466	5207.335483
398.742092	5227.525304
399.124656	5147.474301
399.507158	5268.184730
399.889598	5332.615717
400.271977	5451.859171
400.654294	5449.623419
401.036549	5496.150748
401.418742	5415.252832
401.800874	5617.977793
402.182944	5682.368451
402.564952	5784.416528
402.946898	5843.753429
403.328783	5680.231002
403.710606	5700.183888
404.092367	6026.359145
404.474067	6046.133071
404.855705	5944.337052
405.237282	5878.552514
405.618797	6142.240149
406.000250	6113.334172
406.381642	6324.445093
406.762972	6341.413617
407.144240	6399.770013
407.525447	6378.902157
407.906593	6393.057717
408.287677	6561.235651
408.668700	6478.855635
409.049661	6588.367141
409.430560	6615.964937
409.811399	6478.994267
410.192176	6744.529484
410.572891	6766.652588
410.953545	6954.554035
411.334138	6683.231574
411.714669	6855.197934
412.095139	6646.383260
412.475547	6894.529017
412.855894	6963.628112
413.236180	7156.416959
413.616405	6808.390821
413.996568	7027.340735
414.376670	7081.734785
414.756711	6978.814588
415.136691	7075.115750
415.516609	7285.220960
415.896466	7261.235150
416.276262	7469.535627
416.655997	7459.387784
417.035670	7625.740820
417.415283	7974.681928
417.794834	8038.596197
418.174324	7904.531751
418.553753	7827.296233
418.933121	8114.430274
419.312428	8223.157880
419.691674	7995.247315
420.070859	8476.662384
420.449983	8158.875607
420.829045	8522.103344
421.208047	8292.592213
421.586988	8605.027805
421.965867	8627.803738
422.344686	8718.945279
422.723444	8796.770612
423.102141	8127.905278
423.480777	8895.287361
423.859352	8419.533508
424.237866	9038.758599
424.616319	8898.604440
424.994712	9337.724228
425.373044	8875.949495
425.751314	9359.484369
426.129524	9239.774609
426.507673	9309.846647
426.885762	9470.732552
427.263789	9396.297395
427.641756	9333.560235
428.019662	9418.402854
428.397508	9691.396458
428.775292	9344.325619
429.153016	9732.940607
429.530679	9567.119413
429.908282	9572.621833
430.285824	9307.615937
430.663305	9992.532304
431.040726	9444.629457
431.418086	9419.756404
431.795385	9759.913301
432.172624	9863.715700
432.549802	9764.989743
432.926920	9828.591460
433.303977	9699.855515
433.680974	9900.982430
434.057910	10010.408236
434.434786	10085.589483
434.811601	9901.017718
435.188355	10464.180137
435.565050	10217.980266
435.941683	10130.793510
436.318257	10607.966448
436.694770	10789.566453
437.071222	10837.555718
437.447614	10656.429580
437.823946	10593.185785
438.200218	10670.844760
438.576429	10527.111381
438.952580	10773.349062
439.328670	10787.507142
439.704700	10596.081928
440.080670	10582.516183
440.456580	11091.435787
440.832429	10894.896322
441.208218	10492.508901
441.583947	10778.755699
441.959616	10969.407096
442.335224	10786.050249
442.710773	10885.676052
443.086261	11122.484253
443.461689	10376.839626
443.837057	11082.452451
444.212365	11305.251286
444.587612	10936.271592
444.962800	11150.835703
445.337927	10884.665300
445.712995	10577.880842
446.088002	11605.429313
446.462949	11312.873511
446.837837	11270.903384
447.212664	11182.693274
447.587431	11793.517283
447.962139	12557.486504
448.336786	14861.971847
448.711374	15338.383571
449.085901	13134.302889
449.460369	12793.775468
449.834776	12237.806774
450.209124	13189.748020
450.583412	13611.150673
450.957640	14526.102452
451.331808	13554.853587
451.705917	12636.045325
452.079965	11868.161648
452.453954	12787.632822
452.827883	12442.459977
453.201752	12736.444945
453.575562	12300.654839
453.949311	12708.355636
454.323001	12698.074203
454.696632	12938.103702
455.070202	13208.836349
455.443713	13395.787539
455.817164	13899.247574
456.190556	13858.449516
456.563888	14224.822933
456.937160	14356.291184
457.310373	13731.798087
457.683526	13851.641438
458.056619	13353.885468
458.429653	13580.684459
458.802628	12927.119028
459.175542	13348.914891
459.548398	14302.837310
459.921194	14664.898020
460.293930	14731.085849
460.666607	15573.744962
461.039224	16636.503372
461.411782	17367.778190
461.784280	17124.010675
462.156719	17249.336280
462.529099	16919.138182
462.901419	15881.928340
463.273680	15633.162522
463.645882	15552.894749
464.018024	15260.890954
464.390106	15487.866385
464.762130	16199.962134
465.134094	17013.322060
465.505999	19093.206355
465.877845	22364.529553
466.249631	25151.186138
466.621358	24755.967238
466.993026	23333.373787
467.364634	22741.698601
467.736184	21268.333169
468.107674	20479.004424
468.479105	20614.016606
468.850477	20059.247707
469.221790	19673.879222
469.593043	18977.244693
469.964238	18396.284480
470.335373	18029.520373
470.706449	18553.606288
471.077467	18140.413154
471.448425	20026.966679
471.819324	24200.588360
472.190164	25981.040719
472.560945	22270.446498
472.931667	19998.554736
473.302330	19408.855682
473.672934	19057.046158
474.043479	19259.559391
474.413965	19062.125121
474.784393	18659.863729
475.154761	19442.207956
475.525070	19342.526701
475.895321	19070.072500
476.265513	19683.530511
476.635645	20267.291086
477.005719	20017.005359
477.375734	20206.429235
477.745691	20695.010304
478.115588	21240.848799
478.485427	21818.335657
478.855207	22914.327873
479.224928	24718.211516
479.594591	26953.098689
479.964194	26828.655286
480.333739	27077.479078
480.703226	26639.352397
481.072653	26379.173406
481.442022	27008.080033
481.811333	27952.499877
482.180584	27813.772364
482.549777	26867.963683
482.918912	26541.992593
483.287988	26683.298656
483.657005	26285.334848
484.025964	26089.972492
484.394864	25944.320954
484.763706	25596.882111
485.132489	25078.895991
485.501213	25251.623566
485.869879	25168.956205
486.238487	25018.437433
486.607036	25141.653316
486.975527	24907.776545
487.343959	25183.673853
487.712333	25092.640697
488.080648	24749.023048
488.448905	25273.918069
488.817104	25039.643047
489.185244	25748.083959
489.553326	25677.326323
489.921350	26755.871106
490.289315	29136.092224
490.657222	30822.902630
491.025070	31332.638901
491.392861	31060.086398
491.760593	30187.555929
492.128267	29271.364026
492.495883	28218.357728
492.863440	27329.161204
493.230939	26487.923697
493.598380	26317.981360
493.965763	25930.795539
494.333088	25415.657671
494.700354	25406.707103
495.067563	25253.657672
495.434713	24998.620658
495.801805	25177.193450
496.168839	24952.131137
496.535815	24829.802497
496.902733	25049.317021
497.269593	24753.986064
497.636395	24910.191257
498.003139	24837.288611
498.369825	24571.632406
498.736453	24795.862929
499.103023	24661.344780
499.469535	24649.596371
499.835989	24877.282605
500.202385	24900.151799
500.568723	24449.737306
500.935003	24614.310815
501.301226	24321.507996
501.667390	25177.611866
502.033497	25346.624110
502.399546	25101.989517
502.765537	24621.176866
503.131470	25000.967315
503.497345	25156.267621
503.863163	24405.864144
504.228923	24934.444248
504.594625	25194.940832
504.960269	24757.613174
505.325856	25229.898714
505.691385	24627.243895
506.056856	25230.387706
506.422270	25231.433745
506.787625	24740.309414
507.152924	25181.917011
507.518164	25217.598298
507.883347	25029.318764
508.248472	24701.535379
508.613540	25475.962474
508.978550	25276.224397
509.343503	25289.482632
509.708398	25498.042728
510.073236	25659.291595
510.438016	25874.009461
510.802738	25529.736462
511.167403	25795.291844
511.532010	25555.242180
511.896561	26283.341071
512.261053	26250.603818
512.625488	26082.544352
512.989866	25964.772916
513.354186	25802.230992
513.718449	25941.850789
514.082655	26293.907330
514.446803	26020.860793
514.810894	26506.127304
515.174927	26005.165161
515.538904	26040.712857
515.902822	26546.670783
516.266684	26301.978217
516.630488	26194.188265
516.994235	26137.157692
517.357925	26491.230694
517.721558	26629.849822
518.085133	26774.848530
518.448651	26654.188513
518.812112	26416.397286
519.175516	26632.647662
519.538863	26790.587012
519.902152	26593.591323
520.265385	26838.911513
520.628560	26652.547617
520.991678	26621.110982
521.354739	26668.084453
521.717743	26779.163758
522.080690	26545.186164
522.443580	26873.004837
522.806413	26830.114700
523.169189	26964.320297
523.531908	27004.362182
523.894569	26632.009956
524.257174	26738.436276
524.619722	26857.808278
524.982213	26587.393224
525.344647	26588.681239
525.707025	26777.207790
526.069345	26716.860137
526.431608	26684.100199
526.793815	26859.449174
527.155964	26369.761572
527.518057	26549.292183
527.880093	26450.170496
528.242072	26665.924319
528.603995	26391.425930
528.965860	26178.429618
529.327669	26222.708593
529.689421	26202.362496
530.051117	26053.686267
530.412755	26228.243780
530.774337	25999.816497
531.135862	25902.802011
531.497331	26087.855207
531.858743	25680.724061
532.220098	26131.562011
532.581396	25842.514853
532.942638	25711.565840
533.303824	25840.069893
533.664953	25835.527813
534.026025	25501.286710
534.387040	25742.556333
534.747999	25780.183506
535.108902	25942.312055
535.469748	25444.309069
535.830537	25602.485353
536.191270	25754.478662
536.551947	25568.775157
536.912567	25181.060015
537.273131	25645.662836
537.633638	25311.164634
537.994089	25528.881987
538.354483	25010.979046
538.714821	25519.119792
539.075103	25572.934109
539.435328	25335.425187
539.795497	24949.287926
540.155609	25266.351297
540.515665	25586.459525
540.875665	24806.857686
541.235609	25153.414328
541.595496	25063.447375
541.955328	25442.413595
542.315102	25364.759661
542.674821	24872.591811
543.034483	24760.504276
543.394090	24925.871766
543.753640	24734.030657
544.113134	25360.729259
544.472571	24942.111843
544.831953	25267.382213
545.191278	24911.968264
545.550548	24791.958556
545.909761	24998.434135
546.268918	25245.647278
546.628019	25216.201899
546.987064	24897.096860
547.346053	24626.351611
547.704986	24720.054058
548.063863	24880.110692
548.422684	24914.612349
548.781449	24404.540841
549.140158	24808.027233
549.498811	24408.059567
549.857408	24169.870089
550.215949	24540.730133
550.574434	24258.806125
550.932864	24438.235914
551.291237	24642.838704
551.649555	24463.287928
552.007817	24532.533217
552.366022	24378.740216
552.724173	24391.166660
553.082267	24366.308731
553.440305	24858.345511
553.798288	24085.375309
554.156215	24559.211003
554.514086	24705.732140
554.871902	24098.081537
555.229661	24374.472879
555.587365	24212.770308
555.945014	24130.418019
556.302606	24324.497401
556.660143	24343.386604
557.017625	24565.260388
557.375050	24065.261105
557.732421	24455.665703
558.089735	24284.493324
558.446994	24334.032743
558.804197	24379.670309
559.161345	24267.741570
559.518437	24069.520880
559.875474	24225.847061
560.232455	24403.230141
560.589381	24215.779877
560.946251	24233.847372
561.303065	24526.337639
561.659825	24606.103816
562.016528	24222.000661
562.373177	23949.042344
562.729770	24326.402957
563.086307	24158.671165
563.442789	24340.886192
563.799216	24191.486556
564.155587	24174.160111
564.511904	24160.606968
564.868164	24125.981803
565.224370	24080.765174
565.580520	24030.971177
565.936615	24144.732375
566.292654	23847.195913
566.648638	24067.799326
567.004567	23911.972220
567.360441	23841.267516
567.716260	23568.430188
568.072023	23870.395303
568.427732	23653.159381
568.783385	23408.239963
569.138982	23668.542462
569.494525	23699.374159
569.850013	23469.747081
570.205445	23566.948089
570.560823	23391.682293
570.916145	23165.475637
571.271412	23356.729453
571.626625	23101.223611
571.981782	23207.665054
572.336884	23021.081868
572.691931	23151.367968
573.046923	22892.391293
573.401860	22770.667592
573.756743	22805.456594
574.111570	22697.676725
574.466342	22615.984827
574.821059	22699.680584
575.175722	22412.632243
575.530330	22353.315506
575.884882	22362.021579
576.239380	22287.967029
576.593823	22163.546311
576.948211	22156.193788
577.302544	22000.757371
577.656823	21854.571471
578.011047	21973.149492
578.365216	21840.395746
578.719330	21704.357689
579.073389	21587.740677
579.427394	21764.513778
579.781344	21500.344713
580.135239	21385.499667
580.489080	21329.515133
580.842866	21123.825974
581.196597	21336.895382
581.550273	21282.297166
581.903895	21159.245121
582.257463	21485.402733
582.610975	21020.222701
582.964434	21356.538238
583.317837	21012.154334
583.671186	21087.083524
584.024481	21090.672826
584.377721	20851.543172
584.730906	20939.720515
585.084037	20917.965415
585.437113	20851.066783
585.790135	21060.191489
586.143103	20504.623568
586.496016	20537.350738
586.848874	20769.228692
587.201679	20672.362921
587.554428	20379.456759
587.907124	20724.304449
588.259765	20459.505241
588.612352	20541.436593
588.964884	20115.748960
589.317362	20278.119484
589.669786	20342.719350
590.022155	20328.810807
590.374470	20588.228583
590.726731	20322.229580
591.078937	20138.542537
591.431090	20200.674758
591.783188	19985.760287
592.135232	19937.037535
592.487222	20039.584687
592.839157	20043.242044
593.191038	19916.744371
593.542866	19812.896601
593.894639	19515.019862
594.246358	19737.256608
594.598022	19615.313618
594.949633	19377.338388
595.301190	19366.479743
595.652692	19532.265649
596.004141	19743.477392
596.355535	19086.557073
596.706876	19095.631150
597.058162	18997.144648
597.409395	19242.225383
597.760573	19280.051681
598.111698	19055.095232
598.462768	19007.683180
598.813785	18984.783738
599.164748	18772.435215
599.515657	18837.579526
599.866511	18627.597824
600.217312	18983.588985
600.568060	18480.101224
600.918753	18802.472930
601.269392	18690.614768
601.619978	18501.735336
601.970510	18680.300567
602.320988	18626.579511
602.671412	18823.640735
603.021783	18773.554351
603.372100	18459.349314
603.722363	18630.551940
604.072572	18572.450121
604.422728	18725.930571
604.772830	18473.333475
605.122878	18437.931972
605.472872	18408.191685
605.822813	18394.623419
606.172701	18388.296771
606.522534	18553.460095
606.872314	18591.621629
607.222041	18423.577287
607.571714	18639.691552
607.921333	18467.309296
608.270899	18542.488023
608.620411	18688.507565
608.969870	18492.532709
609.319276	18476.925297
609.668627	18514.499537
610.017926	18645.607346
610.367171	18753.326721
610.716362	18815.080856
611.065500	18622.733110
611.414585	18780.836298
611.763616	18756.966434
612.112594	18687.617802
612.461518	18672.237241
612.810389	18849.131330
613.159207	18705.503815
613.507971	18640.561151
613.856682	18875.758704
614.205340	18791.936919
614.553945	18957.944635
614.902496	18689.601496
615.250994	18899.217714
615.599439	18848.937245
615.947830	18839.563220
616.296169	18922.311239
616.644454	18869.122025
616.992686	18853.065950
617.340864	19062.752744
617.688990	18817.629159
618.037063	18988.171394
618.385082	18851.089818
618.733048	19116.345251
619.080961	19014.970168
619.428821	19036.077479
619.776628	18908.243900
620.124382	18832.966870
620.472083	18900.704854
620.819731	18901.639988
621.167326	18592.322350
621.514868	18639.429412
621.862357	18430.037525
622.209793	18417.747192
622.557176	18247.401562
622.904506	18076.594667
623.251783	18028.928037
623.599007	17764.756452
623.946179	17704.693625
624.293297	17642.067370
624.640363	17355.999534
624.987376	17386.445582
625.334336	17193.986931
625.681243	17034.903239
626.028097	17064.008341
626.374899	16971.319166
626.721647	16839.782859
627.068343	16687.224941
627.414987	16603.814009
627.761577	16569.473669
628.108115	16596.756394
628.454600	16330.923749
628.801032	16431.464521
629.147412	16369.551590
629.493739	16372.611571
629.840014	16178.882549
630.186236	16285.016481
630.532405	16053.637602
630.878521	16248.016933
631.224585	16147.939947
631.570597	15971.086187
631.916556	16000.977709
632.262462	15978.970552
632.608316	15889.958898
632.954117	15834.337328
633.299866	15817.280583
633.645562	15743.024387
633.991206	15511.343039
634.336797	15382.891918
634.682336	15352.115674
635.027823	15210.673500
635.373257	15075.346246
635.718639	15000.159957
636.063968	14932.202682
636.409245	14687.268140
636.754470	14726.843718
637.099642	14574.810080
637.444762	14356.117265
637.789829	14398.669644
638.134845	14222.803951
638.479808	14258.898613
638.824719	14162.418490
639.169577	14023.756512
639.514383	14062.684302
639.859137	13890.748188
640.203839	13990.487417
640.548489	13845.478627
640.893086	13831.126462
641.237632	13699.421277
641.582125	13872.557185
641.926566	13678.140046
642.270955	13698.773488
642.615292	13644.104695
642.959576	13663.891224
643.303809	13691.257128
643.647990	13613.320889
643.992118	13682.402341
644.336195	13451.305767
644.680219	13687.751005
645.024192	13586.713679
645.368112	13832.961442
645.711981	13863.069733
646.055797	14055.609043
646.399562	14035.406619
646.743274	14298.660714
647.086935	14563.159974
647.430544	14523.435681
647.774101	14580.436008
648.117606	14714.565988
648.461059	14691.535477
648.804460	14669.258618
649.147810	14392.506834
649.491108	14312.523887
649.834354	14322.762470
650.177548	13996.332635
650.520690	13808.196774
650.863781	13732.849168
651.206820	13790.255307
651.549807	13610.313841
651.892742	13389.312177
652.235626	13323.489831
652.578458	13339.006503
652.921238	13043.985577
653.263967	13242.216349
653.606644	13079.820619
653.949269	13062.448803
654.291843	12845.449815
654.634365	13016.039941
654.976836	12854.660003
655.319255	12849.260927
655.661622	12822.825117
656.003938	12744.830905
656.346203	12660.704129
656.688416	12745.100607
657.030577	12704.889843
657.372687	12592.593100
657.714746	12590.710229
658.056753	12777.358950
658.398708	12588.091349
658.740612	12593.271135
659.082465	12701.416488
659.424266	12670.221828
659.766016	12710.805637
660.107715	12615.701749
660.449362	12698.492619
660.790958	12641.141932
661.132503	12583.400556
661.473996	12658.894355
661.815438	12668.356601
662.156829	12696.337525
662.498168	12659.171619
662.839456	12665.848627
663.180693	12677.657530
663.521879	12786.611988
663.863013	12741.579361
664.204097	12721.013973
664.545129	12855.769057
664.886110	12835.584277
665.227040	12923.577617
665.567918	12918.624684
665.908746	12942.497068
666.249522	12931.698916
666.590248	12987.920384
666.930922	13096.322836
667.271545	13072.629413
667.612118	13154.674192
667.952639	13051.985888
668.293109	13088.367895
668.633528	13029.212476
668.973896	12997.788443
669.314213	13063.749421
669.654480	12812.137870
669.994695	12896.214234
670.334859	12924.316146
670.674973	12866.776416
671.015035	12887.724931
671.355047	12845.230525
671.695008	12817.751195
672.034918	12829.623113
672.374777	12866.413453
672.714585	12787.990743
673.054342	12821.038028
673.394049	12773.547838
673.733705	12872.349412
674.073310	12766.056683
674.412864	12780.494548
674.752368	12622.081329
675.091820	12687.276051
675.431223	12654.243891
675.770574	12511.024710
676.109875	12432.148296
676.449125	12381.008311
676.788324	12345.621932
677.127473	12164.558809
677.466571	12163.452276
677.805619	12041.935262
678.144616	11994.379538
678.483562	11965.536576
678.822458	11835.343737
679.161303	11806.679736
679.500098	11793.151799
679.838842	11747.541960
680.177535	11793.398816
680.516179	11863.367511
680.854771	11794.402006
681.193314	12012.560459
681.531805	12182.268382
681.870247	12626.325981
682.208638	13037.563147
682.546978	13327.290861
682.885268	13347.604191
683.223508	13054.768605
683.561697	12909.890885
683.899836	12813.761122
684.237925	12603.139194
684.575963	12515.375226
684.913951	12431.233327
685.251889	12391.602296
685.589776	12495.502997
685.927614	12402.362639
686.265401	12391.821586
686.603137	12447.175976
686.940824	12593.132503
687.278460	12730.032598
687.616046	12751.757450
687.953582	12901.706571
688.291068	12852.278058
688.628504	13077.108478
688.965889	13083.299015
689.303224	13031.637271
689.640510	12912.209815
689.977745	12589.147471
690.314930	12381.492262
690.652065	12287.051286
690.989150	11985.088691
691.326185	11764.288673
691.663170	11563.320554
692.000105	11327.271046
692.336990	11198.010820
692.673825	10933.446025
693.010610	10826.870992
693.347345	10620.395413
693.684030	10433.008162
694.020665	10369.721517
694.357251	10176.942753
694.693786	10092.581564
695.030272	9946.292320
695.366707	9830.577675
695.703093	9768.362275
696.039429	9756.961705
696.375716	9660.715996
696.711952	9539.677892
697.048139	9589.103885
697.384276	9546.985045
697.720363	9567.472294
698.056400	9500.724897
698.392388	9447.255898
698.728326	9409.036390
699.064214	9352.391465
699.400053	9386.646106
699.735842	9205.267911
700.071581	9170.103342
700.407270	9096.429399
700.742910	9012.161472
701.078501	8910.352849
701.414042	8781.909290
701.749533	8726.103717
702.084974	8583.534845
702.420366	8713.152993
702.755709	8584.371677
703.091002	8451.184392
703.426246	8483.309145
703.761440	8435.937422
704.096584	8392.066781
704.431679	8327.010691
704.766725	8311.710789
705.101721	8266.078264
705.436668	8317.240934
705.771565	8207.699182
706.106413	8295.654714
706.441212	8322.700504
706.775961	8285.806820
707.110661	8341.919903
707.445311	8461.848953
707.779913	8360.206689
708.114465	8483.193198
708.448967	8519.045885
708.783421	8692.292698
709.117825	8857.103141
709.452180	8890.352071
709.786485	8975.512283
710.120742	9270.646635
710.454949	9276.519579
710.789107	9381.947750
711.123216	9607.262121
711.457275	9782.016240
711.791286	9915.750490
712.125247	9928.620556
712.459159	9916.816694
712.793023	10133.661927
713.126837	9713.479233
713.460602	9872.439417
713.794318	9698.161687
714.127985	9728.544721
714.461602	9382.048573
714.795171	9338.109876
715.128691	9087.292308
715.462162	8848.883540
715.795584	8784.361812
716.128957	8611.929144
716.462281	8453.402500
716.795556	8499.062751
717.128782	8287.447715
717.461960	8034.724591
717.795088	8100.650280
718.128167	8013.440839
718.461198	7842.374324
718.794180	7790.614277
719.127113	7791.062940
719.459997	7610.685414
719.792833	7395.876808
720.125619	7463.783671
720.458357	7319.674726
720.791046	7317.209602
721.123686	7294.388298
721.456278	7137.928527
721.788821	7152.744478
722.121315	7057.421300
722.453761	7134.072044
722.786158	7069.691469
723.118506	7072.816984
723.450805	7036.056890
723.783056	7093.500838
724.115259	7021.792945
724.447412	7020.041144
724.779518	7074.437715
725.111574	7068.771458
725.443582	7146.778273
725.775542	7117.111082
726.107453	7314.789848
726.439315	7226.355407
726.771129	7309.665515
727.102895	7483.960889
727.434612	7590.256138
727.766281	7630.991182
728.097901	7699.036677
728.429473	7718.619039
728.760996	7704.564302
729.092471	7679.837442
729.423897	7608.994107
729.755276	7600.053621
730.086606	7519.576641
730.417887	7623.681509
730.749120	7849.313473
731.080305	8036.385651
731.411442	8139.933471
731.742530	8114.619317
732.073570	8225.305412
732.404562	8312.968557
732.735506	8174.777927
733.066401	8301.106722
733.397249	8216.838794
733.728048	7968.463664
734.058798	7637.537120
734.389501	7401.109525
734.720156	7237.876964
735.050762	7022.844026
735.381320	6934.142403
735.711831	6874.813064
736.042293	6768.815243
736.372707	6778.060719
736.703073	6648.666902
737.033391	6693.434869
737.363661	6698.097936
737.693883	6741.991263
738.024056	6820.897923
738.354182	6852.586617
738.684260	6887.821761
739.014290	7015.073087
739.344272	7124.045189
739.674207	7154.392936
740.004093	7233.841520
740.333931	7241.685556
740.663722	7249.194354
740.993464	7323.853843
741.323159	7296.240922
741.652806	7057.413738
741.982405	7101.002075
742.311956	7128.191538
742.641460	6938.815553
742.970915	6756.245125
743.300323	6750.593992
743.629683	6707.172013
743.958996	6567.640437
744.288260	6474.217773
744.617477	6427.163643
744.946647	6415.349699
745.275768	6254.441110
745.604842	6215.054575
745.933869	6195.441966
746.262847	6154.250698
746.591778	6141.635210
746.920662	6097.305824
747.249498	6101.245486
747.578286	6146.663761
747.907027	6224.683179
748.235720	6279.157887
748.564365	6251.176963
748.892963	6303.105888
749.221514	6435.242092
749.550017	6239.922587
749.878473	6136.551207
750.206881	6199.684097
750.535242	6152.017467
750.863555	6083.228402
751.191821	6084.844092
751.520039	6079.888637
751.848210	5985.969421
752.176334	6027.145565
752.504411	6067.605866
752.832440	5985.505634
753.160421	5922.531541
753.488356	5968.416123
753.816243	5991.552498
754.144082	5844.885168
754.471875	5825.484288
754.799620	5862.425863
755.127318	5880.054778
755.454969	5837.560372
755.782572	5805.493592
756.110129	5842.659499
756.437638	5820.954811
756.765100	5764.693014
757.092515	5778.740189
757.419882	5832.352860
757.747203	5799.996214
758.074477	5853.845819
758.401703	5842.241083
758.728882	5804.177851
759.056014	5880.773143
759.383099	5986.029914
759.710138	5997.669939
760.037129	5987.307847
760.364073	5987.559905
760.690970	6069.201391
761.017820	6037.293408
761.344623	6012.818606
761.671379	6119.875070
761.998088	6250.468681
762.324751	6512.729668
762.651366	7167.913310
762.977935	8543.452631
763.304456	10206.950221
763.630931	11051.928264
763.957359	10573.616026
764.283740	9596.201830
764.610074	8725.642452
764.936362	7728.114052
765.262602	7140.539845
765.588796	6609.968485
765.914943	6285.292971
766.241044	6110.531291
766.567097	5889.811932
766.893104	5636.506554
767.219064	5466.602025
767.544978	5404.386625
767.870845	5318.334129
768.196665	5214.597265
768.522438	5145.835926
768.848165	5103.971664
769.173846	5040.478332
769.499479	4990.913707
769.825066	4945.671872
770.150607	4883.335484
770.476101	4860.269684
770.801548	4851.951781
771.126949	4766.466414
771.452303	4711.449782
771.777611	4683.131100
772.102872	4700.016445
772.428087	4658.913397
772.753256	4619.736070
773.078378	4561.762801
773.403453	4498.660157
773.728482	4486.190863
774.053465	4438.614974
774.378401	4430.859159
774.703291	4420.928086
775.028135	4345.908155
775.352932	4298.710352
775.677683	4284.285090
776.002388	4302.939880
776.327046	4309.942043
776.651658	4238.786156
776.976224	4178.095705
777.300743	4183.719112
777.625216	4205.882545
777.949643	4192.510884
778.274024	4154.092251
778.598359	4119.686376
778.922647	4144.153616
779.246889	4130.366060
779.571086	4121.483547
779.895236	4104.338583
780.219339	4096.648303
780.543397	4096.693673
780.867409	4146.308709
781.191374	4157.300945
781.515294	4091.594546
781.839167	4087.105398
782.162995	4114.186477
782.486776	4097.878344
782.810511	4109.893934
783.134201	4096.625618
783.457844	4048.933782
783.781441	3994.753981
784.104993	4003.457533
784.428498	4022.979401
784.751958	4013.015560
785.075372	3991.184844
785.398739	3956.695790
785.722061	3972.759426
786.045337	4016.567053
786.368568	4040.119324
786.691752	3953.950881
787.014891	4016.937578
787.337983	4151.816170
787.661030	4314.620233
787.984031	4474.631497
788.306987	4636.018997
788.629897	4724.667687
788.952760	4677.258156
789.275579	4610.107466
789.598351	4538.649110
789.921078	4383.467271
790.243759	4190.224721
790.566395	4180.538144
790.888984	4168.157070
791.211529	4064.337027
791.534027	4002.855115
791.856480	3981.848627
792.178888	3926.647992
792.501249	3886.686766
792.823566	3895.428126
793.145836	3915.272628
793.468062	3861.279350
793.790241	3818.648833
794.112375	3849.780478
794.434464	3924.921397
794.756507	3942.625929
795.078505	3915.300355
795.400457	3962.281388
795.722364	4111.156743
796.044226	4208.115776
796.366042	4288.217190
796.687812	4253.004730
797.009538	4255.154783
797.331218	4221.038774
797.652852	4199.540773
797.974442	4171.779139
798.295986	4167.108510
798.617484	4080.226744
798.938938	4004.347296
799.260346	4046.781209
799.581709	4036.577913
799.903026	3958.555975
800.224299	3923.930810
800.545526	3919.900408
800.866708	3876.821228
801.187845	3824.998166
801.508936	3856.122250
801.829983	3842.921988
802.150984	3770.168056
802.471940	3763.256634
802.792851	3767.960031
803.113717	3773.671658
803.434538	3769.371554
803.755314	3711.786453
804.076045	3692.297353
804.396731	3712.885425
804.717372	3738.557501
805.037967	3718.239130
805.358518	3709.301165
805.679024	3741.186463
805.999485	3753.209615
806.319901	3761.230090
806.640272	3768.849794
806.960598	3782.042494
807.280879	3760.753701
807.601115	3776.403963
807.921306	3791.968526
808.241453	3828.494206
808.561554	3801.778611
808.881611	3732.301429
809.201623	3775.418418
809.521590	3785.772948
809.841513	3759.551386
810.161390	3788.104482
810.481223	3758.341509
810.801011	3709.744786
811.120755	3708.176987
811.440453	3741.549426
811.760107	3739.217892
812.079716	3691.284081
812.399281	3667.509999
812.718801	3692.052857
813.038276	3662.912467
813.357707	3660.901047
813.677093	3674.338242
813.996434	3620.438225
814.315731	3635.864156
814.634983	3640.854898
814.954191	3657.155469
815.273354	3680.150693
815.592473	3672.911596
815.911547	3689.398689
816.230577	3732.205647
816.549562	3782.231537
816.868502	3821.943227
817.187399	3847.184284
817.506250	3843.887369
817.825058	3826.200481
818.143821	3921.483330
818.462539	4020.960419
818.781213	4063.258220
819.099843	4130.277840
819.418429	4404.577103
819.736970	4641.546622
820.055466	4899.275612
820.373919	5272.860400
820.692327	5687.207958
821.010691	6198.086051
821.329011	7710.064201
821.647286	10648.504887
821.965517	15435.773622
822.283704	19433.970711
822.601847	21354.771314
822.919945	19402.579446
823.237999	16720.675517
823.556010	14187.568806
823.873976	12019.449196
824.191897	9899.006297
824.509775	8569.459944
824.827609	7454.568441
825.145398	6934.185253
825.463144	6813.091697
825.780845	6918.305619
826.098502	7162.431055
826.416116	8132.676730
826.733685	9504.145319
827.051210	10596.298697
827.368692	10501.187248
827.686129	9160.895675
828.003522	7648.884758
828.320872	6628.978676
828.638177	5908.605353
828.955439	5337.815668
829.272656	4833.571734
829.589830	4567.250097
829.906960	4387.807705
830.224046	4195.278478
830.541088	4072.564190
830.858086	4022.490409
831.175041	3942.751958
831.491952	3938.537553
831.808819	3950.500212
832.125642	4028.751522
832.442421	4188.881253
832.759157	4488.971060
833.075849	5084.227985
833.392497	5978.760571
833.709101	6776.288753
834.025662	7066.553350
834.342179	6636.069059
834.658653	5952.864163
834.975083	5292.266322
835.291469	4704.538360
835.607811	4310.579748
835.924110	4162.306811
836.240366	3957.643527
836.556578	3757.237497
836.872746	3650.332267
837.188871	3600.329062
837.504952	3533.392622
837.820990	3453.099644
838.136984	3410.965680
838.452935	3435.700101
838.768842	3428.103082
839.084706	3457.029223
839.400526	3629.575317
839.716303	3999.964013
840.032037	4562.511412
840.347727	4775.926139
840.663373	4459.162717
840.978977	4067.185279
841.294537	3758.792693
841.610054	3532.989329
841.925527	3429.408741
842.240957	3359.049357
842.556344	3303.218578
842.871687	3240.695668
843.186987	3190.488296
843.502244	3156.412617
843.817458	3119.092955
844.132629	3092.906681
844.447756	3100.140737
844.762840	3077.697520
845.077881	3048.962943
845.392879	3034.567928
845.707833	3029.735982
846.022745	3026.701208
846.337613	3027.946373
846.652438	3012.182684
846.967221	3011.910462
847.281960	3000.739265
847.596656	2995.090652
847.911309	2995.556959
848.225919	2990.921618
848.540485	2983.649754
848.855009	2984.816781
849.169490	2973.464102
849.483928	2966.834985
849.798323	2965.662917
850.112675	2962.071095
850.426984	2974.984010
850.741251	2969.461426
851.055474	2958.673357
851.369654	2951.199846
851.683792	2960.853656
851.997887	2968.448154
852.311938	2971.334215
852.625947	2953.657409
852.939914	2963.795169
853.253837	2961.791311
853.567718	2950.123560
853.881555	2950.486523
854.195350	2966.139306
854.509103	2958.534725
854.822812	2954.963068
855.136479	2950.484003
855.450103	2951.961061
855.763685	2944.837910
856.077224	2945.137859
856.390720	2957.476083
856.704173	2962.950776
857.017584	2957.075311
857.330953	2956.049436
857.644278	2963.858184
857.957561	2973.151551
858.270802	2973.282621
858.584000	2974.721870
858.897155	2959.172431
859.210268	2959.101855
859.523339	2958.403655
859.836367	2959.116978
860.149352	2952.860907
860.462295	2945.647015
860.775195	2955.411730
861.088054	2956.311576
861.400869	2938.959925
861.713642	2939.290120
862.026373	2949.269084
862.339062	2955.406689
862.651708	2959.553038
862.964312	2961.645117
863.276873	2953.380145
863.589392	2966.804738
863.901869	2978.343939
864.214303	3002.995182
864.526696	3018.244672
864.839045	3011.227386
865.151353	3011.713857
865.463619	3012.119670
865.775842	3011.015657
866.088023	3032.606919
866.400162	3035.046838
866.712258	3006.297137
867.024313	2996.976044
867.336325	3005.583814
867.648296	3030.131713
867.960224	3021.206350
868.272110	3005.412415
868.583954	3010.435925
868.895755	3023.699200
869.207515	3010.226717
869.519233	3018.796678
869.830909	3030.293030
870.142542	3038.379040
870.454134	3036.637322
870.765684	3040.191335
871.077191	3041.010523
871.388657	3051.521328
871.700081	3061.558266
872.011463	3073.427663
872.322803	3076.560740
872.634101	3073.112590
872.945357	3090.330651
873.256571	3116.133797
873.567744	3110.175153
873.878874	3106.540482
874.189963	3128.638379
874.501010	3127.052937
874.812015	3116.842079
875.122979	3117.787296
875.433900	3117.792337
875.744780	3124.605456
876.055618	3129.840695
876.366415	3129.298771
876.677169	3136.353865
876.987882	3129.389511
877.298554	3131.065695
877.609183	3159.999397
877.919771	3177.746780
878.230317	3211.393961
878.540822	3258.498502
878.851285	3300.571973
879.161707	3350.144159
879.472087	3465.400059
879.782425	3717.039336
880.092722	4183.567877
880.402977	4734.651692
880.713191	5402.823867
881.023363	6642.856973
881.333494	7956.861449
881.643583	8468.324315
881.953631	8125.349413
882.263637	7438.696368
882.573602	6802.981663
882.883526	6216.221602
883.193408	5643.841432
883.503248	5195.365263
883.813048	4874.470615
884.122806	4535.810941
884.432522	4213.252712
884.742197	3971.973006
885.051831	3781.155251
885.361424	3654.876868
885.670975	3576.746545
885.980485	3485.481496
886.289954	3402.650297
886.599382	3357.400900
886.908768	3321.918738
887.218113	3280.430042
887.527417	3218.144066
887.836680	3167.934174
888.145901	3165.022907
888.455082	3149.047491
888.764221	3093.640169
889.073319	3068.671334
889.382376	3067.307702
889.691392	3070.034966
890.000366	3071.814493
890.309300	3055.783624
890.618193	3068.804924
890.927044	3082.685742
891.235855	3080.402099
891.544625	3071.469174
891.853353	3084.228335
892.162041	3102.318515
892.470687	3147.368787
892.779293	3197.145140
893.087858	3247.463417
893.396381	3322.533759
893.704864	3461.445274
894.013306	3716.688976
894.321707	4033.825443
894.630068	4226.863827
894.938387	4209.862536
895.246665	4171.083460
895.554903	4038.773336
895.863100	3827.359947
896.171256	3656.154800
896.479371	3509.830269
896.787446	3381.638768
897.095480	3280.727470
897.403473	3214.950495
897.711425	3182.185516
898.019336	3171.941891
898.327207	3135.968217
898.635038	3099.145109
898.942827	3089.403079
899.250576	3071.050758
899.558284	3043.389947
899.865952	3022.101155
900.173579	2999.789008
900.481165	2993.570744
900.788711	2978.515338
901.096216	2955.794858
901.403681	2944.225410
901.711105	2953.639765
902.018489	2953.009621
902.325832	2950.380659
902.633135	2962.867597
902.940397	2998.836230
903.247619	3091.351485
903.554800	3305.240081
903.861941	3682.494829
904.169041	4133.678098
904.476101	4421.217952
904.783121	4340.012525
905.090100	4075.024273
905.397039	3785.253709
905.703938	3532.028990
906.010796	3348.185671
906.317614	3231.011611
906.624391	3134.334883
906.931129	3060.005590
907.237826	2996.751713
907.544483	2948.107098
907.851099	2922.195568
908.157675	2898.282854
908.464211	2876.787374
908.770707	2864.154243
909.077163	2849.577747
909.383578	2835.172649
909.689954	2822.776452
909.996289	2822.698314
910.302584	2824.475321
910.608839	2824.651761
910.915054	2815.118939
911.221229	2812.386634
911.527363	2817.647078
911.833458	2823.731751
912.139513	2827.469766
912.445527	2828.120075
912.751502	2837.529389
913.057436	2848.486337
913.363331	2863.211547
913.669186	2886.597460
913.975000	2926.316711
914.280775	2990.278871
914.586510	3061.039027
914.892205	3143.860143
915.197859	3286.930610
915.503475	3495.422651
915.809050	3723.912949
916.114585	3874.303171
916.420081	3876.783419
916.725536	3805.108293
917.030952	3682.572967
917.336328	3550.434242
917.641665	3415.802667
917.946961	3314.654436
918.252218	3233.126375
918.557435	3151.641164
918.862612	3089.536670
919.167750	3039.762837
919.472848	3000.701457
919.777906	2974.280769
920.082925	2943.948147
920.387904	2914.132242
920.692843	2896.541136
920.997743	2883.892881
921.302603	2868.414018
921.607423	2858.281299
921.912204	2845.065914
922.216946	2832.904130
922.521647	2824.021617
922.826310	2817.926862
923.130932	2810.723053
923.435516	2801.154943
923.740059	2793.812503
924.044564	2781.481840
924.349028	2779.518311
924.653454	2773.133690
924.957840	2765.372833
925.262186	2759.996443
925.566493	2755.262799
925.870761	2752.807757
926.174989	2747.698548
926.479178	2742.871643
926.783328	2738.014491
927.087438	2736.582804
927.391509	2733.132134
927.695541	2732.295302
927.999533	2728.443861
928.303486	2726.228274
928.607400	2725.620815
928.911275	2725.333469
929.215110	2723.816082
929.518906	2724.574775
929.822663	2721.638303
930.126381	2722.591081
930.430060	2723.702656
930.733699	2723.410269
931.037299	2726.583675
931.340861	2723.458160
931.644383	2728.189282
931.947866	2724.710886
932.251309	2722.666698
932.554714	2721.660988
932.858080	2720.047819
933.161407	2717.212170
933.464694	2718.374156
933.767943	2714.747046
934.071153	2716.269474
934.374323	2716.453476
934.677455	2716.987839
934.980548	2714.926007
935.283602	2714.963815
935.586617	2714.253013
935.889593	2714.477344
936.192530	2712.541541
936.495428	2715.972046
936.798287	2717.958261
937.101108	2720.987994
937.403890	2726.399673
937.706632	2728.025445
938.009336	2735.972824
938.312002	2747.121336
938.614628	2753.485792
938.917216	2761.307143
939.219765	2760.041813
939.522275	2760.646752
939.824747	2756.659199
940.127179	2755.867738
940.429573	2750.839187
940.731929	2750.705596
941.034246	2745.835842
941.336524	2743.952971
941.638763	2739.012640
941.940964	2737.293606
942.243126	2735.856877
942.545250	2734.523492
942.847335	2733.729511
943.149381	2727.339848
943.451389	2721.721482
943.753359	2718.520349
944.055290	2719.190823
944.357182	2717.444063
944.659036	2718.550596
944.960851	2718.510267
945.262628	2714.991542
945.564367	2715.157900
945.866067	2718.437170
946.167729	2717.542366
946.469352	2720.226780
946.770937	2716.289639
947.072484	2717.431460
947.373992	2714.217725
947.675462	2713.885008
947.976893	2711.571119
948.278286	2709.582384
948.579641	2708.871581
948.880958	2703.137268
949.182236	2707.762527
949.483476	2707.311344
949.784678	2704.768082
950.085841	2707.686910
950.386967	2709.116077
950.688054	2709.269832
950.989103	2707.570963
951.290114	2708.334698
951.591087	2711.566078
951.892021	2712.092878
952.192917	2716.264433
952.493776	2720.214177
952.794596	2718.502705
953.095378	2720.123436
953.396122	2718.462376
953.696828	2715.467931
953.997496	2716.042622
954.298126	2712.922148
954.598718	2711.306458
954.899272	2708.730429
955.199788	2705.977959
955.500266	2701.962680
955.800706	2702.759182
956.101108	2700.004191
956.401472	2694.988243
956.701798	2695.696525
957.002087	2691.754343
957.302337	2691.295598
957.602550	2692.707121
957.902724	2688.094465
958.202861	2688.328879
958.502960	2687.676050
958.803022	2686.335103
959.103045	2684.729495
959.403031	2684.754701
959.702979	2683.887622
960.002889	2686.146059
960.302762	2682.650019
960.602596	2682.849145
960.902393	2680.961233
961.202153	2681.770338
961.501875	2681.941737
961.801559	2681.614062
962.101205	2679.022909
962.400814	2680.550379
962.700385	2679.332940
962.999918	2676.305727
963.299414	2676.111643
963.598873	2678.165913
963.898293	2673.754903
964.197677	2678.052487
964.497022	2679.963084
964.796331	2679.088444
965.095601	2678.415450
965.394835	2677.387055
965.694030	2677.951664
965.993189	2678.957374
966.292309	2678.538958
966.591393	2679.953002
966.890439	2677.450069
967.189447	2681.041891
967.488419	2677.813032
967.787353	2677.807991
968.086249	2676.978721
968.385108	2679.869823
968.683930	2676.943433
968.982714	2677.568536
969.281462	2677.414781
969.580172	2681.354443
969.878844	2678.967456
970.177480	2677.349246
970.476078	2678.319668
970.774639	2679.801767
971.073162	2677.374452
971.371649	2679.786644
971.670098	2680.840245
971.968510	2679.600121
972.266885	2677.182888
972.565223	2680.076510
972.863524	2677.676921
973.161788	2676.978721
973.460014	2680.124401
973.758204	2679.587518
974.056356	2680.227745
974.354471	2675.688186
974.652550	2679.388393
974.950591	2680.013496
975.248595	2678.599452
975.546563	2678.763290
975.844493	2677.185408
976.142386	2678.223886
976.440243	2679.290090
976.738062	2676.414112
977.035845	2675.002589
977.333590	2675.383196
977.631299	2677.084585
977.928971	2674.034687
978.226606	2674.669873
978.524204	2673.139882
978.821765	2672.348421
979.119290	2673.805315
979.416777	2675.725994
979.714228	2675.398319
980.011642	2677.571057
980.309020	2674.367403
980.606360	2676.577949
980.903664	2676.091478
981.200931	2677.485357
981.498162	2677.439987
981.795356	2677.530727
982.092513	2680.507529
982.389633	2683.204546
982.686717	2686.312417
982.983764	2689.221163
983.280775	2691.532532
983.577749	2696.009077
983.874686	2696.261135
984.171587	2692.082018
984.468451	2688.810309
984.765279	2686.362829
985.062070	2685.410051
985.358824	2681.014165
985.655543	2681.573733
985.952224	2683.053312
986.248869	2678.223886
986.545478	2677.855882
986.842050	2675.070644
987.138586	2675.718433
987.435086	2673.936385
987.731549	2673.901097
988.027975	2676.600635
988.324366	2672.383709
988.620719	2672.212310
988.917037	2674.415294
989.213318	2674.674914
989.509563	2672.948319
989.805772	2674.528720
990.101944	2673.376817
990.398080	2672.807166
990.694180	2673.676765
990.990244	2672.265242
991.286271	2673.739780
991.582262	2672.539985
991.878217	2672.272804
992.174136	2673.918741
992.470019	2674.556447
992.765865	2671.098215
993.061676	2668.875066
993.357450	2670.205931
993.653188	2666.926660
993.948890	2672.797084
994.244556	2671.690551
994.540186	2672.103925
994.835780	2674.064934
995.131337	2677.109791
995.426859	2672.892866
995.722345	2675.947805
996.017795	2677.563495
996.313208	2673.906138
996.608586	2677.142559
996.903928	2679.766479
997.199234	2677.926458
997.494504	2679.088444
997.789738	2678.128104
998.084936	2677.097188
998.380099	2674.566529
998.675225	2675.912517
998.970316	2672.945798
999.265371	2675.123577
999.560390	2673.477640
999.855373	2674.634585
1000.150320	2673.815397
1000.445232	2673.061745
1000.740108	2672.126611
1001.034948	2673.530572
1001.329752	2673.502846
1001.624521	2671.020077
1001.919254	2671.657783
1002.213951	2672.333298
1002.508613	2669.578307
1002.803239	2668.771723
1003.097829	2668.529747
1003.392384	2670.400015
1003.686903	2670.740293
1003.981386	2670.667197
1004.275834	2669.694254
1004.570246	2672.343380
1004.864623	2670.647032
1005.158964	2670.170643
1005.453270	2669.948832
1005.747540	2671.627536
1006.041775	2667.839109
1006.335974	2669.023780
1006.630138	2669.974038
1006.924266	2673.185253
1007.218359	2670.432783
1007.512416	2667.055210
1007.806438	2666.878769
1008.100425	2666.651917
1008.394376	2667.629901
1008.688292	2671.619975
1008.982172	2668.529747
1009.276017	2672.151816
1009.569827	2670.584017
1009.863602	2673.016374
1010.157341	2669.822803
1010.451045	2670.596620
1010.744714	2667.193842
1011.038347	2670.687361
1011.331945	2671.408246
1011.625508	2669.197700
1011.919036	2670.077382
1012.212528	2669.989161
1012.505986	2668.552432
1012.799408	2672.328257
1013.092795	2668.081085
1013.386147	2669.848009
1013.679464	2669.600992
1013.972745	2668.156702
1014.265992	2670.107628
1014.559204	2669.820283
1014.852380	2670.163081
1015.145521	2668.759120
1015.438628	2669.036383
1015.731699	2670.379851
1016.024736	2668.063441
1016.317737	2667.763492
1016.610703	2669.033863
1016.903635	2669.288441
1017.196531	2668.696105
1017.489393	2668.567556
1017.782219	2668.519665
1018.075011	2669.419511
1018.367768	2672.774399
1018.660490	2666.309119
1018.953177	2666.309119
1019.245829	2666.309119
