Dividing Wavelength (nm)	Counts (n)	Blue Motor Position (mm): 44.300000	Red Motor Position (mm): 0.000000	
326.493990	2264.756009
326.888308	2264.756009
327.282561	2264.756009
327.676750	2224.711604
328.070874	2221.278578
328.464933	2223.393342
328.858929	2225.929043
329.252859	2230.481204
329.646726	2239.363718
330.040528	2250.101375
330.434265	2265.517224
330.827938	2285.361726
331.221547	2298.561987
331.615091	2317.171407
332.008571	2336.574808
332.401986	2355.917715
332.795338	2373.894470
333.188625	2394.560680
333.581847	2414.206056
333.975006	2433.251536
334.368100	2450.656119
334.761129	2469.136989
335.154095	2487.270020
335.546996	2514.275481
335.939833	2554.491286
336.332606	2569.594583
336.725315	2583.780389
337.117960	2594.351689
337.510540	2604.756631
337.903056	2618.327417
338.295508	2624.207923
338.687896	2634.285189
339.080220	2641.327681
339.472480	2648.236582
339.864676	2652.292191
340.256807	2660.637821
340.648875	2662.359375
341.040879	2664.131341
341.432818	2666.598985
341.824694	2669.348935
342.216506	2668.496980
342.608253	2672.257681
342.999937	2673.381858
343.391557	2672.449244
343.783113	2670.921775
344.174605	2667.612257
344.566033	2668.718791
344.957397	2671.083092
345.348697	2666.223419
345.739934	2663.367606
346.131106	2665.615960
346.522215	2661.764519
346.913260	2661.479694
347.304241	2658.540701
347.695159	2655.389980
348.086012	2656.342758
348.476802	2653.789413
348.867528	2652.788744
349.258191	2649.088537
349.648789	2645.862199
350.039324	2643.492857
350.429796	2648.478558
350.820203	2647.583753
351.210548	2643.795326
351.600828	2644.821201
351.991045	2644.488485
352.381198	2641.983031
352.771288	2642.887918
353.161314	2640.808442
353.551276	2639.875829
353.941175	2638.718884
354.331010	2643.205511
354.720782	2639.394399
355.110490	2641.128556
355.500135	2641.360449
355.889717	2638.154275
356.279235	2642.308186
356.668689	2642.406488
357.058080	2640.745428
357.447408	2644.518732
357.836672	2641.730973
358.225873	2639.767444
358.615010	2641.257105
359.004084	2640.969759
359.393095	2643.855820
359.782043	2644.483443
360.170927	2646.658701
360.559748	2647.165337
360.948505	2645.887405
361.337199	2647.132570
361.725830	2646.136942
362.114398	2648.516367
362.502903	2648.909577
362.891344	2647.525780
363.279722	2650.621048
363.668037	2651.289001
364.056289	2650.920997
364.444478	2650.472334
364.832603	2653.476862
365.220665	2652.395534
365.608665	2655.493323
365.996601	2652.874444
366.384474	2656.501554
366.772284	2655.160607
367.160031	2656.945176
367.547715	2653.517191
367.935336	2655.579023
368.322893	2655.382418
368.710388	2656.559527
369.097820	2655.253869
369.485189	2655.531132
369.872495	2658.452481
370.259738	2659.485917
370.646918	2661.005825
371.034035	2660.612615
371.421090	2662.997081
371.808081	2662.039262
372.195010	2661.825013
372.581875	2664.096052
372.968678	2662.271155
373.355418	2664.592606
373.742096	2664.786691
374.128710	2665.953718
374.515262	2666.011691
374.901751	2667.771054
375.288177	2668.615447
375.674540	2669.439676
376.060841	2674.140552
376.447079	2675.370593
376.833254	2679.655574
377.219367	2683.852334
377.605417	2692.145032
377.991404	2700.931764
378.377329	2711.402240
378.763191	2724.257182
379.148991	2744.772158
379.534727	2763.270672
379.920402	2784.740946
380.306013	2805.634008
380.691563	2844.342508
381.077049	2870.508617
381.462474	2902.111611
381.847835	2947.129115
382.233134	2984.892398
382.618371	3018.761390
383.003545	3073.886408
383.388657	3109.671038
383.773706	3170.961387
384.158693	3211.683827
384.543618	3256.960951
384.928480	3313.797440
385.313280	3379.828993
385.698017	3415.701844
386.082692	3510.596524
386.467305	3536.618960
386.851856	3589.462855
387.236344	3672.087367
387.620770	3723.030747
388.005133	3787.040798
388.389435	3847.398533
388.773674	3878.310888
389.157851	3965.779949
389.541965	4044.177453
389.926018	4031.940052
390.310008	4143.674706
390.693936	4209.509655
391.077802	4256.072273
391.461606	4271.130199
391.845348	4346.543340
392.229027	4417.515224
392.612645	4427.446298
392.996200	4542.742527
393.379694	4607.251652
393.763125	4715.659145
394.146494	4751.882356
394.529801	4815.973066
394.913047	4902.078494
395.296230	4855.616699
395.679351	4968.785562
396.062410	5025.934603
396.445408	4999.886961
396.828343	5057.804777
397.211217	5118.386844
397.594028	5007.816696
397.976778	5126.437566
398.359466	5173.191748
398.742092	5196.096230
399.124656	5115.815855
399.507158	5234.343464
399.889598	5299.754956
400.271977	5423.837917
400.654294	5411.784518
401.036549	5460.330830
401.418742	5380.284868
401.800874	5586.447896
402.182944	5643.344879
402.564952	5751.480149
402.946898	5808.702287
403.328783	5650.394932
403.710606	5667.701214
404.092367	5988.850440
404.474067	6009.272154
404.855705	5908.244911
405.237282	5844.943142
405.618797	6101.341268
406.000250	6078.008287
406.381642	6282.747189
406.762972	6303.441125
407.144240	6356.332911
407.525447	6346.434606
407.906593	6363.682914
408.287677	6526.401277
408.668700	6437.934069
409.049661	6556.466719
409.430560	6582.718528
409.811399	6437.329130
410.192176	6710.408434
410.572891	6725.584828
410.953545	6917.536843
411.334138	6644.664226
411.714669	6818.127809
412.095139	6614.326562
412.475547	6863.760334
412.855894	6926.820128
413.236180	7110.426512
413.616405	6776.583661
413.996568	6999.513566
414.376670	7036.475306
414.756711	6940.514422
415.136691	7031.996241
415.516609	7236.760348
415.896466	7225.498411
416.276262	7426.380830
416.655997	7407.073210
417.035670	7594.122703
417.415283	7938.990558
417.794834	7990.085173
418.174324	7850.770366
418.553753	7769.794312
418.933121	8082.376097
419.312428	8176.577619
419.691674	7953.677960
420.070859	8430.989530
420.449983	8114.826005
420.829045	8475.533165
421.208047	8245.417095
421.586988	8554.036533
421.965867	8581.989732
422.344686	8675.447683
422.723444	8737.103515
423.102141	8082.025737
423.480777	8846.562088
423.859352	8372.272690
424.237866	8982.022933
424.616319	8850.476544
424.994712	9276.990927
425.373044	8825.381680
425.751314	9308.082243
426.129524	9174.852109
426.507673	9276.839692
426.885762	9422.682794
427.263789	9347.032719
427.641756	9274.556050
428.019662	9369.677582
428.397508	9628.777766
428.775292	9294.665212
429.153016	9683.098719
429.530679	9515.422381
429.908282	9535.760916
430.285824	9260.990305
430.663305	9942.178739
431.040726	9392.418227
431.418086	9376.941884
431.795385	9706.683757
432.172624	9802.138006
432.549802	9707.336587
432.926920	9786.213001
433.303977	9661.479731
433.680974	9862.969609
434.057910	9950.410943
434.434786	10027.470021
434.811601	9858.447694
435.188355	10419.081975
435.565050	10165.839612
435.941683	10092.263971
436.318257	10572.159132
436.694770	10727.545138
437.071222	10781.777871
437.447614	10614.787129
437.823946	10529.271516
438.200218	10631.422937
438.576429	10475.555501
438.952580	10714.526358
439.328670	10749.985834
439.704700	10544.309278
440.080670	10535.222598
440.456580	11065.488968
440.832429	10847.189363
441.208218	10441.464698
441.583947	10751.692265
441.959616	10920.649056
442.335224	10730.259799
442.710773	10847.985865
443.086261	11074.220247
443.461689	10340.727321
443.837057	11023.768379
444.212365	11267.036819
444.587612	10902.016952
444.962800	11119.530137
445.337927	10870.471932
445.712995	10525.828408
446.088002	11576.329252
446.462949	11265.534556
446.837837	11231.105995
447.212664	11170.034937
447.587431	11742.011814
447.962139	12488.871359
448.336786	14778.994455
448.711374	15287.135201
449.085901	13102.369700
449.460369	12745.662695
449.834776	12186.591172
450.209124	13112.464611
450.583412	13527.394422
450.957640	14456.216936
451.331808	13517.110468
451.705917	12572.473855
452.079965	11830.920124
452.453954	12742.466604
452.827883	12402.586970
453.201752	12687.394518
453.575562	12232.800909
453.949311	12641.008341
454.323001	12618.739044
454.696632	12855.827030
455.070202	13134.388589
455.443713	13340.044981
455.817164	13830.881966
456.190556	13802.117142
456.563888	14170.373431
456.937160	14310.527590
457.310373	13672.899766
457.683526	13781.040078
458.056619	13298.894042
458.429653	13498.952232
458.802628	12866.037887
459.175542	13275.548458
459.548398	14225.135485
459.921194	14593.832874
460.293930	14653.631041
460.666607	15513.379665
461.039224	16577.138744
461.411782	17291.825645
461.784280	17086.451558
462.156719	17183.428235
462.529099	16855.602000
462.901419	15800.019673
463.273680	15577.379634
463.645882	15463.479804
464.018024	15187.852197
464.390106	15420.327527
464.762130	16132.887061
465.134094	16927.009944
465.505999	18982.028748
465.877845	22257.031988
466.249631	25070.656225
466.621358	24693.091446
466.993026	23251.139965
467.364634	22666.741685
467.736184	21191.563958
468.107674	20392.283975
468.479105	20522.948162
468.850477	19988.197685
469.221790	19591.446275
469.593043	18899.106808
469.964238	18323.192790
470.335373	17971.940313
470.706449	18458.479715
471.077467	18039.481693
471.448425	19915.549617
471.819324	24045.595564
472.190164	25908.188484
472.560945	22235.939800
472.931667	19937.125756
473.302330	19315.080138
473.672934	18944.696483
474.043479	19178.923614
474.413965	18981.945569
474.784393	18592.360158
475.154761	19344.865796
475.525070	19273.223438
475.895321	18985.602926
476.265513	19583.191385
476.635645	20179.025523
477.005719	19943.437280
477.375734	20120.006214
477.745691	20613.328488
478.115588	21150.390334
478.485427	21706.094367
478.855207	22797.846973
479.224928	24588.001033
479.594591	26825.464235
479.964194	26745.866937
480.333739	26968.655690
480.703226	26539.913117
481.072653	26255.564313
481.442022	26866.017797
481.811333	27800.829202
482.180584	27664.675198
482.549777	26727.053350
482.918912	26398.486066
483.287988	26543.199949
483.657005	26172.319740
484.025964	25947.607787
484.394864	25822.418293
484.763706	25471.571629
485.132489	24953.958555
485.501213	25125.264524
485.869879	25040.774786
486.238487	24879.364602
486.607036	25004.294476
486.975527	24745.955506
487.343959	25043.023141
487.712333	24952.821775
488.080648	24617.869869
488.448905	25122.433917
488.817104	24877.539704
489.185244	25591.054537
489.553326	25524.344948
489.921350	26582.752842
490.289315	28942.481669
490.657222	30651.581537
491.025070	31159.926450
491.392861	30907.959498
491.760593	30038.098320
492.128267	29135.951072
492.495883	28062.180261
492.863440	27205.506741
493.230939	26331.209348
493.598380	26180.988004
493.965763	25797.630939
494.333088	25299.822038
494.700354	25264.712922
495.067563	25120.051971
495.434713	24863.114442
495.801805	25041.349477
496.168839	24808.778365
496.535815	24674.171996
496.902733	24892.811879
497.269593	24573.180040
497.636395	24760.489153
498.003139	24692.572207
498.369825	24438.906387
498.736453	24655.285313
499.103023	24514.342213
499.469535	24527.116497
499.835989	24744.932152
500.202385	24764.867395
500.568723	24305.003259
500.935003	24483.092101
501.301226	24175.135574
501.667390	25022.765264
502.033497	25214.745005
502.399546	24949.817247
502.765537	24487.384643
503.131470	24875.253541
503.497345	25017.414079
503.863163	24253.056689
504.228923	24804.329547
504.594625	25047.366095
504.960269	24597.150727
505.325856	25082.780200
505.691385	24471.068949
506.056856	25072.879374
506.422270	25063.596089
506.787625	24597.206180
507.152924	25034.959815
507.518164	25068.165895
507.883347	24877.272523
508.248472	24563.122938
508.613540	25346.941703
508.978550	25129.972962
509.343503	25148.191692
509.708398	25351.788773
510.073236	25524.970051
510.438016	25726.074281
510.802738	25386.983588
511.167403	25656.529043
511.532010	25395.240998
511.896561	26140.207590
512.261053	26104.410357
512.625488	25927.649859
512.989866	25822.745968
513.354186	25652.967468
513.718449	25792.728417
514.082655	26162.000498
514.446803	25885.883899
514.810894	26383.914611
515.174927	25867.249274
515.538904	25897.614664
515.902822	26387.556845
516.266684	26143.539793
516.630488	26057.346144
516.994235	25995.201320
517.357925	26332.217578
517.721558	26494.809913
518.085133	26619.921269
518.448651	26491.334038
518.812112	26274.945029
519.175516	26485.536711
519.538863	26611.976411
519.902152	26404.248105
520.265385	26667.013208
520.628560	26478.058159
520.991678	26468.583310
521.354739	26520.464345
521.717743	26616.838604
522.080690	26401.510758
522.443580	26728.545532
522.806413	26694.290892
523.169189	26824.085480
523.531908	26847.990631
523.894569	26478.849620
524.257174	26563.200727
524.619722	26713.293521
524.982213	26419.091782
525.344647	26440.768744
525.707025	26619.603677
526.069345	26567.712560
526.431608	26542.353035
526.793815	26724.255510
527.155964	26208.492539
527.518057	26378.570988
527.880093	26304.713043
528.242072	26514.745156
528.603995	26250.291267
528.965860	26031.540478
529.327669	26074.992703
529.689421	26061.431999
530.051117	25899.568111
530.412755	26064.834778
530.774337	25858.366761
531.135862	25739.854275
531.497331	25935.239316
531.858743	25524.307139
532.220098	25971.026467
532.581396	25677.452352
532.942638	25570.002678
533.303824	25692.172521
533.664953	25688.963827
534.026025	25341.852658
534.387040	25602.921413
534.747999	25636.220755
535.108902	25801.777288
535.469748	25323.545708
535.830537	25469.706402
536.191270	25611.166220
536.551947	25439.157010
536.912567	25067.528189
537.273131	25499.812173
537.633638	25157.497662
537.994089	25387.926284
538.354483	24870.915628
538.714821	25394.804938
539.075103	25429.157881
539.435328	25203.130187
539.795497	24813.837163
540.155609	25152.801827
540.515665	25474.314017
540.875665	24688.156157
541.235609	25022.833319
541.595496	24947.306753
541.955328	25310.905015
542.315102	25234.924744
542.674821	24735.452262
543.034483	24628.794050
543.394090	24795.938547
543.753640	24613.670588
544.113134	25229.739917
544.472571	24819.952083
544.831953	25132.506142
545.191278	24778.798623
545.550548	24654.140971
545.909761	24860.523289
546.268918	25087.430665
546.628019	25075.042029
546.987064	24758.644090
547.346053	24503.332333
547.704986	24601.622230
548.063863	24754.419603
548.422684	24792.853360
548.781449	24286.953407
549.140158	24696.519431
549.498811	24272.404637
549.857408	24038.384193
550.215949	24421.209417
550.574434	24127.042966
550.932864	24320.338449
551.291237	24517.558469
551.649555	24349.042779
552.007817	24417.297481
552.366022	24262.254274
552.724173	24290.451968
553.082267	24271.245172
553.440305	24747.137657
553.798288	23969.040602
554.156215	24465.211128
554.514086	24602.544762
554.871902	23984.824454
555.229661	24265.079841
555.587365	24099.195632
555.945014	24021.950032
556.302606	24224.339756
556.660143	24210.358116
557.017625	24439.642396
557.375050	23950.567293
557.732421	24341.251675
558.089735	24165.716178
558.446994	24225.284972
558.804197	24265.092444
559.161345	24164.586959
559.518437	23958.958294
559.875474	24122.326967
560.232455	24320.613192
560.589381	24130.539006
560.946251	24130.430622
561.303065	24436.670635
561.659825	24523.486866
562.016528	24126.667400
562.373177	23864.164437
562.729770	24236.214194
563.086307	24072.364091
563.442789	24234.711930
563.799216	24087.638787
564.155587	24070.322424
564.511904	24053.800042
564.868164	23995.541947
565.224370	23964.685045
565.580520	23895.442276
565.936615	24021.420711
566.292654	23732.497060
566.648638	23982.878569
567.004567	23814.541839
567.360441	23753.032201
567.716260	23488.933712
568.072023	23804.951044
568.427732	23569.476227
568.783385	23342.707483
569.138982	23594.298869
569.494525	23622.357931
569.850013	23386.736921
570.205445	23467.551658
570.560823	23295.310555
570.916145	23050.045817
571.271412	23242.978337
571.626625	22986.670952
571.981782	23100.376697
572.336884	22906.297315
572.691931	23051.391805
573.046923	22765.442436
573.401860	22648.563284
573.756743	22683.425383
574.111570	22582.627512
574.466342	22494.104851
574.821059	22571.181572
575.175722	22289.822173
575.530330	22263.446856
575.884882	22269.622270
576.239380	22179.612468
576.593823	22081.199063
576.948211	22058.231566
577.302544	21905.703894
577.656823	21760.992532
578.011047	21871.749202
578.365216	21733.309036
578.719330	21605.450251
579.073389	21506.147082
579.427394	21660.754229
579.781344	21401.578427
580.135239	21300.556225
580.489080	21243.626474
580.842866	21019.670694
581.196597	21241.920044
581.550273	21200.292716
581.903895	21075.146072
582.257463	21388.599977
582.610975	20932.289854
582.964434	21261.646079
583.317837	20925.028072
583.671186	21016.341012
584.024481	20993.325624
584.377721	20762.702918
584.730906	20852.722802
585.084037	20845.334991
585.437113	20760.709142
585.790135	20967.136830
586.143103	20425.674057
586.496016	20454.932914
586.848874	20675.755617
587.201679	20594.179666
587.554428	20304.237702
587.907124	20619.234200
588.259765	20391.434540
588.612352	20457.783687
588.964884	20034.167967
589.317362	20188.026503
589.669786	20262.638101
590.022155	20257.284395
590.374470	20502.377733
590.726731	20265.118348
591.078937	20051.973322
591.431090	20128.092225
591.783188	19906.649460
592.135232	19863.708912
592.487222	19959.185845
592.839157	19972.459203
593.191038	19847.549493
593.542866	19729.372244
593.894639	19441.996228
594.246358	19656.260390
594.598022	19550.786848
594.949633	19297.597417
595.301190	19286.426220
595.652692	19455.188927
596.004141	19674.030457
596.355535	19010.576802
596.706876	19032.276449
597.058162	18917.446526
597.409395	19159.900820
597.760573	19205.102326
598.111698	18982.918512
598.462768	18936.197098
598.813785	18897.869205
599.164748	18691.479325
599.515657	18754.778574
599.866511	18543.539104
600.217312	18903.734587
600.568060	18413.996574
600.918753	18727.757989
601.269392	18636.578639
601.619978	18430.052649
601.970510	18610.475545
602.320988	18560.260611
602.671412	18751.186752
603.021783	18690.476136
603.372100	18392.909427
603.722363	18555.534530
604.072572	18494.226537
604.422728	18650.666144
604.772830	18402.583401
605.122878	18360.860292
605.472872	18337.933124
605.822813	18328.095312
606.172701	18308.187796
606.522534	18484.504672
606.872314	18514.686060
607.222041	18358.291824
607.571714	18568.840655
607.921333	18386.396256
608.270899	18457.453840
608.620411	18626.604717
608.969870	18414.825843
609.319276	18409.240245
609.668627	18441.972457
610.017926	18575.845338
610.367171	18692.606023
610.716362	18741.827849
611.065500	18550.498417
611.414585	18710.292912
611.763616	18681.349127
612.112594	18607.879351
612.461518	18581.403211
612.810389	18775.956461
613.159207	18648.170773
613.507971	18557.929078
613.856682	18805.507705
614.205340	18737.293332
614.553945	18888.535509
614.902496	18632.134862
615.250994	18835.628599
615.599439	18799.589390
615.947830	18787.294016
616.296169	18858.686837
616.644454	18810.664805
616.992686	18788.955076
617.340864	18999.347632
617.688990	18751.453933
618.037063	18928.395912
618.385082	18784.163459
618.733048	19050.182627
619.080961	18944.215053
619.428821	18972.805957
619.776628	18844.390124
620.124382	18773.929917
620.472083	18837.309824
620.819731	18837.791254
621.167326	18530.255664
621.514868	18575.815092
621.862357	18356.126648
622.209793	18354.919292
622.557176	18192.589097
622.904506	18015.453033
623.251783	17937.932690
623.599007	17690.555709
623.946179	17636.552348
624.293297	17558.444710
624.640363	17307.085218
624.987376	17334.443560
625.334336	17131.769011
625.681243	16970.487376
626.028097	16995.304976
626.374899	16900.256541
626.721647	16777.136440
627.068343	16611.123683
627.414987	16544.751851
627.761577	16514.482243
628.108115	16541.412087
628.454600	16278.435255
628.801032	16371.535284
629.147412	16307.668906
629.493739	16316.710216
629.840014	16135.508461
630.186236	16222.465844
630.532405	15996.798593
630.878521	16185.312541
631.224585	16092.542707
631.570597	15911.819862
631.916556	15942.931343
632.262462	15922.025678
632.608316	15829.850701
632.954117	15772.946156
633.299866	15767.055568
633.645562	15671.465208
633.991206	15445.976918
634.336797	15308.706298
634.682336	15284.067659
635.027823	15151.669315
635.373257	15020.218708
635.718639	14937.218630
636.063968	14881.483633
636.409245	14638.003464
636.754470	14668.683927
637.099642	14517.855124
637.444762	14285.646975
637.789829	14327.939735
638.134845	14166.514427
638.479808	14195.962328
638.824719	14115.954175
639.169577	13990.482376
639.514383	14029.523592
639.859137	13856.755688
640.203839	13946.710037
640.548489	13792.206234
640.893086	13779.132001
641.237632	13650.791786
641.582125	13813.280777
641.926566	13628.610709
642.270955	13637.773006
642.615292	13598.265483
642.959576	13606.999282
643.303809	13632.663797
643.647990	13560.572776
643.992118	13635.348211
644.336195	13398.839958
644.680219	13630.508703
645.024192	13533.224517
645.368112	13786.650882
645.711981	13817.427126
646.055797	14007.665149
646.399562	13994.122089
646.743274	14250.227828
647.086935	14522.445095
647.430544	14483.045957
647.774101	14534.599317
648.117606	14666.985058
648.461059	14647.884126
648.804460	14622.171721
649.147810	14339.544471
649.491108	14261.991361
649.834354	14270.989820
650.177548	13940.569912
650.520690	13759.310184
650.863781	13683.276981
651.206820	13732.082912
651.549807	13567.214496
651.892742	13352.499151
652.235626	13291.264255
652.578458	13296.950677
652.921238	12995.590500
653.263967	13182.085466
653.606644	13020.970189
653.949269	12998.355573
654.291843	12796.532979
654.634365	12962.971714
654.976836	12809.977736
655.319255	12803.482209
655.661622	12768.602466
656.003938	12687.165146
656.346203	12618.292902
656.688416	12699.571426
657.030577	12650.198365
657.372687	12545.486038
657.714746	12538.758618
658.056753	12734.395716
658.398708	12542.259699
658.740612	12547.043754
659.082465	12661.954336
659.424266	12629.317906
659.766016	12648.093683
660.107715	12561.111094
660.449362	12638.500367
660.790958	12592.522524
661.132503	12533.687217
661.473996	12610.524484
661.815438	12616.389867
662.156829	12645.038744
662.498168	12610.879885
662.839456	12620.137964
663.180693	12622.955969
663.521879	12738.496695
663.863013	12705.015872
664.204097	12675.217611
664.545129	12804.066983
664.886110	12777.401800
665.227040	12874.033157
665.567918	12872.162889
665.908746	12893.335735
666.249522	12888.660065
666.590248	12942.486985
666.930922	13051.020507
667.271545	13028.060572
667.612118	13105.961522
667.952639	13012.375022
668.293109	13037.691696
668.633528	12983.768994
668.973896	12962.553298
669.314213	13026.142413
669.654480	12764.183894
669.994695	12864.175181
670.334859	12882.968602
670.674973	12816.450577
671.015035	12844.426461
671.355047	12804.626551
671.695008	12767.639605
672.034918	12783.695680
672.374777	12826.732011
672.714585	12737.465779
673.054342	12773.038681
673.394049	12728.129562
673.733705	12820.831340
674.073310	12721.739900
674.412864	12731.476888
674.752368	12592.164602
675.091820	12634.694296
675.431223	12612.150256
675.770574	12477.291829
676.109875	12390.742779
676.449125	12346.017662
676.788324	12308.093062
677.127473	12127.919703
677.466571	12118.898558
677.805619	12014.188752
678.144616	11947.832043
678.483562	11910.046075
678.822458	11782.666199
679.161303	11769.755804
679.500098	11753.596386
679.838842	11711.210364
680.177535	11742.125240
680.516179	11812.532515
680.854771	11752.197466
681.193314	11957.490894
681.531805	12136.230045
681.870247	12574.215573
682.208638	12988.941218
682.546978	13284.695632
682.885268	13307.343016
683.223508	13009.937624
683.561697	12864.177702
683.899836	12767.856375
684.237925	12558.746793
684.575963	12480.553456
684.913951	12384.713559
685.251889	12344.147394
685.589776	12448.159001
685.927614	12359.011236
686.265401	12340.061539
686.603137	12392.444169
686.940824	12544.187941
687.278460	12676.654340
687.616046	12706.722302
687.953582	12870.489226
688.291068	12815.079384
688.628504	13050.390363
688.965889	13052.913460
689.303224	13011.502902
689.640510	12892.836661
689.977745	12569.577712
690.314930	12348.248373
690.652065	12254.641708
690.989150	11961.614558
691.326185	11735.344888
691.663170	11525.627847
692.000105	11292.887856
692.336990	11169.467807
692.673825	10917.382389
693.010610	10796.124995
693.347345	10585.513149
693.684030	10397.710003
694.020665	10339.416621
694.357251	10131.726123
694.693786	10059.441018
695.030272	9915.236292
695.366707	9793.411768
695.703093	9727.637313
696.039429	9725.119257
696.375716	9631.583168
696.711952	9514.078913
697.048139	9560.838136
697.384276	9514.547740
697.720363	9532.872335
698.056400	9465.840112
698.392388	9414.959746
698.728326	9380.231237
699.064214	9325.270058
699.400053	9357.155356
699.735842	9170.264659
700.071581	9134.197724
700.407270	9057.045385
700.742910	8980.238365
701.078501	8884.005258
701.414042	8752.284950
701.749533	8694.430147
702.084974	8561.010970
702.420366	8678.001027
702.755709	8548.634937
703.091002	8419.846059
703.426246	8449.770348
703.761440	8404.493225
704.096584	8361.953448
704.431679	8293.424003
704.766725	8276.410109
705.101721	8235.798573
705.436668	8279.482692
705.771565	8168.030342
706.106413	8253.185513
706.441212	8288.592057
706.775961	8254.105524
707.110661	8299.274262
707.445311	8432.370806
707.779913	8331.575455
708.114465	8463.033624
708.448967	8496.254828
708.783421	8657.236514
709.117825	8837.672013
709.452180	8868.843988
709.786485	8954.029406
710.120742	9239.930885
710.454949	9244.994724
710.789107	9352.779634
711.123216	9572.475639
711.457275	9747.428883
711.791286	9889.493640
712.125247	9898.650896
712.459159	9878.327484
712.793023	10113.393968
713.126837	9683.471765
713.460602	9845.565025
713.794318	9675.400877
714.127985	9699.696718
714.461602	9354.967495
714.795171	9306.206934
715.128691	9057.761229
715.462162	8816.783992
715.795584	8755.160928
716.128957	8588.656658
716.462281	8432.942977
716.795556	8479.898804
717.128782	8268.692102
717.461960	8019.331427
717.795088	8081.090603
718.128167	7988.071232
718.461198	7820.165521
718.794180	7768.581914
719.127113	7756.054647
719.459997	7586.898730
719.792833	7369.738425
720.125619	7437.862058
720.458357	7290.695653
720.791046	7288.621218
721.123686	7270.773013
721.456278	7107.873168
721.788821	7134.525748
722.121315	7033.901797
722.453761	7101.291942
722.786158	7043.757253
723.118506	7048.337141
723.450805	7015.950248
723.783056	7078.115237
724.115259	7001.714030
724.447412	6992.728173
724.779518	7044.684825
725.111574	7040.911521
725.443582	7123.946887
725.775542	7096.820438
726.107453	7302.542365
726.439315	7208.061059
726.771129	7281.692152
727.102895	7460.577497
727.434612	7561.801345
727.766281	7600.925740
728.097901	7673.790578
728.429473	7681.453132
728.760996	7665.392016
729.092471	7635.167778
729.423897	7565.761172
729.755276	7572.143273
730.086606	7492.467836
730.417887	7600.051100
730.749120	7820.967065
731.080305	8008.898759
731.411442	8110.341898
731.742530	8103.929551
732.073570	8221.000266
732.404562	8303.271897
732.735506	8157.451481
733.066401	8294.759909
733.397249	8209.947537
733.728048	7967.868808
734.058798	7638.157182
734.389501	7397.283290
734.720156	7226.269707
735.050762	6998.056672
735.381320	6916.384939
735.711831	6851.250711
736.042293	6748.834629
736.372707	6758.516165
736.703073	6625.933819
737.033391	6671.894019
737.363661	6679.745616
737.693883	6716.601492
738.024056	6797.514531
738.354182	6827.970662
738.684260	6868.466251
739.014290	6996.987948
739.344272	7108.747808
739.674207	7140.174361
740.004093	7211.466359
740.333931	7219.353244
740.663722	7226.189049
740.993464	7303.477499
741.323159	7279.000176
741.652806	7032.369286
741.982405	7069.038639
742.311956	7108.052129
742.641460	6931.790705
742.970915	6740.418423
743.300323	6727.538275
743.629683	6687.256935
743.958996	6551.062602
744.288260	6453.914526
744.617477	6407.198154
744.946647	6399.137349
745.275768	6239.194140
745.604842	6194.922727
745.933869	6176.507392
746.262847	6133.329909
746.591778	6123.066120
746.920662	6082.857877
747.249498	6079.366878
747.578286	6125.846316
747.907027	6199.880702
748.235720	6263.754642
748.564365	6235.902267
748.892963	6278.537825
749.221514	6414.303660
749.550017	6230.954374
749.878473	6123.340863
750.206881	6183.295306
750.535242	6123.275328
750.863555	6051.015429
751.191821	6066.857255
751.520039	6063.116718
751.848210	5971.541638
752.176334	6011.470097
752.504411	6049.271189
752.832440	5968.249765
753.160421	5902.553448
753.488356	5954.822652
753.816243	5978.863914
754.144082	5830.079300
754.471875	5809.523995
754.799620	5844.968348
755.127318	5860.742118
755.454969	5817.846940
755.782572	5782.352176
756.110129	5829.187015
756.437638	5799.721471
756.765100	5744.326752
757.092515	5749.688019
757.419882	5810.436444
757.747203	5782.500890
758.074477	5842.006670
758.401703	5824.526469
758.728882	5786.269152
759.056014	5858.007292
759.383099	5970.571216
759.710138	5982.238967
760.037129	5967.601977
760.364073	5976.330734
760.690970	6054.735800
761.017820	6034.591349
761.344623	5996.883519
761.671379	6100.302790
761.998088	6227.591924
762.324751	6491.259394
762.651366	7132.340408
762.977935	8509.608845
763.304456	10167.626701
763.630931	11030.647033
763.957359	10563.253934
764.283740	9596.335420
764.610074	8719.696411
764.936362	7718.462763
765.262602	7128.433514
765.588796	6595.981803
765.914943	6266.892760
766.241044	6093.358600
766.567097	5878.234922
766.893104	5622.474502
767.219064	5447.249035
767.544978	5385.845261
767.870845	5303.878620
768.196665	5198.168144
768.522438	5124.504284
768.848165	5092.533286
769.173846	5019.789436
769.499479	4974.373681
769.825066	4926.888533
770.150607	4867.755798
770.476101	4842.446685
770.801548	4838.340665
771.126949	4749.991923
771.452303	4699.230025
771.777611	4659.876257
772.102872	4683.083209
772.428087	4643.043845
772.753256	4595.478037
773.078378	4549.540523
773.403453	4481.464782
773.728482	4470.659068
774.053465	4426.004528
774.378401	4413.192435
774.703291	4404.264552
775.028135	4330.184796
775.352932	4286.016726
775.677683	4274.043986
776.002388	4293.182727
776.327046	4298.080208
776.651658	4225.772417
776.976224	4167.126154
777.300743	4169.999612
777.625216	4192.687325
777.949643	4182.741128
778.274024	4142.641270
778.598359	4106.516361
778.922647	4128.072335
779.246889	4114.909883
779.571086	4108.941156
779.895236	4085.429215
780.219339	4079.364707
780.543397	4078.812700
780.867409	4134.819920
781.191374	4142.560611
781.515294	4074.119386
781.839167	4071.641659
782.162995	4095.773662
782.486776	4078.961414
782.810511	4095.995473
783.134201	4082.109615
783.457844	4037.273593
783.781441	3980.815190
784.104993	3987.530007
784.428498	4008.967514
784.751958	4002.313191
785.075372	3981.722598
785.398739	3944.465950
785.722061	3956.199236
786.045337	4003.792769
786.368568	4029.217829
786.691752	3941.789098
787.014891	4002.529960
787.337983	4135.147595
787.661030	4296.613232
787.984031	4461.635403
788.306987	4625.062049
788.629897	4714.870205
788.952760	4667.117875
789.275579	4599.463070
789.598351	4526.293242
789.921078	4372.535529
790.243759	4174.672761
790.566395	4166.732944
790.888984	4156.244823
791.211529	4047.595355
791.534027	3989.543948
791.856480	3970.122903
792.178888	3912.721805
792.501249	3869.246894
792.823566	3877.723594
793.145836	3903.400711
793.468062	3849.505735
793.790241	3810.378820
794.112375	3836.078622
794.434464	3905.281062
794.756507	3927.948610
795.078505	3906.251484
795.400457	3946.295889
795.722364	4090.056994
796.044226	4196.765618
796.366042	4271.379736
796.687812	4238.740786
797.009538	4242.803956
797.331218	4208.478739
797.652852	4178.889687
797.974442	4161.588447
798.295986	4152.332888
798.617484	4067.583530
798.938938	3988.074452
799.260346	4032.769322
799.581709	4025.961243
799.903026	3945.272535
800.224299	3914.410591
800.545526	3904.212337
800.866708	3863.620966
801.187845	3809.577276
801.508936	3843.501721
801.829983	3831.685257
802.150984	3753.507043
802.471940	3750.744490
802.792851	3757.166920
803.113717	3758.606170
803.434538	3757.469390
803.755314	3696.148794
804.076045	3679.727236
804.396731	3695.269113
804.717372	3724.946386
805.037967	3704.348231
805.358518	3694.956561
805.679024	3727.754308
805.999485	3742.479519
806.319901	3743.497832
806.640272	3756.826643
806.960598	3769.500103
807.280879	3745.443717
807.601115	3760.539452
807.921306	3778.551495
808.241453	3816.765962
808.561554	3783.204480
808.881611	3722.564440
809.201623	3762.140019
809.521590	3767.677726
809.841513	3742.769385
810.161390	3774.561422
810.481223	3746.817432
810.801011	3696.884803
811.120755	3694.011345
811.440453	3727.053588
811.760107	3722.027558
812.079716	3680.173378
812.399281	3651.559788
812.718801	3678.076258
813.038276	3649.003923
813.357707	3644.265239
813.677093	3664.888599
813.996434	3608.488170
814.315731	3622.537866
814.634983	3625.978453
814.954191	3641.384219
815.273354	3667.061337
815.592473	3657.704955
815.911547	3670.822037
816.230577	3720.053946
816.549562	3767.113117
816.868502	3809.045435
817.187399	3828.968075
817.506250	3826.543280
817.825058	3808.359838
818.143821	3906.070002
818.462539	4004.130527
818.781213	4048.790109
819.099843	4117.422898
819.418429	4382.907703
819.736970	4624.933499
820.055466	4884.071492
820.373919	5256.128811
820.692327	5672.709600
821.010691	6170.321896
821.329011	7662.110225
821.647286	10573.520244
821.965517	15326.108361
822.283704	19355.116982
822.601847	21355.630831
822.919945	19410.184026
823.237999	16736.459370
823.556010	14200.466598
823.873976	12035.084334
824.191897	9916.483978
824.509775	8579.287673
824.827609	7444.397913
825.145398	6911.343785
825.463144	6798.623585
825.780845	6908.752632
826.098502	7140.640668
826.416116	8095.382274
826.733685	9472.751534
827.051210	10568.653010
827.368692	10515.673003
827.686129	9175.825052
828.003522	7651.246538
828.320872	6623.824096
828.638177	5904.579992
828.955439	5325.487526
829.272656	4826.405733
829.589830	4556.048653
829.906960	4376.996950
830.224046	4181.652239
830.541088	4063.157397
830.858086	4011.596476
831.175041	3932.780556
831.491952	3920.817898
831.808819	3931.747119
832.125642	4014.434645
832.442421	4174.198893
832.759157	4465.920384
833.075849	5048.972676
833.392497	5950.756961
833.709101	6754.321925
834.025662	7057.869963
834.342179	6633.132587
834.658653	5948.538853
834.975083	5282.257111
835.291469	4701.690108
835.607811	4299.368222
835.924110	4152.128721
836.240366	3947.450313
836.556578	3741.965321
836.872746	3634.492962
837.188871	3592.669029
837.504952	3523.537166
837.820990	3434.979216
838.136984	3396.744585
838.452935	3423.102258
838.768842	3413.524066
839.084706	3442.540947
839.400526	3613.884725
839.716303	3981.450376
840.032037	4531.672153
840.347727	4763.219911
840.663373	4452.901604
840.978977	4061.841656
841.294537	3747.306423
841.610054	3522.990201
841.925527	3418.529931
842.240957	3347.058973
842.556344	3291.699542
842.871687	3231.079667
843.186987	3174.815349
843.502244	3143.887870
843.817458	3106.026284
844.132629	3078.859506
844.447756	3085.760845
844.762840	3066.775860
845.077881	3035.354348
845.392879	3019.701565
845.707833	3016.268540
846.022745	3014.320134
846.337613	3015.618231
846.652438	3003.373268
846.967221	2998.790859
847.281960	2984.597491
847.596656	2981.209835
847.911309	2984.090855
848.225919	2979.750421
848.540485	2971.387147
848.855009	2970.620892
849.169490	2959.842905
849.483928	2953.135649
849.798323	2952.986935
850.112675	2951.562809
850.426984	2964.001857
850.741251	2954.108592
851.055474	2943.048301
851.369654	2938.894390
851.683792	2943.580142
851.997887	2957.155970
852.311938	2953.975002
852.625947	2941.997220
852.939914	2946.199022
853.253837	2951.782100
853.567718	2937.465223
853.881555	2936.283072
854.195350	2952.853345
854.509103	2947.242541
854.822812	2936.986313
855.136479	2933.505396
855.450103	2939.937909
855.763685	2928.970878
856.077224	2927.645055
856.390720	2941.283897
856.704173	2950.269753
857.017584	2942.932354
857.330953	2943.764144
857.644278	2950.736060
857.957561	2961.602267
858.270802	2962.819706
858.584000	2960.500775
858.897155	2948.497788
859.210268	2949.304373
859.523339	2944.790019
859.836367	2946.128446
860.149352	2938.065120
860.462295	2934.168308
860.775195	2941.508228
861.088054	2941.046963
861.400869	2926.220929
861.713642	2925.278233
862.026373	2938.211313
862.339062	2944.033846
862.651708	2946.937551
862.964312	2949.611883
863.276873	2940.303392
863.589392	2955.099179
863.901869	2965.879686
864.214303	2991.521515
864.526696	3002.801097
864.839045	2999.897392
865.151353	2998.120386
865.463619	2999.662979
865.775842	3001.450068
866.088023	3020.780372
866.400162	3023.182482
866.712258	2995.025117
867.024313	2985.005824
867.336325	2995.307422
867.648296	3015.227541
867.960224	3008.235461
868.272110	2997.457474
868.583954	2999.337824
868.895755	3012.626306
869.207515	2999.579800
869.519233	3005.866119
869.830909	3017.581760
870.142542	3024.596526
870.454134	3022.529653
870.765684	3030.126672
871.077191	3028.654655
871.388657	3037.756458
871.700081	3051.697769
872.011463	3062.657237
872.322803	3058.379818
872.634101	3061.084397
872.945357	3080.694486
873.256571	3104.793722
873.567744	3099.863473
873.878874	3094.101434
874.189963	3115.233951
874.501010	3115.642285
874.812015	3105.295317
875.122979	3103.472939
875.433900	3104.650049
875.744780	3107.634412
876.055618	3115.896863
876.366415	3114.918879
876.677169	3122.888943
876.987882	3118.495578
877.298554	3116.826956
877.609183	3141.326964
877.919771	3166.242867
878.230317	3191.930066
878.540822	3246.871081
878.851285	3286.524797
879.161707	3332.943742
879.472087	3449.328861
879.782425	3700.585010
880.092722	4161.820340
880.402977	4710.123958
880.713191	5371.845977
881.023363	6606.240552
881.333494	7919.869462
881.643583	8443.728526
881.953631	8106.190508
882.263637	7426.973165
882.573602	6802.472506
882.883526	6214.636159
883.193408	5637.764322
883.503248	5180.289692
883.813048	4863.289336
884.122806	4534.041496
884.432522	4207.914130
884.742197	3962.384732
885.051831	3769.774846
885.361424	3643.708191
885.670975	3564.070563
885.980485	3472.041779
886.289954	3390.110427
886.599382	3345.476050
886.908768	3307.753096
887.218113	3264.759616
887.527417	3204.442210
887.836680	3155.142246
888.145901	3147.830052
888.455082	3134.029893
888.764221	3083.346133
889.073319	3053.983932
889.382376	3051.619631
889.691392	3053.716751
890.000366	3053.757080
890.309300	3043.137890
890.618193	3056.179355
890.927044	3073.256263
891.235855	3069.636715
891.544625	3058.221022
891.853353	3071.995975
892.162041	3091.699325
892.470687	3135.695995
892.779293	3184.484282
893.087858	3233.353227
893.396381	3314.135197
893.704864	3447.163685
894.013306	3702.810679
894.321707	4016.778782
894.630068	4213.451837
894.938387	4202.396587
895.246665	4158.651974
895.554903	4026.157848
895.863100	3817.731343
896.171256	3646.400167
896.479371	3500.811644
896.787446	3370.807848
897.095480	3267.108793
897.403473	3200.333669
897.711425	3169.242353
898.019336	3158.169459
898.327207	3123.166207
898.635038	3087.479879
898.942827	3074.002354
899.250576	3058.611711
899.558284	3031.286137
899.865952	3008.437107
900.173579	2987.092862
900.481165	2981.822335
900.788711	2967.318936
901.096216	2939.292641
901.403681	2932.003133
901.711105	2938.486056
902.018489	2936.542692
902.325832	2935.242074
902.633135	2946.519135
902.940397	2985.704024
903.247619	3077.495874
903.554800	3284.639406
903.861941	3658.506498
904.169041	4107.038121
904.476101	4399.858583
904.783121	4328.460721
905.090100	4067.044127
905.397039	3779.882360
905.703938	3520.706558
906.010796	3335.431551
906.317614	3220.203377
906.624391	3122.440281
906.931129	3049.207439
907.237826	2987.851555
907.544483	2938.178546
907.851099	2907.969432
908.157675	2886.995711
908.464211	2866.115252
908.770707	2853.673684
909.077163	2839.356807
909.383578	2821.561534
909.689954	2811.496870
909.996289	2810.319761
910.302584	2811.764052
910.608839	2812.328661
910.915054	2803.710808
911.221229	2797.926084
911.527363	2800.764254
911.833458	2811.297745
912.139513	2813.291521
912.445527	2817.999959
912.751502	2825.213850
913.057436	2836.117866
913.363331	2848.992973
913.669186	2872.930892
913.975000	2912.551840
914.280775	2974.621047
914.586510	3048.436142
914.892205	3130.962351
915.197859	3271.739093
915.503475	3480.762976
915.809050	3708.227399
916.114585	3854.924976
916.420081	3868.241184
916.725536	3798.489258
917.030952	3671.721883
917.336328	3535.300698
917.641665	3400.132240
917.946961	3299.949390
918.252218	3219.487533
918.557435	3139.454175
918.862612	3076.026377
919.167750	3030.303112
919.472848	2989.089159
919.777906	2959.026238
920.082925	2933.170160
920.387904	2902.109090
920.692843	2885.369939
920.997743	2870.995089
921.302603	2856.335413
921.607423	2847.563806
921.912204	2833.050324
922.216946	2822.438695
922.521647	2813.717499
922.826310	2802.271559
923.130932	2794.866104
923.435516	2785.741615
923.740059	2779.740122
924.044564	2772.516148
924.349028	2763.822678
924.653454	2760.311515
924.957840	2752.979157
925.262186	2747.333064
925.566493	2743.516911
925.870761	2739.857033
926.174989	2737.081878
926.479178	2729.386557
926.783328	2724.894888
927.087438	2724.481514
927.391509	2722.228118
927.695541	2719.231152
927.999533	2714.343753
928.303486	2711.341746
928.607400	2713.164123
928.911275	2710.880481
929.215110	2708.934595
929.518906	2711.256047
929.822663	2710.247816
930.126381	2708.795964
930.430060	2709.582384
930.733699	2712.077755
931.037299	2710.976263
931.340861	2713.572457
931.644383	2714.316027
931.947866	2710.784699
932.251309	2711.104812
932.554714	2709.942826
932.858080	2708.553988
933.161407	2706.736652
933.464694	2701.917309
933.767943	2701.269521
934.071153	2702.673482
934.374323	2703.306147
934.677455	2703.696837
934.980548	2701.314891
935.283602	2701.370344
935.586617	2700.858667
935.889593	2701.077957
936.192530	2702.706250
936.495428	2702.126517
936.798287	2704.601724
937.101108	2707.518031
937.403890	2712.559185
937.706632	2715.233517
938.009336	2723.465721
938.312002	2731.997874
938.614628	2742.901890
938.917216	2748.303486
939.219765	2749.437746
939.522275	2747.512025
939.824747	2746.826428
940.127179	2742.917013
940.429573	2740.033473
940.731929	2737.588514
941.034246	2732.328070
941.336524	2728.945456
941.638763	2726.324056
941.940964	2724.738613
942.243126	2722.843139
942.545250	2723.352295
942.847335	2718.563199
943.149381	2715.667056
943.451389	2710.875440
943.753359	2707.883515
944.055290	2706.910572
944.357182	2706.933257
944.659036	2706.008206
944.960851	2703.958977
945.262628	2701.017463
945.564367	2702.673482
945.866067	2703.926209
946.167729	2705.660366
946.469352	2705.078113
946.770937	2705.453679
947.072484	2703.089377
947.373992	2701.274562
947.675462	2700.871270
947.976893	2696.036803
948.278286	2695.658717
948.579641	2694.040506
948.880958	2690.340299
949.182236	2695.048737
949.483476	2692.525640
949.784678	2692.497913
950.085841	2693.669982
950.386967	2695.724252
950.688054	2695.051258
950.989103	2694.128727
951.290114	2698.328008
951.591087	2701.758513
951.892021	2701.395550
952.192917	2705.277238
952.493776	2706.381251
952.794596	2707.472661
953.095378	2707.003833
953.396122	2704.301775
953.696828	2705.471323
953.997496	2700.755323
954.298126	2699.558049
954.598718	2698.605271
954.899272	2695.525126
955.199788	2693.821216
955.500266	2691.386339
955.800706	2688.396935
956.101108	2684.376614
956.401472	2684.787468
956.701798	2680.061387
957.002087	2680.081551
957.302337	2677.949143
957.602550	2682.619772
957.902724	2676.961077
958.202861	2674.995027
958.502960	2674.314471
958.803022	2671.814059
959.103045	2671.589728
959.403031	2673.412105
959.702979	2669.328770
960.002889	2671.693071
960.302762	2670.909172
960.602596	2672.449244
960.902393	2670.505880
961.202153	2667.667710
961.501875	2669.540499
961.801559	2668.570077
962.101205	2668.655776
962.400814	2668.197031
962.700385	2666.772905
962.999918	2664.819458
963.299414	2662.850887
963.598873	2664.955569
963.898293	2660.819302
964.197677	2665.764674
964.497022	2667.899603
964.796331	2667.531599
965.095601	2663.188645
965.394835	2667.758451
965.694030	2667.675272
965.993189	2667.082936
966.292309	2663.211330
966.591393	2663.581855
966.890439	2666.460354
967.189447	2663.443223
967.488419	2665.673934
967.787353	2666.009170
968.086249	2666.004129
968.385108	2665.273162
968.683930	2665.530261
968.982714	2666.425066
969.281462	2664.398522
969.580172	2665.585713
969.878844	2665.956238
970.177480	2664.983296
970.476078	2665.910868
970.774639	2664.088491
971.073162	2665.999088
971.371649	2666.117555
971.670098	2667.108142
971.968510	2665.086639
972.266885	2667.801301
972.565223	2666.036897
972.863524	2666.059582
973.161788	2666.442710
973.460014	2666.026814
973.758204	2666.387257
974.056356	2663.831392
974.354471	2666.016732
974.652550	2665.071516
974.950591	2667.398008
975.248595	2667.057730
975.546563	2666.228461
975.844493	2666.036897
976.142386	2664.496824
976.440243	2664.436330
976.738062	2666.825837
977.035845	2666.541012
977.333590	2662.906340
977.631299	2665.719304
977.928971	2659.627070
978.226606	2657.414003
978.524204	2663.987668
978.821765	2658.286123
979.119290	2665.129489
979.416777	2661.492297
979.714228	2660.789056
980.011642	2664.148985
980.309020	2664.375837
980.606360	2663.786022
980.903664	2666.034376
981.200931	2661.351144
981.498162	2663.904489
981.795356	2667.040086
982.092513	2668.189469
982.389633	2668.514624
982.686717	2672.592917
982.983764	2677.520645
983.280775	2682.889474
983.577749	2682.778569
983.874686	2682.355112
984.171587	2678.619617
984.468451	2677.873526
984.765279	2673.679286
985.062070	2671.466219
985.358824	2670.344563
985.655543	2670.210972
985.952224	2667.093018
986.248869	2664.741320
986.545478	2665.164777
986.842050	2664.380878
987.138586	2663.410456
987.435086	2663.080260
987.731549	2662.359375
988.027975	2662.250990
988.324366	2659.407779
988.620719	2661.807369
988.917037	2663.022287
989.213318	2660.300064
989.509563	2660.121103
989.805772	2657.638334
990.101944	2658.858294
990.398080	2661.341062
990.694180	2661.109169
990.990244	2660.463901
991.286271	2660.146308
991.582262	2659.556493
991.878217	2660.032882
992.174136	2660.111020
992.470019	2660.133706
992.765865	2656.690597
993.061676	2655.241266
993.357450	2657.766884
993.653188	2654.958961
993.948890	2660.083294
994.244556	2661.073881
994.540186	2660.927687
994.835780	2657.945845
995.131337	2659.609426
995.426859	2663.584375
995.722345	2660.670588
996.017795	2661.731751
996.313208	2665.268121
996.608586	2665.404232
996.903928	2664.774088
997.199234	2664.353151
997.494504	2664.121258
997.789738	2664.350631
998.084936	2663.952380
998.380099	2662.805517
998.675225	2662.485404
998.970316	2662.402225
999.265371	2659.092707
999.560390	2660.312667
999.855373	2659.105310
1000.150320	2661.010866
1000.445232	2658.737306
1000.740108	2658.129847
1001.034948	2658.079435
1001.329752	2658.281082
1001.624521	2659.085146
1001.919254	2660.272337
1002.213951	2658.974240
1002.508613	2660.877276
1002.803239	2656.683036
1003.097829	2655.947027
1003.392384	2656.887202
1003.686903	2657.159425
1003.981386	2657.971051
1004.275834	2658.996925
1004.570246	2657.487100
1004.864623	2656.703200
1005.158964	2657.257727
1005.453270	2659.322080
1005.747540	2658.328972
1006.041775	2657.015752
1006.335974	2655.831081
1006.630138	2657.693787
1006.924266	2655.934424
1007.218359	2656.665392
1007.512416	2657.497182
1007.806438	2653.751605
1008.100425	2653.222284
1008.394376	2653.481903
1008.688292	2658.414672
1008.982172	2657.542552
1009.276017	2657.534991
1009.569827	2655.773107
1009.863602	2659.024652
1010.157341	2657.839981
1010.451045	2655.964671
1010.744714	2657.693787
1011.038347	2656.380567
1011.331945	2656.105824
1011.625508	2658.931390
1011.919036	2657.928201
1012.212528	2658.142450
1012.505986	2657.091369
1012.799408	2656.952737
1013.092795	2655.952068
1013.386147	2655.687408
1013.679464	2655.279074
1013.972745	2656.788900
1014.265992	2655.740340
1014.559204	2656.320073
1014.852380	2657.996256
1015.145521	2657.444250
1015.438628	2656.723365
1015.731699	2656.849394
1016.024736	2657.867707
1016.317737	2655.493323
1016.610703	2657.008190
1016.903635	2654.096924
1017.196531	2654.394352
1017.489393	2657.845022
1017.782219	2655.659682
1018.075011	2656.826709
1018.367768	2652.987870
1018.660490	2655.347130
1018.953177	2655.347130
1019.245829	2655.347130
