Dividing Wavelength (nm)	Counts (n)	Blue Motor Position (mm): 35.200000	Red Motor Position (mm): 0.000000	
326.493990	2229.203272
326.888308	2229.203272
327.282561	2229.203272
327.676750	2189.728517
328.070874	2185.055367
328.464933	2187.339010
328.858929	2190.230112
329.252859	2193.605164
329.646726	2203.810980
330.040528	2214.558720
330.434265	2226.443240
330.827938	2248.813360
331.221547	2264.357758
331.615091	2281.381735
332.008571	2299.416463
332.401986	2317.471355
332.795338	2337.983810
333.188625	2356.739423
333.581847	2374.834645
333.975006	2394.419528
334.368100	2411.365366
334.761129	2432.371854
335.154095	2449.680656
335.546996	2476.179481
335.939833	2513.806653
336.332606	2529.139323
336.725315	2540.224820
337.117960	2554.869372
337.510540	2563.031000
337.903056	2575.545665
338.295508	2586.255596
338.687896	2596.123655
339.080220	2599.420569
339.472480	2610.027157
339.864676	2614.213835
340.256807	2621.778087
340.648875	2624.893520
341.040879	2624.969137
341.432818	2630.101032
341.824694	2630.998357
342.216506	2632.722432
342.608253	2635.202679
342.999937	2633.539098
343.391557	2631.913326
343.783113	2633.145888
344.174605	2632.203193
344.566033	2631.825106
344.957397	2632.278810
345.348697	2629.110445
345.739934	2627.577934
346.131106	2628.397122
346.522215	2624.633900
346.913260	2622.932511
347.304241	2622.380504
347.695159	2618.803806
348.086012	2619.537294
348.476802	2615.847169
348.867528	2611.514297
349.258191	2607.390633
349.648789	2605.311157
350.039324	2606.150510
350.429796	2608.731580
350.820203	2605.202773
351.210548	2604.098760
351.600828	2605.333843
351.991045	2602.689757
352.381198	2602.737648
352.771288	2602.601537
353.161314	2599.508789
353.551276	2599.586927
353.941175	2601.515169
354.331010	2600.375868
354.720782	2600.660693
355.110490	2599.395363
355.500135	2598.303954
355.889717	2600.259921
356.279235	2599.896958
356.668689	2602.009202
357.058080	2600.932915
357.447408	2601.805035
357.836672	2600.990889
358.225873	2601.245467
358.615010	2600.267483
359.004084	2599.607092
359.393095	2601.646239
359.782043	2603.085488
360.170927	2604.673452
360.559748	2604.660849
360.948505	2606.311827
361.337199	2605.253184
361.725830	2608.872733
362.114398	2603.524068
362.502903	2605.018771
362.891344	2605.343925
363.279722	2608.045983
363.668037	2608.174533
364.056289	2607.743514
364.444478	2606.127824
364.832603	2610.110336
365.220665	2608.645881
365.608665	2609.313834
365.996601	2613.936572
366.384474	2611.494133
366.772284	2611.035388
367.160031	2612.910697
367.547715	2614.057559
367.935336	2614.354987
368.322893	2610.122939
368.710388	2609.855758
369.097820	2612.099071
369.485189	2608.595469
369.872495	2616.822632
370.259738	2612.676283
370.646918	2614.347426
371.034035	2614.773403
371.421090	2615.380862
371.808081	2614.090327
372.195010	2616.227776
372.581875	2615.627879
372.968678	2616.094186
373.355418	2618.385390
373.742096	2618.697942
374.128710	2619.590226
374.515262	2620.527880
374.901751	2619.000411
375.288177	2618.478651
375.674540	2619.713734
376.060841	2617.969495
376.447079	2620.419496
376.833254	2619.867489
377.219367	2621.836060
377.605417	2621.926801
377.991404	2622.599795
378.377329	2620.361522
378.763191	2622.254476
379.148991	2621.878910
379.534727	2623.267747
379.920402	2622.723303
380.306013	2622.539301
380.691563	2626.564662
381.077049	2624.586009
381.462474	2625.269086
381.847835	2626.698253
382.233134	2626.184055
382.618371	2627.270424
383.003545	2627.136833
383.388657	2627.197327
383.773706	2627.925774
384.158693	2629.836371
384.543618	2630.048099
384.928480	2630.232102
385.313280	2629.211268
385.698017	2631.986423
386.082692	2634.617905
386.467305	2633.458440
386.851856	2635.522792
387.236344	2633.851650
387.620770	2631.613378
388.005133	2632.397277
388.389435	2633.196300
388.773674	2632.167905
389.157851	2636.311733
389.541965	2636.016826
389.926018	2638.048411
390.310008	2637.942546
390.693936	2639.396919
391.077802	2639.648977
391.461606	2641.307517
391.845348	2641.494039
392.229027	2642.537558
392.612645	2641.269708
392.996200	2641.209214
393.379694	2643.170223
393.763125	2644.201139
394.146494	2642.096457
394.529801	2647.729947
394.913047	2643.679379
395.296230	2647.036788
395.679351	2649.635503
396.062410	2646.252888
396.445408	2649.630462
396.828343	2651.964516
397.211217	2649.418733
397.594028	2649.935451
397.976778	2651.160452
398.359466	2651.558703
398.742092	2652.153559
399.124656	2652.254382
399.507158	2656.539363
399.889598	2657.603046
400.271977	2656.683036
400.654294	2660.781494
401.036549	2661.424241
401.418742	2661.439364
401.800874	2664.837102
402.182944	2667.347597
402.564952	2670.868843
402.946898	2676.088957
403.328783	2679.058197
403.710606	2686.919877
404.092367	2697.128213
404.474067	2708.367466
404.855705	2720.153683
405.237282	2732.930488
405.618797	2760.046854
406.000250	2780.007303
406.381642	2818.400731
406.762972	2847.573888
407.144240	2881.780637
407.525447	2921.031061
407.906593	2967.076960
408.287677	3029.466280
408.668700	3077.813466
409.049661	3145.869043
409.430560	3209.657283
409.811399	3253.532966
410.192176	3361.721169
410.572891	3436.857046
410.953545	3553.526990
411.334138	3573.915937
411.714669	3693.597970
412.095139	3713.117318
412.475547	3861.601984
412.855894	3962.684680
413.236180	4105.896299
413.616405	4092.580092
413.996568	4257.090586
414.376670	4349.890666
414.756711	4401.539808
415.136691	4529.559910
415.516609	4707.411817
415.896466	4801.383966
416.276262	4985.895238
416.655997	5072.046037
417.035670	5267.846973
417.415283	5543.376277
417.794834	5668.394372
418.174324	5693.887487
418.553753	5754.608185
418.933121	6049.248504
419.312428	6201.425815
419.691674	6156.647766
420.070859	6569.742598
420.449983	6453.959897
420.829045	6799.465458
421.208047	6726.593058
421.586988	7039.938579
421.965867	7141.704351
422.344686	7311.969322
422.723444	7419.179541
423.102141	7001.958526
423.480777	7682.350457
423.859352	7356.820468
424.237866	7958.373795
424.616319	7908.647853
424.994712	8319.262437
425.373044	8019.734720
425.751314	8480.556675
426.129524	8416.841532
426.507673	8597.922298
426.885762	8782.005072
427.263789	8741.149041
427.641756	8710.609731
428.019662	8859.991722
428.397508	9109.833827
428.775292	8863.036579
429.153016	9251.076876
429.530679	9118.454200
429.908282	9199.914205
430.285824	8946.354249
430.663305	9619.673442
431.040726	9114.779199
431.418086	9122.265313
431.795385	9446.272873
432.172624	9544.209890
432.549802	9484.333585
432.926920	9574.502183
433.303977	9465.441861
433.680974	9678.551598
434.057910	9770.340928
434.434786	9828.664557
434.811601	9701.546822
435.188355	10262.874261
435.565050	9994.218570
435.941683	9934.806051
436.318257	10429.658316
436.694770	10550.973683
437.071222	10626.381783
437.447614	10478.126489
437.823946	10368.196568
438.200218	10530.166321
438.576429	10339.225057
438.952580	10564.037833
439.328670	10634.379573
439.704700	10413.420759
440.080670	10410.910265
440.456580	10983.756741
440.832429	10717.354445
441.208218	10328.762142
441.583947	10665.811168
441.959616	10794.988214
442.335224	10606.754050
442.710773	10756.675445
443.086261	10950.149889
443.461689	10249.560574
443.837057	10886.268387
444.212365	11172.920998
444.587612	10811.190483
444.962800	11056.258615
445.337927	10826.039202
445.712995	10397.029447
446.088002	11490.301962
446.462949	11138.237859
446.837837	11110.312388
447.212664	11115.731628
447.587431	11611.050199
447.962139	12327.037718
448.336786	14576.171192
448.711374	15135.575431
449.085901	13004.092406
449.460369	12608.719751
449.834776	12062.145248
450.209124	12919.569900
450.583412	13322.794152
450.957640	14276.000727
451.331808	13446.546917
451.705917	12411.151891
452.079965	11734.424878
452.453954	12631.384779
452.827883	12256.209507
453.201752	12548.230946
453.575562	12063.007285
453.949311	12479.235194
454.323001	12434.676435
454.696632	12666.236796
455.070202	12956.879480
455.443713	13205.763766
455.817164	13659.487776
456.190556	13657.935101
456.563888	14014.851314
456.937160	14195.750599
457.310373	13523.633721
457.683526	13601.602727
458.056619	13154.104542
458.429653	13303.889825
458.802628	12743.331162
459.175542	13109.533180
459.548398	14058.870669
459.921194	14390.331576
460.293930	14452.683087
460.666607	15336.936760
461.039224	16372.062085
461.411782	17064.827529
461.784280	16951.673789
462.156719	17009.029517
462.529099	16700.422682
462.901419	15616.466220
463.273680	15408.165743
463.645882	15273.423263
464.018024	15008.349311
464.390106	15224.932404
464.762130	15950.666994
465.134094	16711.551029
465.505999	18685.606381
465.877845	21958.182306
466.249631	24781.447750
466.621358	24481.678057
466.993026	23029.190564
467.364634	22477.711018
467.736184	21009.510249
468.107674	20203.472598
468.479105	20335.076961
468.850477	19807.084151
469.221790	19396.250277
469.593043	18715.192913
469.964238	18154.213313
470.335373	17803.608625
470.706449	18238.839163
471.077467	17800.331875
471.448425	19635.954622
471.819324	23652.766171
472.190164	25682.846387
472.560945	22147.757417
472.931667	19769.232647
473.302330	19130.253794
473.672934	18640.309093
474.043479	18986.152412
474.413965	18798.056879
474.784393	18419.075536
475.154761	19112.062791
475.525070	19103.558364
475.895321	18763.474564
476.265513	19344.192802
476.635645	19934.111146
477.005719	19719.335307
477.375734	19905.931096
477.745691	20381.294259
478.115588	20902.864639
478.485427	21413.717526
478.855207	22482.250577
479.224928	24242.467745
479.594591	26462.738092
479.964194	26496.738155
480.333739	26715.080610
480.703226	26274.637519
481.072653	25946.778517
481.442022	26521.833018
481.811333	27423.700483
482.180584	27351.226334
482.549777	26402.957570
482.918912	26055.483438
483.287988	26171.031725
483.657005	25851.684711
484.025964	25585.849546
484.394864	25509.624779
484.763706	25191.832961
485.132489	24621.945642
485.501213	24804.208559
485.869879	24734.519649
486.238487	24534.259812
486.607036	24674.540000
486.975527	24376.615370
487.343959	24712.159611
487.712333	24640.340813
488.080648	24303.049812
488.448905	24788.908658
488.817104	24531.348546
489.185244	25211.712751
489.553326	25182.257289
489.921350	26175.145307
490.289315	28452.713409
490.657222	30235.701468
491.025070	30730.624309
491.392861	30518.822751
491.760593	29669.884881
492.128267	28764.193702
492.495883	27719.704434
492.863440	26849.366866
493.230939	25983.452911
493.598380	25820.086759
493.965763	25428.658807
494.333088	24977.732637
494.700354	24913.215950
495.067563	24791.101559
495.434713	24535.928434
495.801805	24682.295815
496.168839	24496.856971
496.535815	24322.591844
496.902733	24534.940368
497.269593	24213.967582
497.636395	24407.414299
498.003139	24373.885585
498.369825	24121.979127
498.736453	24314.347037
499.103023	24202.297311
499.469535	24217.130906
499.835989	24418.993829
500.202385	24456.232833
500.568723	23957.597182
500.935003	24186.183262
501.301226	23804.303256
501.667390	24664.465254
502.033497	24886.205447
502.399546	24609.688077
502.765537	24179.811244
503.131470	24564.214348
503.497345	24692.783936
503.863163	23919.352469
504.228923	24510.843653
504.594625	24726.133689
504.960269	24255.620116
505.325856	24742.376287
505.691385	24145.367560
506.056856	24748.672688
506.422270	24715.811927
506.787625	24289.234529
507.152924	24700.431366
507.518164	24730.373300
507.883347	24545.103334
508.248472	24225.055600
508.613540	25009.103737
508.978550	24793.685151
509.343503	24792.835716
509.708398	25048.427257
510.073236	25193.662900
510.438016	25412.824543
510.802738	25094.029535
511.167403	25345.532701
511.532010	25034.185998
511.896561	25811.244575
512.261053	25780.934638
512.625488	25609.477434
512.989866	25511.910942
513.354186	25357.248342
513.718449	25475.491126
514.082655	25841.012589
514.446803	25584.231335
514.810894	26042.709154
515.174927	25523.944176
515.538904	25568.215589
515.902822	26058.162811
516.266684	25804.794419
516.630488	25718.671347
516.994235	25682.735481
517.357925	25998.500755
517.721558	26162.522257
518.085133	26270.760872
518.448651	26171.697158
518.812112	25914.701655
519.175516	26121.106658
519.538863	26280.228159
519.902152	26055.153242
520.265385	26343.968508
520.628560	26126.979602
520.991678	26141.246068
521.354739	26215.409002
521.717743	26277.364783
522.080690	26072.777116
522.443580	26400.452116
522.806413	26393.719655
523.169189	26489.801527
523.531908	26530.977672
523.894569	26136.615768
524.257174	26221.135753
524.619722	26402.546716
524.982213	26089.722955
525.344647	26156.112430
525.707025	26292.573944
526.069345	26270.718022
526.431608	26219.557872
526.793815	26407.683651
527.155964	25888.086883
527.518057	26043.760235
527.880093	25965.793749
528.242072	26194.997371
528.603995	25908.367445
528.965860	25716.735543
529.327669	25746.432981
529.689421	25737.295889
530.051117	25579.343937
530.412755	25756.790031
530.774337	25562.440948
531.135862	25422.236377
531.497331	25628.172553
531.858743	25189.234246
532.220098	25670.661918
532.581396	25341.207391
532.942638	25277.177175
533.303824	25373.208635
533.664953	25397.625464
534.026025	25049.279213
534.387040	25292.076305
534.747999	25342.485323
535.108902	25508.351888
535.469748	24992.798125
535.830537	25184.482959
536.191270	25308.659181
536.551947	25172.111967
536.912567	24807.346678
537.273131	25180.661764
537.633638	24872.533838
537.994089	25086.828247
538.354483	24622.515293
538.714821	25126.151768
539.075103	25166.503683
539.435328	24942.043788
539.795497	24520.101732
540.155609	24897.399329
540.515665	25198.139444
540.875665	24425.544809
541.235609	24733.196346
541.595496	24686.719428
541.955328	25046.516660
542.315102	24961.595903
542.674821	24514.616956
543.034483	24395.076075
543.394090	24559.468102
543.753640	24362.260684
544.113134	24985.443081
544.472571	24586.095477
544.831953	24868.160637
545.191278	24503.599514
545.550548	24411.245576
545.909761	24610.227480
546.268918	24832.920451
546.628019	24810.394055
546.987064	24505.684032
547.346053	24266.209059
547.704986	24384.260279
548.063863	24550.699015
548.422684	24564.504215
548.781449	24072.013731
549.140158	24488.450847
549.498811	24064.013420
549.857408	23818.925123
550.215949	24229.983328
550.574434	23918.966821
550.932864	24123.390650
551.291237	24294.933554
551.649555	24153.143540
552.007817	24208.707138
552.366022	24062.949736
552.724173	24103.687300
553.082267	24048.320308
553.440305	24536.588825
553.798288	23772.818729
554.156215	24298.752228
554.514086	24395.983483
554.871902	23776.440798
555.229661	24057.490167
555.587365	23909.310490
555.945014	23774.094141
556.302606	24030.393965
556.660143	23980.070646
557.017625	24231.041970
557.375050	23742.468463
557.732421	24152.926771
558.089735	23966.015909
558.446994	24034.111816
558.804197	24052.867428
559.161345	23989.419466
559.518437	23754.829372
559.875474	23946.060502
560.232455	24121.437203
560.589381	23934.428039
560.946251	23933.893677
561.303065	24249.016204
561.659825	24330.269522
562.016528	23940.583288
562.373177	23672.192258
562.729770	24038.910994
563.086307	23906.701693
563.442789	24068.767228
563.799216	23896.856320
564.155587	23902.368822
564.511904	23872.971333
564.868164	23826.164219
565.224370	23795.098109
565.580520	23703.833060
565.936615	23847.347148
566.292654	23533.111864
566.648638	23822.640453
567.004567	23647.475480
567.360441	23591.432973
567.716260	23324.309792
568.072023	23658.210617
568.427732	23420.593310
568.783385	23187.707126
569.138982	23422.307303
569.494525	23465.562923
569.850013	23215.183935
570.205445	23308.591475
570.560823	23121.766313
570.916145	22870.132078
571.271412	23055.321385
571.626625	22810.434734
571.981782	22930.104164
572.336884	22727.243092
572.691931	22871.362119
573.046923	22607.709773
573.401860	22485.550013
573.756743	22491.949757
574.111570	22389.551320
574.466342	22319.141524
574.821059	22415.798087
575.175722	22120.250361
575.530330	22091.689704
575.884882	22117.006378
576.239380	22038.901261
576.593823	21921.142428
576.948211	21901.653327
577.302544	21747.106674
577.656823	21608.908482
578.011047	21708.385571
578.365216	21590.717478
578.719330	21455.186057
579.073389	21355.973629
579.427394	21502.078870
579.781344	21260.927714
580.135239	21159.739154
580.489080	21114.051177
580.842866	20892.182434
581.196597	21084.333575
581.550273	21059.752908
581.903895	20950.377514
582.257463	21265.316039
582.610975	20792.536467
582.964434	21111.074375
583.317837	20797.224740
583.671186	20887.957947
584.024481	20869.504803
584.377721	20637.873867
584.730906	20715.245496
585.084037	20714.990917
585.437113	20616.428798
585.790135	20837.947180
586.143103	20291.705394
586.496016	20314.057870
586.848874	20552.360774
587.201679	20470.265583
587.554428	20161.588172
587.907124	20488.532204
588.259765	20258.063253
588.612352	20344.166161
588.964884	19909.331354
589.317362	20080.604556
589.669786	20140.175871
590.022155	20154.366719
590.374470	20372.431911
590.726731	20155.314456
591.078937	19923.083622
591.431090	20005.735859
591.783188	19778.405027
592.135232	19734.650332
592.487222	19843.461117
592.839157	19866.216886
593.191038	19743.169882
593.542866	19623.739906
593.894639	19331.090843
594.246358	19559.336645
594.598022	19463.945412
594.949633	19201.197953
595.301190	19180.425878
595.652692	19346.957875
596.004141	19579.791127
596.355535	18912.107944
596.706876	18926.475232
597.058162	18821.168049
597.409395	19048.433347
597.760573	19123.349934
598.111698	18893.720335
598.462768	18836.659515
598.813785	18797.983783
599.164748	18613.192727
599.515657	18655.523296
599.866511	18453.516699
600.217312	18810.712696
600.568060	18329.222010
600.918753	18640.261202
601.269392	18533.497126
601.619978	18331.835848
601.970510	18531.899080
602.320988	18475.208784
602.671412	18681.117234
603.021783	18588.138192
603.372100	18308.540676
603.722363	18460.188666
604.072572	18400.577022
604.422728	18555.418583
604.772830	18306.894740
605.122878	18257.882121
605.472872	18240.994256
605.822813	18231.484119
606.172701	18203.969502
606.522534	18400.075427
606.872314	18428.031146
607.222041	18255.835413
607.571714	18463.982135
607.921333	18291.849416
608.270899	18376.455101
608.620411	18546.057160
608.969870	18321.108273
609.319276	18316.248601
609.668627	18349.752109
610.017926	18480.484352
610.367171	18590.772195
610.716362	18650.484662
611.065500	18457.869736
611.414585	18605.467158
611.763616	18587.687009
612.112594	18522.033542
612.461518	18499.020674
612.810389	18678.826029
613.159207	18536.652888
613.507971	18460.972566
613.856682	18723.039469
614.205340	18654.620929
614.553945	18805.038877
614.902496	18548.383653
615.250994	18767.444473
615.599439	18716.322132
615.947830	18702.988280
616.296169	18762.736035
616.644454	18713.549497
616.992686	18691.827165
617.340864	18903.543024
617.688990	18672.690945
618.037063	18837.881995
618.385082	18691.305406
618.733048	18959.693916
619.080961	18837.254371
619.428821	18885.694818
619.776628	18763.396426
620.124382	18692.434624
620.472083	18734.591273
620.819731	18750.274303
621.167326	18444.833312
621.514868	18484.986102
621.862357	18256.488242
622.209793	18259.621319
622.557176	18092.015557
622.904506	17918.814114
623.251783	17836.537442
623.599007	17590.408146
623.946179	17532.770114
624.293297	17475.149725
624.640363	17225.108495
624.987376	17241.277996
625.334336	17039.009259
625.681243	16886.753810
626.028097	16902.414155
626.374899	16819.759396
626.721647	16691.157041
627.068343	16524.244437
627.414987	16462.119778
627.761577	16429.506033
628.108115	16465.129347
628.454600	16191.021647
628.801032	16282.795853
629.147412	16221.679424
629.493739	16233.543780
629.840014	16049.133331
630.186236	16150.039587
630.532405	15913.034780
630.878521	16113.075327
631.224585	16000.856721
631.570597	15826.936914
631.916556	15860.425299
632.262462	15839.363358
632.608316	15748.647794
632.954117	15690.379618
633.299866	15692.786769
633.645562	15602.797131
633.991206	15359.518608
634.336797	15229.814761
634.682336	15206.345669
635.027823	15087.195478
635.373257	14966.248115
635.718639	14875.267891
636.063968	14819.293439
636.409245	14564.006887
636.754470	14594.843626
637.099642	14445.012972
637.444762	14207.715778
637.789829	14264.423717
638.134845	14095.482049
638.479808	14120.710503
638.824719	14061.386205
639.169577	13919.679370
639.514383	13961.175628
639.859137	13776.858441
640.203839	13875.297052
640.548489	13709.138101
640.893086	13702.919837
641.237632	13574.355291
641.582125	13722.938259
641.926566	13556.920460
642.270955	13565.624012
642.615292	13521.594575
642.959576	13533.970607
643.303809	13566.133169
643.647990	13488.504441
643.992118	13558.861304
644.336195	13327.157271
644.680219	13542.228017
645.024192	13461.244401
645.368112	13701.561246
645.711981	13757.533177
646.055797	13934.833079
646.399562	13905.428028
646.743274	14178.862734
647.086935	14453.882882
647.430544	14415.018106
647.774101	14455.090238
648.117606	14590.399848
648.461059	14565.909923
648.804460	14553.876689
649.147810	14277.482826
649.491108	14184.740719
649.834354	14205.749728
650.177548	13884.114030
650.520690	13703.068551
650.863781	13618.031848
651.206820	13670.112008
651.549807	13499.305113
651.892742	13293.835244
652.235626	13236.850041
652.578458	13242.516298
652.921238	12924.553081
653.263967	13126.239564
653.606644	12956.075416
653.949269	12927.804625
654.291843	12726.271897
654.634365	12890.520251
654.976836	12741.859145
655.319255	12745.980288
655.661622	12709.956203
656.003938	12623.024025
656.346203	12552.599106
656.688416	12625.627781
657.030577	12586.866349
657.372687	12494.469561
657.714746	12476.586068
658.056753	12661.301506
658.398708	12474.188999
658.740612	12480.122437
659.082465	12586.677306
659.424266	12553.143550
659.766016	12585.467429
660.107715	12488.841113
660.449362	12565.038153
660.790958	12518.634332
661.132503	12463.353039
661.473996	12524.948377
661.815438	12550.660782
662.156829	12567.435222
662.498168	12547.363867
662.839456	12546.002756
663.180693	12562.424315
663.521879	12657.399653
663.863013	12636.405768
664.204097	12606.690687
664.545129	12733.402609
664.886110	12696.282073
665.227040	12797.221096
665.567918	12797.576498
665.908746	12819.019045
666.249522	12812.180720
666.590248	12867.081406
666.930922	12975.330103
667.271545	12949.267337
667.612118	13031.758258
667.952639	12937.155965
668.293109	12955.682206
668.633528	12905.873085
668.973896	12886.326011
669.314213	12957.781846
669.654480	12703.432949
669.994695	12771.801078
670.334859	12798.284780
670.674973	12740.024165
671.015035	12785.240794
671.355047	12718.271586
671.695008	12695.238554
672.034918	12695.548585
672.374777	12734.723391
672.714585	12651.335145
673.054342	12689.264787
673.394049	12648.466728
673.733705	12731.945716
674.073310	12644.547231
674.412864	12653.790187
674.752368	12524.537523
675.091820	12548.104917
675.431223	12529.220755
675.770574	12397.641598
676.109875	12319.347438
676.449125	12280.507868
676.788324	12226.872512
677.127473	12052.599823
677.466571	12045.136395
677.805619	11938.062287
678.144616	11858.817869
678.483562	11837.965137
678.822458	11705.498737
679.161303	11682.657269
679.500098	11666.016420
679.838842	11629.142900
680.177535	11656.337405
680.516179	11718.048689
680.854771	11659.455358
681.193314	11875.196578
681.531805	12041.111034
681.870247	12457.951442
682.208638	12878.847459
682.546978	13186.120910
682.885268	13220.544429
683.223508	12918.022266
683.561697	12762.018719
683.899836	12666.587156
684.237925	12465.009058
684.575963	12372.912218
684.913951	12297.894808
685.251889	12255.697829
685.589776	12350.201820
685.927614	12276.449739
686.265401	12241.852300
686.603137	12296.631999
686.940824	12438.467383
687.278460	12571.430336
687.616046	12614.811985
687.953582	12777.492541
688.291068	12708.804299
688.628504	12941.476234
688.965889	12951.535857
689.303224	12919.799272
689.640510	12801.221252
689.977745	12487.842964
690.314930	12264.540013
690.652065	12180.592199
690.989150	11883.113710
691.326185	11662.069197
691.663170	11452.629419
692.000105	11208.904754
692.336990	11096.590367
692.673825	10840.227529
693.010610	10726.436084
693.347345	10516.361121
693.684030	10321.185288
694.020665	10253.432180
694.357251	10066.826309
694.693786	9993.112037
695.030272	9842.709212
695.366707	9721.116581
695.703093	9653.761724
696.039429	9653.640737
696.375716	9575.013860
696.711952	9442.093757
697.048139	9485.001538
697.384276	9441.498901
697.720363	9462.654103
698.056400	9396.451150
698.392388	9340.398560
698.728326	9308.810690
699.064214	9238.957942
699.400053	9286.833780
699.735842	9098.100542
700.071581	9058.003204
700.407270	8984.848500
700.742910	8907.035770
701.078501	8809.320564
701.414042	8688.531997
701.749533	8629.321125
702.084974	8483.818302
702.420366	8603.817928
702.755709	8477.045511
703.091002	8342.091302
703.426246	8375.922486
703.761440	8324.018766
704.096584	8279.853217
704.431679	8216.468269
704.766725	8200.157616
705.101721	8158.646234
705.436668	8205.251702
705.771565	8087.613856
706.106413	8174.273811
706.441212	8213.252013
706.775961	8168.904983
707.110661	8210.355870
707.445311	8351.919032
707.779913	8248.673680
708.114465	8381.452632
708.448967	8417.212056
708.783421	8566.001712
709.117825	8746.071728
709.452180	8782.864589
709.786485	8866.595634
710.120742	9151.209098
710.454949	9155.950303
710.789107	9255.432433
711.123216	9475.914858
711.457275	9645.068255
711.791286	9793.250451
712.125247	9798.425196
712.459159	9784.806519
712.793023	10028.352223
713.126837	9601.154763
713.460602	9754.819215
713.794318	9579.029139
714.127985	9608.966031
714.461602	9274.737531
714.795171	9230.584585
715.128691	8979.078899
715.462162	8738.346159
715.795584	8681.063528
716.128957	8529.503758
716.462281	8364.169036
716.795556	8415.770286
717.128782	8203.026032
717.461960	7937.705064
717.795088	8010.111157
718.128167	7918.122702
718.461198	7752.024245
718.794180	7688.596447
719.127113	7686.476642
719.459997	7526.561159
719.792833	7299.452138
720.125619	7363.530244
720.458357	7218.700415
720.791046	7207.723302
721.123686	7205.734567
721.456278	7046.179527
721.788821	7061.343318
722.121315	6962.372865
722.453761	7025.881321
722.786158	6969.750594
723.118506	6979.376677
723.450805	6947.758560
723.783056	7012.938159
724.115259	6921.652945
724.447412	6921.168994
724.779518	6968.505429
725.111574	6970.148845
725.443582	7052.304529
725.775542	7030.473812
726.107453	7226.468833
726.439315	7133.439380
726.771129	7196.995727
727.102895	7366.262549
727.434612	7473.863458
727.766281	7511.049529
728.097901	7588.418638
728.429473	7581.141732
728.760996	7564.994916
729.092471	7537.921400
729.423897	7483.345868
729.755276	7489.669996
730.086606	7419.398832
730.417887	7518.099583
730.749120	7719.130716
731.080305	7914.233452
731.411442	8031.407511
731.742530	8023.165225
732.073570	8136.407184
732.404562	8219.046819
732.735506	8070.307575
733.066401	8209.088020
733.397249	8137.009602
733.728048	7890.376191
734.058798	7558.275058
734.389501	7329.522620
734.720156	7152.384036
735.050762	6925.280055
735.381320	6831.113822
735.711831	6775.464524
736.042293	6671.256313
736.372707	6684.670823
736.703073	6547.513630
737.033391	6592.266473
737.363661	6604.849193
737.693883	6633.961857
738.024056	6718.796914
738.354182	6759.915085
738.684260	6795.402288
739.014290	6916.279075
739.344272	7023.965683
739.674207	7048.634569
740.004093	7121.670806
740.333931	7135.564226
740.663722	7142.253837
740.993464	7223.975982
741.323159	7204.761624
741.652806	6956.494880
741.982405	6973.027344
742.311956	7026.972731
742.641460	6861.403595
742.970915	6666.111815
743.300323	6657.735938
743.629683	6608.219204
743.958996	6472.160983
744.288260	6387.278034
744.617477	6331.759807
744.946647	6334.373645
745.275768	6165.832749
745.604842	6122.652745
745.933869	6106.311845
746.262847	6066.257357
746.591778	6050.695315
746.920662	6010.522360
747.249498	6005.022462
747.578286	6052.512651
747.907027	6126.922603
748.235720	6184.774884
748.564365	6156.839330
748.892963	6195.535227
749.221514	6339.926476
749.550017	6165.323592
749.878473	6048.820006
750.206881	6104.096258
750.535242	6049.528288
750.863555	5975.448533
751.191821	5994.625082
751.520039	5991.335729
751.848210	5897.477006
752.176334	5922.894504
752.504411	5977.812834
752.832440	5896.309979
753.160421	5826.792467
753.488356	5878.759202
753.816243	5904.572430
754.144082	5757.504328
754.471875	5730.229165
754.799620	5774.477893
755.127318	5782.329490
755.454969	5741.415486
755.782572	5701.963416
756.110129	5752.407722
756.437638	5734.887192
756.765100	5671.741698
757.092515	5678.716135
757.419882	5729.004165
757.747203	5706.707142
758.074477	5767.652171
758.401703	5753.809163
758.728882	5705.928283
759.056014	5770.412203
759.383099	5895.019443
759.710138	5903.904477
760.037129	5895.279063
760.364073	5896.267129
760.690970	5981.777701
761.017820	5952.992713
761.344623	5913.437299
761.671379	6017.683319
761.998088	6141.025231
762.324751	6388.288786
762.651366	6999.808473
762.977935	8336.669541
763.304456	9979.737856
763.630931	10866.655778
763.957359	10446.435276
764.283740	9499.141974
764.610074	8650.957757
764.936362	7647.591702
765.262602	7054.222688
765.588796	6517.549011
765.914943	6181.026786
766.241044	6016.906982
766.567097	5809.987781
766.893104	5553.758534
767.219064	5373.141553
767.544978	5312.183921
767.870845	5232.382456
768.196665	5129.578205
768.522438	5058.041712
768.848165	5019.978479
769.173846	4955.113953
769.499479	4912.528806
769.825066	4858.616186
770.150607	4800.796672
770.476101	4777.405718
770.801548	4770.448926
771.126949	4692.928582
771.452303	4638.927742
771.777611	4598.590950
772.102872	4620.474599
772.428087	4580.200821
772.753256	4538.704563
773.078378	4491.272346
773.403453	4421.417078
773.728482	4406.996857
774.053465	4361.734857
774.378401	4353.021223
774.703291	4350.389740
775.028135	4273.847381
775.352932	4228.640834
775.677683	4219.836459
776.002388	4234.362543
776.327046	4245.382506
776.651658	4171.857277
776.976224	4109.326805
777.300743	4114.194039
777.625216	4135.878562
777.949643	4132.085094
778.274024	4086.140017
778.598359	4040.870456
778.922647	4068.110331
779.246889	4058.297725
779.571086	4049.042166
779.895236	4037.830640
780.219339	4021.497302
780.543397	4018.049152
780.867409	4069.196699
781.191374	4081.434100
781.515294	4019.470758
781.839167	4011.346938
782.162995	4034.843757
782.486776	4018.994369
782.810511	4030.727654
783.134201	4029.124567
783.457844	3977.727483
783.781441	3925.896860
784.104993	3932.906585
784.428498	3953.396354
784.751958	3944.707926
785.075372	3925.488527
785.398739	3889.673649
785.722061	3899.541708
786.045337	3943.051907
786.368568	3975.464005
786.691752	3888.120974
787.014891	3942.457051
787.337983	4069.990681
787.661030	4232.497317
787.984031	4393.839445
788.306987	4564.883275
788.629897	4646.532323
788.952760	4596.491309
789.275579	4531.296587
789.598351	4462.295794
789.921078	4318.718691
790.243759	4121.453300
790.566395	4106.876804
790.888984	4101.674333
791.211529	3989.294411
791.534027	3933.942542
791.856480	3916.787495
792.178888	3857.281715
792.501249	3810.121721
792.823566	3820.566992
793.145836	3846.339891
793.468062	3798.514464
793.790241	3753.232300
794.112375	3782.528965
794.434464	3848.421887
794.756507	3869.287223
795.078505	3848.172350
795.400457	3885.759193
795.722364	4028.673384
796.044226	4129.246924
796.366042	4202.817523
796.687812	4180.686858
797.009538	4186.199360
797.331218	4148.035304
797.652852	4119.920789
797.974442	4098.001853
798.295986	4095.357767
798.617484	4017.040922
798.938938	3930.101183
799.260346	3971.879745
799.581709	3968.839929
799.903026	3889.592991
800.224299	3855.693752
800.545526	3848.852906
800.866708	3807.991833
801.187845	3753.007968
801.508936	3784.842855
801.829983	3779.960497
802.150984	3703.178683
802.471940	3692.708207
802.792851	3706.014332
803.113717	3703.856718
803.434538	3705.520299
803.755314	3645.835558
804.076045	3621.577526
804.396731	3642.223572
804.717372	3673.095598
805.037967	3653.316631
805.358518	3645.391937
805.679024	3676.301772
805.999485	3685.028009
806.319901	3689.519677
806.640272	3701.464691
806.960598	3712.877863
807.280879	3689.134029
807.601115	3705.225392
807.921306	3721.979667
808.241453	3761.696397
808.561554	3734.897623
808.881611	3669.599557
809.201623	3708.880228
809.521590	3717.435066
809.841513	3688.080427
810.161390	3719.078482
810.481223	3694.255841
810.801011	3640.007984
811.120755	3638.394815
811.440453	3669.229033
811.760107	3674.086184
812.079716	3627.493320
812.399281	3600.036676
812.718801	3623.777990
813.038276	3591.083586
813.357707	3592.409410
813.677093	3612.145527
813.996434	3555.619069
814.315731	3566.255904
814.634983	3571.264290
814.954191	3583.935230
815.273354	3613.539406
815.592473	3607.278293
815.911547	3617.867237
816.230577	3658.566992
816.549562	3709.139848
816.868502	3753.804471
817.187399	3777.190383
817.506250	3767.249228
817.825058	3745.098398
818.143821	3841.162626
818.462539	3942.366310
818.781213	3984.734687
819.099843	4046.985376
819.418429	4296.991318
819.736970	4542.092218
820.055466	4788.503818
820.373919	5163.679090
820.692327	5568.844187
821.010691	6034.084713
821.329011	7453.013245
821.647286	10254.198436
821.965517	14887.797678
822.283704	18921.459284
822.601847	21017.618945
822.919945	19153.732968
823.237999	16531.188627
823.556010	14036.901321
823.873976	11911.114799
824.191897	9813.331888
824.509775	8463.315929
824.827609	7335.196439
825.145398	6794.205014
825.463144	6684.890113
825.780845	6795.072092
826.098502	6998.182701
826.416116	7902.321205
826.733685	9244.808201
827.051210	10356.879178
827.368692	10356.715340
827.686129	9074.717150
828.003522	7556.435037
828.320872	6537.801847
828.638177	5831.581563
828.955439	5269.482827
829.272656	4765.198564
829.589830	4486.710102
829.906960	4313.554029
830.224046	4125.163589
830.541088	4000.195906
830.858086	3955.327116
831.175041	3876.596896
831.491952	3863.600802
831.808819	3870.121534
832.125642	3945.201959
832.442421	4100.744240
832.759157	4379.199935
833.075849	4946.317139
833.392497	5822.716694
833.709101	6602.668894
834.025662	6928.382885
834.342179	6540.289656
834.658653	5870.683273
834.975083	5218.882246
835.291469	4638.191734
835.607811	4236.646186
835.924110	4091.700410
836.240366	3893.658681
836.556578	3689.617979
836.872746	3578.931885
837.188871	3538.925288
837.504952	3469.949701
837.820990	3390.455746
838.136984	3346.491843
838.452935	3371.483363
838.768842	3361.179245
839.084706	3388.532545
839.400526	3550.547668
839.716303	3900.681009
840.032037	4437.760498
840.347727	4687.552192
840.663373	4394.351122
840.978977	4009.043131
841.294537	3703.786142
841.610054	3473.985144
841.925527	3370.999412
842.240957	3298.663896
842.556344	3243.007037
842.871687	3184.648119
843.186987	3134.211375
843.502244	3096.133019
843.817458	3062.281671
844.132629	3031.984337
844.447756	3038.535316
844.762840	3023.500075
845.077881	2995.738441
845.392879	2976.793784
845.707833	2972.423104
846.022745	2972.574339
846.337613	2974.278249
846.652438	2960.273923
846.967221	2954.995835
847.281960	2942.539144
847.596656	2942.778599
847.911309	2939.595110
848.225919	2931.385591
848.540485	2930.647062
848.855009	2929.207813
849.169490	2917.900505
849.483928	2906.812487
849.798323	2907.157806
850.112675	2903.639080
850.426984	2920.169024
850.741251	2913.068559
851.055474	2902.678741
851.369654	2899.149933
851.683792	2903.825603
851.997887	2911.886408
852.311938	2910.991603
852.625947	2902.378792
852.939914	2903.260994
853.253837	2909.330543
853.567718	2896.848646
853.881555	2891.903274
854.195350	2910.273239
854.509103	2903.021539
854.822812	2895.522823
855.136479	2894.007956
855.450103	2895.031310
855.763685	2889.400341
856.077224	2884.165103
856.390720	2897.372926
856.704173	2906.507497
857.017584	2901.501631
857.330953	2896.619274
857.644278	2908.919689
857.957561	2919.380083
858.270802	2920.852100
858.584000	2917.852614
858.897155	2906.888104
859.210268	2905.005233
859.523339	2903.785274
859.836367	2902.076323
860.149352	2895.051475
860.462295	2892.800600
860.775195	2900.614388
861.088054	2899.994326
861.400869	2884.223076
861.713642	2880.540513
862.026373	2898.449213
862.339062	2899.596075
862.651708	2903.591189
862.964312	2908.350039
863.276873	2900.465674
863.589392	2910.547982
863.901869	2922.205650
864.214303	2947.353446
864.526696	2959.371557
864.839045	2955.484827
865.151353	2953.783438
865.463619	2953.233952
865.775842	2956.863583
866.088023	2975.311685
866.400162	2981.109012
866.712258	2947.141718
867.024313	2939.136365
867.336325	2948.903601
867.648296	2970.656180
867.960224	2963.001188
868.272110	2950.040381
868.583954	2954.882409
868.895755	2966.167032
869.207515	2955.867955
869.519233	2961.413224
869.830909	2973.353197
870.142542	2979.722695
870.454134	2980.516677
870.765684	2984.073211
871.077191	2983.929538
871.388657	2992.191989
871.700081	3005.140193
872.011463	3018.348016
872.322803	3018.831966
872.634101	3013.684948
872.945357	3032.523740
873.256571	3053.545352
873.567744	3054.024261
873.878874	3045.552602
874.189963	3067.872311
874.501010	3068.835171
874.812015	3058.886454
875.122979	3059.730847
875.433900	3057.792524
875.744780	3062.939542
876.055618	3070.859195
876.366415	3063.960376
876.677169	3076.956470
876.987882	3071.922878
877.298554	3067.680747
877.609183	3091.374170
877.919771	3114.266050
878.230317	3139.923002
878.540822	3198.198741
878.851285	3232.723083
879.161707	3276.994496
879.472087	3381.530383
879.782425	3619.119963
880.092722	4064.652099
880.402977	4599.846197
880.713191	5241.421244
881.023363	6428.585249
881.333494	7720.643062
881.643583	8259.209692
881.953631	7947.908360
882.263637	7298.171684
882.573602	6700.222783
882.883526	6116.303412
883.193408	5540.089445
883.503248	5086.178912
883.813048	4776.321870
884.122806	4462.207574
884.432522	4143.752844
884.742197	3907.557142
885.051831	3715.741239
885.361424	3578.551278
885.670975	3506.268693
885.980485	3417.143614
886.289954	3340.137468
886.599382	3295.646765
886.908768	3256.078749
887.218113	3210.862119
887.527417	3153.410609
887.836680	3105.401181
888.145901	3099.034203
888.455082	3085.123139
888.764221	3037.209493
889.073319	3007.711181
889.382376	3002.924605
889.691392	3009.571367
890.000366	3006.574401
890.309300	2993.752226
890.618193	3009.278980
890.927044	3027.568286
891.235855	3023.646268
891.544625	3011.199659
891.853353	3023.036289
892.162041	3041.562529
892.470687	3079.794640
892.779293	3132.704070
893.087858	3181.031091
893.396381	3254.248810
893.704864	3379.710526
894.013306	3625.164307
894.321707	3934.635700
894.630068	4136.551556
894.938387	4132.541318
895.246665	4084.231941
895.554903	3962.800627
895.863100	3754.764811
896.171256	3588.799944
896.479371	3445.525310
896.787446	3321.981753
897.095480	3219.807647
897.403473	3154.239879
897.711425	3117.855351
898.019336	3107.039556
898.327207	3074.609813
898.635038	3041.116387
898.942827	3027.757329
899.250576	3015.325844
899.558284	2984.375680
899.865952	2963.835498
900.173579	2941.397323
900.481165	2935.766354
900.788711	2922.092224
901.096216	2897.904768
901.403681	2889.042419
901.711105	2894.055847
902.018489	2893.536608
902.325832	2887.308263
902.633135	2903.097156
902.940397	2936.157043
903.247619	3020.394724
903.554800	3221.181361
903.861941	3574.964497
904.169041	4009.801825
904.476101	4306.284685
904.783121	4252.866099
905.090100	4004.627080
905.397039	3723.222311
905.703938	3472.886173
906.010796	3287.049077
906.317614	3174.356604
906.624391	3076.535534
906.931129	3002.798577
907.237826	2943.113836
907.544483	2894.517113
907.851099	2866.841178
908.157675	2844.927282
908.464211	2823.598160
908.770707	2808.383958
909.077163	2799.811476
909.383578	2781.580143
909.689954	2769.693102
909.996289	2768.591610
910.302584	2771.144954
910.608839	2770.172012
910.915054	2762.557349
911.221229	2757.949734
911.527363	2759.681371
911.833458	2767.943822
912.139513	2771.765016
912.445527	2774.577980
912.751502	2785.686163
913.057436	2793.817544
913.363331	2806.364976
913.669186	2831.217864
913.975000	2864.696167
914.280775	2927.188831
914.586510	2995.516630
914.892205	3079.388827
915.197859	3209.833724
915.503475	3409.286976
915.809050	3627.364771
916.114585	3773.137296
916.420081	3791.224956
916.725536	3728.785224
917.030952	3608.473047
917.336328	3475.094198
917.641665	3345.415557
917.946961	3240.622571
918.252218	3171.536078
918.557435	3093.093204
918.862612	3030.789583
919.167750	2984.191678
919.472848	2944.847993
919.777906	2913.376069
920.082925	2887.877913
920.387904	2857.598222
920.692843	2841.632888
920.997743	2827.278202
921.302603	2818.809064
921.607423	2804.308185
921.912204	2790.719755
922.216946	2780.733229
922.521647	2772.077568
922.826310	2762.945518
923.130932	2755.212388
923.435516	2746.897004
923.740059	2741.732342
924.044564	2732.028121
924.349028	2728.937894
924.653454	2720.945144
924.957840	2712.433156
925.262186	2708.664894
925.566493	2706.010726
925.870761	2702.023173
926.174989	2695.958665
926.479178	2693.372553
926.783328	2686.846780
927.087438	2685.652026
927.391509	2685.757891
927.695541	2679.458969
927.999533	2678.196160
928.303486	2672.688699
928.607400	2672.209790
928.911275	2673.157527
929.215110	2670.992351
929.518906	2669.696774
929.822663	2675.156344
930.126381	2671.761127
930.430060	2671.917403
930.733699	2672.865140
931.037299	2674.334636
931.340861	2675.937723
931.644383	2676.620799
931.947866	2674.516117
932.251309	2673.472599
932.554714	2671.665345
932.858080	2668.451609
933.161407	2667.390447
933.464694	2667.045127
933.767943	2661.988850
934.071153	2664.993378
934.374323	2665.794921
934.677455	2666.281393
934.980548	2665.976403
935.283602	2662.455157
935.586617	2663.632266
935.889593	2663.783501
936.192530	2662.508089
936.495428	2664.549756
936.798287	2664.338028
937.101108	2670.473112
937.403890	2673.301199
937.706632	2678.443176
938.009336	2688.520443
938.312002	2693.125537
938.614628	2700.394881
938.917216	2709.796633
939.219765	2709.605069
939.522275	2709.257229
939.824747	2705.287321
940.127179	2704.642053
940.429573	2699.789942
940.731929	2698.683409
941.034246	2694.411031
941.336524	2691.504806
941.638763	2687.585309
941.940964	2685.314269
942.243126	2682.702951
942.545250	2684.641275
942.847335	2679.532066
943.149381	2676.293124
943.451389	2673.409584
943.753359	2671.932526
944.055290	2667.632422
944.357182	2667.566887
944.659036	2666.588903
944.960851	2668.426404
945.262628	2665.008501
945.564367	2665.729386
945.866067	2666.578821
946.167729	2667.214006
946.469352	2666.858605
946.770937	2666.727535
947.072484	2664.622853
947.373992	2664.980775
947.675462	2659.548932
947.976893	2656.781338
948.278286	2656.640186
948.579641	2656.519198
948.880958	2655.236225
949.182236	2658.790238
949.483476	2656.148673
949.784678	2655.712614
950.085841	2657.615649
950.386967	2655.919301
950.688054	2657.605567
950.989103	2659.632111
951.290114	2660.126144
951.591087	2661.736792
951.892021	2664.287616
952.192917	2666.798111
952.493776	2667.176197
952.794596	2666.808193
953.095378	2667.818945
953.396122	2667.498831
953.696828	2664.733758
953.997496	2664.887514
954.298126	2663.891886
954.598718	2662.659324
954.899272	2656.877120
955.199788	2657.862666
955.500266	2654.028868
955.800706	2649.118784
956.101108	2648.967550
956.401472	2648.145842
956.701798	2645.290028
957.002087	2642.262815
957.302337	2642.918165
957.602550	2643.076962
957.902724	2637.826600
958.202861	2636.742752
958.502960	2637.009933
958.803022	2636.107566
959.103045	2635.222844
959.403031	2636.210910
959.702979	2634.983389
960.002889	2634.229737
960.302762	2635.119500
960.602596	2633.607154
960.902393	2631.439458
961.202153	2633.138327
961.501875	2633.004736
961.801559	2630.161525
962.101205	2631.608337
962.400814	2631.764612
962.700385	2631.948614
962.999918	2628.457615
963.299414	2627.588016
963.598873	2623.678602
963.898293	2624.076853
964.197677	2627.893006
964.497022	2629.959879
964.796331	2631.447020
965.095601	2630.849643
965.394835	2628.170270
965.694030	2630.501803
965.993189	2627.144395
966.292309	2628.981895
966.591393	2629.118007
966.890439	2629.826289
967.189447	2628.366875
967.488419	2629.281844
967.787353	2628.119858
968.086249	2627.991309
968.385108	2628.707152
968.683930	2625.294291
968.982714	2627.358644
969.281462	2625.702625
969.580172	2626.839405
969.878844	2627.749333
970.177480	2633.158491
970.476078	2630.277472
970.774639	2629.927112
971.073162	2627.973665
971.371649	2630.232102
971.670098	2628.066926
971.968510	2630.821917
972.266885	2629.488531
972.565223	2632.067082
972.863524	2628.906278
973.161788	2630.743779
973.460014	2630.015332
973.758204	2630.025414
974.056356	2630.804272
974.354471	2628.419807
974.652550	2628.303860
974.950591	2629.344858
975.248595	2627.643469
975.546563	2628.646659
975.844493	2627.358644
976.142386	2628.233284
976.440243	2628.233284
976.738062	2626.194137
977.035845	2627.580455
977.333590	2628.966772
977.631299	2628.823099
977.928971	2625.170783
978.226606	2624.948972
978.524204	2624.399487
978.821765	2623.257665
979.119290	2626.252111
979.416777	2626.360495
979.714228	2626.168932
980.011642	2628.387039
980.309020	2626.582306
980.606360	2626.123561
980.903664	2626.761267
981.200931	2627.829992
981.498162	2628.681947
981.795356	2629.491052
982.092513	2630.191772
982.389633	2633.483646
982.686717	2637.738380
982.983764	2638.605458
983.280775	2641.085706
983.577749	2645.237096
983.874686	2644.652322
984.171587	2640.347177
984.468451	2636.130252
984.765279	2638.106384
985.062070	2633.087915
985.358824	2632.145219
985.655543	2631.086577
985.952224	2628.351751
986.248869	2628.359313
986.545478	2627.729169
986.842050	2624.686832
987.138586	2624.344034
987.435086	2626.357975
987.731549	2625.329579
988.027975	2622.047788
988.324366	2623.050978
988.620719	2626.473921
988.917037	2623.786986
989.213318	2620.946296
989.509563	2622.267078
989.805772	2623.577778
990.101944	2624.074332
990.398080	2624.129785
990.694180	2625.662296
990.990244	2624.679271
991.286271	2621.800772
991.582262	2623.663478
991.878217	2624.427213
992.174136	2625.793366
992.470019	2626.231946
992.765865	2619.575102
993.061676	2619.917901
993.357450	2621.026955
993.653188	2618.972684
993.948890	2623.507202
994.244556	2620.706841
994.540186	2624.638941
994.835780	2625.352265
995.131337	2624.717079
995.426859	2623.401338
995.722345	2626.126082
996.017795	2626.751185
996.313208	2625.364867
996.608586	2629.816206
996.903928	2628.949128
997.199234	2627.915691
997.494504	2630.428707
997.789738	2626.083232
998.084936	2627.230094
998.380099	2627.661113
998.675225	2627.030969
998.970316	2627.114148
999.265371	2625.838736
999.560390	2625.879065
999.855373	2623.807151
1000.150320	2621.699949
1000.445232	2623.920577
1000.740108	2622.677932
1001.034948	2623.885289
1001.329752	2621.868827
1001.624521	2621.049640
1001.919254	2622.632562
1002.213951	2625.138016
1002.508613	2621.089969
1002.803239	2621.261368
1003.097829	2623.048457
1003.392384	2619.509567
1003.686903	2622.201543
1003.981386	2621.523508
1004.275834	2621.014352
1004.570246	2621.258848
1004.864623	2621.455453
1005.158964	2623.834877
1005.453270	2621.208436
1005.747540	2620.232973
1006.041775	2618.524022
1006.335974	2620.774897
1006.630138	2618.894547
1006.924266	2619.159207
1007.218359	2622.599795
1007.512416	2616.991511
1007.806438	2614.750718
1008.100425	2617.639299
1008.394376	2617.162910
1008.688292	2619.537294
1008.982172	2620.164917
1009.276017	2617.856069
1009.569827	2621.523508
1009.863602	2620.938734
1010.157341	2618.750874
1010.451045	2620.086779
1010.744714	2620.580812
1011.038347	2620.663992
1011.331945	2620.646347
1011.625508	2622.481327
1011.919036	2618.244238
1012.212528	2620.938734
1012.505986	2619.300359
1012.799408	2620.517798
1013.092795	2621.417644
1013.386147	2621.163066
1013.679464	2617.079731
1013.972745	2620.525360
1014.265992	2619.612911
1014.559204	2620.346399
1014.852380	2619.665843
1015.145521	2620.157356
1015.438628	2621.470576
1015.731699	2618.861779
1016.024736	2620.240535
1016.317737	2618.140894
1016.610703	2619.068466
1016.903635	2621.531070
1017.196531	2621.117695
1017.489393	2620.046450
1017.782219	2620.996708
1018.075011	2621.778087
1018.367768	2620.290946
1018.660490	2618.899588
1018.953177	2618.899588
1019.245829	2618.899588
