Dividing Wavelength (nm)	Counts (n)	Blue Motor Position (mm): 8.900000	Red Motor Position (mm): 0.000000	
326.493990	2161.987047
326.888308	2161.987047
327.282561	2161.987047
327.676750	2118.376025
328.070874	2116.911570
328.464933	2115.953751
328.858929	2118.754112
329.252859	2124.753085
329.646726	2133.927985
330.040528	2145.021044
330.434265	2158.138126
330.827938	2177.808708
331.221547	2193.471573
331.615091	2209.598225
332.008571	2227.461553
332.401986	2248.596591
332.795338	2265.923037
333.188625	2287.070677
333.581847	2304.318985
333.975006	2320.095276
334.368100	2340.514469
334.761129	2357.856039
335.154095	2377.211549
335.546996	2392.912222
335.939833	2415.310069
336.332606	2428.938828
336.725315	2444.039605
337.117960	2456.483693
337.510540	2465.245218
337.903056	2476.368524
338.295508	2487.020482
338.687896	2493.851246
339.080220	2499.850219
339.472480	2505.032525
339.864676	2514.562827
340.256807	2519.649351
340.648875	2522.227901
341.040879	2524.055319
341.432818	2531.238963
341.824694	2534.185518
342.216506	2532.869777
342.608253	2533.855322
342.999937	2531.014632
343.391557	2535.337422
343.783113	2532.942873
344.174605	2532.519417
344.566033	2532.307688
344.957397	2529.877852
345.348697	2529.066226
345.739934	2526.507841
346.131106	2525.108920
346.522215	2524.408200
346.913260	2523.503313
347.304241	2520.937366
347.695159	2517.607683
348.086012	2520.803775
348.476802	2513.768845
348.867528	2511.187774
349.258191	2506.063441
349.648789	2507.061590
350.039324	2500.976917
350.429796	2509.214162
350.820203	2503.540344
351.210548	2504.853564
351.600828	2504.218379
351.991045	2501.286948
352.381198	2500.860970
352.771288	2500.228306
353.161314	2499.343583
353.551276	2501.168481
353.941175	2499.933398
354.331010	2498.448778
354.720782	2499.056237
355.110490	2497.841319
355.500135	2500.109838
355.889717	2497.465753
356.279235	2498.254694
356.668689	2500.586228
357.058080	2494.982985
357.447408	2500.863491
357.836672	2498.325270
358.225873	2500.208141
358.615010	2498.872235
359.004084	2500.205620
359.393095	2502.466578
359.782043	2500.951711
360.170927	2502.721156
360.559748	2501.612102
360.948505	2503.179901
361.337199	2504.150323
361.725830	2503.222751
362.114398	2503.295848
362.502903	2501.634787
362.891344	2506.116373
363.279722	2505.559326
363.668037	2510.787002
364.056289	2506.812053
364.444478	2509.625016
364.832603	2508.115191
365.220665	2508.163082
365.608665	2510.497136
365.996601	2508.924296
366.384474	2513.587363
366.772284	2508.894049
367.160031	2511.084430
367.547715	2513.317662
367.935336	2511.482682
368.322893	2509.423370
368.710388	2508.901611
369.097820	2511.117198
369.485189	2507.167454
369.872495	2511.026457
370.259738	2513.622651
370.646918	2512.919410
371.034035	2510.968484
371.421090	2512.828670
371.808081	2515.223218
372.195010	2516.183558
372.581875	2512.616941
372.968678	2517.453928
373.355418	2516.831346
373.742096	2512.818587
374.128710	2515.313958
374.515262	2517.685821
374.901751	2516.816222
375.288177	2514.184740
375.674540	2515.533249
376.060841	2517.176665
376.447079	2513.602487
376.833254	2518.119361
377.219367	2516.397807
377.605417	2515.724813
377.991404	2515.734895
378.377329	2516.904443
378.763191	2517.940400
379.148991	2517.794206
379.534727	2517.695904
379.920402	2516.934689
380.306013	2516.569206
380.691563	2519.369567
381.077049	2517.572395
381.462474	2518.855369
381.847835	2518.557941
382.233134	2517.219515
382.618371	2521.854856
383.003545	2519.208250
383.388657	2518.111799
383.773706	2519.351923
384.158693	2522.013652
384.543618	2520.110616
384.928480	2520.493744
385.313280	2518.505009
385.698017	2520.806296
386.082692	2523.006759
386.467305	2521.151615
386.851856	2522.676564
387.236344	2523.931811
387.620770	2519.354443
388.005133	2518.454597
388.389435	2520.831501
388.773674	2520.944927
389.157851	2525.229908
389.541965	2523.941893
389.926018	2526.190248
390.310008	2523.793179
390.693936	2524.307377
391.077802	2524.241842
391.461606	2524.357788
391.845348	2523.601615
392.229027	2527.294261
392.612645	2523.679753
392.996200	2525.313087
393.379694	2525.973478
393.763125	2529.076308
394.146494	2526.374250
394.529801	2526.583458
394.913047	2525.658406
395.296230	2526.913653
395.679351	2526.371729
396.062410	2526.941380
396.445408	2526.845598
396.828343	2524.231760
397.211217	2525.449198
397.594028	2529.368695
397.976778	2526.777542
398.359466	2530.208048
398.742092	2527.518592
399.124656	2528.998171
399.507158	2526.548170
399.889598	2529.005732
400.271977	2530.286185
400.654294	2528.776360
401.036549	2528.499096
401.418742	2530.087060
401.800874	2526.480114
402.182944	2529.608150
402.564952	2529.668644
402.946898	2529.782070
403.328783	2531.027235
403.710606	2530.634025
404.092367	2529.837523
404.474067	2528.922553
404.855705	2530.944056
405.237282	2531.796011
405.618797	2528.138654
406.000250	2530.833151
406.381642	2533.396577
406.762972	2530.477749
407.144240	2526.102028
407.525447	2527.884076
407.906593	2529.494724
408.287677	2532.952956
408.668700	2532.431196
409.049661	2533.608306
409.430560	2529.507327
409.811399	2534.437576
410.192176	2532.179139
410.572891	2533.935981
410.953545	2533.885569
411.334138	2535.503780
411.714669	2531.357431
412.095139	2533.691485
412.475547	2530.397091
412.855894	2533.772143
413.236180	2534.054448
413.616405	2534.382123
413.996568	2534.689633
414.376670	2535.428162
414.756711	2533.474715
415.136691	2535.171063
415.516609	2533.101670
415.896466	2534.528316
416.276262	2534.611495
416.655997	2535.004705
417.035670	2535.453368
417.415283	2538.372196
417.794834	2533.026053
418.174324	2533.406660
418.553753	2536.443955
418.933121	2537.653832
419.312428	2536.761547
419.691674	2534.503111
420.070859	2537.205169
420.449983	2538.389840
420.829045	2537.313554
421.208047	2534.631660
421.586988	2537.666435
421.965867	2539.070396
422.344686	2535.816331
422.723444	2538.561239
423.102141	2538.341949
423.480777	2536.605272
423.859352	2538.430169
424.237866	2538.311702
424.616319	2535.791125
424.994712	2538.566281
425.373044	2538.137783
425.751314	2534.031763
426.129524	2534.467823
426.507673	2536.794315
426.885762	2533.570497
427.263789	2538.755324
427.641756	2538.641898
428.019662	2539.269522
428.397508	2538.548637
428.775292	2539.612320
429.153016	2539.962680
429.530679	2539.529141
429.908282	2539.786240
430.285824	2540.159285
430.663305	2541.346477
431.040726	2539.080478
431.418086	2538.747762
431.795385	2538.657021
432.172624	2537.333718
432.549802	2539.612320
432.926920	2541.464944
433.303977	2541.144831
433.680974	2537.190046
434.057910	2544.512322
434.434786	2540.731456
434.811601	2539.629964
435.188355	2542.241282
435.565050	2540.628112
435.941683	2540.214738
436.318257	2541.364121
436.694770	2540.257588
437.071222	2541.258257
437.447614	2540.693647
437.823946	2542.730274
438.200218	2540.360931
438.576429	2538.982176
438.952580	2542.538710
439.328670	2542.304296
439.704700	2543.453679
440.080670	2542.891591
440.456580	2542.715150
440.832429	2544.948381
441.208218	2542.379913
441.583947	2541.502753
441.959616	2542.972249
442.335224	2542.039636
442.710773	2542.732794
443.086261	2543.292362
443.461689	2541.459903
443.837057	2544.121632
444.212365	2541.780016
444.587612	2540.050900
444.962800	2542.004347
445.337927	2541.205325
445.712995	2539.420756
446.088002	2543.310006
446.462949	2543.191539
446.837837	2546.586756
447.212664	2543.272198
447.587431	2544.696324
447.962139	2545.742363
448.336786	2544.179605
448.711374	2544.323278
449.085901	2544.751776
449.460369	2544.000644
449.834776	2545.195398
450.209124	2544.109029
450.583412	2545.412168
450.957640	2544.280428
451.331808	2543.572146
451.705917	2544.865202
452.079965	2546.163299
452.453954	2546.443083
452.827883	2544.293031
453.201752	2546.327137
453.575562	2545.132383
453.949311	2545.102137
454.323001	2547.229503
454.696632	2546.609442
455.070202	2547.141283
455.443713	2545.069369
455.817164	2545.891077
456.190556	2546.687579
456.563888	2545.384441
456.937160	2544.497198
457.310373	2544.751776
457.683526	2547.746222
458.056619	2545.197918
458.429653	2544.686241
458.802628	2547.259750
459.175542	2546.435522
459.548398	2547.080789
459.921194	2548.764535
460.293930	2547.403423
460.666607	2550.176058
461.039224	2545.679349
461.411782	2545.971736
461.784280	2547.557178
462.156719	2550.120605
462.529099	2547.350491
462.901419	2548.681356
463.273680	2547.383259
463.645882	2541.399409
464.018024	2546.042312
464.390106	2542.682383
464.762130	2549.934082
465.134094	2549.293856
465.505999	2550.173537
465.877845	2549.944165
466.249631	2549.603887
466.621358	2548.731767
466.993026	2548.855276
467.364634	2554.299722
467.736184	2550.521377
468.107674	2548.996428
468.479105	2546.977446
468.850477	2547.799154
469.221790	2549.729916
469.593043	2548.615821
469.964238	2550.665050
470.335373	2550.153373
470.706449	2548.835111
471.077467	2548.015923
471.448425	2551.212015
471.819324	2547.847045
472.190164	2549.213197
472.560945	2550.443239
472.931667	2548.328475
473.302330	2548.499874
473.672934	2547.784030
474.043479	2547.778989
474.413965	2548.099103
474.784393	2547.688248
475.154761	2550.667570
475.525070	2548.341078
475.895321	2551.217056
476.265513	2548.308310
476.635645	2548.628424
477.005719	2549.881150
477.375734	2551.189330
477.745691	2551.706048
478.115588	2552.878116
478.485427	2550.017262
478.855207	2549.515667
479.224928	2549.631613
479.594591	2552.058929
479.964194	2550.087838
480.333739	2548.764535
480.703226	2551.481717
481.072653	2551.728733
481.442022	2550.644885
481.811333	2550.050029
482.180584	2548.036088
482.549777	2548.441901
482.918912	2549.487940
483.287988	2549.714792
483.657005	2551.605225
484.025964	2550.400389
484.394864	2554.075390
484.763706	2553.107489
485.132489	2551.338044
485.501213	2549.036757
485.869879	2553.493137
486.238487	2553.130174
486.607036	2552.091696
486.975527	2554.224104
487.343959	2550.612118
487.712333	2550.067673
488.080648	2551.688404
488.448905	2553.299053
488.817104	2554.521532
489.185244	2551.325441
489.553326	2552.729402
489.921350	2553.556152
490.289315	2554.561862
490.657222	2556.464897
491.025070	2555.000442
491.392861	2553.324258
491.760593	2554.813919
492.128267	2554.297201
492.495883	2555.179403
492.863440	2553.349464
493.230939	2552.512633
493.598380	2553.326779
493.965763	2554.788714
494.333088	2556.159907
494.700354	2552.603373
495.067563	2551.721172
495.434713	2554.264434
495.801805	2558.438509
496.168839	2554.151008
496.535815	2557.810885
496.902733	2550.614638
497.269593	2556.893395
497.636395	2554.322407
498.003139	2554.178734
498.369825	2554.801317
498.736453	2555.557490
499.103023	2554.355174
499.469535	2553.644372
499.835989	2552.278219
500.202385	2551.466593
500.568723	2549.417364
500.935003	2551.411141
501.301226	2549.039278
501.667390	2553.563713
502.033497	2558.357851
502.399546	2554.929866
502.765537	2555.509599
503.131470	2555.938097
503.497345	2558.642676
503.863163	2556.411965
504.228923	2553.586398
504.594625	2555.469269
504.960269	2556.202757
505.325856	2556.056564
505.691385	2559.489590
506.056856	2556.883313
506.422270	2554.831563
506.787625	2554.836605
507.152924	2554.806358
507.518164	2557.258879
507.883347	2558.287274
508.248472	2557.463046
508.613540	2555.701162
508.978550	2555.033210
509.343503	2555.267623
509.708398	2557.591595
510.073236	2553.581357
510.438016	2555.625545
510.802738	2555.370967
511.167403	2556.061605
511.532010	2555.691080
511.896561	2554.640000
512.261053	2557.662171
512.625488	2555.242417
512.989866	2557.505896
513.354186	2554.922304
513.718449	2557.057233
514.082655	2558.844322
514.446803	2557.891544
514.810894	2559.842470
515.174927	2558.763663
515.538904	2557.652089
515.902822	2556.568241
516.266684	2555.875082
516.630488	2556.842984
516.994235	2557.616801
517.357925	2556.079249
517.721558	2556.737120
518.085133	2558.279713
518.448651	2554.181255
518.812112	2554.934907
519.175516	2551.428785
519.538863	2552.608415
519.902152	2555.592778
520.265385	2558.443550
520.628560	2555.870041
520.991678	2557.425237
521.354739	2558.347768
521.717743	2558.199054
522.080690	2560.843139
522.443580	2559.005639
522.806413	2559.396328
523.169189	2559.045968
523.531908	2559.406411
523.894569	2559.088818
524.257174	2559.408931
524.619722	2556.512788
524.982213	2559.817265
525.344647	2559.759291
525.707025	2559.328273
526.069345	2557.601677
526.431608	2561.916905
526.793815	2559.890361
527.155964	2562.473953
527.518057	2562.322718
527.880093	2563.540157
528.242072	2560.989333
528.603995	2562.186607
528.965860	2562.915054
529.327669	2562.973027
529.689421	2561.339693
530.051117	2562.937739
530.412755	2562.723490
530.774337	2568.172977
531.135862	2564.200548
531.497331	2563.106617
531.858743	2562.428582
532.220098	2565.352452
532.581396	2565.906978
532.942638	2566.731207
533.303824	2566.953018
533.664953	2569.806311
534.026025	2568.914027
534.387040	2568.977041
534.747999	2569.276990
535.108902	2569.680282
535.469748	2569.488718
535.830537	2570.116342
536.191270	2571.611044
536.551947	2568.654407
536.912567	2568.049469
537.273131	2570.507031
537.633638	2568.155333
537.994089	2573.067937
538.354483	2573.138514
538.714821	2574.877712
539.075103	2574.751683
539.435328	2578.207394
539.795497	2576.556416
540.155609	2576.843762
540.515665	2577.962898
540.875665	2577.806622
541.235609	2578.976170
541.595496	2577.393247
541.955328	2579.971798
542.315102	2583.568661
542.674821	2583.651840
543.034483	2579.654205
543.394090	2582.963723
543.753640	2582.217632
544.113134	2582.769638
544.472571	2582.706624
544.831953	2584.624783
545.191278	2586.081676
545.550548	2585.335585
545.909761	2587.732654
546.268918	2586.091758
546.628019	2586.704259
546.987064	2587.861203
547.346053	2588.317428
547.704986	2589.595360
548.063863	2588.677870
548.422684	2587.561255
548.781449	2588.133426
549.140158	2588.385483
549.498811	2591.576534
549.857408	2591.367326
550.215949	2590.371698
550.574434	2590.999322
550.932864	2591.758015
551.291237	2595.135588
551.649555	2596.146340
552.007817	2592.297419
552.366022	2594.006370
552.724173	2591.528643
553.082267	2594.984354
553.440305	2596.282451
553.798288	2593.282964
554.156215	2595.745568
554.514086	2593.353541
554.871902	2590.948910
555.229661	2593.242635
555.587365	2590.636359
555.945014	2594.565938
556.302606	2596.985692
556.660143	2598.523244
557.017625	2596.199272
557.375050	2596.695826
557.732421	2594.386977
558.089735	2599.778491
558.446994	2597.794797
558.804197	2597.633480
559.161345	2598.487956
559.518437	2596.506782
559.875474	2595.856473
560.232455	2597.091556
560.589381	2597.388984
560.946251	2595.564087
561.303065	2601.333687
561.659825	2599.617174
562.016528	2595.382605
562.373177	2595.927050
562.729770	2596.219437
563.086307	2597.714139
563.442789	2599.828903
563.799216	2600.910230
564.155587	2596.388315
564.511904	2599.317226
564.868164	2599.244129
565.224370	2598.339242
565.580520	2598.384612
565.936615	2597.918305
566.292654	2596.612647
566.648638	2598.311515
567.004567	2596.743717
567.360441	2597.361258
567.716260	2595.531319
568.072023	2596.753799
568.427732	2596.058120
568.783385	2595.886720
569.138982	2594.407142
569.494525	2594.424786
569.850013	2598.054417
570.205445	2593.892944
570.560823	2593.603078
570.916145	2596.111052
571.271412	2592.846905
571.626625	2596.468974
571.981782	2598.019128
572.336884	2591.962182
572.691931	2591.407655
573.046923	2590.381780
573.401860	2587.765422
573.756743	2592.262131
574.111570	2593.499734
574.466342	2592.869590
574.821059	2593.119127
575.175722	2592.642738
575.530330	2589.492017
575.884882	2594.253387
576.239380	2593.237594
576.593823	2592.304981
576.948211	2593.454364
577.302544	2591.531163
577.656823	2592.095773
578.011047	2593.300608
578.365216	2590.981678
578.719330	2591.952100
579.073389	2590.535536
579.427394	2590.253231
579.781344	2589.461770
580.135239	2591.629466
580.489080	2589.509661
580.842866	2587.725092
581.196597	2591.745412
581.550273	2589.315576
581.903895	2589.466811
582.257463	2591.473190
582.610975	2590.316245
582.964434	2587.694845
583.317837	2587.558734
583.671186	2591.203488
584.024481	2589.973447
584.377721	2588.143508
584.730906	2588.045206
585.084037	2588.261975
585.437113	2589.970926
585.790135	2588.680391
586.143103	2588.279619
586.496016	2590.182655
586.848874	2587.021851
587.201679	2587.657037
587.554428	2585.506985
587.907124	2589.615525
588.259765	2585.262489
588.612352	2587.788107
588.964884	2586.807602
589.317362	2587.324321
589.669786	2588.821543
590.022155	2584.811305
590.374470	2586.149732
590.726731	2585.368353
591.078937	2581.133784
591.431090	2586.137129
591.783188	2586.747108
592.135232	2586.626121
592.487222	2586.815164
592.839157	2586.376584
593.191038	2588.352716
593.542866	2586.651327
593.894639	2586.699218
594.246358	2589.353385
594.598022	2587.503282
594.949633	2586.971440
595.301190	2587.344485
595.652692	2586.144691
596.004141	2586.374063
596.355535	2588.977819
596.706876	2586.106882
597.058162	2589.066039
597.409395	2587.644434
597.760573	2588.617377
598.111698	2588.486307
598.462768	2585.648137
598.813785	2588.902202
599.164748	2587.299115
599.515657	2589.678539
599.866511	2587.268868
600.217312	2588.912284
600.568060	2587.021851
600.918753	2592.390680
601.269392	2590.207861
601.619978	2587.341965
601.970510	2588.256934
602.320988	2589.373550
602.671412	2587.830957
603.021783	2588.503951
603.372100	2591.740371
603.722363	2588.670309
604.072572	2587.523446
604.422728	2589.895309
604.772830	2590.739702
605.122878	2590.364136
605.472872	2591.662233
605.822813	2593.532502
606.172701	2590.860690
606.522534	2589.592840
606.872314	2591.886565
607.222041	2592.657861
607.571714	2594.036617
607.921333	2589.605443
608.270899	2595.609457
608.620411	2592.297419
608.969870	2596.279930
609.319276	2597.729262
609.668627	2606.039604
610.017926	2608.315685
610.367171	2611.489092
610.716362	2611.151334
611.065500	2608.965994
611.414585	2607.504059
611.763616	2608.986159
612.112594	2603.619850
612.461518	2605.739656
612.810389	2607.267125
613.159207	2603.400560
613.507971	2604.542382
613.856682	2610.513628
614.205340	2609.339039
614.553945	2612.081427
614.902496	2608.068669
615.250994	2608.053545
615.599439	2611.289966
615.947830	2609.197887
616.296169	2611.479009
616.644454	2611.675614
616.992686	2610.765686
617.340864	2613.208125
617.688990	2611.239554
618.037063	2615.060749
618.385082	2614.644854
618.733048	2617.432612
619.080961	2617.798096
619.428821	2621.049640
619.776628	2622.637603
620.124382	2622.549383
620.472083	2624.273458
620.819731	2623.383694
621.167326	2622.370422
621.514868	2624.611215
621.862357	2622.483848
622.209793	2624.780094
622.557176	2622.025103
622.904506	2620.991667
623.251783	2620.679115
623.599007	2623.885289
623.946179	2625.143057
624.293297	2627.199847
624.640363	2626.022738
624.987376	2623.542490
625.334336	2619.950668
625.681243	2621.732716
626.028097	2623.063581
626.374899	2627.361164
626.721647	2627.383850
627.068343	2630.718573
627.414987	2630.400980
627.761577	2631.852832
628.108115	2633.183697
628.454600	2630.423665
628.801032	2633.405508
629.147412	2636.084881
629.493739	2638.623102
629.840014	2638.429018
630.186236	2641.373052
630.532405	2640.899183
630.878521	2642.277939
631.224585	2645.194246
631.570597	2645.993269
631.916556	2647.243475
632.262462	2646.852786
632.608316	2651.407468
632.954117	2652.700524
633.299866	2657.968530
633.645562	2658.986843
633.991206	2659.133037
634.336797	2654.308652
634.682336	2658.142450
635.027823	2658.210505
635.373257	2658.853252
635.718639	2659.949703
636.063968	2659.301915
636.409245	2658.402069
636.754470	2661.399035
637.099642	2661.141936
637.444762	2660.476504
637.789829	2662.702173
638.134845	2664.867349
638.479808	2664.766526
638.824719	2669.835406
639.169577	2669.651404
639.514383	2670.717608
639.859137	2672.729028
640.203839	2675.915038
640.548489	2675.121056
640.893086	2681.566171
641.237632	2677.157682
641.582125	2685.664629
641.926566	2682.468538
642.270955	2682.864268
642.615292	2687.822243
642.959576	2688.636389
643.303809	2690.617563
643.647990	2695.446988
643.992118	2699.333718
644.336195	2700.639377
644.680219	2705.612475
645.024192	2710.565409
645.368112	2714.442056
645.711981	2720.650237
646.055797	2723.942110
646.399562	2735.526682
646.743274	2740.169585
647.086935	2752.981677
647.430544	2759.144488
647.774101	2767.308636
648.117606	2773.816766
648.461059	2776.743156
648.804460	2788.516771
649.147810	2786.374280
649.491108	2779.162910
649.834354	2786.588529
650.177548	2784.471245
650.520690	2784.256996
650.863781	2785.192130
651.206820	2787.095165
651.549807	2790.455094
651.892742	2792.799231
652.235626	2794.777884
652.578458	2801.999337
652.921238	2799.947587
653.263967	2807.605100
653.606644	2812.593321
653.949269	2811.902683
654.291843	2819.134218
654.634365	2823.310814
654.976836	2826.050682
655.319255	2831.603512
655.661622	2835.770026
656.003938	2840.871674
656.346203	2841.038032
656.688416	2847.793178
657.030577	2850.822912
657.372687	2857.348685
657.714746	2860.378419
658.056753	2866.891589
658.398708	2872.908207
658.740612	2878.103116
659.082465	2885.926986
659.424266	2882.047818
659.766016	2897.292268
660.107715	2903.694533
660.449362	2904.768299
660.790958	2919.168355
661.132503	2924.839653
661.473996	2936.101591
661.815438	2943.398661
662.156829	2949.740432
662.498168	2951.729168
662.839456	2963.878348
663.180693	2966.272896
663.521879	2976.947540
663.863013	2986.210660
664.204097	2996.396311
664.545129	3004.522651
664.886110	3007.922909
665.227040	3027.860673
665.567918	3040.367776
665.908746	3054.558624
666.249522	3054.354457
666.590248	3068.036148
666.930922	3087.852924
667.271545	3092.090014
667.612118	3108.161212
667.952639	3109.076182
668.293109	3121.777369
668.633528	3125.704428
668.973896	3129.419758
669.314213	3158.240035
669.654480	3135.096097
669.994695	3145.957263
670.334859	3159.218019
670.674973	3171.659586
671.015035	3182.538396
671.355047	3186.175589
671.695008	3189.384283
672.034918	3202.312322
672.374777	3219.316134
672.714585	3220.987277
673.054342	3241.212386
673.394049	3245.963673
673.733705	3257.530601
674.073310	3266.347579
674.412864	3291.613842
674.752368	3280.316616
675.091820	3280.009106
675.431223	3312.814415
675.770574	3292.589305
676.109875	3299.772950
676.449125	3307.417859
676.788324	3303.528609
677.127473	3300.786222
677.466571	3308.012716
677.805619	3315.990342
678.144616	3315.859272
678.483562	3333.949452
678.822458	3325.061898
679.161303	3327.060715
679.500098	3347.984024
679.838842	3351.399406
680.177535	3358.658668
680.516179	3368.224257
680.854771	3383.894684
681.193314	3412.896442
681.531805	3429.421344
681.870247	3503.675020
682.208638	3547.686813
682.546978	3608.866257
682.885268	3633.696460
683.223508	3595.711366
683.561697	3592.535439
683.899836	3602.320318
684.237925	3583.655446
684.575963	3590.118205
684.913951	3627.700007
685.251889	3604.238477
685.589776	3648.867812
685.927614	3661.289215
686.265401	3647.040394
686.603137	3690.074204
686.940824	3716.631002
687.278460	3752.234151
687.616046	3780.078965
687.953582	3819.223524
688.291068	3811.959222
688.628504	3856.780120
688.965889	3880.163512
689.303224	3902.515989
689.640510	3894.588774
689.977745	3855.045963
690.314930	3840.068695
690.652065	3841.553315
690.989150	3794.882313
691.326185	3782.614665
691.663170	3760.879730
692.000105	3730.058116
692.336990	3742.403901
692.673825	3694.893547
693.010610	3690.306097
693.347345	3664.399607
693.684030	3638.349445
694.020665	3636.078405
694.357251	3625.522229
694.693786	3649.397133
695.030272	3597.997529
695.366707	3607.036318
695.703093	3606.408694
696.039429	3611.563274
696.375716	3625.988536
696.711952	3593.962085
697.048139	3624.025006
697.384276	3631.987509
697.720363	3632.264772
698.056400	3639.135865
698.392388	3648.784633
698.728326	3642.783140
699.064214	3638.835916
699.400053	3679.250847
699.735842	3640.128972
700.071581	3638.833396
700.407270	3635.390287
700.742910	3632.365595
701.078501	3632.093373
701.414042	3605.776029
701.749533	3603.986420
702.084974	3581.954057
702.420366	3607.555557
702.755709	3602.983230
703.091002	3581.913727
703.426246	3598.985595
703.761440	3602.395936
704.096584	3595.108948
704.431679	3586.191147
704.766725	3601.082715
705.101721	3600.387036
705.436668	3611.268366
705.771565	3600.659258
706.106413	3623.669605
706.441212	3655.635561
706.775961	3640.310454
707.110661	3656.084224
707.445311	3709.550702
707.779913	3688.024975
708.114465	3732.712283
708.448967	3755.982249
708.783421	3772.378602
709.117825	3836.134075
709.452180	3852.994214
709.786485	3865.067777
710.120742	3956.897436
710.454949	3964.171821
710.789107	3986.635202
711.123216	4032.214795
711.457275	4103.577369
711.791286	4155.942354
712.125247	4141.098677
712.459159	4185.135676
712.793023	4242.567021
713.126837	4144.882063
713.460602	4189.670194
713.794318	4130.378663
714.127985	4191.263199
714.461602	4134.335969
714.795171	4102.627111
715.128691	4075.601485
715.462162	4014.651415
715.795584	4029.205226
716.128957	3997.347654
716.462281	3924.797889
716.795556	3995.280781
717.128782	3933.655196
717.461960	3851.267619
717.795088	3893.545255
718.128167	3880.791136
718.461198	3842.380064
718.794180	3829.716686
719.127113	3858.277343
719.459997	3825.172086
719.792833	3752.234151
720.125619	3787.194553
720.458357	3739.575814
720.791046	3751.341867
721.123686	3788.787558
721.456278	3734.217068
721.788821	3740.604209
722.121315	3716.767113
722.453761	3750.348760
722.786158	3754.482506
723.118506	3750.686517
723.450805	3752.332454
723.783056	3777.119807
724.115259	3746.779623
724.447412	3763.526336
724.779518	3766.830812
725.111574	3774.629477
725.443582	3814.951146
725.775542	3804.639466
726.107453	3871.553222
726.439315	3853.009337
726.771129	3859.424206
727.102895	3913.684665
727.434612	3964.527222
727.766281	3974.453254
728.097901	4005.221937
728.429473	3998.502078
728.760996	4008.120600
729.092471	4011.866177
729.423897	4016.506559
729.755276	4041.608985
730.086606	4026.349412
730.417887	4045.568811
730.749120	4104.031073
731.080305	4199.379456
731.411442	4237.840940
731.742530	4222.422571
732.073570	4308.664110
732.404562	4345.204914
732.735506	4258.297942
733.066401	4333.017924
733.397249	4315.124349
733.728048	4246.564656
734.058798	4152.153927
734.389501	4104.570476
734.720156	4057.218918
735.050762	3955.808547
735.381320	3935.724590
735.711831	3939.049231
736.042293	3909.961773
736.372707	3932.145370
736.703073	3881.615365
737.033391	3887.344636
737.363661	3897.794948
737.693883	3917.248761
738.024056	3964.043271
738.354182	3983.194615
738.684260	3984.328874
739.014290	4032.353427
739.344272	4068.894230
739.674207	4069.806679
740.004093	4099.337758
740.333931	4116.641519
740.663722	4118.814256
740.993464	4176.447248
741.323159	4204.546639
741.652806	4063.104465
741.982405	4065.423396
742.311956	4156.615348
742.641460	4097.028910
742.970915	4001.194055
743.300323	4037.240825
743.629683	4011.709902
743.958996	3966.586533
744.288260	3946.333698
744.617477	3943.876135
744.946647	3960.040595
745.275768	3885.804564
745.604842	3887.947054
745.933869	3881.650653
746.262847	3856.631406
746.591778	3870.078684
746.920662	3862.280019
747.249498	3856.848176
747.578286	3882.507649
747.907027	3926.935338
748.235720	3955.284267
748.564365	3915.769182
748.892963	3923.756890
749.221514	4032.355947
749.550017	3968.834888
749.878473	3891.954771
750.206881	3945.267494
750.535242	3929.433230
750.863555	3895.105492
751.191821	3922.431067
751.520039	3933.435906
751.848210	3884.829100
752.176334	3891.985018
752.504411	3949.900314
752.832440	3909.417328
753.160421	3842.755630
753.488356	3892.088362
753.816243	3944.155919
754.144082	3853.490767
754.471875	3831.881862
754.799620	3871.820403
755.127318	3883.591497
755.454969	3857.317003
755.782572	3839.373016
756.110129	3881.191908
756.437638	3897.404259
756.765100	3850.899614
757.092515	3843.504242
757.419882	3880.213924
757.747203	3875.533213
758.074477	3919.048453
758.401703	3925.193619
758.728882	3874.494735
759.056014	3896.905184
759.383099	3996.573837
759.710138	3990.083352
760.037129	3963.135864
760.364073	3960.489258
760.690970	4032.640772
761.017820	4041.472874
761.344623	3984.979183
761.671379	4041.760220
761.998088	4111.449130
762.324751	4209.686095
762.651366	4477.197445
762.977935	5016.182491
763.304456	5694.850348
763.630931	6087.999854
763.957359	5964.655422
764.283740	5646.762781
764.610074	5363.903639
764.936362	4902.040685
765.262602	4616.494608
765.588796	4355.307386
765.914943	4187.535265
766.241044	4149.431704
766.567097	4073.955549
766.893104	3933.345165
767.219064	3837.129703
767.544978	3829.517560
767.870845	3807.225578
768.196665	3742.000609
768.522438	3702.183055
768.848165	3698.286243
769.173846	3683.082123
769.499479	3663.635872
769.825066	3628.020121
770.150607	3604.109928
770.476101	3596.465018
770.801548	3606.630505
771.126949	3581.759972
771.452303	3552.052453
771.777611	3532.588558
772.102872	3543.371586
772.428087	3526.818957
772.753256	3522.357536
773.078378	3502.031604
773.403453	3466.297385
773.728482	3464.618680
774.053465	3442.200669
774.378401	3435.327056
774.703291	3454.085189
775.028135	3414.353335
775.352932	3376.501832
775.677683	3371.785832
776.002388	3399.466808
776.327046	3411.053900
776.651658	3354.839994
776.976224	3312.620330
777.300743	3331.146571
777.625216	3354.497195
777.949643	3359.596322
778.274024	3323.509223
778.598359	3292.649799
778.922647	3310.508087
779.246889	3316.595280
779.571086	3320.973522
779.895236	3306.132365
780.219339	3291.386990
780.543397	3283.623613
780.867409	3318.054694
781.191374	3333.672189
781.515294	3306.031542
781.839167	3296.443268
782.162995	3314.175526
782.486776	3308.373158
782.810511	3319.869509
783.134201	3329.263700
783.457844	3303.221099
783.781441	3262.445726
784.104993	3266.503855
784.428498	3285.657719
784.751958	3297.948052
785.075372	3280.336781
785.398739	3251.589601
785.722061	3262.430602
786.045337	3298.484935
786.368568	3329.014163
786.691752	3265.193155
787.014891	3287.175106
787.337983	3357.395859
787.661030	3435.974844
787.984031	3516.698841
788.306987	3614.809777
788.629897	3652.673883
788.952760	3637.192500
789.275579	3618.199953
789.598351	3614.681227
789.921078	3546.371072
790.243759	3413.617327
790.566395	3405.914444
790.888984	3417.579674
791.211529	3347.827749
791.534027	3321.898574
791.856480	3329.109944
792.178888	3281.826442
792.501249	3241.356059
792.823566	3252.176896
793.145836	3284.896505
793.468062	3254.727719
793.790241	3217.385372
794.112375	3237.471850
794.434464	3281.191257
794.756507	3303.284113
795.078505	3284.447842
795.400457	3286.668470
795.722364	3366.371633
796.044226	3425.388421
796.366042	3465.155563
796.687812	3469.748054
797.009538	3474.978252
797.331218	3447.506484
797.652852	3431.037034
797.974442	3433.454267
798.295986	3444.265022
798.617484	3397.410017
798.938938	3338.728466
799.260346	3373.255329
799.581709	3379.609703
799.903026	3330.473577
800.224299	3309.930875
800.545526	3310.079589
800.866708	3284.127729
801.187845	3237.562591
801.508936	3272.346552
801.829983	3284.238634
802.150984	3226.744274
802.471940	3210.904969
802.792851	3225.307546
803.113717	3227.316445
803.434538	3235.896489
803.755314	3195.458874
804.076045	3167.730007
804.396731	3183.423119
804.717372	3206.259546
805.037967	3197.498020
805.358518	3190.420240
805.679024	3202.138402
805.999485	3206.025132
806.319901	3208.427242
806.640272	3224.412741
806.960598	3236.342631
807.280879	3214.791699
807.601115	3219.772359
807.921306	3234.003536
808.241453	3264.200047
808.561554	3253.227976
808.881611	3206.229299
809.201623	3226.106568
809.521590	3248.025505
809.841513	3228.748133
810.161390	3252.645723
810.481223	3245.048704
810.801011	3202.493804
811.120755	3191.554500
811.440453	3228.778380
811.760107	3239.014443
812.079716	3211.099053
812.399281	3184.103675
812.718801	3200.878114
813.038276	3185.739529
813.357707	3188.000487
813.677093	3209.816080
813.996434	3172.382992
814.315731	3173.741583
814.634983	3176.388189
814.954191	3185.313552
815.273354	3212.697099
815.592473	3219.979046
815.911547	3209.997561
816.230577	3233.675861
816.549562	3276.331584
816.868502	3314.029333
817.187399	3332.225378
817.506250	3324.693894
817.825058	3302.046510
818.143821	3376.763972
818.462539	3455.340437
818.781213	3490.991477
819.099843	3521.926517
819.418429	3670.771626
819.736970	3830.359433
820.055466	3981.833503
820.373919	4250.831993
820.692327	4555.630237
821.010691	4816.613292
821.329011	5651.554398
821.647286	7170.769124
821.965517	9431.333414
822.283704	11308.908643
822.601847	12571.256416
822.919945	12064.980897
823.237999	11099.836870
823.556010	9882.267146
823.873976	8786.032954
824.191897	7450.774973
824.509775	6550.190482
824.827609	5801.541328
825.145398	5421.947484
825.463144	5356.840982
825.780845	5428.432929
826.098502	5477.069981
826.416116	5949.758813
826.733685	6746.558548
827.051210	7515.395004
827.368692	7709.663429
827.686129	6981.030175
828.003522	5976.610518
828.320872	5311.301719
828.638177	4851.399774
828.955439	4465.149087
829.272656	4101.649127
829.589830	3884.713154
829.906960	3766.727469
830.224046	3632.332828
830.541088	3543.495094
830.858086	3513.593490
831.175041	3463.905357
831.491952	3448.542441
831.808819	3457.850931
832.125642	3508.169208
832.442421	3615.860857
832.759157	3801.950011
833.075849	4165.749919
833.392497	4718.789702
833.709101	5196.209656
834.025662	5474.269620
834.342179	5326.405016
834.658653	4905.196447
834.975083	4462.139518
835.291469	4048.860685
835.607811	3741.625043
835.924110	3645.770023
836.240366	3501.905575
836.556578	3335.247549
836.872746	3253.651433
837.188871	3235.135275
837.504952	3185.164837
837.820990	3125.205354
838.136984	3080.409661
838.452935	3103.750203
838.768842	3102.983947
839.084706	3119.055146
839.400526	3222.892833
839.716303	3429.859925
840.032037	3776.295579
840.347727	4007.046834
840.663373	3864.838405
840.978977	3602.486676
841.294537	3375.430587
841.610054	3195.796631
841.925527	3109.849999
842.240957	3060.560117
842.556344	3022.244828
842.871687	2978.832931
843.186987	2938.730552
843.502244	2907.792991
843.817458	2881.873899
844.132629	2853.935824
844.447756	2861.074098
844.762840	2854.676874
845.077881	2829.637462
845.392879	2815.202118
845.707833	2811.965698
846.022745	2809.631643
846.337613	2813.760348
846.652438	2804.351035
846.967221	2801.999337
847.281960	2792.075825
847.596656	2788.486524
847.911309	2786.890998
848.225919	2780.287087
848.540485	2777.297683
848.855009	2776.768362
849.169490	2772.135541
849.483928	2762.577513
849.798323	2761.702873
850.112675	2758.509302
850.426984	2768.957094
850.741251	2768.916764
851.055474	2761.229005
851.369654	2755.477048
851.683792	2755.620721
851.997887	2765.173708
852.311938	2765.695467
852.625947	2761.617174
852.939914	2763.265631
853.253837	2769.493977
853.567718	2753.828591
853.881555	2748.220307
854.195350	2766.058430
854.509103	2764.044489
854.822812	2758.080804
855.136479	2756.697007
855.450103	2756.903695
855.763685	2749.551172
856.077224	2743.345512
856.390720	2755.605598
856.704173	2767.207813
857.017584	2760.500558
857.330953	2751.504619
857.644278	2765.995416
857.957561	2771.664193
858.270802	2773.118566
858.584000	2774.724174
858.897155	2765.529109
859.210268	2763.767226
859.523339	2764.258738
859.836367	2763.885693
860.149352	2758.395876
860.462295	2753.100144
860.775195	2765.982813
861.088054	2765.140940
861.400869	2749.049577
861.713642	2745.840883
862.026373	2760.021648
862.339062	2761.460898
862.651708	2764.765374
862.964312	2770.882814
863.276873	2762.832092
863.589392	2768.221085
863.901869	2774.278032
864.214303	2791.980043
864.526696	2805.419759
864.839045	2804.517393
865.151353	2803.201652
865.463619	2800.650828
865.775842	2801.596044
866.088023	2817.742860
866.400162	2828.656958
866.712258	2804.499749
867.024313	2794.062040
867.336325	2800.660910
867.648296	2820.127326
867.960224	2811.184319
868.272110	2802.778195
868.583954	2807.698361
868.895755	2820.825526
869.207515	2811.295224
869.519233	2807.337918
869.830909	2817.095072
870.142542	2828.319201
870.454134	2827.989005
870.765684	2832.571414
871.077191	2831.621157
871.388657	2833.708194
871.700081	2844.806294
872.011463	2854.492872
872.322803	2856.902543
872.634101	2856.350537
872.945357	2867.007536
873.256571	2888.356823
873.567744	2882.627551
873.878874	2872.804863
874.189963	2893.912174
874.501010	2898.678585
874.812015	2890.610218
875.122979	2893.098028
875.433900	2888.432440
875.744780	2892.072153
876.055618	2897.501476
876.366415	2900.309398
876.677169	2910.116963
876.987882	2911.210893
877.298554	2901.045407
877.609183	2917.930752
877.919771	2939.678289
878.230317	2961.110755
878.540822	3010.803929
878.851285	3044.065462
879.161707	3073.954463
879.472087	3152.631751
879.782425	3325.944100
880.092722	3674.635670
880.402977	4078.144747
880.713191	4481.898321
881.023363	5184.302451
881.333494	5976.212267
881.643583	6353.159505
881.953631	6258.705926
882.263637	5972.973326
882.573602	5659.395913
882.883526	5264.539976
883.193408	4820.210155
883.503248	4450.262560
883.813048	4228.658478
884.122806	4022.624000
884.432522	3774.962193
884.742197	3584.426743
885.051831	3419.888522
885.361424	3303.891572
885.670975	3248.448962
885.980485	3183.425639
886.289954	3118.135135
886.599382	3088.036926
886.908768	3054.921587
887.218113	3015.661081
887.527417	2975.382261
887.836680	2933.943977
888.145901	2931.806528
888.455082	2928.008018
888.764221	2883.683673
889.073319	2860.963193
889.382376	2857.951103
889.691392	2861.706763
890.000366	2859.229036
890.309300	2847.039526
890.618193	2859.871783
890.927044	2877.057076
891.235855	2876.827704
891.544625	2860.055785
891.853353	2867.191538
892.162041	2881.589073
892.470687	2914.296080
892.779293	2960.107565
893.087858	2998.246415
893.396381	3050.404713
893.704864	3141.571460
894.013306	3326.518791
894.321707	3562.487641
894.630068	3737.395515
894.938387	3749.847165
895.246665	3723.817167
895.554903	3632.494145
895.863100	3471.036069
896.171256	3334.088084
896.479371	3223.643965
896.787446	3126.669809
897.095480	3037.267466
897.403473	2978.933754
897.711425	2943.774227
898.019336	2939.864812
898.327207	2917.903025
898.635038	2886.171482
898.942827	2872.557846
899.250576	2864.023173
899.558284	2837.118535
899.865952	2819.870227
900.173579	2803.362969
900.481165	2800.711322
900.788711	2788.869651
901.096216	2768.024480
901.403681	2758.917636
901.711105	2763.023656
902.018489	2763.305960
902.325832	2762.910230
902.633135	2767.598503
902.940397	2794.808131
903.247619	2857.731813
903.554800	3006.886952
903.861941	3269.241201
904.169041	3610.829786
904.476101	3865.962582
904.783121	3860.704659
905.090100	3678.139272
905.397039	3455.804223
905.703938	3246.379569
906.010796	3090.570106
906.317614	3000.129286
906.624391	2922.182965
906.931129	2860.567462
907.237826	2809.641726
907.544483	2770.439193
907.851099	2739.978021
908.157675	2723.990001
908.464211	2708.122970
908.770707	2696.760209
909.077163	2687.469362
909.383578	2673.643998
909.689954	2663.957421
909.996289	2662.109838
910.302584	2662.918943
910.608839	2664.874911
910.915054	2660.267296
911.221229	2650.878147
911.527363	2654.913591
911.833458	2659.969868
912.139513	2662.913902
912.445527	2666.987154
912.751502	2676.023422
913.057436	2682.140863
913.363331	2688.906091
913.669186	2707.301262
913.975000	2733.537947
914.280775	2782.797582
914.586510	2842.878053
914.892205	2906.454565
915.197859	3004.303361
915.503475	3153.302225
915.809050	3318.689879
916.114585	3441.184877
916.420081	3476.354487
916.725536	3436.869649
917.030952	3344.314064
917.336328	3242.081985
917.641665	3131.330356
917.946961	3046.926317
918.252218	2995.625015
918.557435	2927.559355
918.862612	2878.284597
919.167750	2835.326405
919.472848	2804.340952
919.777906	2784.561985
920.082925	2761.327307
920.387904	2735.987947
920.692843	2718.898436
920.997743	2709.660522
921.302603	2702.461754
921.607423	2693.564117
921.912204	2682.032478
922.216946	2675.345387
922.521647	2666.639315
922.826310	2656.133550
923.130932	2652.025010
923.435516	2645.078300
923.740059	2640.637043
924.044564	2632.258645
924.349028	2628.482821
924.653454	2623.068622
924.957840	2614.821294
925.262186	2613.074534
925.566493	2607.309975
925.870761	2605.888370
926.174989	2601.570621
926.479178	2597.991402
926.783328	2592.569641
927.087438	2589.781883
927.391509	2589.991091
927.695541	2588.350195
927.999533	2587.203333
928.303486	2584.733167
928.607400	2581.794175
928.911275	2579.442477
929.215110	2582.169741
929.518906	2579.550861
929.822663	2579.381983
930.126381	2579.538258
930.430060	2580.244020
930.733699	2581.166551
931.037299	2582.280646
931.340861	2583.349371
931.644383	2587.331882
931.947866	2581.653023
932.251309	2579.452559
932.554714	2577.904925
932.858080	2578.247723
933.161407	2577.927610
933.464694	2573.604820
933.767943	2570.869994
934.071153	2573.619944
934.374323	2577.138669
934.677455	2575.331416
934.980548	2572.339491
935.283602	2572.135324
935.586617	2572.775551
935.889593	2573.395612
936.192530	2570.166753
936.495428	2573.388051
936.798287	2573.856878
937.101108	2577.483988
937.403890	2580.793506
937.706632	2586.374063
938.009336	2588.879517
938.312002	2597.671289
938.614628	2606.289141
938.917216	2611.413474
939.219765	2614.110492
939.522275	2614.299535
939.824747	2610.679986
940.127179	2610.662342
940.429573	2608.043463
940.731929	2605.981631
941.034246	2601.311002
941.336524	2599.788573
941.638763	2594.999477
941.940964	2593.262800
942.243126	2593.834971
942.545250	2593.686257
942.847335	2589.179465
943.149381	2585.655699
943.451389	2584.859196
943.753359	2582.091603
944.055290	2577.925089
944.357182	2581.630337
944.659036	2579.450038
944.960851	2578.086406
945.262628	2575.684296
945.564367	2573.892166
945.866067	2576.402661
946.167729	2574.915520
946.469352	2576.430387
946.770937	2576.024574
947.072484	2577.002558
947.373992	2574.522310
947.675462	2572.132803
947.976893	2568.979562
948.278286	2565.324725
948.579641	2568.072154
948.880958	2566.829510
949.182236	2567.593244
949.483476	2567.908317
949.784678	2565.813717
950.085841	2569.173646
950.386967	2568.992165
950.688054	2568.984603
950.989103	2571.676579
951.290114	2571.875705
951.591087	2574.038360
951.892021	2574.383679
952.192917	2575.492732
952.493776	2577.915007
952.794596	2580.014647
953.095378	2578.038515
953.396122	2578.424163
953.696828	2580.692683
953.997496	2573.314954
954.298126	2573.503997
954.598718	2572.301682
954.899272	2568.712381
955.199788	2567.310940
955.500266	2564.775239
955.800706	2564.601320
956.101108	2561.861453
956.401472	2561.034703
956.701798	2559.542522
957.002087	2556.989177
957.302337	2557.916750
957.602550	2557.394990
957.902724	2552.275698
958.202861	2555.524722
958.502960	2550.768393
958.803022	2553.271326
959.103045	2551.433826
959.403031	2550.239072
959.702979	2549.588763
960.002889	2549.059442
960.302762	2548.467107
960.602596	2548.903167
960.902393	2549.603887
961.202153	2550.604556
961.501875	2548.908208
961.801559	2547.247147
962.101205	2548.550286
962.400814	2547.710934
962.700385	2547.915100
962.999918	2543.277239
963.299414	2539.579552
963.598873	2542.916796
963.898293	2543.370500
964.197677	2546.916952
964.497022	2544.598021
964.796331	2545.013916
965.095601	2547.564740
965.394835	2544.071221
965.694030	2542.700027
965.993189	2546.100285
966.292309	2542.498381
966.591393	2544.522404
966.890439	2543.602393
967.189447	2545.535676
967.488419	2545.797816
967.787353	2545.379400
968.086249	2545.444935
968.385108	2546.642209
968.683930	2546.581715
968.982714	2544.403937
969.281462	2545.386962
969.580172	2544.729091
969.878844	2549.099772
970.177480	2546.536345
970.476078	2546.405275
970.774639	2545.427291
971.073162	2545.729760
971.371649	2545.918803
971.670098	2544.257743
971.968510	2543.163813
972.266885	2546.493495
972.565223	2547.408464
972.863524	2546.710265
973.161788	2548.008362
973.460014	2544.474513
973.758204	2546.617003
974.056356	2548.157076
974.354471	2546.753114
974.652550	2543.519214
974.950591	2548.406613
975.248595	2548.295707
975.546563	2546.707744
975.844493	2548.222611
976.142386	2547.821839
976.440243	2546.788403
976.738062	2544.582898
977.035845	2548.179761
977.333590	2544.126673
977.631299	2545.918803
977.928971	2542.836138
978.226606	2541.134748
978.524204	2542.102650
978.821765	2541.175078
979.119290	2543.584749
979.416777	2542.442928
979.714228	2542.085006
980.011642	2544.159441
980.309020	2545.603731
980.606360	2543.693134
980.903664	2546.957281
981.200931	2546.369987
981.498162	2546.067517
981.795356	2548.157076
982.092513	2546.858979
982.389633	2551.103630
982.686717	2553.495658
982.983764	2554.745864
983.280775	2557.921791
983.577749	2558.435988
983.874686	2560.094528
984.171587	2556.122099
984.468451	2556.399362
984.765279	2552.928528
985.062070	2551.731254
985.358824	2550.216387
985.655543	2548.015923
985.952224	2543.960315
986.248869	2546.375028
986.545478	2545.944009
986.842050	2545.318906
987.138586	2546.291849
987.435086	2543.383103
987.731549	2544.603062
988.027975	2543.120963
988.324366	2541.235572
988.620719	2543.846889
988.917037	2547.002652
989.213318	2541.744728
989.509563	2542.810932
989.805772	2544.650953
990.101944	2544.048535
990.398080	2542.546272
990.694180	2543.539379
990.990244	2543.201622
991.286271	2542.977290
991.582262	2542.158103
991.878217	2544.565254
992.174136	2541.812784
992.470019	2544.908052
992.765865	2540.696168
993.061676	2535.473533
993.357450	2539.584594
993.653188	2538.984696
993.948890	2543.463762
994.244556	2541.709440
994.540186	2544.960984
994.835780	2543.614996
995.131337	2544.940820
995.426859	2545.399565
995.722345	2544.507280
996.017795	2547.539534
996.313208	2548.381407
996.608586	2545.202960
996.903928	2545.442414
997.199234	2547.463917
997.494504	2546.438042
997.789738	2548.971222
998.084936	2545.646581
998.380099	2544.822352
998.675225	2543.448638
998.970316	2543.849410
999.265371	2544.141797
999.560390	2547.811757
999.855373	2545.722198
1000.150320	2545.165151
1000.445232	2544.436704
1000.740108	2544.318237
1001.034948	2541.878319
1001.329752	2541.659028
1001.624521	2542.420243
1001.919254	2542.853782
1002.213951	2543.357897
1002.508613	2540.224820
1002.803239	2544.348484
1003.097829	2541.734646
1003.392384	2544.658515
1003.686903	2541.880839
1003.981386	2541.623740
1004.275834	2540.746580
1004.570246	2543.889739
1004.864623	2541.016281
1005.158964	2543.083154
1005.453270	2544.872764
1005.747540	2542.546272
1006.041775	2541.374203
1006.335974	2541.475026
1006.630138	2543.670449
1006.924266	2543.824204
1007.218359	2541.933771
1007.512416	2538.997299
1007.806438	2538.901517
1008.100425	2541.908566
1008.394376	2535.642411
1008.688292	2541.669111
1008.982172	2539.821528
1009.276017	2540.839841
1009.569827	2540.756662
1009.863602	2541.948895
1010.157341	2541.011240
1010.451045	2539.491332
1010.744714	2541.154913
1011.038347	2542.024512
1011.331945	2540.688606
1011.625508	2541.535520
1011.919036	2540.665921
1012.212528	2542.962167
1012.505986	2541.840510
1012.799408	2540.151723
1013.092795	2540.192053
1013.386147	2541.230530
1013.679464	2540.156765
1013.972745	2540.807073
1014.265992	2542.528627
1014.559204	2541.306148
1014.852380	2539.604758
1015.145521	2540.771785
1015.438628	2540.509645
1015.731699	2542.591642
1016.024736	2540.519728
1016.317737	2542.571477
1016.610703	2541.346477
1016.903635	2542.218597
1017.196531	2539.942516
1017.489393	2541.447300
1017.782219	2541.333874
1018.075011	2540.426466
1018.367768	2541.258257
1018.660490	2541.850592
1018.953177	2541.850592
1019.245829	2541.850592
