Dividing Wavelength (nm)	Counts (n)	Blue Motor Position (mm): 48.200000	Red Motor Position (mm): 0.000000	
326.493990	2279.995418
326.888308	2279.995418
327.282561	2279.995418
327.676750	2239.406567
328.070874	2239.240209
328.464933	2238.176526
328.858929	2242.027967
329.252859	2247.374111
329.646726	2256.727972
330.040528	2267.667276
330.434265	2279.637496
330.827938	2298.589713
331.221547	2316.813485
331.615091	2334.170177
332.008571	2350.485872
332.401986	2370.801722
332.795338	2391.820813
333.188625	2412.781930
333.581847	2430.917481
333.975006	2450.527570
334.368100	2469.126907
334.761129	2486.617190
335.154095	2505.340036
335.546996	2530.313912
335.939833	2572.982238
336.332606	2587.500761
336.725315	2599.508789
337.117960	2611.468927
337.510540	2622.146091
337.903056	2634.408698
338.295508	2642.719040
338.687896	2650.835297
339.080220	2656.335196
339.472480	2662.455157
339.864676	2668.368430
340.256807	2672.968483
340.648875	2677.092147
341.040879	2677.969308
341.432818	2683.748991
341.824694	2686.418282
342.216506	2686.844259
342.608253	2687.441636
342.999937	2686.133457
343.391557	2688.638910
343.783113	2690.141174
344.174605	2685.490709
344.566033	2686.496420
344.957397	2686.693025
345.348697	2685.699917
345.739934	2683.464166
346.131106	2683.282684
346.522215	2681.843435
346.913260	2679.423681
347.304241	2675.078206
347.695159	2674.072496
348.086012	2671.751045
348.476802	2669.351455
348.867528	2665.794921
349.258191	2663.838954
349.648789	2661.141936
350.039324	2660.284940
350.429796	2665.414314
350.820203	2661.262924
351.210548	2662.296361
351.600828	2659.422903
351.991045	2658.457522
352.381198	2659.765701
352.771288	2660.859632
353.161314	2659.238901
353.551276	2658.235711
353.941175	2658.364261
354.331010	2656.821667
354.720782	2657.779487
355.110490	2655.422747
355.500135	2656.927532
355.889717	2656.902326
356.279235	2660.511792
356.668689	2657.877789
357.058080	2659.601864
357.447408	2655.992398
357.836672	2657.154384
358.225873	2659.453150
358.615010	2659.304436
359.004084	2659.044816
359.393095	2661.300733
359.782043	2663.755775
360.170927	2662.276196
360.559748	2661.020949
360.948505	2662.087153
361.337199	2662.354334
361.725830	2665.590755
362.114398	2664.509427
362.502903	2664.617812
362.891344	2666.989675
363.279722	2666.767864
363.668037	2667.065292
364.056289	2668.922957
364.444478	2667.839109
364.832603	2670.836075
365.220665	2670.770540
365.608665	2671.884635
365.996601	2670.281548
366.384474	2670.392454
366.772284	2673.185253
367.160031	2673.586025
367.547715	2674.064934
367.935336	2672.151816
368.322893	2672.784481
368.710388	2672.996210
369.097820	2672.797084
369.485189	2673.540654
369.872495	2679.950481
370.259738	2678.317147
370.646918	2683.101202
371.034035	2684.631193
371.421090	2689.130422
371.808081	2693.296936
372.195010	2700.967052
372.581875	2705.635160
372.968678	2716.105637
373.355418	2726.891185
373.742096	2737.747310
374.128710	2753.783221
374.515262	2765.642535
374.901751	2782.868158
375.288177	2798.203348
375.674540	2818.587253
376.060841	2841.816890
376.447079	2862.967051
376.833254	2890.335475
377.219367	2909.985893
377.605417	2945.964608
377.991404	2966.305664
378.377329	3006.329905
378.763191	3025.241793
379.148991	3073.972107
379.534727	3110.888477
379.920402	3148.699651
380.306013	3168.685306
380.691563	3234.190059
381.077049	3252.149169
381.462474	3296.876807
381.847835	3354.159438
382.233134	3396.089235
382.618371	3422.036054
383.003545	3490.928462
383.388657	3513.752286
383.773706	3575.667738
384.158693	3602.325359
384.543618	3635.420534
384.928480	3692.055377
385.313280	3747.767689
385.698017	3772.862553
386.082692	3864.230946
386.467305	3861.433105
386.851856	3901.759816
387.236344	3978.297134
387.620770	4004.987523
388.005133	4055.719175
388.389435	4100.464456
388.773674	4110.254377
389.157851	4184.661808
389.541965	4254.406171
389.926018	4217.817477
390.310008	4320.672138
390.693936	4372.510323
391.077802	4408.012649
391.461606	4404.872011
391.845348	4470.714521
392.229027	4532.004869
392.612645	4530.033778
392.996200	4632.356598
393.379694	4690.216442
393.763125	4794.485147
394.146494	4825.165610
394.529801	4882.170977
394.913047	4964.878668
395.296230	4915.049383
395.679351	5019.184498
396.062410	5075.995781
396.445408	5045.259866
396.828343	5108.559114
397.211217	5159.431918
397.594028	5046.391605
397.976778	5161.077855
398.359466	5211.010484
398.742092	5233.161314
399.124656	5154.010157
399.507158	5273.760246
399.889598	5337.500596
400.271977	5451.455878
400.654294	5447.894303
401.036549	5504.057798
401.418742	5419.777267
401.800874	5621.425942
402.182944	5687.250808
402.564952	5789.770233
402.946898	5852.162074
403.328783	5686.313154
403.710606	5713.502617
404.092367	6031.100350
404.474067	6054.022477
404.855705	5950.222599
405.237282	5885.279934
405.618797	6147.898844
406.000250	6115.365757
406.381642	6332.153017
406.762972	6353.398960
407.144240	6404.191105
407.525447	6390.348097
407.906593	6398.260188
408.287677	6570.914666
408.668700	6482.467622
409.049661	6592.148006
409.430560	6617.036183
409.811399	6481.809751
410.192176	6748.985864
410.572891	6771.169461
410.953545	6961.573842
411.334138	6684.738879
411.714669	6862.351332
412.095139	6648.656820
412.475547	6896.991620
412.855894	6970.612631
413.236180	7162.115983
413.616405	6814.591440
413.996568	7028.285952
414.376670	7087.499345
414.756711	6983.792728
415.136691	7085.233346
415.516609	7284.207688
415.896466	7265.376458
416.276262	7475.683314
416.655997	7467.095709
417.035670	7628.760471
417.415283	7972.620096
417.794834	8047.571971
418.174324	7907.188439
418.553753	7826.282961
418.933121	8121.021583
419.312428	8229.524858
419.691674	7995.045669
420.070859	8477.821849
420.449983	8155.435019
420.829045	8521.596708
421.208047	8285.557283
421.586988	8613.872509
421.965867	8632.514696
422.344686	8720.079538
422.723444	8804.483577
423.102141	8128.351420
423.480777	8899.615191
423.859352	8421.910412
424.237866	9044.112305
424.616319	8910.196573
424.994712	9339.171039
425.373044	8870.421869
425.751314	9366.015183
426.129524	9246.391123
426.507673	9318.819901
426.885762	9478.485846
427.263789	9398.722190
427.641756	9343.506432
428.019662	9419.849665
428.397508	9693.773362
428.775292	9347.206638
429.153016	9743.176670
429.530679	9568.215864
429.908282	9578.651053
430.285824	9302.771388
430.663305	10002.027317
431.040726	9450.081465
431.418086	9423.532228
431.795385	9757.188557
432.172624	9863.254434
432.549802	9762.748950
432.926920	9841.123769
433.303977	9702.509682
433.680974	9910.729501
434.057910	10017.486016
434.434786	10089.957643
434.811601	9907.840919
435.188355	10462.887081
435.565050	10226.356143
435.941683	10135.380960
436.318257	10608.712539
436.694770	10800.251179
437.071222	10832.154121
437.447614	10658.483851
437.823946	10592.117060
438.200218	10672.591520
438.576429	10525.127687
438.952580	10782.040011
439.328670	10786.108222
439.704700	10594.483882
440.080670	10583.857130
440.456580	11097.167579
440.832429	10899.879503
441.208218	10496.040230
441.583947	10776.426686
441.959616	10976.605864
442.335224	10789.957143
442.710773	10883.125228
443.086261	11123.991558
443.461689	10385.230627
443.837057	11082.079405
444.212365	11298.241562
444.587612	10939.873497
444.962800	11138.610905
445.337927	10882.747141
445.712995	10579.279762
446.088002	11602.412182
446.462949	11313.412914
446.837837	11273.923036
447.212664	11182.330311
447.587431	11790.512755
447.962139	12568.110736
448.336786	14867.577610
448.711374	15331.630945
449.085901	13132.722488
449.460369	12791.176753
449.834776	12234.545148
450.209124	13195.729349
450.583412	13617.021096
450.957640	14533.119738
451.331808	13555.261921
451.705917	12648.297850
452.079965	11869.764735
452.453954	12789.621557
452.827883	12458.631998
453.201752	12738.572312
453.575562	12306.074080
453.949311	12709.515102
454.323001	12706.329092
454.696632	12941.342643
455.070202	13211.732492
455.443713	13392.246129
455.817164	13900.291093
456.190556	13862.101832
456.563888	14228.487852
456.937160	14355.295557
457.310373	13725.360534
457.683526	13844.389738
458.056619	13354.200541
458.429653	13588.200820
458.802628	12926.453596
459.175542	13340.864168
459.548398	14297.541578
459.921194	14671.880018
460.293930	14749.531431
460.666607	15573.404684
461.039224	16647.777912
461.411782	17376.091052
461.784280	17129.588712
462.156719	17250.899038
462.529099	16905.932880
462.901419	15874.333842
463.273680	15633.780063
463.645882	15544.460899
464.018024	15261.145532
464.390106	15496.829557
464.762130	16198.170003
465.134094	17010.168818
465.505999	19098.426470
465.877845	22381.021687
466.249631	25168.129456
466.621358	24750.376598
466.993026	23332.801616
467.364634	22730.242579
467.736184	21254.316241
468.107674	20478.817901
468.479105	20601.005388
468.850477	20053.208405
469.221790	19672.681948
469.593043	18965.776068
469.964238	18386.025732
470.335373	18027.778654
470.706449	18545.331234
471.077467	18147.783321
471.448425	20043.544513
471.819324	24200.343864
472.190164	25965.473636
472.560945	22250.899424
472.931667	19986.312294
473.302330	19392.250122
473.672934	19051.679850
474.043479	19251.564121
474.413965	19062.964473
474.784393	18647.822933
475.154761	19446.739953
475.525070	19335.511935
475.895321	19071.461338
476.265513	19681.909780
476.635645	20268.004409
477.005719	20014.875471
477.375734	20198.270128
477.745691	20683.445897
478.115588	21246.121846
478.485427	21817.458496
478.855207	22921.690479
479.224928	24716.603388
479.594591	26947.089633
479.964194	26828.468763
480.333739	27053.710037
480.703226	26648.945713
481.072653	26374.268363
481.442022	27023.596705
481.811333	27954.702861
482.180584	27801.358523
482.549777	26861.216098
482.918912	26543.802367
483.287988	26689.590016
483.657005	26293.415817
484.025964	26088.258500
484.394864	25948.003517
484.763706	25583.276037
485.132489	25079.243831
485.501213	25244.298770
485.869879	25160.706357
486.238487	25020.521950
486.607036	25132.647294
486.975527	24900.721450
487.343959	25185.443298
487.712333	25091.869401
488.080648	24760.806745
488.448905	25265.827017
488.817104	25044.008686
489.185244	25748.320893
489.553326	25698.312647
489.921350	26763.039627
490.289315	29143.853080
490.657222	30821.528916
491.025070	31321.850832
491.392861	31078.393348
491.760593	30194.747135
492.128267	29275.966599
492.495883	28203.977837
492.863440	27331.777563
493.230939	26474.216800
493.598380	26311.596738
493.965763	25927.712873
494.333088	25426.639825
494.700354	25416.686067
495.067563	25232.247891
495.434713	24990.995912
495.801805	25190.555028
496.168839	24940.788541
496.535815	24823.057434
496.902733	25047.477000
497.269593	24763.067703
497.636395	24918.186527
498.003139	24836.361039
498.369825	24578.879065
498.736453	24795.880573
499.103023	24652.164839
499.469535	24655.166846
499.835989	24878.250507
500.202385	24892.640480
500.568723	24459.749038
500.935003	24612.730413
501.301226	24325.394726
501.667390	25170.892008
502.033497	25356.451840
502.399546	25101.528252
502.765537	24612.692604
503.131470	25001.927654
503.497345	25146.981815
503.863163	24411.822788
504.228923	24936.309475
504.594625	25194.953435
504.960269	24757.761888
505.325856	25228.111625
505.691385	24621.683502
506.056856	25227.050462
506.422270	25230.818724
506.787625	24740.972326
507.152924	25183.953637
507.518164	25219.123247
507.883347	25039.247316
508.248472	24705.855648
508.613540	25472.378214
508.978550	25274.790189
509.343503	25317.516488
509.708398	25492.326059
510.073236	25663.359807
510.438016	25870.372269
510.802738	25528.370309
511.167403	25779.714678
511.532010	25548.585336
511.896561	26278.541893
512.261053	26255.556752
512.625488	26075.252323
512.989866	25964.483049
513.354186	25803.030015
513.718449	25939.443638
514.082655	26309.552551
514.446803	26017.808375
514.810894	26512.567378
515.174927	25998.914130
515.538904	26043.518259
515.902822	26546.151545
516.266684	26291.048995
516.630488	26206.314761
516.994235	26127.957586
517.357925	26485.060322
517.721558	26640.673179
518.085133	26763.251356
518.448651	26643.660063
518.812112	26429.000170
519.175516	26648.502091
519.538863	26796.419627
519.902152	26600.941325
520.265385	26836.786667
520.628560	26650.939489
520.991678	26619.656609
521.354739	26679.663984
521.717743	26786.932176
522.080690	26551.739664
522.443580	26876.543727
522.806413	26836.164084
523.169189	26969.369013
523.531908	27013.466506
523.894569	26640.698385
524.257174	26739.867963
524.619722	26866.095935
524.982213	26578.823263
525.344647	26605.649763
525.707025	26769.940967
526.069345	26712.552471
526.431608	26695.334410
526.793815	26857.926745
527.155964	26368.055141
527.518057	26540.739866
527.880093	26441.620699
528.242072	26677.970156
528.603995	26394.153194
528.965860	26176.526583
529.327669	26212.608642
529.689421	26206.476078
530.051117	26064.134058
530.412755	26233.405922
530.774337	26008.109195
531.135862	25907.699492
531.497331	26085.324548
531.858743	25684.925863
532.220098	26124.436340
532.581396	25836.657032
532.942638	25715.626490
533.303824	25844.763207
533.664953	25830.252246
534.026025	25494.040052
534.387040	25742.957105
534.747999	25778.250223
535.108902	25944.762055
535.469748	25448.331910
535.830537	25595.321874
536.191270	25749.089669
536.551947	25560.711832
536.912567	25177.952144
537.273131	25639.437011
537.633638	25304.318747
537.994089	25517.151222
538.354483	25001.237016
538.714821	25524.488621
539.075103	25574.406126
539.435328	25324.223743
539.795497	24946.341372
540.155609	25254.973413
540.515665	25589.252324
540.875665	24797.924761
541.235609	25145.477031
541.595496	25065.179012
541.955328	25445.236641
542.315102	25359.085843
542.674821	24861.778536
543.034483	24738.905452
543.394090	24920.076960
543.753640	24741.539455
544.113134	25360.089032
544.472571	24942.043788
544.831953	25247.164666
545.191278	24903.312603
545.550548	24794.189266
545.909761	25002.782130
546.268918	25226.937036
546.628019	25226.102725
546.987064	24884.246959
547.346053	24613.428613
547.704986	24715.040630
548.063863	24876.405444
548.422684	24900.910493
548.781449	24392.812597
549.140158	24805.781399
549.498811	24386.490990
549.857408	24159.016484
550.215949	24537.115626
550.574434	24251.035186
550.932864	24425.927937
551.291237	24642.294260
551.649555	24454.780981
552.007817	24535.762076
552.366022	24386.508634
552.724173	24379.652665
553.082267	24362.714388
553.440305	24834.732746
553.798288	24051.135792
554.156215	24557.126486
554.514086	24700.113774
554.871902	24109.915646
555.229661	24360.937381
555.587365	24209.516243
555.945014	24125.628922
556.302606	24311.629855
556.660143	24333.047198
557.017625	24548.072574
557.375050	24073.652106
557.732421	24444.784373
558.089735	24276.102324
558.446994	24329.646939
558.804197	24366.999369
559.161345	24240.136212
559.518437	24067.504419
559.875474	24220.468150
560.232455	24401.213680
560.589381	24212.626635
560.946251	24226.998965
561.303065	24512.978581
561.659825	24608.074907
562.016528	24212.737540
562.373177	23936.930972
562.729770	24308.383352
563.086307	24141.972343
563.442789	24320.736700
563.799216	24179.395349
564.155587	24163.853472
564.511904	24139.345902
564.868164	24105.003042
565.224370	24067.270005
565.580520	24016.994578
565.936615	24130.390292
566.292654	23831.328882
566.648638	24056.149220
567.004567	23900.601897
567.360441	23820.134999
567.716260	23546.493607
568.072023	23851.874104
568.427732	23642.444409
568.783385	23386.086612
569.138982	23664.363346
569.494525	23690.297562
569.850013	23453.358290
570.205445	23558.889804
570.560823	23383.069482
570.916145	23148.204644
571.271412	23344.774356
571.626625	23091.000151
571.981782	23198.540566
572.336884	22994.562878
572.691931	23143.009735
573.046923	22879.811093
573.401860	22752.353080
573.756743	22801.481645
574.111570	22688.796733
574.466342	22602.320780
574.821059	22685.915713
575.175722	22395.635992
575.530330	22332.659378
575.884882	22337.483762
576.239380	22258.473758
576.593823	22161.983553
576.948211	22120.598200
577.302544	21988.512408
577.656823	21842.132424
578.011047	21960.433181
578.365216	21819.086789
578.719330	21706.298533
579.073389	21576.135941
579.427394	21739.285323
579.781344	21491.684011
580.135239	21375.019108
580.489080	21317.265129
580.842866	21103.371492
581.196597	21330.379691
581.550273	21270.846185
581.903895	21151.461579
582.257463	21456.907611
582.610975	21003.763333
582.964434	21338.203562
583.317837	20996.083135
583.671186	21078.321999
584.024481	21066.989485
584.377721	20832.752271
584.730906	20933.114083
585.084037	20909.433262
585.437113	20834.206644
585.790135	21042.736494
586.143103	20491.617391
586.496016	20519.492451
586.848874	20752.877709
587.201679	20654.721403
587.554428	20372.121880
587.907124	20703.701253
588.259765	20450.045515
588.612352	20531.412259
588.964884	20094.679457
589.317362	20258.360682
589.669786	20322.824436
590.022155	20298.836106
590.374470	20566.044986
590.726731	20311.985956
591.078937	20130.569952
591.431090	20182.304793
591.783188	19975.405757
592.135232	19919.632952
592.487222	20013.161479
592.839157	20028.589930
593.191038	19902.412370
593.542866	19801.962339
593.894639	19487.185131
594.246358	19704.080775
594.598022	19598.239229
594.949633	19358.981027
595.301190	19345.243882
595.652692	19515.229070
596.004141	19723.554752
596.355535	19061.137055
596.706876	19078.392924
597.058162	18972.064907
597.409395	19221.793587
597.760573	19263.821686
598.111698	19021.405201
598.462768	18997.013578
598.813785	18970.635740
599.164748	18743.829187
599.515657	18818.670157
599.866511	18612.418910
600.217312	18954.867011
600.568060	18464.062793
600.918753	18771.915976
601.269392	18683.620167
601.619978	18478.051995
601.970510	18656.118152
602.320988	18600.859544
602.671412	18799.155851
603.021783	18752.414273
603.372100	18440.850800
603.722363	18611.014948
604.072572	18546.341986
604.422728	18700.734884
604.772830	18446.569989
605.122878	18404.612466
605.472872	18375.096510
605.822813	18372.548207
606.172701	18365.835910
606.522534	18533.855048
606.872314	18564.149862
607.222041	18405.164472
607.571714	18613.974106
607.921333	18447.321121
608.270899	18511.623559
608.620411	18657.935488
608.969870	18474.369432
609.319276	18460.377710
609.668627	18491.852154
610.017926	18610.901522
610.367171	18726.618688
610.716362	18798.326581
611.065500	18599.072455
611.414585	18757.513400
611.763616	18731.697651
612.112594	18673.429474
612.461518	18660.544285
612.810389	18833.516356
613.159207	18690.798770
613.507971	18614.190875
613.856682	18840.395010
614.205340	18762.521786
614.553945	18936.108877
614.902496	18666.432353
615.250994	18874.236276
615.599439	18832.188012
615.947830	18806.442839
616.296169	18882.854128
616.644454	18845.131174
616.992686	18823.146702
617.340864	19049.867555
617.688990	18783.740002
618.037063	18967.137179
618.385082	18832.487960
618.733048	19091.814996
619.080961	18986.560745
619.428821	19016.976547
619.776628	18885.568790
620.124382	18831.111725
620.472083	18876.028406
620.819731	18872.943220
621.167326	18576.500688
621.514868	18611.322459
621.862357	18404.907373
622.209793	18394.454541
622.557176	18237.808247
622.904506	18054.637922
623.251783	17994.179364
623.599007	17739.596053
623.946179	17683.331735
624.293297	17603.303418
624.640363	17329.840986
624.987376	17362.348867
625.334336	17165.658167
625.681243	17009.417686
626.028097	17041.413890
626.374899	16945.838654
626.721647	16821.216290
627.068343	16655.506001
627.414987	16589.159375
627.761577	16544.114145
628.108115	16572.871407
628.454600	16310.524720
628.801032	16411.458702
629.147412	16346.919330
629.493739	16361.347112
629.840014	16160.719272
630.186236	16260.781134
630.532405	16023.937644
630.878521	16216.471912
631.224585	16127.961854
631.570597	15952.237313
631.916556	15979.177239
632.262462	15946.949143
632.608316	15869.529623
632.954117	15821.038764
633.299866	15799.518078
633.645562	15722.900101
633.991206	15486.036447
634.336797	15359.155645
634.682336	15330.005173
635.027823	15183.166444
635.373257	15062.065326
635.718639	14972.983096
636.063968	14918.876392
636.409245	14668.736859
636.754470	14706.575759
637.099642	14555.910794
637.444762	14335.965252
637.789829	14373.932702
638.134845	14205.003637
638.479808	14233.846599
638.824719	14130.646618
639.169577	14003.503677
639.514383	14047.258371
639.859137	13869.207338
640.203839	13972.019150
640.548489	13825.094721
640.893086	13810.213235
641.237632	13689.341489
641.582125	13854.771994
641.926566	13659.482735
642.270955	13685.979040
642.615292	13625.364206
642.959576	13635.050783
643.303809	13668.556812
643.647990	13599.467799
643.992118	13669.862471
644.336195	13437.873612
644.680219	13670.502697
645.024192	13557.921129
645.368112	13817.527949
645.711981	13844.256147
646.055797	14031.144323
646.399562	14018.738043
646.743274	14274.828659
647.086935	14545.528538
647.430544	14513.653322
647.774101	14560.251228
648.117606	14687.018603
648.461059	14669.412373
648.804460	14641.965811
649.147810	14376.579308
649.491108	14289.256441
649.834354	14300.704902
650.177548	13968.976814
650.520690	13789.846974
650.863781	13709.483420
651.206820	13767.809570
651.549807	13600.692799
651.892742	13370.385165
652.235626	13307.214466
652.578458	13313.210919
652.921238	13030.374462
653.263967	13227.171025
653.606644	13058.786405
653.949269	13033.860419
654.291843	12823.457781
654.634365	12998.443793
654.976836	12848.535001
655.319255	12833.182167
655.661622	12800.180253
656.003938	12727.449006
656.346203	12641.411634
656.688416	12731.091240
657.030577	12674.098475
657.372687	12572.758680
657.714746	12585.331318
658.056753	12772.229576
658.398708	12568.756004
658.740612	12574.734812
659.082465	12687.364272
659.424266	12657.530723
659.766016	12684.682378
660.107715	12602.864451
660.449362	12677.171058
660.790958	12626.366310
661.132503	12560.929613
661.473996	12648.151656
661.815438	12652.860094
662.156829	12677.508816
662.498168	12644.884989
662.839456	12659.496773
663.180693	12662.566836
663.521879	12766.976694
663.863013	12733.248854
664.204097	12705.583002
664.545129	12842.939320
664.886110	12818.633397
665.227040	12910.475658
665.567918	12905.399217
665.908746	12924.974017
666.249522	12920.804983
666.590248	12982.939724
666.930922	13086.003594
667.271545	13052.172411
667.612118	13139.480154
667.952639	13036.993497
668.293109	13071.343919
668.633528	13008.821008
668.973896	12987.905261
669.314213	13049.523284
669.654480	12792.323615
669.994695	12885.920198
670.334859	12913.618818
670.674973	12850.022142
671.015035	12877.319990
671.355047	12825.799397
671.695008	12810.620483
672.034918	12815.155001
672.374777	12849.893592
672.714585	12770.991973
673.054342	12808.452787
673.394049	12769.653546
673.733705	12863.381199
674.073310	12750.265269
674.412864	12766.792692
674.752368	12610.441305
675.091820	12668.200325
675.431223	12638.177733
675.770574	12507.027075
676.109875	12415.840164
676.449125	12375.672250
676.788324	12332.192298
677.127473	12154.922643
677.466571	12148.336376
677.805619	12036.637010
678.144616	11981.156591
678.483562	11961.170937
678.822458	11824.578352
679.161303	11786.404215
679.500098	11778.376177
679.838842	11733.711554
680.177535	11779.825509
680.516179	11844.717762
680.854771	11783.046807
681.193314	12002.210970
681.531805	12181.008094
681.870247	12625.985703
682.208638	13031.811190
682.546978	13322.025376
682.885268	13335.399557
683.223508	13042.916852
683.561697	12898.830593
683.899836	12801.448104
684.237925	12594.362545
684.575963	12510.654185
684.913951	12419.184969
685.251889	12387.907130
685.589776	12478.557159
685.927614	12398.518759
686.265401	12381.091490
686.603137	12436.014861
686.940824	12582.188158
687.278460	12724.951115
687.616046	12746.940628
687.953582	12896.320098
688.291068	12844.645751
688.628504	13072.084968
688.965889	13084.037544
689.303224	13027.201055
689.640510	12908.877613
689.977745	12590.309457
690.314930	12374.971529
690.652065	12279.020728
690.989150	11980.927218
691.326185	11749.555901
691.663170	11549.457381
692.000105	11318.718729
692.336990	11184.291320
692.673825	10931.031313
693.010610	10824.461320
693.347345	10619.253591
693.684030	10425.932903
694.020665	10367.218584
694.357251	10168.481176
694.693786	10083.399102
695.030272	9938.884345
695.366707	9832.763015
695.703093	9765.826574
696.039429	9748.996682
696.375716	9656.753649
696.711952	9533.941059
697.048139	9598.165359
697.384276	9546.153254
697.720363	9568.236029
698.056400	9492.220470
698.392388	9439.255587
698.728326	9407.745855
699.064214	9348.499694
699.400053	9381.075631
699.735842	9200.115852
700.071581	9164.290892
700.407270	9088.991177
700.742910	9010.049228
701.078501	8914.751256
701.414042	8781.221173
701.749533	8726.073470
702.084974	8587.875279
702.420366	8711.212149
702.755709	8585.510978
703.091002	8444.956047
703.426246	8484.536666
703.761440	8436.605375
704.096584	8392.500320
704.431679	8325.490783
704.766725	8311.267167
705.101721	8271.631095
705.436668	8320.288312
705.771565	8206.796815
706.106413	8291.790669
706.441212	8323.113879
706.775961	8292.370402
707.110661	8336.823297
707.445311	8463.250394
707.779913	8366.334211
708.114465	8489.761822
708.448967	8524.487810
708.783421	8690.568624
709.117825	8861.988019
709.452180	8895.637721
709.786485	8979.043611
710.120742	9268.196634
710.454949	9282.546279
710.789107	9389.345643
711.123216	9608.852605
711.457275	9787.387589
711.791286	9920.035471
712.125247	9937.687071
712.459159	9922.440101
712.793023	10138.819027
713.126837	9717.244975
713.460602	9879.265139
713.794318	9705.836844
714.127985	9725.439370
714.461602	9385.821877
714.795171	9342.218417
715.128691	9088.509747
715.462162	8854.524591
715.795584	8785.554044
716.128957	8616.332592
716.462281	8450.660112
716.795556	8499.017380
717.128782	8288.700442
717.461960	8040.889922
717.795088	8104.305117
718.128167	8010.748863
718.461198	7849.333637
718.794180	7799.244733
719.127113	7793.787684
719.459997	7612.026361
719.792833	7395.302116
720.125619	7463.415666
720.458357	7319.208419
720.791046	7316.188768
721.123686	7296.341746
721.456278	7140.907849
721.788821	7155.086094
722.121315	7064.970428
722.453761	7140.214690
722.786158	7069.119298
723.118506	7080.204795
723.450805	7044.515946
723.783056	7093.374809
724.115259	7019.279930
724.447412	7015.635176
724.779518	7075.738333
725.111574	7079.559527
725.443582	7153.440157
725.775542	7128.708257
726.107453	7317.587688
726.439315	7231.182312
726.771129	7315.304046
727.102895	7493.221488
727.434612	7590.011642
727.766281	7636.901935
728.097901	7708.355249
728.429473	7722.830923
728.760996	7713.015796
729.092471	7689.198865
729.423897	7622.116231
729.755276	7611.998635
730.086606	7526.084770
730.417887	7632.140565
730.749120	7855.995522
731.080305	8039.044859
731.411442	8146.290366
731.742530	8120.925801
732.073570	8230.023932
732.404562	8316.731778
732.735506	8186.269237
733.066401	8309.845562
733.397249	8220.811223
733.728048	7981.666446
734.058798	7645.285374
734.389501	7415.330620
734.720156	7244.869044
735.050762	7026.690426
735.381320	6943.960051
735.711831	6880.343210
736.042293	6768.981601
736.372707	6780.765298
736.703073	6658.040928
737.033391	6700.008534
737.363661	6705.120264
737.693883	6742.903712
738.024056	6832.064079
738.354182	6865.383586
738.684260	6894.571866
739.014290	7030.647732
739.344272	7127.077443
739.674207	7161.851323
740.004093	7245.191678
740.333931	7249.239725
740.663722	7257.504696
740.993464	7331.226530
741.323159	7302.534803
741.652806	7061.849954
741.982405	7106.320492
742.311956	7137.074052
742.641460	6952.197296
742.970915	6763.937926
743.300323	6756.426607
743.629683	6719.734569
743.958996	6577.110244
744.288260	6481.618187
744.617477	6434.057421
744.946647	6422.949239
745.275768	6270.865189
745.604842	6222.316357
745.933869	6202.565116
746.262847	6161.356204
746.591778	6148.718031
746.920662	6104.381083
747.249498	6110.007011
747.578286	6158.419732
747.907027	6230.798098
748.235720	6291.433097
748.564365	6266.996103
748.892963	6313.190717
749.221514	6440.487413
749.550017	6240.686322
749.878473	6145.511857
750.206881	6208.385128
750.535242	6160.290000
750.863555	6088.937508
751.191821	6096.542089
751.520039	6087.374751
751.848210	6000.198077
752.176334	6033.144538
752.504411	6074.008131
752.832440	5996.676831
753.160421	5930.489002
753.488356	5979.579758
753.816243	6001.959961
754.144082	5855.186766
754.471875	5834.817984
754.799620	5874.665785
755.127318	5886.434358
755.454969	5843.972720
755.782572	5809.899561
756.110129	5858.203897
756.437638	5828.161141
756.765100	5773.608294
757.092515	5785.127331
757.419882	5842.896433
757.747203	5811.381660
758.074477	5868.923911
758.401703	5847.259552
758.728882	5813.831661
759.056014	5891.551130
759.383099	5995.081306
759.710138	6012.495972
760.037129	5994.816646
760.364073	5999.202449
760.690970	6079.382001
761.017820	6050.261776
761.344623	6017.345562
761.671379	6131.041225
761.998088	6258.451348
762.324751	6526.073602
762.651366	7182.716658
762.977935	8576.920851
763.304456	10237.575231
763.630931	11076.173694
763.957359	10591.181926
764.283740	9621.712589
764.610074	8738.336077
764.936362	7735.287614
765.262602	7152.568038
765.588796	6621.159846
765.914943	6301.084386
766.241044	6117.533454
766.567097	5900.499178
766.893104	5646.765302
767.219064	5476.298684
767.544978	5412.765023
767.870845	5324.436445
768.196665	5223.535231
768.522438	5152.487729
768.848165	5117.338284
769.173846	5041.753743
769.499479	4997.084079
769.825066	4947.222027
770.150607	4889.911669
770.476101	4871.269482
770.801548	4861.847566
771.126949	4774.131489
771.452303	4722.941092
771.777611	4688.361297
772.102872	4705.619687
772.428087	4666.724665
772.753256	4624.641113
773.078378	4568.878389
773.403453	4506.252135
773.728482	4493.450125
774.053465	4445.917085
774.378401	4439.285447
774.703291	4426.730454
775.028135	4351.970142
775.352932	4303.849808
775.677683	4295.020227
776.002388	4307.008091
776.327046	4318.249864
776.651658	4242.851847
776.976224	4186.322868
777.300743	4188.510729
777.625216	4212.083164
777.949643	4196.435423
778.274024	4158.775483
778.598359	4126.938076
778.922647	4150.502949
779.246889	4140.004746
779.571086	4127.316162
779.895236	4115.325778
780.219339	4103.408490
780.543397	4100.008232
780.867409	4152.489164
781.191374	4163.688087
781.515294	4099.461267
781.839167	4096.003035
782.162995	4123.174854
782.486776	4105.621557
782.810511	4115.285448
783.134201	4104.446968
783.457844	4052.288669
783.781441	4007.825692
784.104993	4011.241074
784.428498	4029.263199
784.751958	4020.952857
785.075372	3998.950741
785.398739	3963.095534
785.722061	3978.529027
786.045337	4024.864792
786.368568	4047.549985
786.691752	3962.810709
787.014891	4022.634082
787.337983	4157.971419
787.661030	4323.812777
787.984031	4481.903362
788.306987	4645.934946
788.629897	4730.797730
788.952760	4685.082027
789.275579	4619.685658
789.598351	4546.455337
789.921078	4388.606728
790.243759	4193.811502
790.566395	4190.204556
790.888984	4179.991179
791.211529	4068.276689
791.534027	4009.801825
791.856480	3992.694669
792.178888	3932.982202
792.501249	3889.474524
792.823566	3901.235536
793.145836	3920.084410
793.468062	3868.077346
793.790241	3830.324145
794.112375	3862.625338
794.434464	3932.160494
794.756507	3950.096919
795.078505	3921.080038
795.400457	3969.696925
795.722364	4115.761838
796.044226	4220.872416
796.366042	4295.597439
796.687812	4258.784413
797.009538	4263.167697
797.331218	4225.744691
797.652852	4205.635528
797.974442	4177.581507
798.295986	4176.701826
798.617484	4089.772169
798.938938	4011.238554
799.260346	4055.724216
799.581709	4041.724932
799.903026	3964.844815
800.224299	3928.830812
800.545526	3925.831325
800.866708	3882.744583
801.187845	3834.720031
801.508936	3862.763970
801.829983	3849.414995
802.150984	3781.125004
802.471940	3775.718367
802.792851	3777.757513
803.113717	3778.788429
803.434538	3775.365486
803.755314	3713.273594
804.076045	3696.657951
804.396731	3720.454718
804.717372	3746.323398
805.037967	3725.324472
805.358518	3716.426836
805.679024	3745.479005
805.999485	3761.124226
806.319901	3765.993981
806.640272	3776.983696
806.960598	3791.224956
807.280879	3765.487345
807.601115	3780.283131
807.921306	3798.156542
808.241453	3834.117613
808.561554	3803.739620
808.881611	3737.710587
809.201623	3786.554327
809.521590	3792.888537
809.841513	3763.002056
810.161390	3792.704534
810.481223	3763.624638
810.801011	3719.874985
811.120755	3715.446331
811.440453	3745.852051
811.760107	3744.886670
812.079716	3698.999567
812.399281	3676.800846
812.718801	3696.988146
813.038276	3672.402439
813.357707	3666.998322
813.677093	3679.001309
813.996434	3625.915439
814.315731	3643.652739
814.634983	3647.589880
814.954191	3665.664937
815.273354	3686.847865
815.592473	3679.482740
815.911547	3690.137218
816.230577	3740.042121
816.549562	3793.062456
816.868502	3832.880010
817.187399	3853.972198
817.506250	3848.522710
817.825058	3834.165504
818.143821	3927.590688
818.462539	4028.701111
818.781213	4070.562852
819.099843	4139.455261
819.418429	4410.553391
819.736970	4652.513652
820.055466	4910.930760
820.373919	5286.595024
820.692327	5704.000042
821.010691	6214.691612
821.329011	7737.586380
821.647286	10678.953456
821.965517	15482.069058
822.283704	19463.837027
822.601847	21383.987321
822.919945	19426.335883
823.237999	16735.869555
823.556010	14213.198033
823.873976	12025.599403
824.191897	9918.999513
824.509775	8591.570444
824.827609	7464.466747
825.145398	6946.188241
825.463144	6828.426887
825.780845	6935.924451
826.098502	7177.065525
826.416116	8150.542580
826.733685	9533.618425
827.051210	10624.577050
827.368692	10525.672132
827.686129	9169.014453
828.003522	7671.196904
828.320872	6642.872096
828.638177	5920.482312
828.955439	5338.791131
829.272656	4842.227395
829.589830	4573.997681
829.906960	4397.189292
830.224046	4202.434396
830.541088	4078.943770
830.858086	4031.234290
831.175041	3953.671097
831.491952	3944.707926
831.808819	3953.320737
832.125642	4038.183521
832.442421	4198.973643
832.759157	4497.518336
833.075849	5097.909677
833.392497	6005.176217
833.709101	6786.746627
834.025662	7082.490958
834.342179	6648.389639
834.658653	5965.814887
834.975083	5299.412158
835.291469	4712.886511
835.607811	4314.952949
835.924110	4171.766536
836.240366	3963.405565
836.556578	3762.901233
836.872746	3653.152793
837.188871	3609.551853
837.504952	3541.382851
837.820990	3457.014100
838.136984	3417.783841
838.452935	3442.568673
838.768842	3436.763785
839.084706	3459.322948
839.400526	3637.585710
839.716303	4014.023791
840.032037	4570.491558
840.347727	4791.231082
840.663373	4464.425682
840.978977	4073.464036
841.294537	3764.085904
841.610054	3538.516955
841.925527	3434.419648
842.240957	3364.181252
842.556344	3306.865853
842.871687	3245.278077
843.186987	3195.206816
843.502244	3159.165087
843.817458	3125.409520
844.132629	3099.119903
844.447756	3105.159205
844.762840	3084.397213
845.077881	3052.370763
845.392879	3037.378371
845.707833	3036.004657
846.022745	3033.337887
846.337613	3031.316384
846.652438	3019.230218
846.967221	3015.852644
847.281960	3001.722290
847.596656	2999.047958
847.911309	3001.744975
848.225919	2993.427072
848.540485	2986.797954
848.855009	2984.789054
849.169490	2975.147848
849.483928	2969.501755
849.798323	2968.682568
850.112675	2965.519244
850.426984	2979.710092
850.741251	2971.099801
851.055474	2962.144191
851.369654	2958.557410
851.683792	2965.158801
851.997887	2975.014257
852.311938	2973.522076
852.625947	2957.652523
852.939914	2963.490179
853.253837	2967.664255
853.567718	2954.279991
853.881555	2953.861576
854.195350	2971.389668
854.509103	2960.334417
854.822812	2956.039354
855.136479	2950.675566
855.450103	2957.841567
855.763685	2948.961574
856.077224	2948.278498
856.390720	2959.111937
856.704173	2967.263483
857.017584	2960.775518
857.330953	2957.589509
857.644278	2970.003350
857.957561	2977.580204
858.270802	2979.826038
858.584000	2977.010554
858.897155	2964.808441
859.210268	2964.054789
859.523339	2961.229222
859.836367	2962.292905
860.149352	2956.641772
860.462295	2952.104733
860.775195	2959.565641
861.088054	2957.060188
861.400869	2943.907817
861.713642	2943.454113
862.026373	2958.234777
862.339062	2957.203861
862.651708	2963.961527
862.964312	2966.847588
863.276873	2961.824078
863.589392	2969.892445
863.901869	2986.117398
864.214303	3009.518435
864.526696	3020.908922
864.839045	3015.565299
865.151353	3014.736029
865.463619	3013.581605
865.775842	3019.205012
866.088023	3039.016746
866.400162	3042.318702
866.712258	3009.815863
867.024313	2999.438648
867.336325	3012.533045
867.648296	3033.741179
867.960224	3023.048892
868.272110	3012.865761
868.583954	3014.121008
868.895755	3030.993750
869.207515	3016.845752
869.519233	3026.698687
869.830909	3035.114893
870.142542	3043.241233
870.454134	3041.527241
870.765684	3047.516132
871.077191	3047.075031
871.388657	3057.797565
871.700081	3070.760892
872.011463	3080.139959
872.322803	3076.487643
872.634101	3078.809094
872.945357	3097.544543
873.256571	3125.981691
873.567744	3114.155144
873.878874	3113.517438
874.189963	3130.705252
874.501010	3131.514358
874.812015	3120.512039
875.122979	3121.139663
875.433900	3118.200670
875.744780	3127.012607
876.055618	3138.624905
876.366415	3134.050058
876.677169	3142.128507
876.987882	3137.689771
877.298554	3134.672641
877.609183	3161.100890
877.919771	3183.768438
878.230317	3212.755072
878.540822	3265.089811
878.851285	3303.553815
879.161707	3354.653471
879.472087	3471.890545
879.782425	3725.324472
880.092722	4195.086914
880.402977	4747.327674
880.713191	5416.681999
881.023363	6657.297358
881.333494	7974.417267
881.643583	8485.635638
881.953631	8144.546127
882.263637	7446.978984
882.573602	6813.555483
882.883526	6228.973201
883.193408	5652.610520
883.503248	5202.498496
883.813048	4883.227099
884.122806	4546.195718
884.432522	4218.394689
884.742197	3979.272597
885.051831	3787.469296
885.361424	3661.727796
885.670975	3584.489757
885.980485	3492.163545
886.289954	3410.514497
886.599382	3365.088659
886.908768	3329.699759
887.218113	3284.704941
887.527417	3222.164386
887.836680	3177.661080
888.145901	3173.008095
888.455082	3155.006135
888.764221	3102.898248
889.073319	3073.921696
889.382376	3072.119483
889.691392	3079.494691
890.000366	3074.821542
890.309300	3061.896023
890.618193	3076.061665
890.927044	3090.149170
891.235855	3086.859817
891.544625	3076.510328
891.853353	3089.715631
892.162041	3108.524176
892.470687	3154.794406
892.779293	3204.752241
893.087858	3252.791916
893.396381	3331.113803
893.704864	3468.538178
894.013306	3725.294225
894.321707	4042.705436
894.630068	4233.024117
894.938387	4215.720357
895.246665	4174.473636
895.554903	4043.854819
895.863100	3833.568127
896.171256	3663.053619
896.479371	3518.642206
896.787446	3388.560272
897.095480	3282.249899
897.403473	3221.554407
897.711425	3189.550641
898.019336	3175.236285
898.327207	3142.433497
898.635038	3102.447065
898.942827	3092.337031
899.250576	3078.718353
899.558284	3049.235165
899.865952	3026.083666
900.173579	3005.787981
900.481165	2996.630725
900.788711	2984.922645
901.096216	2959.069088
901.403681	2948.626337
901.711105	2958.207050
902.018489	2953.775876
902.325832	2954.101030
902.633135	2968.793473
902.940397	3005.188083
903.247619	3096.019593
903.554800	3307.385092
903.861941	3686.731919
904.169041	4145.005571
904.476101	4433.956948
904.783121	4353.323692
905.090100	4077.849840
905.397039	3794.660502
905.703938	3537.874207
906.010796	3350.885208
906.317614	3235.510841
906.624391	3140.595996
906.931129	3064.371230
907.237826	3001.805469
907.544483	2957.438274
907.851099	2925.540373
908.157675	2905.073289
908.464211	2881.934393
908.770707	2870.120448
909.077163	2853.202336
909.383578	2838.159533
909.689954	2829.193841
909.996289	2828.293995
910.302584	2828.200734
910.608839	2828.339365
910.915054	2820.956596
911.221229	2810.690286
911.527363	2817.677325
911.833458	2825.246617
912.139513	2831.139726
912.445527	2832.778101
912.751502	2842.096674
913.057436	2852.693180
913.363331	2867.277238
913.669186	2891.999056
913.975000	2932.976075
914.280775	2996.660972
914.586510	3065.220664
914.892205	3148.682007
915.197859	3291.865900
915.503475	3504.053106
915.809050	3735.109352
916.114585	3877.955487
916.420081	3884.826580
916.725536	3816.183708
917.030952	3686.810057
917.336328	3554.056311
917.641665	3418.963471
917.946961	3315.377841
918.252218	3238.956470
918.557435	3158.696259
918.862612	3096.858946
919.167750	3045.459341
919.472848	3004.767147
919.777906	2978.336378
920.082925	2947.736574
920.387904	2918.076945
920.692843	2903.979358
920.997743	2888.634086
921.302603	2875.572456
921.607423	2865.028883
921.912204	2849.416430
922.216946	2837.201714
922.521647	2828.606547
922.826310	2820.303766
923.130932	2814.113229
923.435516	2803.151240
923.740059	2795.501289
924.044564	2788.468880
924.349028	2782.124587
924.653454	2776.843979
924.957840	2768.826024
925.262186	2763.003491
925.566493	2758.963006
925.870761	2754.247007
926.174989	2751.459249
926.479178	2744.827611
926.783328	2738.657238
927.087438	2739.118504
927.391509	2738.127917
927.695541	2737.830489
927.999533	2729.505024
928.303486	2728.859756
928.607400	2731.677761
928.911275	2727.165928
929.215110	2727.430589
929.518906	2723.256513
929.822663	2726.084601
930.126381	2722.966647
930.430060	2725.872872
930.733699	2725.983778
931.037299	2727.949828
931.340861	2729.598285
931.644383	2729.177349
931.947866	2728.937894
932.251309	2728.358161
932.554714	2725.933366
932.858080	2724.289950
933.161407	2725.666185
933.464694	2719.906667
933.767943	2716.128322
934.071153	2721.366081
934.374323	2718.149825
934.677455	2719.596636
934.980548	2719.084959
935.283602	2717.013044
935.586617	2719.606718
935.889593	2719.644527
936.192530	2715.404916
936.495428	2717.068497
936.798287	2721.161914
937.101108	2722.570917
937.403890	2728.600137
937.706632	2731.062740
938.009336	2738.964749
938.312002	2749.004207
938.614628	2756.765063
938.917216	2764.160436
939.219765	2766.673451
939.522275	2763.424427
939.824747	2760.374529
940.127179	2760.276227
940.429573	2757.899323
940.731929	2753.700042
941.034246	2749.629310
941.336524	2745.412385
941.638763	2742.612024
941.940964	2742.778382
942.243126	2739.337794
942.545250	2737.381827
942.847335	2735.425859
943.149381	2729.394118
943.451389	2727.244066
943.753359	2725.930846
944.055290	2724.852039
944.357182	2723.347254
944.659036	2721.305587
944.960851	2718.419526
945.262628	2717.849876
945.564367	2718.926162
945.866067	2719.757953
946.167729	2722.258365
946.469352	2720.025134
946.770937	2719.924311
947.072484	2719.697459
947.373992	2715.145297
947.675462	2718.064125
947.976893	2711.157744
948.278286	2710.187322
948.579641	2710.875440
948.880958	2708.934595
949.182236	2711.336705
949.483476	2709.970552
949.784678	2710.883001
950.085841	2710.441900
950.386967	2712.425594
950.688054	2713.229658
950.989103	2712.176057
951.290114	2713.267467
951.591087	2714.802498
951.892021	2716.443394
952.192917	2721.547562
952.493776	2722.770042
952.794596	2722.664178
953.095378	2722.500340
953.396122	2723.075032
953.696828	2720.927500
953.997496	2721.078735
954.298126	2715.719988
954.598718	2714.469782
954.899272	2710.000799
955.199788	2709.620192
955.500266	2705.763710
955.800706	2703.580890
956.101108	2703.497711
956.401472	2698.476722
956.701798	2697.891948
957.002087	2697.264324
957.302337	2695.925898
957.602550	2694.733665
957.902724	2692.792821
958.202861	2690.771318
958.502960	2688.903571
958.803022	2689.150587
959.103045	2689.856349
959.403031	2686.425843
959.702979	2685.261337
960.002889	2686.952644
960.302762	2686.100689
960.602596	2688.734692
960.902393	2685.654547
961.202153	2686.078004
961.501875	2684.830318
961.801559	2684.953827
962.101205	2684.616069
962.400814	2686.902232
962.700385	2684.699248
962.999918	2680.278156
963.299414	2680.404185
963.598873	2680.177333
963.898293	2679.317817
964.197677	2682.889474
964.497022	2682.100533
964.796331	2684.149762
965.095601	2682.309741
965.394835	2682.738239
965.694030	2682.763445
965.993189	2680.752025
966.292309	2683.338137
966.591393	2680.104237
966.890439	2678.851510
967.189447	2678.859072
967.488419	2680.605831
967.787353	2682.279494
968.086249	2681.533404
968.385108	2680.300842
968.683930	2680.905780
968.982714	2681.782941
969.281462	2680.515091
969.580172	2680.938547
969.878844	2681.102385
970.177480	2680.754545
970.476078	2680.600790
970.774639	2683.209587
971.073162	2680.298321
971.371649	2682.617252
971.670098	2682.428208
971.968510	2682.153466
972.266885	2681.561130
972.565223	2682.599608
972.863524	2681.515760
973.161788	2682.783610
973.460014	2682.372756
973.758204	2683.055832
974.056356	2679.940399
974.354471	2680.063907
974.652550	2682.823939
974.950591	2683.151614
975.248595	2682.879392
975.546563	2679.537107
975.844493	2682.955009
976.142386	2683.474248
976.440243	2679.963084
976.738062	2680.484844
977.035845	2679.711027
977.333590	2679.832014
977.631299	2678.186077
977.928971	2677.029133
978.226606	2675.587363
978.524204	2674.841272
978.821765	2675.186591
979.119290	2677.845800
979.416777	2677.445028
979.714228	2678.392765
980.011642	2679.695903
980.309020	2677.878567
980.606360	2680.643640
980.903664	2680.653722
981.200931	2680.149607
981.498162	2679.247240
981.795356	2679.184226
982.092513	2684.484999
982.389633	2683.895184
982.686717	2686.758560
982.983764	2691.676205
983.280775	2695.363809
983.577749	2698.456557
983.874686	2697.445806
984.171587	2694.380784
984.468451	2693.669982
984.765279	2688.522963
985.062070	2687.124043
985.358824	2686.750998
985.655543	2682.599608
985.952224	2683.045750
986.248869	2681.309072
986.545478	2679.368228
986.842050	2681.581295
987.138586	2678.135666
987.435086	2678.743125
987.731549	2678.866633
988.027975	2678.264215
988.324366	2677.717250
988.620719	2675.748680
988.917037	2674.432938
989.213318	2676.240192
989.509563	2676.068793
989.805772	2676.908145
990.101944	2675.584842
990.398080	2676.245233
990.694180	2676.802281
990.990244	2674.621982
991.286271	2674.407733
991.582262	2674.621982
991.878217	2674.082578
992.174136	2673.394461
992.470019	2675.471416
992.765865	2672.545026
993.061676	2672.053514
993.357450	2674.127949
993.653188	2673.084430
993.948890	2678.007117
994.244556	2677.354287
994.540186	2675.806653
994.835780	2676.976201
995.131337	2675.846982
995.426859	2678.591890
995.722345	2678.107940
996.017795	2679.280008
996.313208	2679.464010
996.608586	2679.161541
996.903928	2683.275122
997.199234	2681.132632
997.494504	2681.546007
997.789738	2679.527024
998.084936	2679.532066
998.380099	2679.398475
998.675225	2681.858558
998.970316	2678.226407
999.265371	2676.635923
999.560390	2677.926458
999.855373	2675.383196
1000.150320	2676.993845
1000.445232	2676.252795
1000.740108	2676.903104
1001.034948	2674.856395
1001.329752	2674.727846
1001.624521	2674.322033
1001.919254	2674.148113
1002.213951	2675.650377
1002.508613	2674.251457
1002.803239	2676.817404
1003.097829	2674.448062
1003.392384	2675.030315
1003.686903	2672.940757
1003.981386	2674.518638
1004.275834	2675.317661
1004.570246	2676.250274
1004.864623	2675.274811
1005.158964	2673.432269
1005.453270	2673.399502
1005.747540	2675.421005
1006.041775	2676.898063
1006.335974	2674.780778
1006.630138	2675.496622
1006.924266	2676.020902
1007.218359	2671.541837
1007.512416	2673.943947
1007.806438	2670.261384
1008.100425	2671.438493
1008.394376	2667.216527
1008.688292	2671.715757
1008.982172	2671.650222
1009.276017	2671.294820
1009.569827	2670.936898
1009.863602	2673.593586
1010.157341	2671.055365
1010.451045	2673.641477
1010.744714	2672.562670
1011.038347	2670.770540
1011.331945	2674.790860
1011.625508	2672.018226
1011.919036	2672.529903
1012.212528	2668.948163
1012.505986	2672.005623
1012.799408	2672.023267
1013.092795	2671.771209
1013.386147	2672.270283
1013.679464	2672.963442
1013.972745	2673.076868
1014.265992	2674.183401
1014.559204	2673.270953
1014.852380	2673.941426
1015.145521	2671.824141
1015.438628	2671.942608
1015.731699	2671.846827
1016.024736	2669.913544
1016.317737	2671.481343
1016.610703	2672.287927
1016.903635	2673.134841
1017.196531	2670.594100
1017.489393	2671.078051
1017.782219	2671.362876
1018.075011	2672.688699
1018.367768	2672.078720
1018.660490	2672.290448
1018.953177	2672.290448
1019.245829	2672.290448
