Dividing Wavelength (nm)	Counts (n)	Blue Motor Position (mm): 13.700000	Red Motor Position (mm): 0.000000	
326.493990	2169.944508
326.888308	2169.944508
327.282561	2169.944508
327.676750	2127.964300
328.070874	2126.830040
328.464933	2126.066305
328.858929	2130.031173
329.252859	2135.258849
329.646726	2142.704634
330.040528	2154.044709
330.434265	2168.202790
330.827938	2187.167611
331.221547	2203.828624
331.615091	2219.239431
332.008571	2238.539489
332.401986	2257.958013
332.795338	2273.114243
333.188625	2294.955042
333.581847	2312.820891
333.975006	2331.921823
334.368100	2352.459483
334.761129	2369.075127
335.154095	2386.572972
335.546996	2404.622823
335.939833	2432.412183
336.332606	2447.835594
336.725315	2458.953858
337.117960	2473.928606
337.510540	2484.341109
337.903056	2494.892244
338.295508	2501.458347
338.687896	2511.228103
339.080220	2518.247910
339.472480	2526.102028
339.864676	2528.922553
340.256807	2537.686599
340.648875	2543.279759
341.040879	2542.795809
341.432818	2544.789585
341.824694	2551.978270
342.216506	2548.716644
342.608253	2552.817622
342.999937	2550.022303
343.391557	2554.075390
343.783113	2550.647406
344.174605	2550.796120
344.566033	2547.678166
344.957397	2547.811757
345.348697	2547.494164
345.739934	2542.901673
346.131106	2544.948381
346.522215	2542.465613
346.913260	2539.934954
347.304241	2537.537885
347.695159	2536.718698
348.086012	2537.305992
348.476802	2532.393388
348.867528	2530.613860
349.258191	2525.313087
349.648789	2526.989271
350.039324	2519.714886
350.429796	2525.928108
350.820203	2520.523991
351.210548	2523.614218
351.600828	2521.282685
351.991045	2518.943589
352.381198	2517.716068
352.771288	2517.509381
353.161314	2514.855213
353.551276	2518.850328
353.941175	2518.711696
354.331010	2516.385204
354.720782	2517.617766
355.110490	2518.225225
355.500135	2516.828825
355.889717	2517.224556
356.279235	2516.538959
356.668689	2519.450225
357.058080	2515.881088
357.447408	2517.577437
357.836672	2514.935872
358.225873	2518.686490
358.615010	2519.714886
359.004084	2522.744619
359.393095	2518.815040
359.782043	2520.554238
360.170927	2520.755884
360.559748	2521.133971
360.948505	2521.373425
361.337199	2522.807634
361.725830	2522.830319
362.114398	2521.812006
362.502903	2524.859383
362.891344	2523.886441
363.279722	2520.110616
363.668037	2526.754857
364.056289	2523.954496
364.444478	2526.228057
364.832603	2525.161852
365.220665	2526.031452
365.608665	2524.622449
365.996601	2525.950793
366.384474	2526.961544
366.772284	2528.312574
367.160031	2529.025897
367.547715	2529.545136
367.935336	2526.018849
368.322893	2527.400125
368.710388	2525.948272
369.097820	2528.289888
369.485189	2524.314939
369.872495	2530.114786
370.259738	2533.121834
370.646918	2529.222502
371.034035	2533.099149
371.421090	2529.431710
371.808081	2534.205682
372.195010	2531.859025
372.581875	2533.434386
372.968678	2534.432534
373.355418	2532.413552
373.742096	2536.506969
374.128710	2532.400949
374.515262	2533.767102
374.901751	2534.896321
375.288177	2532.635363
375.674540	2534.646783
376.060841	2534.205682
376.447079	2534.011598
376.833254	2535.360107
377.219367	2534.427493
377.605417	2536.443955
377.991404	2534.888759
378.377329	2537.084181
378.763191	2536.015457
379.148991	2536.726259
379.534727	2536.194418
379.920402	2537.111908
380.306013	2536.010416
380.691563	2537.600900
381.077049	2535.090405
381.462474	2536.804397
381.847835	2535.755837
382.233134	2536.514531
382.618371	2538.578883
383.003545	2536.670807
383.388657	2537.482432
383.773706	2538.404964
384.158693	2538.505787
384.543618	2536.748945
384.928480	2540.529810
385.313280	2539.251878
385.698017	2541.109543
386.082692	2541.001158
386.467305	2541.021323
386.851856	2542.057280
387.236344	2540.736497
387.620770	2535.788605
388.005133	2538.273894
388.389435	2540.688606
388.773674	2535.896990
389.157851	2540.998637
389.541965	2539.914789
389.926018	2544.560213
390.310008	2542.188350
390.693936	2542.679862
391.077802	2544.688762
391.461606	2543.148689
391.845348	2541.815304
392.229027	2547.594987
392.612645	2543.171375
392.996200	2545.326468
393.379694	2543.400747
393.763125	2542.047197
394.146494	2544.093906
394.529801	2546.077600
394.913047	2544.285470
395.296230	2544.451828
395.679351	2544.545089
396.062410	2546.306972
396.445408	2546.082641
396.828343	2548.169679
397.211217	2545.321427
397.594028	2545.966694
397.976778	2544.247661
398.359466	2546.072559
398.742092	2549.094730
399.124656	2549.762683
399.507158	2544.277908
399.889598	2545.306303
400.271977	2546.420398
400.654294	2548.835111
401.036549	2546.697662
401.418742	2549.016593
401.800874	2548.464586
402.182944	2548.489792
402.564952	2548.895605
402.946898	2550.042467
403.328783	2547.048022
403.710606	2548.378887
404.092367	2549.084648
404.474067	2552.704197
404.855705	2546.611962
405.237282	2549.482899
405.618797	2549.298897
406.000250	2550.894422
406.381642	2549.336706
406.762972	2549.306459
407.144240	2545.538196
407.525447	2545.938968
407.906593	2548.419216
408.287677	2550.448280
408.668700	2548.852755
409.049661	2552.079093
409.430560	2554.231666
409.811399	2553.409958
410.192176	2553.820812
410.572891	2551.748898
410.953545	2552.290822
411.334138	2555.930535
411.714669	2551.559855
412.095139	2553.372149
412.475547	2552.411810
412.855894	2551.756460
413.236180	2554.975236
413.616405	2553.339382
413.996568	2553.871224
414.376670	2555.807027
414.756711	2555.875082
415.136691	2553.079762
415.516609	2552.747046
415.896466	2553.525905
416.276262	2553.662016
416.655997	2552.794937
417.035670	2552.497509
417.415283	2553.223435
417.794834	2551.249824
418.174324	2553.641851
418.553753	2557.021945
418.933121	2555.156718
419.312428	2555.169321
419.691674	2557.057233
420.070859	2552.409289
420.449983	2554.229146
420.829045	2555.900288
421.208047	2558.168807
421.586988	2553.470452
421.965867	2555.925494
422.344686	2559.945814
422.723444	2559.817265
423.102141	2558.783828
423.480777	2553.314176
423.859352	2553.364588
424.237866	2558.803993
424.616319	2556.411965
424.994712	2556.422047
425.373044	2557.841132
425.751314	2554.725699
426.129524	2555.479352
426.507673	2555.658313
426.885762	2551.461552
427.263789	2558.002449
427.641756	2557.871379
428.019662	2560.351627
428.397508	2555.960782
428.775292	2557.082439
429.153016	2555.721327
429.530679	2559.683674
429.908282	2558.524209
430.285824	2557.931873
430.663305	2557.006821
431.040726	2560.956565
431.418086	2559.691236
431.795385	2560.974209
432.172624	2560.139898
432.549802	2559.015721
432.926920	2559.204764
433.303977	2558.932542
433.680974	2561.420352
434.057910	2557.848694
434.434786	2559.328273
434.811601	2561.173335
435.188355	2559.779456
435.565050	2559.355999
435.941683	2560.825495
436.318257	2559.688715
436.694770	2560.795248
437.071222	2558.004970
437.447614	2563.489745
437.823946	2558.831719
438.200218	2559.071174
438.576429	2560.928839
438.952580	2560.402038
439.328670	2562.980589
439.704700	2562.090825
440.080670	2562.599982
440.456580	2561.586710
440.832429	2562.574776
441.208218	2562.332800
441.583947	2562.985630
441.959616	2565.725497
442.335224	2561.495969
442.710773	2559.945814
443.086261	2561.274158
443.461689	2562.216854
443.837057	2560.218036
444.212365	2562.473953
444.587612	2559.857594
444.962800	2559.749209
445.337927	2559.633262
445.712995	2558.713252
446.088002	2560.333983
446.462949	2563.998902
446.837837	2562.867163
447.212664	2564.109807
447.587431	2564.835733
447.962139	2563.096535
448.336786	2562.811710
448.711374	2564.624005
449.085901	2564.036710
449.460369	2566.527040
449.834776	2563.535116
450.209124	2563.492266
450.583412	2564.203068
450.957640	2567.464695
451.331808	2564.142575
451.705917	2562.156360
452.079965	2565.770867
452.453954	2562.594940
452.827883	2564.324056
453.201752	2563.920764
453.575562	2563.867832
453.949311	2566.431258
454.323001	2564.959242
454.696632	2566.184242
455.070202	2566.506876
455.443713	2565.009653
455.817164	2566.814386
456.190556	2565.284396
456.563888	2567.124417
456.937160	2565.458316
457.310373	2567.270611
457.683526	2566.622822
458.056619	2565.191135
458.429653	2567.651218
458.802628	2567.091650
459.175542	2567.310940
459.548398	2567.938563
459.921194	2566.038048
460.293930	2568.397308
460.666607	2567.656259
461.039224	2566.708522
461.411782	2567.716753
461.784280	2571.424521
462.156719	2571.548030
462.529099	2569.022412
462.901419	2568.001578
463.273680	2566.355641
463.645882	2567.288255
464.018024	2569.738255
464.390106	2565.889334
464.762130	2569.377813
465.134094	2571.084243
465.505999	2573.680438
465.877845	2573.940057
466.249631	2573.009964
466.621358	2573.299831
466.993026	2575.273442
467.364634	2578.144379
467.736184	2571.084243
468.107674	2571.301013
468.479105	2571.500139
468.850477	2573.413257
469.221790	2570.887638
469.593043	2571.810170
469.964238	2570.154151
470.335373	2573.241857
470.706449	2573.367886
471.077467	2573.196487
471.448425	2572.258832
471.819324	2575.142372
472.190164	2573.047773
472.560945	2574.655901
472.931667	2574.640777
473.302330	2573.221693
473.672934	2571.933678
474.043479	2573.619944
474.413965	2573.841755
474.784393	2574.353432
475.154761	2575.628844
475.525070	2572.286559
475.895321	2576.687486
476.265513	2575.399471
476.635645	2575.933833
477.005719	2574.391240
477.375734	2571.532906
477.745691	2573.314954
478.115588	2575.124728
478.485427	2576.246385
478.855207	2576.004410
479.224928	2578.179667
479.594591	2578.615727
479.964194	2579.795357
480.333739	2580.669997
480.703226	2579.339133
481.072653	2578.058680
481.442022	2581.829463
481.811333	2577.637743
482.180584	2578.134297
482.549777	2578.494740
482.918912	2576.911817
483.287988	2580.690162
483.657005	2579.409709
484.025964	2581.393403
484.394864	2581.224524
484.763706	2579.888619
485.132489	2581.879874
485.501213	2581.983218
485.869879	2579.318968
486.238487	2578.840059
486.607036	2583.364494
486.975527	2579.082034
487.343959	2582.230235
487.712333	2582.270564
488.080648	2579.946592
488.448905	2580.551530
488.817104	2582.192426
489.185244	2583.044381
489.553326	2582.799885
489.921350	2584.067735
490.289315	2584.649988
490.657222	2587.425144
491.025070	2586.116964
491.392861	2585.466655
491.760593	2587.823395
492.128267	2585.708631
492.495883	2583.026737
492.863440	2582.633527
493.230939	2582.595718
493.598380	2587.672160
493.965763	2582.290728
494.333088	2584.140832
494.700354	2582.109247
495.067563	2584.397931
495.434713	2584.788620
495.801805	2584.745770
496.168839	2584.592015
496.535815	2585.612849
496.902733	2581.758887
497.269593	2584.047571
497.636395	2587.094948
498.003139	2585.728795
498.369825	2583.709813
498.736453	2583.840883
499.103023	2584.173599
499.469535	2587.614187
499.835989	2582.774679
500.202385	2582.134453
500.568723	2579.578588
500.935003	2582.943558
501.301226	2580.790985
501.667390	2587.868765
502.033497	2586.011100
502.399546	2585.413723
502.765537	2585.817016
503.131470	2584.851635
503.497345	2583.064546
503.863163	2585.849783
504.228923	2587.142839
504.594625	2588.438416
504.960269	2585.489341
505.325856	2587.679722
505.691385	2589.111410
506.056856	2588.801379
506.422270	2589.812130
506.787625	2591.785742
507.152924	2590.273396
507.518164	2592.057964
507.883347	2591.105186
508.248472	2592.390680
508.613540	2591.470670
508.978550	2591.997470
509.343503	2593.116606
509.708398	2591.916812
510.073236	2593.378746
510.438016	2594.288675
510.802738	2595.276741
511.167403	2595.186000
511.532010	2595.115424
511.896561	2596.715990
512.261053	2593.161977
512.625488	2601.457195
512.989866	2595.032245
513.354186	2598.122472
513.718449	2598.737493
514.082655	2604.285283
514.446803	2601.966352
514.810894	2603.385437
515.174927	2604.592793
515.538904	2604.060951
515.902822	2603.156064
516.266684	2606.785695
516.630488	2606.299224
516.994235	2607.506580
517.357925	2608.217383
517.721558	2610.342229
518.085133	2610.001951
518.448651	2607.897269
518.812112	2607.136055
519.175516	2610.387599
519.538863	2606.568925
519.902152	2610.861468
520.265385	2613.220728
520.628560	2616.535287
520.991678	2615.219545
521.354739	2617.891357
521.717743	2617.198198
522.080690	2619.547376
522.443580	2621.508385
522.806413	2621.072325
523.169189	2623.517285
523.531908	2624.170114
523.894569	2623.096348
524.257174	2625.095166
524.619722	2623.885289
524.982213	2628.049282
525.344647	2627.494755
525.707025	2630.837040
526.069345	2629.037348
526.431608	2630.562297
526.793815	2630.453912
527.155964	2630.365692
527.518057	2630.426186
527.880093	2634.103708
528.242072	2636.326857
528.603995	2635.434572
528.965860	2636.389871
529.327669	2636.525982
529.689421	2639.263329
530.051117	2637.700571
530.412755	2639.061682
530.774337	2640.679893
531.135862	2640.397588
531.497331	2642.406488
531.858743	2644.924544
532.220098	2646.540234
532.581396	2643.865902
532.942638	2644.148207
533.303824	2647.004020
533.664953	2649.680873
534.026025	2649.680873
534.387040	2652.768580
534.747999	2655.150525
535.108902	2654.714465
535.469748	2654.207829
535.830537	2655.931904
536.191270	2658.071874
536.551947	2652.813950
536.912567	2657.315701
537.273131	2659.342244
537.633638	2655.757984
537.994089	2662.107317
538.354483	2663.780980
538.714821	2668.519665
539.075103	2667.839109
539.435328	2666.939263
539.795497	2668.005467
540.155609	2670.730211
540.515665	2670.145437
540.875665	2673.580983
541.235609	2675.652898
541.595496	2676.759431
541.955328	2677.097188
542.315102	2682.733198
542.674821	2681.485513
543.034483	2682.002231
543.394090	2686.861903
543.753640	2690.105886
544.113134	2690.499096
544.472571	2691.766946
544.831953	2697.564273
545.191278	2693.649817
545.550548	2697.642411
545.909761	2700.447813
546.268918	2706.598021
546.628019	2708.654811
546.987064	2709.927703
547.346053	2708.765717
547.704986	2712.579350
548.063863	2715.954402
548.422684	2717.307952
548.781449	2720.740978
549.140158	2723.168293
549.498811	2726.397152
549.857408	2724.080742
550.215949	2731.702967
550.574434	2735.100704
550.932864	2739.171436
551.291237	2743.738722
551.649555	2748.658888
552.007817	2750.803899
552.366022	2753.720206
552.724173	2754.811616
553.082267	2755.474528
553.440305	2765.589603
553.798288	2765.869387
554.156215	2775.097219
554.514086	2781.459155
554.871902	2773.040428
555.229661	2784.592232
555.587365	2786.036523
555.945014	2795.498769
556.302606	2805.641570
556.660143	2808.366314
557.017625	2820.520536
557.375050	2820.127326
557.732421	2827.162256
558.089735	2835.039059
558.446994	2839.563494
558.804197	2849.237469
559.161345	2859.133254
559.518437	2858.699714
559.875474	2866.745396
560.232455	2874.964997
560.589381	2883.431615
560.946251	2890.287584
561.303065	2903.676889
561.659825	2917.509815
562.016528	2920.746236
562.373177	2924.111206
562.729770	2932.845005
563.086307	2951.789661
563.442789	2963.901033
563.799216	2971.850933
564.155587	2978.583394
564.511904	2999.509224
564.868164	3001.939060
565.224370	3017.586801
565.580520	3025.042668
565.936615	3042.790050
566.292654	3043.417674
566.648638	3072.643763
567.004567	3079.381265
567.360441	3094.779470
567.716260	3101.645521
568.072023	3130.044861
568.427732	3142.191522
568.783385	3149.097902
569.138982	3175.233764
569.494525	3193.969213
569.850013	3216.800598
570.205445	3227.399624
570.560823	3232.755850
570.916145	3257.265940
571.271412	3274.577263
571.626625	3299.155408
571.981782	3324.116682
572.336884	3328.353771
572.691931	3352.999973
573.046923	3354.676156
573.401860	3387.665467
573.756743	3422.522525
574.111570	3435.374947
574.466342	3454.755663
574.821059	3484.558964
575.175722	3493.653206
575.530330	3528.101931
575.884882	3550.217473
576.239380	3582.395158
576.593823	3599.076336
576.948211	3620.344964
577.302544	3634.918940
577.656823	3657.755367
578.011047	3692.867003
578.365216	3715.279973
578.719330	3750.905807
579.073389	3769.888272
579.427394	3822.422136
579.781344	3819.611693
580.135239	3857.448073
580.489080	3881.416239
580.842866	3894.886202
581.196597	3970.173314
581.550273	3975.080878
581.903895	4033.613715
582.257463	4075.341866
582.610975	4087.790995
582.964434	4144.637567
583.317837	4167.811751
583.671186	4215.395202
584.024481	4263.044188
584.377721	4267.074591
584.730906	4315.943536
585.084037	4362.922049
585.437113	4391.460021
585.790135	4441.044810
586.143103	4445.102939
586.496016	4470.238132
586.848874	4559.539652
587.201679	4584.014454
587.554428	4592.677677
587.907124	4672.912681
588.259765	4694.314900
588.612352	4767.751908
588.964884	4756.293366
589.317362	4817.840813
589.669786	4872.063464
590.022155	4918.603396
590.374470	4994.876054
590.726731	5021.581566
591.078937	5031.570613
591.431090	5089.178398
591.783188	5094.963122
592.135232	5130.193226
592.487222	5213.755392
592.839157	5256.811887
593.191038	5303.641686
593.542866	5311.999919
593.894639	5340.603426
594.246358	5421.645015
594.598022	5442.245690
594.949633	5463.645388
595.301190	5489.433411
595.652692	5573.764353
596.004141	5654.385006
596.355535	5599.184371
596.706876	5648.068440
597.058162	5690.260377
597.409395	5757.844606
597.760573	5840.852245
598.111698	5853.218196
598.462768	5893.519700
598.813785	5930.373055
599.164748	5946.582886
599.515657	6008.306773
599.866511	6022.921078
600.217312	6141.909953
600.568060	6095.488488
600.918753	6228.005299
601.269392	6271.782679
601.619978	6260.818169
601.970510	6384.076902
602.320988	6414.447333
602.671412	6510.808989
603.021783	6548.458846
603.372100	6538.048863
603.722363	6641.798330
604.072572	6683.627304
604.422728	6748.433858
604.772830	6783.464836
605.122878	6790.590507
605.472872	6877.449587
605.822813	6938.238341
606.172701	6988.690209
606.522534	7089.046979
606.872314	7157.800756
607.222041	7154.521485
607.571714	7277.376925
607.921333	7305.889691
608.270899	7382.704273
608.620411	7517.787031
608.969870	7466.364741
609.319276	7544.202677
609.668627	7639.079713
610.017926	7744.114674
610.367171	7829.431162
610.716362	7931.786750
611.065500	7906.891011
611.414585	8021.877210
611.763616	8082.824760
612.112594	8133.410218
612.461518	8164.909868
612.810389	8296.655383
613.159207	8286.812530
613.507971	8331.721649
613.856682	8528.107359
614.205340	8559.344868
614.553945	8703.733597
614.902496	8627.150908
615.250994	8826.962082
615.599439	8853.370167
615.947830	8905.359586
616.296169	8954.977143
616.644454	9037.347076
616.992686	9055.701917
617.340864	9221.321465
617.688990	9200.199031
618.037063	9352.041105
618.385082	9352.945992
618.733048	9523.432774
619.080961	9527.700111
619.428821	9624.097055
619.776628	9662.586264
620.124382	9673.913737
620.472083	9760.374567
620.819731	9839.233336
621.167326	9755.877857
621.514868	9823.179782
621.862357	9785.235017
622.209793	9850.112146
622.557176	9836.964817
622.904506	9792.428743
623.251783	9812.570673
623.599007	9796.501996
623.946179	9823.162138
624.293297	9856.756387
624.640363	9796.277664
624.987376	9842.726856
625.334336	9795.579464
625.681243	9786.951530
626.028097	9829.997942
626.374899	9891.091686
626.721647	9837.373150
627.068343	9806.211258
627.414987	9829.738323
627.761577	9897.735927
628.108115	9980.728442
628.454600	9852.128608
628.801032	9937.767729
629.147412	9960.586512
629.493739	10026.766780
629.840014	9991.990380
630.186236	10073.916692
630.532405	10003.590075
630.878521	10164.770887
631.224585	10147.426797
631.570597	10125.432243
631.916556	10148.714812
632.262462	10188.250061
632.608316	10214.819462
632.954117	10216.440193
633.299866	10268.875755
633.645562	10276.992013
633.991206	10165.700980
634.336797	10113.618299
634.682336	10175.803452
635.027823	10133.689653
635.373257	10139.066043
635.718639	10093.980484
636.063968	10104.370302
636.409245	10013.949646
636.754470	10071.401156
637.099642	10025.198981
637.444762	9909.018029
637.789829	10000.671247
638.134845	9937.654303
638.479808	9984.317744
638.824719	9998.927008
639.169577	9930.526112
639.514383	10008.293472
639.859137	9920.683259
640.203839	10022.728816
640.548489	9937.281258
640.893086	9984.859668
641.237632	9902.494776
641.582125	10067.980733
641.926566	9993.840483
642.270955	10029.524291
642.615292	10039.936794
642.959576	10080.326519
643.303809	10156.866358
643.647990	10127.738571
643.992118	10215.489936
644.336195	10070.869314
644.680219	10243.962373
645.024192	10250.309185
645.368112	10427.104971
645.711981	10512.620585
646.055797	10657.710033
646.399562	10671.386684
646.743274	10866.801972
647.086935	11117.770775
647.430544	11122.993410
647.774101	11147.684982
648.117606	11315.557925
648.461059	11300.580657
648.804460	11362.793537
649.147810	11202.797396
649.491108	11134.217539
649.834354	11211.437934
650.177548	11018.959118
650.520690	10916.280897
650.863781	10882.260670
651.206820	10942.449526
651.549807	10849.455361
651.892742	10746.252860
652.235626	10719.166740
652.578458	10757.237534
652.921238	10541.922291
653.263967	10718.854188
653.606644	10621.191915
653.949269	10608.460481
654.291843	10515.211738
654.634365	10633.436878
654.976836	10557.093644
655.319255	10588.036246
655.661622	10582.775802
656.003938	10543.994206
656.346203	10516.056131
656.688416	10585.450134
657.030577	10586.387789
657.372687	10551.094671
657.714746	10555.765300
658.056753	10718.070289
658.398708	10618.343663
658.740612	10637.111879
659.082465	10738.716335
659.424266	10715.020391
659.766016	10760.605025
660.107715	10710.722807
660.449362	10790.864551
660.790958	10784.943715
661.132503	10754.157389
661.473996	10822.586011
661.815438	10861.654953
662.156829	10889.134283
662.498168	10895.211394
662.839456	10912.873077
663.180693	10952.680548
663.521879	11051.537575
663.863013	11057.995293
664.204097	11056.034284
664.545129	11168.961171
664.886110	11145.837399
665.227040	11249.836402
665.567918	11272.052768
665.908746	11326.555202
666.249522	11311.343521
666.590248	11376.581093
666.930922	11487.678041
667.271545	11492.338588
667.612118	11578.174314
667.952639	11522.519976
668.293109	11532.778724
668.633528	11527.077179
668.973896	11522.114163
669.314213	11634.393262
669.654480	11418.243708
669.994695	11479.995322
670.334859	11526.482323
670.674973	11501.521049
671.015035	11550.246322
671.355047	11511.915909
671.695008	11498.761018
672.034918	11516.818431
672.374777	11574.947976
672.714585	11508.838284
673.054342	11552.666076
673.394049	11519.840602
673.733705	11604.423602
674.073310	11559.214535
674.412864	11592.977663
674.752368	11499.645740
675.091820	11498.203970
675.431223	11521.705829
675.770574	11418.924264
676.109875	11362.508712
676.449125	11347.110507
676.788324	11300.386573
677.127473	11166.911942
677.466571	11171.761532
677.805619	11102.193609
678.144616	11030.636951
678.483562	11019.586742
678.822458	10903.156253
679.161303	10898.009234
679.500098	10907.892417
679.838842	10872.571572
680.177535	10894.931610
680.516179	10958.722371
680.854771	10920.754921
681.193314	11135.364402
681.531805	11261.872157
681.870247	11641.738223
682.208638	12008.867814
682.546978	12311.175727
682.885268	12393.943912
683.223508	12124.431224
683.561697	11992.388282
683.899836	11897.168447
684.237925	11736.980743
684.575963	11662.275884
684.913951	11603.317069
685.251889	11547.347658
685.589776	11643.822740
685.927614	11584.816034
686.265401	11547.965200
686.603137	11601.671132
686.940824	11746.011970
687.278460	11859.979855
687.616046	11911.029100
687.953582	12077.535891
688.291068	11994.613951
688.628504	12197.520393
688.965889	12213.999925
689.303224	12208.023638
689.640510	12124.763941
689.977745	11863.354908
690.314930	11650.605613
690.652065	11585.534399
690.989150	11319.003554
691.326185	11113.586617
691.663170	10928.689697
692.000105	10697.406599
692.336990	10619.218303
692.673825	10384.348425
693.010610	10266.599674
693.347345	10078.849461
693.684030	9878.743379
694.020665	9835.268469
694.357251	9652.710644
694.693786	9620.031364
695.030272	9453.809398
695.366707	9344.008026
695.703093	9276.534703
696.039429	9279.551833
696.375716	9226.415551
696.711952	9093.558462
697.048139	9122.867731
697.384276	9082.961957
697.720363	9100.535419
698.056400	9043.565339
698.392388	9005.938167
698.728326	8967.653124
699.064214	8902.987723
699.400053	8961.076939
699.735842	8779.570195
700.071581	8745.658353
700.407270	8675.624123
700.742910	8602.091333
701.078501	8519.492027
701.414042	8405.317454
701.749533	8340.674738
702.084974	8210.481899
702.420366	8310.236251
702.755709	8206.562402
703.091002	8088.523784
703.426246	8107.859130
703.761440	8069.155671
704.096584	8021.915019
704.431679	7958.545194
704.766725	7946.499357
705.101721	7895.097232
705.436668	7937.967204
705.771565	7842.598656
706.106413	7914.856034
706.441212	7970.810322
706.775961	7920.252590
707.110661	7947.542876
707.445311	8106.180426
707.779913	8002.173860
708.114465	8123.854711
708.448967	8177.190119
708.783421	8299.866598
709.117825	8481.436356
709.452180	8519.219804
709.786485	8604.029656
710.120742	8878.855720
710.454949	8876.138538
710.789107	8973.495822
711.123216	9180.263788
711.457275	9335.848919
711.791286	9498.007715
712.125247	9491.111416
712.459159	9482.372576
712.793023	9741.520651
713.126837	9324.186209
713.460602	9463.871541
713.794318	9287.877299
714.127985	9328.075460
714.461602	9026.392649
714.795171	8977.891708
715.128691	8744.302282
715.462162	8494.019076
715.795584	8441.739790
716.128957	8313.959143
716.462281	8140.361969
716.795556	8184.804782
717.128782	7997.281420
717.461960	7721.994091
717.795088	7796.250287
718.128167	7702.641102
718.461198	7540.681431
718.794180	7480.439643
719.127113	7474.760783
719.459997	7340.207346
719.792833	7099.817404
720.125619	7161.407701
720.458357	7026.690426
720.791046	7014.437902
721.123686	7019.494179
721.456278	6866.598504
721.788821	6881.999229
722.121315	6772.351612
722.453761	6831.880077
722.786158	6784.473066
723.118506	6800.259440
723.450805	6764.699140
723.783056	6837.206056
724.115259	6735.624286
724.447412	6731.556074
724.779518	6781.337469
725.111574	6780.172962
725.443582	6859.689602
725.775542	6842.582447
726.107453	7024.583224
726.439315	6940.529545
726.771129	6987.082081
727.102895	7152.918398
727.434612	7272.030781
727.766281	7286.723224
728.097901	7373.834363
728.429473	7363.043773
728.760996	7332.615368
729.092471	7320.085580
729.423897	7269.817715
729.755276	7290.698174
730.086606	7228.132413
730.417887	7318.898388
730.749120	7488.954152
731.080305	7681.737957
731.411442	7816.992115
731.742530	7812.969274
732.073570	7915.390397
732.404562	7997.387285
732.735506	7850.732557
733.066401	7990.228846
733.397249	7930.153416
733.728048	7693.420831
734.058798	7365.982765
734.389501	7158.314953
734.720156	6976.291491
735.050762	6743.581747
735.381320	6641.747919
735.711831	6598.613286
736.042293	6492.454147
736.372707	6514.985585
736.703073	6381.490790
737.033391	6410.966416
737.363661	6424.348159
737.693883	6439.343071
738.024056	6527.812801
738.354182	6575.769297
738.684260	6614.374453
739.014290	6716.102417
739.344272	6823.398336
739.674207	6854.726586
740.004093	6912.858652
740.333931	6935.596776
740.663722	6943.609690
740.993464	7023.630446
741.323159	7017.351689
741.652806	6772.535614
741.982405	6763.348111
742.311956	6829.195663
742.641460	6689.182656
742.970915	6490.732593
743.300323	6483.228836
743.629683	6420.849598
743.958996	6299.496422
744.288260	6211.082146
744.617477	6151.954452
744.946647	6173.790210
745.275768	6006.648234
745.604842	5959.878929
745.933869	5939.933604
746.262847	5894.986676
746.591778	5888.518876
746.920662	5844.048337
747.249498	5828.582077
747.578286	5880.034614
747.907027	5951.644204
748.235720	6013.035376
748.564365	5984.386498
748.892963	6002.499364
749.221514	6157.141799
749.550017	6016.148288
749.878473	5877.766094
750.206881	5929.707623
750.535242	5871.731833
750.863555	5804.583664
751.191821	5827.941850
751.520039	5832.685576
751.848210	5741.234004
752.176334	5750.766826
752.504411	5809.965096
752.832440	5736.573458
753.160421	5660.658722
753.488356	5709.661258
753.816243	5751.172639
754.144082	5602.519094
754.471875	5562.376386
754.799620	5609.538901
755.127318	5625.234534
755.454969	5575.705197
755.782572	5538.362850
756.110129	5579.917081
756.437638	5578.707204
756.765100	5512.907544
757.092515	5505.620556
757.419882	5544.248397
757.747203	5537.775556
758.074477	5600.863075
758.401703	5593.719760
758.728882	5537.861255
759.056014	5582.914047
759.383099	5724.315892
759.710138	5730.400565
760.037129	5712.007915
760.364073	5718.884049
760.690970	5806.128778
761.017820	5793.777951
761.344623	5735.088838
761.671379	5831.130380
761.998088	5942.852432
762.324751	6167.413150
762.651366	6728.750672
762.977935	7979.733164
763.304456	9574.958407
763.630931	10504.224543
763.957359	10171.165591
764.283740	9250.391279
764.610074	8447.196839
764.936362	7482.388049
765.262602	6880.449074
765.588796	6348.630028
765.914943	5998.035422
766.241044	5847.050344
766.567097	5661.891284
766.893104	5401.508126
767.219064	5224.107402
767.544978	5160.394779
767.870845	5088.162606
768.196665	4974.250173
768.522438	4904.697373
768.848165	4878.286768
769.173846	4816.391481
769.499479	4773.912198
769.825066	4722.005958
770.150607	4659.974560
770.476101	4635.237618
770.801548	4632.056650
771.126949	4564.439653
771.452303	4509.284389
771.777611	4465.317966
772.102872	4479.118124
772.428087	4445.627219
772.753256	4410.782763
773.078378	4367.096124
773.403453	4298.407883
773.728482	4282.220738
774.053465	4238.801279
774.378401	4221.172364
774.703291	4227.584712
775.028135	4163.274713
775.352932	4109.909058
775.677683	4095.403138
776.002388	4112.227989
776.327046	4132.047285
776.651658	4054.032909
776.976224	3992.987056
777.300743	3997.811440
777.625216	4014.303575
777.949643	4015.369779
778.274024	3976.936022
778.598359	3919.063576
778.922647	3943.188018
779.246889	3940.065023
779.571086	3935.530505
779.895236	3921.997528
780.219339	3907.053027
780.543397	3898.720000
780.867409	3948.098102
781.191374	3963.524032
781.515294	3905.235691
781.839167	3897.578178
782.162995	3913.074685
782.486776	3903.425917
782.810511	3909.845826
783.134201	3916.280859
783.457844	3873.978017
783.781441	3810.151968
784.104993	3813.917710
784.428498	3835.178776
784.751958	3832.194413
785.075372	3817.045746
785.398739	3778.173408
785.722061	3787.517187
786.045337	3824.806602
786.368568	3865.259341
786.691752	3781.135086
787.014891	3820.975325
787.337983	3938.555197
787.661030	4092.363322
787.984031	4252.114967
788.306987	4426.173406
788.629897	4507.656096
788.952760	4461.685814
789.275579	4392.793406
789.598351	4336.410621
789.921078	4206.800035
790.243759	4007.354345
790.566395	3980.416939
790.888984	3982.183863
791.211529	3877.032956
791.534027	3813.337977
791.856480	3810.605672
792.178888	3750.167278
792.501249	3695.437992
792.823566	3703.697922
793.145836	3736.505751
793.468062	3690.482537
793.790241	3641.820279
794.112375	3667.656193
794.434464	3729.594329
794.756507	3755.213473
795.078505	3740.374837
795.400457	3765.457098
795.722364	3898.659506
796.044226	4001.148684
796.366042	4071.727359
796.687812	4061.277047
797.009538	4069.663006
797.331218	4023.130636
797.652852	3993.402951
797.974442	3976.847802
798.295986	3975.864777
798.617484	3900.925505
798.938938	3813.564829
799.260346	3849.919110
799.581709	3847.370807
799.903026	3781.061990
800.224299	3742.850043
800.545526	3735.731934
800.866708	3700.562324
801.187845	3634.447592
801.508936	3670.128879
801.829983	3679.409643
802.150984	3595.471911
802.471940	3581.649067
802.792851	3598.829319
803.113717	3595.396293
803.434538	3597.054833
803.755314	3548.614386
804.076045	3514.561392
804.396731	3533.475801
804.717372	3560.420768
805.037967	3548.526166
805.358518	3542.806977
805.679024	3559.495716
805.999485	3574.016760
806.319901	3576.912903
806.640272	3589.399841
806.960598	3609.680403
807.280879	3583.564705
807.601115	3591.567537
807.921306	3604.684619
808.241453	3647.746156
808.561554	3623.926704
808.881611	3561.166859
809.201623	3594.138526
809.521590	3607.941205
809.841513	3580.779468
810.161390	3608.830968
810.481223	3595.164400
810.801011	3538.012839
811.120755	3520.706558
811.440453	3558.570665
811.760107	3568.632808
812.079716	3529.974719
812.399281	3490.288236
812.718801	3514.352184
813.038276	3488.828822
813.357707	3482.789519
813.677093	3505.215092
813.996434	3453.470169
814.315731	3460.734471
814.634983	3461.120120
814.954191	3473.319712
815.273354	3505.792304
815.592473	3507.080319
815.911547	3505.278107
816.230577	3539.167263
816.549562	3590.990325
816.868502	3635.123106
817.187399	3663.388856
817.506250	3655.983401
817.825058	3623.392341
818.143821	3710.011967
818.462539	3811.041732
818.781213	3861.528887
819.099843	3912.865477
819.418429	4135.061895
819.736970	4369.679716
820.055466	4603.869038
820.373919	4957.684941
820.692327	5361.128484
821.010691	5759.039360
821.329011	7020.633480
821.647286	9587.957023
821.965517	13932.219241
822.283704	17912.837826
822.601847	20216.539269
822.919945	18517.531791
823.237999	16051.696758
823.556010	13626.405204
823.873976	11613.079263
824.191897	9565.208816
824.509775	8214.744194
824.827609	7102.098526
825.145398	6552.322891
825.463144	6435.176557
825.780845	6554.067130
826.098502	6708.376849
826.416116	7497.783733
826.733685	8774.438300
827.051210	9889.022292
827.368692	10020.545996
827.686129	8844.628806
828.003522	7349.760332
828.320872	6349.950811
828.638177	5666.002345
828.955439	5126.593842
829.272656	4636.873472
829.589830	4348.534596
829.906960	4176.379192
830.224046	3997.950072
830.541088	3873.788973
830.858086	3828.789114
831.175041	3758.054163
831.491952	3736.041965
831.808819	3746.913213
832.125642	3811.041732
832.442421	3943.185497
832.759157	4204.985219
833.075849	4718.575453
833.392497	5543.043561
833.709101	6295.624816
834.025662	6664.924623
834.342179	6346.961406
834.658653	5703.342171
834.975083	5075.612653
835.291469	4524.455742
835.607811	4105.699694
835.924110	3969.981751
836.240366	3780.978811
836.556578	3579.251998
836.872746	3469.047334
837.188871	3433.784463
837.504952	3370.384392
837.820990	3290.419089
838.136984	3239.689957
838.452935	3263.786673
838.768842	3262.536467
839.084706	3283.878192
839.400526	3426.787341
839.716303	3737.735793
840.032037	4234.846494
840.347727	4516.624309
840.663373	4270.943676
840.978977	3906.324580
841.294537	3606.970783
841.610054	3379.708006
841.925527	3269.901592
842.240957	3204.926161
842.556344	3153.760970
842.871687	3096.821137
843.186987	3046.205432
843.502244	3009.422653
843.817458	2975.974597
844.132629	2942.309772
844.447756	2954.572378
844.762840	2940.540327
845.077881	2911.281470
845.392879	2892.319169
845.707833	2890.607698
846.022745	2887.898078
846.337613	2887.703993
846.652438	2874.057590
846.967221	2873.931561
847.281960	2859.322297
847.596656	2857.920856
847.911309	2854.634024
848.225919	2849.469362
848.540485	2843.014164
848.855009	2844.589525
849.169490	2836.906806
849.483928	2826.305260
849.798323	2822.726041
850.112675	2823.837615
850.426984	2832.120231
850.741251	2833.309943
851.055474	2822.700835
851.369654	2816.480051
851.683792	2818.892243
851.997887	2829.987823
852.311938	2828.888851
852.625947	2818.378045
852.939914	2823.401555
853.253837	2828.382215
853.567718	2813.488126
853.881555	2810.173567
854.195350	2824.069508
854.509103	2823.071360
854.822812	2816.109526
855.136479	2812.532827
855.450103	2811.007878
855.763685	2805.490336
856.077224	2802.090077
856.390720	2813.530976
856.704173	2826.080928
857.017584	2816.202787
857.330953	2813.500729
857.644278	2823.457008
857.957561	2835.399501
858.270802	2835.142402
858.584000	2835.664162
858.897155	2824.797955
859.210268	2822.030361
859.523339	2819.855103
859.836367	2821.858962
860.149352	2813.581387
860.462295	2810.276911
860.775195	2818.262099
861.088054	2817.054742
861.400869	2802.972279
861.713642	2795.448357
862.026373	2813.883857
862.339062	2816.653971
862.651708	2821.722851
862.964312	2824.954231
863.276873	2819.691266
863.589392	2826.027996
863.901869	2837.209276
864.214303	2855.496061
864.526696	2872.698999
864.839045	2872.394009
865.151353	2867.504090
865.463619	2867.244470
865.775842	2869.172712
866.088023	2882.435987
866.400162	2894.156670
866.712258	2867.226826
867.024313	2854.513036
867.336325	2860.350692
867.648296	2886.068139
867.960224	2875.953063
868.272110	2860.864890
868.583954	2867.516693
868.895755	2882.798950
869.207515	2867.635160
869.519233	2872.777137
869.830909	2881.387427
870.142542	2892.460322
870.454134	2891.615928
870.765684	2893.965106
871.077191	2891.683984
871.388657	2899.162536
871.700081	2915.614341
872.011463	2926.036927
872.322803	2927.226639
872.634101	2925.386618
872.945357	2937.087136
873.256571	2965.158801
873.567744	2957.886937
873.878874	2949.715227
874.189963	2973.000316
874.501010	2978.558188
874.812015	2967.202989
875.122979	2965.766260
875.433900	2962.746609
875.744780	2969.642908
876.055618	2977.401243
876.366415	2972.639874
876.677169	2982.906183
876.987882	2982.777634
877.298554	2973.227168
877.609183	2989.777276
877.919771	3012.422139
878.230317	3036.302085
878.540822	3086.690938
878.851285	3125.018831
879.161707	3161.877227
879.472087	3248.940475
879.782425	3456.134418
880.092722	3862.559803
880.402977	4368.754664
880.713191	4959.376248
881.023363	6038.467997
881.333494	7285.841022
881.643583	7855.090635
881.953631	7579.591577
882.263637	7004.595049
882.573602	6451.804803
882.883526	5888.229009
883.193408	5331.012631
883.503248	4871.700501
883.813048	4580.778033
884.122806	4304.437103
884.432522	4000.558869
884.742197	3774.722739
885.051831	3582.395158
885.361424	3448.847431
885.670975	3379.123232
885.980485	3302.686737
886.289954	3229.605129
886.599382	3186.505784
886.908768	3149.856596
887.218113	3106.603496
887.527417	3053.638613
887.836680	3004.109277
888.145901	2997.180211
888.455082	2989.328613
888.764221	2943.154165
889.073319	2915.274063
889.382376	2910.585790
889.691392	2916.892274
890.000366	2911.175605
890.309300	2899.575910
890.618193	2912.171233
890.927044	2932.066147
891.235855	2932.817279
891.544625	2918.318920
891.853353	2924.149015
892.162041	2943.113836
892.470687	2980.773775
892.779293	3027.248173
893.087858	3072.177456
893.396381	3137.296561
893.704864	3247.473499
894.013306	3469.642190
894.321707	3756.428391
894.630068	3967.521667
894.938387	3970.649703
895.246665	3925.244031
895.554903	3811.981907
895.863100	3622.222794
896.171256	3458.876806
896.479371	3331.680933
896.787446	3212.752552
897.095480	3116.542131
897.403473	3051.226421
897.711425	3012.795185
898.019336	3005.394771
898.327207	2979.082468
898.635038	2949.692541
898.942827	2932.426589
899.250576	2922.034251
899.558284	2890.252296
899.865952	2872.716643
900.173579	2852.239476
900.481165	2849.993642
900.788711	2836.410253
901.096216	2810.904535
901.403681	2800.451702
901.711105	2803.766261
902.018489	2806.039821
902.325832	2803.879687
902.633135	2812.673980
902.940397	2842.399143
903.247619	2911.745256
903.554800	3087.729416
903.861941	3403.167015
904.169041	3809.690702
904.476101	4108.172380
904.783121	4091.718054
905.090100	3862.350595
905.397039	3600.097169
905.703938	3360.435674
906.010796	3182.069569
906.317614	3072.830286
906.624391	2986.024137
906.931129	2914.623755
907.237826	2856.746267
907.544483	2811.869916
907.851099	2783.541152
908.157675	2761.229005
908.464211	2742.223855
908.770707	2726.719786
909.077163	2718.180072
909.383578	2703.616178
909.689954	2694.262317
909.996289	2691.255269
910.302584	2693.428006
910.608839	2695.348686
910.915054	2689.057326
911.221229	2682.566840
911.527363	2683.058353
911.833458	2689.364836
912.139513	2693.364992
912.445527	2693.949766
912.751502	2702.807073
913.057436	2713.101109
913.363331	2724.582337
913.669186	2744.089082
913.975000	2774.489760
914.280775	2829.304746
914.586510	2894.270096
914.892205	2971.329174
915.197859	3088.767894
915.503475	3265.752723
915.809050	3466.219247
916.114585	3608.687296
916.420081	3636.539671
916.725536	3584.194850
917.030952	3471.333497
917.336328	3351.497709
917.641665	3225.118502
917.946961	3128.834984
918.252218	3067.663103
918.557435	2990.709890
918.862612	2936.295675
919.167750	2887.656102
919.472848	2850.911132
919.777906	2825.954900
920.082925	2802.274079
920.387904	2770.930705
920.692843	2755.764394
920.997743	2744.416757
921.302603	2734.120200
921.607423	2722.281050
921.912204	2712.453321
922.216946	2704.871425
922.521647	2693.367512
922.826310	2689.349713
923.130932	2682.004752
923.435516	2672.721467
923.740059	2666.334325
924.044564	2657.711431
924.349028	2655.100113
924.653454	2647.969401
924.957840	2640.553864
925.262186	2636.609161
925.566493	2632.331742
925.870761	2627.925774
926.174989	2625.536267
926.479178	2620.074177
926.783328	2614.725512
927.087438	2612.968670
927.391509	2615.196860
927.695541	2610.097733
927.999533	2606.407608
928.303486	2604.008019
928.607400	2603.582042
928.911275	2604.073554
929.215110	2601.429469
929.518906	2597.419231
929.822663	2601.512648
930.126381	2598.571135
930.430060	2600.829572
930.733699	2601.805035
931.037299	2600.537185
931.340861	2604.350818
931.644383	2605.512804
931.947866	2604.113883
932.251309	2603.110694
932.554714	2603.282093
932.858080	2597.643562
933.161407	2597.820003
933.464694	2595.274220
933.767943	2592.292378
934.071153	2592.536874
934.374323	2594.167687
934.677455	2592.925042
934.980548	2595.652307
935.283602	2592.607450
935.586617	2593.628283
935.889593	2592.809096
936.192530	2592.738520
936.495428	2595.438058
936.798287	2599.324787
937.101108	2599.599530
937.403890	2601.774788
937.706632	2607.990531
938.009336	2612.272991
938.312002	2620.636265
938.614628	2629.327214
938.917216	2633.675210
939.219765	2637.357772
939.522275	2635.371558
939.824747	2629.448202
940.127179	2631.973820
940.429573	2631.217647
940.731929	2623.391256
941.034246	2621.120216
941.336524	2617.601491
941.638763	2617.029320
941.940964	2615.106119
942.243126	2614.833897
942.545250	2615.390945
942.847335	2608.217383
943.149381	2607.995572
943.451389	2601.051382
943.753359	2600.469129
944.055290	2597.615836
944.357182	2601.048862
944.659036	2600.121290
944.960851	2595.924529
945.262628	2593.524940
945.564367	2594.487800
945.866067	2593.895465
946.167729	2595.513675
946.469352	2596.998295
946.770937	2594.520568
947.072484	2592.529312
947.373992	2593.156936
947.675462	2593.088880
947.976893	2586.898343
948.278286	2586.096800
948.579641	2589.161821
948.880958	2583.692169
949.182236	2586.318610
949.483476	2588.236769
949.784678	2586.699217
950.085841	2586.416913
950.386967	2587.190730
950.688054	2589.650813
950.989103	2590.283478
951.290114	2589.146698
951.591087	2592.607450
951.892021	2591.861359
952.192917	2600.970724
952.493776	2597.714139
952.794596	2598.737493
953.095378	2599.380240
953.396122	2598.755137
953.696828	2597.091556
953.997496	2593.119127
954.298126	2591.858838
954.598718	2592.196596
954.899272	2587.727613
955.199788	2587.336923
955.500266	2585.481779
955.800706	2582.119329
956.101108	2581.411047
956.401472	2578.219997
956.701798	2576.516087
957.002087	2574.711354
957.302337	2574.262691
957.602550	2575.086920
957.902724	2570.882597
958.202861	2574.872671
958.502960	2569.960066
958.803022	2567.124417
959.103045	2567.459654
959.403031	2566.199365
959.702979	2566.010322
960.002889	2567.290775
960.302762	2564.417317
960.602596	2562.680640
960.902393	2567.283213
961.202153	2564.349262
961.501875	2563.882955
961.801559	2563.663665
962.101205	2565.236505
962.400814	2565.793552
962.700385	2562.325239
962.999918	2562.113510
963.299414	2560.853222
963.598873	2559.776935
963.898293	2558.239383
964.197677	2560.172666
964.497022	2560.878427
964.796331	2561.702656
965.095601	2560.260886
965.394835	2560.888510
965.694030	2560.182748
965.993189	2561.032183
966.292309	2561.682492
966.591393	2562.471432
966.890439	2560.858263
967.189447	2559.502192
967.488419	2562.229457
967.787353	2560.545711
968.086249	2562.355486
968.385108	2562.675599
968.683930	2560.981771
968.982714	2561.979920
969.281462	2561.407749
969.580172	2560.586041
969.878844	2561.541339
970.177480	2562.904971
970.476078	2563.227605
970.774639	2563.225085
971.073162	2563.434293
971.371649	2562.998233
971.670098	2565.027297
971.968510	2561.984961
972.266885	2562.844478
972.565223	2563.134344
972.863524	2562.148798
973.161788	2563.608212
973.460014	2560.449929
973.758204	2563.988819
974.056356	2561.138047
974.354471	2561.148129
974.652550	2561.808520
974.950591	2560.606205
975.248595	2564.195507
975.546563	2563.288099
975.844493	2564.225754
976.142386	2560.979251
976.440243	2561.319528
976.738062	2559.061092
977.035845	2559.051009
977.333590	2560.215516
977.631299	2559.671071
977.928971	2559.451781
978.226606	2555.766698
978.524204	2559.265258
978.821765	2553.251162
979.119290	2558.015052
979.416777	2556.900957
979.714228	2558.619991
980.011642	2557.939435
980.309020	2560.034034
980.606360	2556.757284
980.903664	2559.779456
981.200931	2559.411452
981.498162	2561.906823
981.795356	2562.547049
982.092513	2562.194169
982.389633	2563.935887
982.686717	2567.560477
982.983764	2572.226065
983.280775	2573.168761
983.577749	2576.551375
983.874686	2575.964080
984.171587	2573.473750
984.468451	2568.596434
984.765279	2569.735735
985.062070	2567.749520
985.358824	2568.432597
985.655543	2565.019735
985.952224	2564.006463
986.248869	2561.889179
986.545478	2558.088149
986.842050	2560.273489
987.138586	2560.253324
987.435086	2557.977243
987.731549	2557.889023
988.027975	2557.122768
988.324366	2556.046482
988.620719	2558.093190
988.917037	2557.369784
989.213318	2557.475649
989.509563	2559.691236
989.805772	2559.976061
990.101944	2557.974723
990.398080	2557.606719
990.694180	2560.056719
990.990244	2556.394321
991.286271	2557.284085
991.582262	2553.825853
991.878217	2558.272151
992.174136	2559.335834
992.470019	2555.393652
992.765865	2554.972716
993.061676	2555.401214
993.357450	2553.351985
993.653188	2554.551779
993.948890	2556.570762
994.244556	2555.900288
994.540186	2556.948848
994.835780	2559.545042
995.131337	2559.169476
995.426859	2560.321380
995.722345	2557.773077
996.017795	2558.183931
996.313208	2563.169632
996.608586	2559.262738
996.903928	2562.521844
997.199234	2561.450598
997.494504	2562.511761
997.789738	2560.759960
998.084936	2561.087635
998.380099	2558.841801
998.675225	2559.106462
998.970316	2559.353478
999.265371	2559.043448
999.560390	2557.959599
999.855373	2556.646379
1000.150320	2558.272151
1000.445232	2556.303580
1000.740108	2556.704352
1001.034948	2560.339024
1001.329752	2553.707386
1001.624521	2555.706204
1001.919254	2555.260062
1002.213951	2556.200237
1002.508613	2555.625545
1002.803239	2555.255020
1003.097829	2552.560524
1003.392384	2555.494475
1003.686903	2555.552448
1003.981386	2558.897254
1004.275834	2554.758467
1004.570246	2554.493806
1004.864623	2556.227963
1005.158964	2555.698642
1005.453270	2557.024465
1005.747540	2554.776111
1006.041775	2553.578837
1006.335974	2554.629917
1006.630138	2555.169321
1006.924266	2556.230484
1007.218359	2556.296019
1007.512416	2551.726213
1007.806438	2553.036913
1008.100425	2552.623538
1008.394376	2550.060111
1008.688292	2557.914229
1008.982172	2557.195865
1009.276017	2554.640000
1009.569827	2553.571275
1009.863602	2555.502037
1010.157341	2554.655123
1010.451045	2553.974567
1010.744714	2553.974567
1011.038347	2553.914073
1011.331945	2552.696635
1011.625508	2556.472459
1011.919036	2554.357695
1012.212528	2556.807696
1012.505986	2553.578837
1012.799408	2555.658313
1013.092795	2556.313663
1013.386147	2552.769732
1013.679464	2552.368960
1013.972745	2554.468600
1014.265992	2552.706717
1014.559204	2553.220915
1014.852380	2555.398693
1015.145521	2554.511450
1015.438628	2555.350802
1015.731699	2554.450956
1016.024736	2553.588919
1016.317737	2556.187634
1016.610703	2555.355843
1016.903635	2553.026830
1017.196531	2554.231666
1017.489393	2553.319217
1017.782219	2554.718138
1018.075011	2554.380380
1018.367768	2552.195040
1018.660490	2555.076059
1018.953177	2555.076059
1019.245829	2555.076059
