Dividing Wavelength (nm)	Counts (n)	Blue Motor Position (mm): 30.700000	Red Motor Position (mm): 0.000000	
326.493990	2214.518391
326.888308	2214.518391
327.282561	2214.518391
327.676750	2174.421053
328.070874	2171.834941
328.464933	2171.396361
328.858929	2174.048008
329.252859	2178.406085
329.646726	2187.578465
330.040528	2202.321319
330.434265	2212.670808
330.827938	2234.287276
331.221547	2247.250603
331.615091	2265.040835
332.008571	2284.865172
332.401986	2304.026598
332.795338	2321.277426
333.188625	2341.351301
333.581847	2358.040041
333.975006	2378.015613
334.368100	2399.082595
334.761129	2414.929462
335.154095	2433.047369
335.546996	2459.498303
335.939833	2495.930722
336.332606	2510.776920
336.725315	2527.634538
337.117960	2538.362114
337.510540	2547.935265
337.903056	2560.147460
338.295508	2570.847309
338.687896	2577.882239
339.080220	2584.009762
339.472480	2593.474528
339.864676	2596.544591
340.256807	2604.872577
340.648875	2606.548761
341.040879	2608.729060
341.432818	2610.342229
341.824694	2617.805657
342.216506	2617.288939
342.608253	2615.219545
342.999937	2617.462859
343.391557	2616.988990
343.783113	2617.540997
344.174605	2616.547889
344.566033	2615.038064
344.957397	2613.843310
345.348697	2615.648043
345.739934	2611.191663
346.131106	2608.232506
346.522215	2607.141096
346.913260	2608.655963
347.304241	2603.163626
347.695159	2600.406115
348.086012	2599.584407
348.476802	2602.228492
348.867528	2593.308170
349.258191	2591.498396
349.648789	2590.850608
350.039324	2589.146698
350.429796	2588.511512
350.820203	2588.042685
351.210548	2589.093766
351.600828	2588.103179
351.991045	2584.355081
352.381198	2584.813826
352.771288	2586.255596
353.161314	2583.959350
353.551276	2586.119485
353.941175	2581.647981
354.331010	2581.499267
354.720782	2582.129412
355.110490	2583.760225
355.500135	2583.062025
355.889717	2582.570512
356.279235	2581.206880
356.668689	2582.207549
357.058080	2580.604462
357.447408	2582.174782
357.836672	2580.864082
358.225873	2583.001531
358.615010	2582.878023
359.004084	2584.677715
359.393095	2583.913980
359.782043	2586.704259
360.170927	2587.694845
360.559748	2585.459094
360.948505	2586.374063
361.337199	2590.454877
361.725830	2586.361460
362.114398	2588.088055
362.502903	2589.928077
362.891344	2590.406986
363.279722	2587.848601
363.668037	2590.815320
364.056289	2592.483942
364.444478	2592.042841
364.832603	2588.952613
365.220665	2593.570310
365.608665	2592.625094
365.996601	2591.808427
366.384474	2593.489652
366.772284	2594.366812
367.160031	2593.393870
367.547715	2597.215064
367.935336	2596.456371
368.322893	2595.206165
368.710388	2591.009404
369.097820	2591.815989
369.485189	2591.453026
369.872495	2595.042327
370.259738	2597.509972
370.646918	2596.844540
371.034035	2598.193048
371.421090	2598.344283
371.808081	2599.523913
372.195010	2598.321598
372.581875	2599.108018
372.968678	2599.213882
373.355418	2598.586258
373.742096	2599.302102
374.128710	2600.940477
374.515262	2600.335539
374.901751	2604.048348
375.288177	2600.385950
375.674540	2600.542226
376.060841	2601.336208
376.447079	2600.632967
376.833254	2605.038935
377.219367	2600.877463
377.605417	2601.656321
377.991404	2602.210848
378.377329	2601.946187
378.763191	2605.366610
379.148991	2605.069182
379.534727	2604.794439
379.920402	2604.005499
380.306013	2604.933071
380.691563	2605.971549
381.077049	2605.759820
381.462474	2605.059100
381.847835	2606.243771
382.233134	2606.319388
382.618371	2604.307968
383.003545	2606.271497
383.388657	2605.669079
383.773706	2608.847527
384.158693	2608.464399
384.543618	2609.780140
384.928480	2607.395675
385.313280	2611.388268
385.698017	2607.496498
386.082692	2609.578494
386.467305	2608.343412
386.851856	2612.507405
387.236344	2607.970366
387.620770	2606.468102
388.005133	2610.344750
388.389435	2610.107815
388.773674	2607.148658
389.157851	2610.780809
389.541965	2612.144442
389.926018	2613.802981
390.310008	2611.922631
390.693936	2613.545882
391.077802	2613.167796
391.461606	2613.714761
391.845348	2615.834566
392.229027	2616.139556
392.612645	2613.364401
392.996200	2616.734412
393.379694	2617.372118
393.763125	2614.644854
394.146494	2616.631068
394.529801	2619.101234
394.913047	2618.859258
395.296230	2616.893208
395.679351	2619.746502
396.062410	2616.812550
396.445408	2621.677263
396.828343	2621.838580
397.211217	2620.855555
397.594028	2621.846142
397.976778	2619.620473
398.359466	2624.147429
398.742092	2621.110134
399.124656	2620.507716
399.507158	2620.674074
399.889598	2623.106431
400.271977	2623.592902
400.654294	2624.407048
401.036549	2622.758591
401.418742	2625.097686
401.800874	2625.077522
402.182944	2624.938890
402.564952	2625.677419
402.946898	2626.758747
403.328783	2626.577265
403.710606	2627.852677
404.092367	2628.392080
404.474067	2629.067595
404.855705	2627.887965
405.237282	2627.615743
405.618797	2629.097842
406.000250	2631.590692
406.381642	2632.722432
406.762972	2631.532719
407.144240	2629.980044
407.525447	2629.228912
407.906593	2632.888790
408.287677	2636.125210
408.668700	2634.375930
409.049661	2635.946249
409.430560	2637.017495
409.811399	2637.020015
410.192176	2639.386837
410.572891	2638.451703
410.953545	2636.785602
411.334138	2639.359111
411.714669	2642.139307
412.095139	2640.931951
412.475547	2641.695685
412.855894	2643.162661
413.236180	2644.196098
413.616405	2644.216262
413.996568	2642.194760
414.376670	2642.333391
414.756711	2644.044863
415.136691	2647.155255
415.516609	2646.129380
415.896466	2645.048053
416.276262	2648.904535
416.655997	2649.086017
417.035670	2652.186327
417.415283	2652.667757
417.794834	2651.808240
418.174324	2652.546769
418.553753	2654.724547
418.933121	2660.521874
419.312428	2663.632266
419.691674	2663.970024
420.070859	2670.266425
420.449983	2673.240706
420.829045	2680.510049
421.208047	2684.570699
421.586988	2693.899354
421.965867	2705.395705
422.344686	2714.797457
422.723444	2730.598954
423.102141	2732.799418
423.480777	2759.996443
423.859352	2770.572783
424.237866	2806.269194
424.616319	2830.370950
424.994712	2875.779144
425.373044	2890.002759
425.751314	2941.077209
426.129524	2972.844040
426.507673	3027.144829
426.885762	3080.376893
427.263789	3133.210706
427.641756	3187.279602
428.019662	3250.208325
428.397508	3339.053620
428.775292	3377.875546
429.153016	3494.653875
429.530679	3548.269067
429.908282	3632.781490
430.285824	3666.368178
430.663305	3855.348433
431.040726	3856.638968
431.418086	3931.343827
431.795385	4086.046756
432.172624	4195.044064
432.549802	4270.149695
432.926920	4387.613620
433.303977	4447.822641
433.680974	4602.674285
434.057910	4736.211929
434.434786	4852.375237
434.811601	4923.788223
435.188355	5206.733065
435.565050	5235.870934
435.941683	5321.031146
436.318257	5621.743535
436.694770	5784.545077
437.071222	5949.015242
437.447614	6011.112175
437.823946	6081.685809
438.200218	6286.152488
438.576429	6310.957486
438.952580	6547.075049
439.328670	6707.159410
439.704700	6720.077367
440.080670	6832.603483
440.456580	7256.420848
440.832429	7249.385918
441.208218	7144.555124
441.583947	7453.068698
441.959616	7667.383272
442.335224	7673.167996
442.710773	7881.294553
443.086261	8146.013103
443.461689	7774.729602
443.837057	8311.168865
444.212365	8643.935430
444.587612	8497.457143
444.962800	8790.980847
445.337927	8736.367506
445.712995	8504.421497
446.088002	9440.372203
446.462949	9265.363506
446.837837	9344.592800
447.212664	9463.798445
447.587431	9945.828534
447.962139	10601.889337
448.336786	12497.007782
448.711374	13144.533911
449.085901	11468.486368
449.460369	11226.074924
449.834776	10851.645743
450.209124	11649.173925
450.583412	12048.355172
450.957640	13015.235877
451.331808	12362.610620
451.705917	11518.620643
452.079965	10972.696449
452.453954	11842.595436
452.827883	11559.116232
453.201752	11876.242618
453.575562	11470.654064
453.949311	11907.530539
454.323001	11902.668346
454.696632	12152.359217
455.070202	12454.173097
455.443713	12745.045154
455.817164	13214.084190
456.190556	13262.375923
456.563888	13644.424809
456.937160	13846.635572
457.310373	13225.066344
457.683526	13317.213595
458.056619	12911.120926
458.429653	13048.252914
458.802628	12546.839588
459.175542	12906.783013
459.548398	13860.478580
459.921194	14193.056102
460.293930	14255.616822
460.666607	15154.373894
461.039224	16171.472053
461.411782	16865.124740
461.784280	16808.799928
462.156719	16854.553440
462.529099	16562.842032
462.901419	15494.253527
463.273680	15299.659948
463.645882	15160.393032
464.018024	14906.669238
464.390106	15124.106806
464.762130	15864.155752
465.134094	16601.283350
465.505999	18546.455412
465.877845	21790.674846
466.249631	24644.988756
466.621358	24374.467838
466.993026	22935.934259
467.364634	22385.805743
467.736184	20939.476019
468.107674	20137.309975
468.479105	20271.384502
468.850477	19742.794316
469.221790	19310.845569
469.593043	18645.267068
469.964238	18093.563191
470.335373	17764.592615
470.706449	18173.122681
471.077467	17720.139720
471.448425	19532.066523
471.819324	23507.762422
472.190164	25616.116633
472.560945	22131.945838
472.931667	19720.351099
473.302330	19071.441173
473.672934	18547.569507
474.043479	18930.205686
474.413965	18740.751563
474.784393	18374.627683
475.154761	19028.505666
475.525070	19063.183763
475.895321	18713.554538
476.265513	19279.275343
476.635645	19858.360247
477.005719	19656.404063
477.375734	19843.430870
477.745691	20322.476597
478.115588	20828.472332
478.485427	21339.783963
478.855207	22383.897666
479.224928	24137.780624
479.594591	26348.598808
479.964194	26440.151203
480.333739	26648.141649
480.703226	26208.353908
481.072653	25875.146241
481.442022	26418.708655
481.811333	27339.639242
482.180584	27276.791177
482.549777	26326.513513
482.918912	25956.250845
483.287988	26087.600629
483.657005	25772.657063
484.025964	25488.577962
484.394864	25436.671721
484.763706	25132.007068
485.132489	24551.152719
485.501213	24714.090373
485.869879	24650.448326
486.238487	24428.125880
486.607036	24587.625467
486.975527	24272.417240
487.343959	24606.736481
487.712333	24561.635798
488.080648	24233.194543
488.448905	24685.040724
488.817104	24433.141828
489.185244	25104.636123
489.553326	25086.429996
489.921350	26041.511880
490.289315	28312.619743
490.657222	30131.715067
491.025070	30612.290784
491.392861	30403.614741
491.760593	29575.713607
492.128267	28684.180508
492.495883	27639.628225
492.863440	26766.732272
493.230939	25886.100669
493.598380	25746.894246
493.965763	25334.195146
494.333088	24890.603854
494.700354	24802.882736
495.067563	24696.884915
495.434713	24448.177069
495.801805	24588.275776
496.168839	24414.209774
496.535815	24229.574994
496.902733	24438.576192
497.269593	24118.843529
497.636395	24309.288239
498.003139	24293.249808
498.369825	24038.974008
498.736453	24240.415996
499.103023	24115.317242
499.469535	24132.805005
499.835989	24340.886192
500.202385	24369.961047
500.568723	23869.508060
500.935003	24128.479695
501.301226	23735.302462
501.667390	24551.319077
502.033497	24812.607122
502.399546	24526.312433
502.765537	24109.988743
503.131470	24487.614016
503.497345	24632.751355
503.863163	23840.322300
504.228923	24459.585200
504.594625	24650.090404
504.960269	24162.787267
505.325856	24668.906511
505.691385	24073.604215
506.056856	24683.606515
506.422270	24637.860565
506.787625	24226.701537
507.152924	24630.230778
507.518164	24657.684902
507.883347	24471.222704
508.248472	24155.742255
508.613540	24934.698827
508.978550	24714.914601
509.343503	24716.300919
509.708398	24985.153215
510.073236	25135.830783
510.438016	25339.478275
510.802738	25017.998853
511.167403	25266.318530
511.532010	24956.186745
511.896561	25745.268474
512.261053	25717.360647
512.625488	25552.230091
512.989866	25444.298987
513.354186	25295.524454
513.718449	25385.410748
514.082655	25765.788491
514.446803	25517.496541
514.810894	25969.824152
515.174927	25461.814476
515.538904	25492.275648
515.902822	25972.024615
516.266684	25744.103968
516.630488	25644.412630
516.994235	25619.070749
517.357925	25917.118888
517.721558	26103.318947
518.085133	26184.368098
518.448651	26101.063030
518.812112	25830.900034
519.175516	26028.326742
519.538863	26188.206936
519.902152	25977.143907
520.265385	26264.673678
520.628560	26053.446812
520.991678	26058.538377
521.354739	26129.653934
521.717743	26203.905089
522.080690	25996.433882
522.443580	26329.074419
522.806413	26319.700393
523.169189	26401.689719
523.531908	26456.787010
523.894569	26063.856794
524.257174	26141.553578
524.619722	26329.916292
524.982213	26022.121082
525.344647	26088.997029
525.707025	26206.438269
526.069345	26198.339656
526.431608	26155.247872
526.793815	26337.730080
527.155964	25792.587265
527.518057	25972.863967
527.880093	25896.704736
528.242072	26130.258873
528.603995	25829.440620
528.965860	25638.154037
529.327669	25683.284967
529.689421	25674.586456
530.051117	25495.123900
530.412755	25688.749578
530.774337	25484.983619
531.135862	25349.812640
531.497331	25544.650716
531.858743	25093.391829
532.220098	25588.148312
532.581396	25257.683033
532.942638	25201.625402
533.303824	25301.185670
533.664953	25315.953730
534.026025	24974.833973
534.387040	25209.262750
534.747999	25276.088286
535.108902	25437.334633
535.469748	24929.125831
535.830537	25129.234433
536.191270	25239.781896
536.551947	25116.089624
536.912567	24773.974239
537.273131	25107.033192
537.633638	24816.788759
537.994089	25015.271589
538.354483	24565.698968
538.714821	25070.288221
539.075103	25109.977225
539.435328	24902.677417
539.795497	24452.540188
540.155609	24854.148750
540.515665	25141.040815
540.875665	24373.857858
541.235609	24676.775752
541.595496	24636.063393
541.955328	24992.351983
542.315102	24907.481637
542.674821	24461.266425
543.034483	24339.154555
543.394090	24501.252857
543.753640	24301.875223
544.113134	24935.482726
544.472571	24523.592731
544.831953	24824.053062
545.191278	24426.850468
545.550548	24345.599671
545.909761	24554.928543
546.268918	24799.926099
546.628019	24751.057154
546.987064	24455.905158
547.346053	24234.356529
547.704986	24345.617315
548.063863	24505.245451
548.422684	24500.862168
548.781449	24042.553228
549.140158	24444.418889
549.498811	24029.587380
549.857408	23766.282873
550.215949	24201.740263
550.574434	23873.750191
550.932864	24091.023922
551.291237	24246.757767
551.649555	24112.267344
552.007817	24167.256250
552.366022	24044.078177
552.724173	24073.616818
553.082267	24018.643035
553.440305	24492.072916
553.798288	23751.968517
554.156215	24273.554020
554.514086	24360.990313
554.871902	23743.189348
555.229661	24020.687223
555.587365	23873.246076
555.945014	23735.720878
556.302606	23997.984387
556.660143	23933.694552
557.017625	24188.166957
557.375050	23721.187232
557.732421	24110.018990
558.089735	23916.476491
558.446994	23993.210414
558.804197	24012.906202
559.161345	23958.234888
559.518437	23716.829154
559.875474	23913.131685
560.232455	24094.093985
560.589381	23916.075719
560.946251	23890.063365
561.303065	24213.153436
561.659825	24305.870337
562.016528	23909.144132
562.373177	23650.318691
562.729770	23998.541434
563.086307	23863.735939
563.442789	24039.994842
563.799216	23865.016392
564.155587	23876.399317
564.511904	23852.884855
564.868164	23783.541264
565.224370	23771.311424
565.580520	23679.968237
565.936615	23816.031500
566.292654	23503.772349
566.648638	23796.766731
567.004567	23612.212609
567.360441	23566.128901
567.716260	23296.311224
568.072023	23633.186330
568.427732	23377.136043
568.783385	23173.251617
569.138982	23397.363673
569.494525	23432.818108
569.850013	23181.166229
570.205445	23287.897538
570.560823	23088.242640
570.916145	22841.455474
571.271412	23016.184387
571.626625	22772.399228
571.981782	22895.660481
572.336884	22695.433412
572.691931	22833.437519
573.046923	22558.235889
573.401860	22444.935957
573.756743	22452.553140
574.111570	22354.785002
574.466342	22296.650416
574.821059	22382.032439
575.175722	22076.450296
575.530330	22069.899316
575.884882	22101.162032
576.239380	21999.171928
576.593823	21890.061194
576.948211	21866.506402
577.302544	21718.079710
577.656823	21585.958629
578.011047	21682.524452
578.365216	21551.071324
578.719330	21431.817789
579.073389	21333.573262
579.427394	21470.546453
579.781344	21242.976166
580.135239	21135.155967
580.489080	21098.403435
580.842866	20870.981862
581.196597	21058.258206
581.550273	21035.474712
581.903895	20928.027558
582.257463	21252.118298
582.610975	20776.964342
582.964434	21080.943399
583.317837	20785.307452
583.671186	20867.934484
584.024481	20851.878409
584.377721	20620.955754
584.730906	20674.281080
585.084037	20708.739887
585.437113	20606.664083
585.790135	20814.253757
586.143103	20283.536204
586.496016	20285.731626
586.848874	20528.765653
587.201679	20465.489090
587.554428	20133.748400
587.907124	20468.675099
588.259765	20249.009341
588.612352	20321.997687
588.964884	19896.305012
589.317362	20057.495907
589.669786	20111.925245
590.022155	20149.333127
590.374470	20342.527786
590.726731	20134.774274
591.078937	19900.837010
591.431090	20003.663945
591.783188	19745.836652
592.135232	19717.046623
592.487222	19820.251645
592.839157	19841.457258
593.191038	19711.259378
593.542866	19605.022102
593.894639	19328.305606
594.246358	19538.879643
594.598022	19449.318504
594.949633	19207.232214
595.301190	19161.992899
595.652692	19334.675103
596.004141	19574.203008
596.355535	18891.948370
596.706876	18912.848994
597.058162	18805.096851
597.409395	19032.440286
597.760573	19116.940107
598.111698	18884.999139
598.462768	18819.118820
598.813785	18785.877452
599.164748	18611.902191
599.515657	18636.865985
599.866511	18427.771527
600.217312	18789.877607
600.568060	18311.608218
600.918753	18630.047825
601.269392	18528.198873
601.619978	18309.629566
601.970510	18503.789606
602.320988	18465.824676
602.671412	18669.777158
603.021783	18579.243076
603.372100	18311.111665
603.722363	18446.080997
604.072572	18384.150422
604.422728	18530.255664
604.772830	18293.291186
605.122878	18246.375688
605.472872	18229.568481
605.822813	18214.223208
606.172701	18186.648097
606.522534	18384.992295
606.872314	18408.652951
607.222041	18236.439573
607.571714	18457.673131
607.921333	18285.870608
608.270899	18349.555504
608.620411	18545.366522
608.969870	18303.701169
609.319276	18309.412796
609.668627	18341.474534
610.017926	18475.657447
610.367171	18581.458663
610.716362	18628.664028
611.065500	18451.606102
611.414585	18587.374457
611.763616	18564.895952
612.112594	18500.041508
612.461518	18482.591554
612.810389	18660.420777
613.159207	18528.718112
613.507971	18436.555737
613.856682	18717.501762
614.205340	18641.849166
614.553945	18782.015928
614.902496	18525.569911
615.250994	18773.289691
615.599439	18707.338795
615.947830	18694.667855
616.296169	18742.316841
616.644454	18708.442808
616.992686	18677.651440
617.340864	18900.972035
617.688990	18650.925763
618.037063	18824.918668
618.385082	18674.873765
618.733048	18949.566238
619.080961	18821.256269
619.428821	18871.375421
619.776628	18753.344365
620.124382	18675.365277
620.472083	18714.396411
620.819731	18735.944823
621.167326	18415.672757
621.514868	18462.111867
621.862357	18231.572339
622.209793	18243.391325
622.557176	18074.064008
622.904506	17898.634375
623.251783	17818.979103
623.599007	17573.389211
623.946179	17526.624947
624.293297	17472.225856
624.640363	17219.338894
624.987376	17236.118375
625.334336	17029.438629
625.681243	16867.448712
626.028097	16879.595372
626.374899	16807.990822
626.721647	16673.255904
627.068343	16504.276427
627.414987	16439.641273
627.761577	16410.498362
628.108115	16454.495032
628.454600	16175.361303
628.801032	16275.034997
629.147412	16205.928339
629.493739	16220.724126
629.840014	16026.579209
630.186236	16137.403935
630.532405	15897.772687
630.878521	16091.012717
631.224585	15986.257540
631.570597	15802.048737
631.916556	15839.242370
632.262462	15812.178936
632.608316	15731.979219
632.954117	15680.682958
633.299866	15669.310115
633.645562	15586.342805
633.991206	15346.557802
634.336797	15216.034767
634.682336	15183.960426
635.027823	15071.202417
635.373257	14950.718840
635.718639	14854.042112
636.063968	14801.364575
636.409245	14555.310897
636.754470	14583.632099
637.099642	14428.959417
637.444762	14197.646073
637.789829	14248.034926
638.134845	14077.376745
638.479808	14114.996356
638.824719	14058.197675
639.169577	13909.161003
639.514383	13950.843783
639.859137	13777.113019
640.203839	13852.619421
640.548489	13688.880224
640.893086	13685.752188
641.237632	13559.819124
641.582125	13699.927912
641.926566	13537.015464
642.270955	13542.815312
642.615292	13509.059746
642.959576	13512.903625
643.303809	13555.229153
643.647990	13480.045385
643.992118	13542.172565
644.336195	13306.632213
644.680219	13522.562476
645.024192	13446.879633
645.368112	13682.772866
645.711981	13732.609713
646.055797	13919.568465
646.399562	13885.507909
646.743274	14156.021266
647.086935	14435.079378
647.430544	14395.125713
647.774101	14429.148460
648.117606	14579.490792
648.461059	14543.224731
648.804460	14535.743658
649.147810	14262.455147
649.491108	14165.644828
649.834354	14178.467003
650.177548	13877.999110
650.520690	13689.757385
650.863781	13600.339918
651.206820	13656.765553
651.549807	13478.583450
651.892742	13284.345272
652.235626	13218.656517
652.578458	13219.518554
652.921238	12911.383066
653.263967	13107.698200
653.606644	12934.350563
653.949269	12908.217222
654.291843	12716.981050
654.634365	12865.637116
654.976836	12720.824930
655.319255	12730.287176
655.661622	12686.852594
656.003938	12610.274947
656.346203	12530.836445
656.688416	12610.186727
657.030577	12567.125191
657.372687	12480.843322
657.714746	12454.914147
658.056753	12647.566882
658.398708	12464.320940
658.740612	12463.267339
659.082465	12571.674832
659.424266	12534.203935
659.766016	12558.156978
660.107715	12468.855458
660.449362	12539.812219
660.790958	12500.143379
661.132503	12439.031992
661.473996	12496.672545
661.815438	12522.974765
662.156829	12546.375801
662.498168	12515.155936
662.839456	12525.218079
663.180693	12533.684697
663.521879	12632.564409
663.863013	12600.260695
664.204097	12581.459712
664.545129	12695.634284
664.886110	12670.461283
665.227040	12766.278494
665.567918	12766.873350
665.908746	12793.578862
666.249522	12783.514199
666.590248	12828.423318
666.930922	12951.699694
667.271545	12925.533585
667.612118	13011.419723
667.952639	12912.444229
668.293109	12916.232656
668.633528	12881.710835
668.973896	12858.876928
669.314213	12932.354266
669.654480	12665.725119
669.994695	12742.396027
670.334859	12764.816559
670.674973	12716.388715
671.015035	12748.659661
671.355047	12684.586596
671.695008	12663.499449
672.034918	12664.674038
672.374777	12708.579967
672.714585	12619.827933
673.054342	12658.773368
673.394049	12610.070780
673.733705	12697.244933
674.073310	12613.024896
674.412864	12627.157771
674.752368	12496.314623
675.091820	12516.426306
675.431223	12507.077487
675.770574	12372.398020
676.109875	12291.598407
676.449125	12253.552818
676.788324	12194.379755
677.127473	12032.057121
677.466571	12020.066737
677.805619	11915.165367
678.144616	11839.406907
678.483562	11814.566621
678.822458	11682.748010
679.161303	11657.806901
679.500098	11650.272897
679.838842	11596.083013
680.177535	11623.227106
680.516179	11680.582834
680.854771	11630.627520
681.193314	11845.264727
681.531805	12006.037206
681.870247	12419.565576
682.208638	12834.545799
682.546978	13147.924087
682.885268	13191.222557
683.223508	12887.745096
683.561697	12734.325140
683.899836	12634.906025
684.237925	12430.623347
684.575963	12344.099503
684.913951	12267.562185
685.251889	12217.261552
685.589776	12318.384578
685.927614	12240.271899
686.265401	12205.369470
686.603137	12251.654824
686.940824	12402.607135
687.278460	12531.645550
687.616046	12577.409144
687.953582	12744.926687
688.291068	12673.513701
688.628504	12909.946337
688.965889	12910.362232
689.303224	12883.714693
689.640510	12778.155452
689.977745	12457.371710
690.314930	12241.431364
690.652065	12150.057930
690.989150	11862.502953
691.326185	11630.980401
691.663170	11418.631877
692.000105	11180.341576
692.336990	11065.398227
692.673825	10811.162757
693.010610	10700.146467
693.347345	10488.859106
693.684030	10284.951995
694.020665	10229.963088
694.357251	10036.085353
694.693786	9973.512031
695.030272	9807.479108
695.366707	9692.056850
695.703093	9626.426068
696.039429	9625.783321
696.375716	9543.579745
696.711952	9415.332792
697.048139	9456.912228
697.384276	9407.829034
697.720363	9424.739585
698.056400	9362.889668
698.392388	9311.628695
698.728326	9271.707798
699.064214	9210.601452
699.400053	9258.137012
699.735842	9069.313033
700.071581	9027.385756
700.407270	8957.686763
700.742910	8883.160865
701.078501	8787.149570
701.414042	8663.167432
701.749533	8594.978264
702.084974	8454.259496
702.420366	8569.422135
702.755709	8453.480638
703.091002	8313.505439
703.426246	8345.743618
703.761440	8297.144375
704.096584	8253.316583
704.431679	8183.756222
704.766725	8172.222062
705.101721	8126.345041
705.436668	8169.799787
705.771565	8059.998415
706.106413	8144.162999
706.441212	8188.320987
706.775961	8141.428173
707.110661	8182.248917
707.445311	8329.911875
707.779913	8212.042136
708.114465	8344.750511
708.448967	8385.455308
708.783421	8526.763891
709.117825	8714.824135
709.452180	8749.434177
709.786485	8835.282507
710.120742	9126.618349
710.454949	9119.593501
710.789107	9227.748936
711.123216	9428.898537
711.457275	9600.633004
711.791286	9756.084545
712.125247	9757.407848
712.459159	9744.706660
712.793023	9994.347119
713.126837	9564.175379
713.460602	9721.161951
713.794318	9541.275938
714.127985	9572.299199
714.461602	9250.804653
714.795171	9197.817085
715.128691	8953.343809
715.462162	8700.930715
715.795584	8647.650760
716.128957	8501.979058
716.462281	8331.003284
716.795556	8382.312148
717.128782	8176.630551
717.461960	7905.272801
717.795088	7984.464287
718.128167	7882.874954
718.461198	7719.294553
718.794180	7661.200296
719.127113	7653.850294
719.459997	7498.129052
719.792833	7272.376100
720.125619	7335.088054
720.458357	7187.515837
720.791046	7180.143149
721.123686	7173.272057
721.456278	7014.879003
721.788821	7039.994031
722.121315	6930.653925
722.453761	6994.164902
722.786158	6942.031809
723.118506	6949.643952
723.450805	6920.581700
723.783056	6990.091649
724.115259	6894.748307
724.447412	6895.423821
724.779518	6935.024605
725.111574	6937.842610
725.443582	7020.968717
725.775542	7001.814853
726.107453	7190.026332
726.439315	7098.473937
726.771129	7162.279821
727.102895	7338.619382
727.434612	7444.765918
727.766281	7474.385217
728.097901	7549.964716
728.429473	7544.837863
728.760996	7522.876076
729.092471	7498.721387
729.423897	7447.485620
729.755276	7460.811910
730.086606	7384.763584
730.417887	7486.673030
730.749120	7680.220570
731.080305	7877.213739
731.411442	8000.747214
731.742530	7998.246801
732.073570	8099.342101
732.404562	8183.675563
732.735506	8031.475567
733.066401	8174.921600
733.397249	8107.531455
733.728048	7866.012295
734.058798	7534.584156
734.389501	7307.288611
734.720156	7129.386292
735.050762	6896.840386
735.381320	6803.994935
735.711831	6748.668271
736.042293	6639.986035
736.372707	6656.551267
736.703073	6520.125041
737.033391	6557.545526
737.363661	6567.426187
737.693883	6604.992866
738.024056	6687.173756
738.354182	6725.156330
738.684260	6762.483553
739.014290	6879.909670
739.344272	6984.337172
739.674207	7013.979157
740.004093	7084.386432
740.333931	7100.578618
740.663722	7106.890143
740.993464	7184.786052
741.323159	7174.333220
741.652806	6922.194869
741.982405	6937.895543
742.311956	6997.144224
742.641460	6828.126938
742.970915	6635.867413
743.300323	6629.351721
743.629683	6578.110913
743.958996	6446.806499
744.288260	6350.838054
744.617477	6304.388862
744.946647	6307.274923
745.275768	6139.923738
745.604842	6094.268529
745.933869	6073.133491
746.262847	6037.903388
746.591778	6026.074320
746.920662	5979.799048
747.249498	5975.221681
747.578286	6022.225399
747.907027	6096.905052
748.235720	6159.579197
748.564365	6129.007120
748.892963	6161.431821
749.221514	6307.174100
749.550017	6138.237473
749.878473	6019.299009
750.206881	6072.117699
750.535242	6012.115365
750.863555	5946.262772
751.191821	5964.907480
751.520039	5965.812367
751.848210	5873.390373
752.176334	5895.495833
752.504411	5944.727741
752.832440	5870.126226
753.160421	5801.415299
753.488356	5848.875242
753.816243	5878.365992
754.144082	5729.813270
754.471875	5702.018868
754.799620	5745.864304
755.127318	5754.673720
755.454969	5707.889292
755.782572	5678.809396
756.110129	5717.217947
756.437638	5700.400658
756.765100	5640.925125
757.092515	5639.546369
757.419882	5693.537127
757.747203	5676.755126
758.074477	5733.798302
758.401703	5723.206838
758.728882	5675.371329
759.056014	5734.935083
759.383099	5857.427559
759.710138	5871.888109
760.037129	5860.560636
760.364073	5862.103229
760.690970	5945.451147
761.017820	5919.451396
761.344623	5876.122678
761.671379	5979.612526
761.998088	6101.757163
762.324751	6346.981571
762.651366	6945.326203
762.977935	8265.715301
763.304456	9893.481193
763.630931	10795.683894
763.957359	10393.840918
764.283740	9451.268657
764.610074	8616.730843
764.936362	7621.667568
765.262602	7019.400918
765.588796	6484.962993
765.914943	6149.015459
766.241044	5987.254915
766.567097	5783.514162
766.893104	5524.915572
767.219064	5347.711453
767.544978	5283.076299
767.870845	5208.749526
768.196665	5098.759111
768.522438	5032.377197
768.848165	4996.980736
769.173846	4928.723513
769.499479	4890.231782
769.825066	4834.839584
770.150607	4770.612763
770.476101	4748.759361
770.801548	4747.002519
771.126949	4669.149460
771.452303	4612.063434
771.777611	4573.536415
772.102872	4590.567954
772.428087	4556.018406
772.753256	4513.339997
773.078378	4470.530519
773.403453	4399.717431
773.728482	4384.954412
774.053465	4338.694263
774.378401	4323.785051
774.703291	4326.870237
775.028135	4257.022530
775.352932	4206.787432
775.677683	4193.128426
776.002388	4213.633319
776.327046	4224.978436
776.651658	4148.652846
776.976224	4086.361828
777.300743	4093.220318
777.625216	4115.287969
777.949643	4105.722380
778.274024	4065.030186
778.598359	4017.260212
778.922647	4045.314233
779.246889	4037.692008
779.571086	4026.079711
779.895236	4011.689737
780.219339	4002.350999
780.543397	3995.547962
780.867409	4045.215931
781.191374	4058.829567
781.515294	3996.508302
781.839167	3987.552692
782.162995	4005.978110
782.486776	3994.809433
782.810511	4011.805683
783.134201	4006.688912
783.457844	3956.622693
783.781441	3902.112696
784.104993	3905.349117
784.428498	3929.849125
784.751958	3922.403341
785.075372	3901.633787
785.398739	3866.484342
785.722061	3877.350549
786.045337	3921.231272
786.368568	3955.243937
786.691752	3865.927294
787.014891	3918.725819
787.337983	4046.617371
787.661030	4202.867935
787.984031	4365.087224
788.306987	4532.277092
788.629897	4617.860761
788.952760	4571.406528
789.275579	4506.156353
789.598351	4441.725366
789.921078	4300.079025
790.243759	4098.821040
790.566395	4082.603648
790.888984	4075.493101
791.211529	3968.958396
791.534027	3906.979930
791.856480	3900.643200
792.178888	3834.372192
792.501249	3785.641878
792.823566	3797.284423
793.145836	3826.974298
793.468062	3776.298099
793.790241	3730.040472
794.112375	3760.000049
794.434464	3823.158145
794.756507	3847.222093
795.078505	3827.982529
795.400457	3859.648537
795.722364	4001.486442
796.044226	4103.111062
796.366042	4178.872043
796.687812	4159.181296
797.009538	4164.918129
797.331218	4121.561685
797.652852	4093.235442
797.974442	4074.474787
798.295986	4072.246597
798.617484	3992.876151
798.938938	3906.145619
799.260346	3948.753452
799.581709	3943.056948
799.903026	3868.389898
800.224299	3832.711131
800.545526	3828.441274
800.866708	3785.311682
801.187845	3728.697004
801.508936	3762.749998
801.829983	3760.262189
802.150984	3683.775282
802.471940	3672.316739
802.792851	3683.470292
803.113717	3682.600693
803.434538	3685.428781
803.755314	3623.941827
804.076045	3602.159001
804.396731	3620.886888
804.717372	3646.148110
805.037967	3634.087149
805.358518	3620.292032
805.679024	3650.097854
805.999485	3658.476252
806.319901	3666.728620
806.640272	3676.470650
806.960598	3692.521684
807.280879	3668.815658
807.601115	3680.879139
807.921306	3697.041078
808.241453	3738.837285
808.561554	3710.979869
808.881611	3648.116680
809.201623	3681.983152
809.521590	3696.869679
809.841513	3670.690967
810.161390	3698.266079
810.481223	3673.796318
810.801011	3620.932258
811.120755	3610.086216
811.440453	3648.187257
811.760107	3650.980056
812.079716	3607.144702
812.399281	3577.182605
812.718801	3598.685646
813.038276	3574.712439
813.357707	3568.514341
813.677093	3588.598297
813.996434	3536.921429
814.315731	3544.450393
814.634983	3550.819891
814.954191	3563.463104
815.273354	3591.917897
815.592473	3589.961930
815.911547	3595.280347
816.230577	3635.811224
816.549562	3685.244778
816.868502	3729.092735
817.187399	3749.615272
817.506250	3749.564860
817.825058	3722.304821
818.143821	3815.094819
818.462539	3916.734563
818.781213	3960.741316
819.099843	4019.294317
819.418429	4266.227677
819.736970	4509.531406
820.055466	4756.739508
820.373919	5120.559581
820.692327	5530.372621
821.010691	5975.519109
821.329011	7367.205245
821.647286	10114.268608
821.965517	14685.869220
822.283704	18710.570175
822.601847	20842.607727
822.919945	19032.621768
823.237999	16438.275120
823.556010	13958.002222
823.873976	11860.020185
824.191897	9768.475701
824.509775	8417.365812
824.827609	7294.844523
825.145398	6753.749754
825.463144	6636.265664
825.780845	6748.743888
826.098502	6941.172293
826.416116	7826.194741
826.733685	9149.462338
827.051210	10260.870403
827.368692	10294.260485
827.686129	9033.447744
828.003522	7517.655961
828.320872	6503.693400
828.638177	5803.774559
828.955439	5242.489969
829.272656	4745.996809
829.589830	4467.352071
829.906960	4285.472282
830.224046	4100.020835
830.541088	3975.350579
830.858086	3930.827109
831.175041	3852.434646
831.491952	3836.126513
831.808819	3848.273173
832.125642	3920.696910
832.442421	4071.891196
832.759157	4346.157692
833.075849	4898.093462
833.392497	5770.250886
833.709101	6535.170365
834.025662	6875.072683
834.342179	6507.401169
834.658653	5839.891906
834.975083	5193.371487
835.291469	4615.995534
835.607811	4211.679872
835.924110	4067.628901
836.240366	3869.027604
836.556578	3665.823733
836.872746	3558.006055
837.188871	3518.430477
837.504952	3453.094603
837.820990	3366.084287
838.136984	3326.264213
838.452935	3348.215918
838.768842	3341.533868
839.084706	3367.909185
839.400526	3524.179913
839.716303	3867.442161
840.032037	4395.913880
840.347727	4655.213190
840.663373	4370.778687
840.978977	3989.680059
841.294537	3685.171682
841.610054	3452.139304
841.925527	3348.513346
842.240957	3280.051956
842.556344	3226.353585
842.871687	3164.879234
843.186987	3116.441308
843.502244	3081.652305
843.817458	3045.429094
844.132629	3015.255268
844.447756	3023.469828
844.762840	3006.912158
845.077881	2978.532983
845.392879	2959.366516
845.707833	2952.679425
846.022745	2953.223870
846.337613	2956.059519
846.652438	2943.655760
846.967221	2941.873712
847.281960	2927.645055
847.596656	2922.409817
847.911309	2920.479055
848.225919	2915.851276
848.540485	2910.711819
848.855009	2912.226686
849.169490	2901.272259
849.483928	2891.124416
849.798323	2887.643499
850.112675	2886.131153
850.426984	2899.364182
850.741251	2895.396794
851.055474	2885.586708
851.369654	2878.869371
851.683792	2885.160731
851.997887	2893.776063
852.311938	2895.825292
852.625947	2883.081255
852.939914	2887.116699
853.253837	2892.049468
853.567718	2876.684031
853.881555	2875.562374
854.195350	2892.510733
854.509103	2884.147459
854.822812	2877.883825
855.136479	2876.348794
855.450103	2878.687889
855.763685	2870.075078
856.077224	2867.156250
856.390720	2881.077396
856.704173	2889.475959
857.017584	2880.054042
857.330953	2880.926162
857.644278	2889.896895
857.957561	2898.113976
858.270802	2901.121024
858.584000	2901.352917
858.897155	2888.296329
859.210268	2887.187275
859.523339	2884.495299
859.836367	2884.885988
860.149352	2879.088661
860.462295	2875.655635
860.775195	2884.633930
861.088054	2880.779968
861.400869	2866.306816
861.713642	2864.481918
862.026373	2878.519011
862.339062	2879.991028
862.651708	2884.825494
862.964312	2888.301370
863.276873	2882.582181
863.589392	2892.435116
863.901869	2902.144378
864.214303	2925.794952
864.526696	2942.297169
864.839045	2940.557971
865.151353	2939.789195
865.463619	2934.488421
865.775842	2937.190480
866.088023	2956.465332
866.400162	2961.430868
866.712258	2933.762495
867.024313	2922.636669
867.336325	2932.734100
867.648296	2953.783438
867.960224	2944.444700
868.272110	2930.062288
868.583954	2937.447579
868.895755	2951.582974
869.207515	2936.938422
869.519233	2944.328754
869.830909	2949.833694
870.142542	2965.589820
870.454134	2962.950776
870.765684	2963.623770
871.077191	2964.637042
871.388657	2975.586428
871.700081	2985.235197
872.011463	2995.166270
872.322803	2996.058554
872.634101	2995.292298
872.945357	3013.132942
873.256571	3037.403577
873.567744	3033.161446
873.878874	3024.009231
874.189963	3050.586194
874.501010	3048.710885
874.812015	3040.506407
875.122979	3038.489946
875.433900	3034.822506
875.744780	3040.561860
876.055618	3048.612583
876.366415	3045.124104
876.677169	3058.175652
876.987882	3055.103068
877.298554	3048.547048
877.609183	3067.917681
877.919771	3092.999942
878.230317	3121.464817
878.540822	3171.127745
878.851285	3207.358517
879.161707	3254.538676
879.472087	3355.361753
879.782425	3585.026640
880.092722	4021.890512
880.402977	4555.055545
880.713191	5183.160629
881.023363	6346.293453
881.333494	7622.716128
881.643583	8173.356321
881.953631	7871.003037
882.263637	7235.875626
882.573602	6650.597664
882.883526	6072.831022
883.193408	5497.209391
883.503248	5043.114855
883.813048	4737.179831
884.122806	4433.629273
884.432522	4113.886528
884.742197	3880.803739
885.051831	3683.568595
885.361424	3550.976166
885.670975	3477.710557
885.980485	3392.890623
886.289954	3315.844148
886.599382	3272.848147
886.908768	3231.165366
887.218113	3188.822195
887.527417	3132.252887
887.836680	3082.899991
888.145901	3075.575194
888.455082	3066.836354
888.764221	3015.156965
889.073319	2986.755104
889.382376	2984.431133
889.691392	2990.515805
890.000366	2987.773418
890.309300	2974.689103
890.618193	2990.097389
890.927044	3007.015502
891.235855	3004.792353
891.544625	2989.071515
891.853353	3002.332270
892.162041	3019.454549
892.470687	3058.894016
892.779293	3112.771348
893.087858	3160.473266
893.396381	3232.685274
893.704864	3354.560210
894.013306	3593.263885
894.321707	3898.508271
894.630068	4100.595526
894.938387	4097.810289
895.246665	4053.059966
895.554903	3930.668312
895.863100	3732.097262
896.171256	3560.544276
896.479371	3424.470931
896.787446	3299.571303
897.095480	3196.693956
897.403473	3135.506952
897.711425	3094.794593
898.019336	3088.243614
898.327207	3055.380332
898.635038	3022.575023
898.942827	3008.028774
899.250576	2996.625684
899.558284	2964.826085
899.865952	2943.678445
900.173579	2924.839653
900.481165	2918.550813
900.788711	2901.443658
901.096216	2882.907335
901.403681	2867.564583
901.711105	2876.943650
902.018489	2872.756972
902.325832	2874.980121
902.633135	2882.947664
902.940397	2916.791451
903.247619	3000.323370
903.554800	3191.690611
903.861941	3536.818086
904.169041	3966.899085
904.476101	4267.160290
904.783121	4219.647415
905.090100	3974.211279
905.397039	3698.432437
905.703938	3450.120322
906.010796	3265.906478
906.317614	3152.699807
906.624391	3057.263203
906.931129	2985.799806
907.237826	2926.503234
907.544483	2874.486088
907.851099	2847.485668
908.157675	2826.388439
908.464211	2806.223823
908.770707	2794.939201
909.077163	2779.581325
909.383578	2766.786877
909.689954	2753.765577
909.996289	2753.357243
910.302584	2754.307501
910.608839	2753.866400
910.915054	2746.476068
911.221229	2742.337281
911.527363	2742.564133
911.833458	2748.903384
912.139513	2755.535022
912.445527	2756.185330
912.751502	2767.651435
913.057436	2777.532096
913.363331	2791.569189
913.669186	2812.968887
913.975000	2845.887622
914.280775	2905.640418
914.586510	2977.023157
914.892205	3056.514591
915.197859	3185.399251
915.503475	3380.454096
915.809050	3594.534256
916.114585	3736.039445
916.420081	3759.155656
916.725536	3701.008467
917.030952	3579.509097
917.336328	3449.238120
917.641665	3319.478820
917.946961	3217.019889
918.252218	3149.208808
918.557435	3072.747107
918.862612	3011.166892
919.167750	2962.413893
919.472848	2919.049888
919.777906	2896.684809
920.082925	2869.671786
920.387904	2836.997547
920.692843	2823.971206
920.997743	2810.201294
921.302603	2797.059006
921.607423	2786.323869
921.912204	2776.329781
922.216946	2764.364602
922.521647	2754.529311
922.826310	2750.045205
923.130932	2737.185222
923.435516	2730.823285
923.740059	2724.746174
924.044564	2713.806871
924.349028	2712.952395
924.653454	2704.069882
924.957840	2696.659386
925.262186	2693.778366
925.566493	2690.204188
925.870761	2684.338806
926.174989	2681.130111
926.479178	2677.540810
926.783328	2672.093843
927.087438	2673.467557
927.391509	2670.551250
927.695541	2666.972031
927.999533	2662.135044
928.303486	2658.699497
928.607400	2658.855773
928.911275	2659.165804
929.215110	2656.158756
929.518906	2656.340237
929.822663	2656.468787
930.126381	2654.210350
930.430060	2657.466935
930.733699	2653.434012
931.037299	2659.692605
931.340861	2660.259734
931.644383	2660.295022
931.947866	2657.103972
932.251309	2657.119096
932.554714	2655.931904
932.858080	2654.515340
933.161407	2651.657005
933.464694	2651.777993
933.767943	2647.876140
934.071153	2652.264464
934.374323	2650.411840
934.677455	2651.525935
934.980548	2646.555358
935.283602	2648.642395
935.586617	2647.099802
935.889593	2649.322951
936.192530	2647.341778
936.495428	2649.227169
936.798287	2649.345636
937.101108	2654.517860
937.403890	2657.771925
937.706632	2663.455826
938.009336	2669.991682
938.312002	2679.383352
938.614628	2687.386183
938.917216	2692.606298
939.219765	2694.201823
939.522275	2692.815506
939.824747	2686.846780
940.127179	2686.420802
940.429573	2684.343847
940.731929	2680.787313
941.034246	2680.870492
941.336524	2675.027795
941.638763	2672.151816
941.940964	2672.119049
942.243126	2667.723163
942.545250	2669.926147
942.847335	2664.829540
943.149381	2661.315856
943.451389	2657.073725
943.753359	2657.350989
944.055290	2656.093221
944.357182	2653.426450
944.659036	2652.259423
944.960851	2648.133239
945.262628	2649.030564
945.564367	2650.361429
945.866067	2650.721871
946.167729	2650.321100
946.469352	2649.738846
946.770937	2650.958806
947.072484	2649.597694
947.373992	2648.435708
947.675462	2648.128198
947.976893	2644.175933
948.278286	2642.219965
948.579641	2641.952784
948.880958	2637.879532
949.182236	2643.170223
949.483476	2640.460603
949.784678	2641.882208
950.085841	2641.945222
950.386967	2640.543782
950.688054	2642.351035
950.989103	2644.571664
951.290114	2644.286838
951.591087	2647.896305
951.892021	2647.982004
952.192917	2653.176913
952.493776	2654.079280
952.794596	2652.750936
953.095378	2653.938127
953.396122	2652.186327
953.696828	2652.410658
953.997496	2651.765390
954.298126	2647.303969
954.598718	2646.688948
954.899272	2642.255253
955.199788	2639.643936
955.500266	2637.894655
955.800706	2637.357772
956.101108	2635.217803
956.401472	2630.559777
956.701798	2629.717904
957.002087	2626.539456
957.302337	2625.952162
957.602550	2627.993829
957.902724	2624.845629
958.202861	2622.307408
958.502960	2622.602315
958.803022	2621.468056
959.103045	2620.399331
959.403031	2617.483023
959.702979	2619.257510
960.002889	2619.990997
960.302762	2617.490585
960.602596	2618.702983
960.902393	2617.470421
961.202153	2616.928497
961.501875	2618.715586
961.801559	2615.665687
962.101205	2616.371449
962.400814	2618.029989
962.700385	2616.807509
962.999918	2611.015223
963.299414	2612.620831
963.598873	2612.041098
963.898293	2610.511108
964.197677	2614.523866
964.497022	2614.770883
964.796331	2611.806684
965.095601	2614.158382
965.394835	2616.348764
965.694030	2615.383383
965.993189	2613.210646
966.292309	2611.204266
966.591393	2612.945985
966.890439	2612.383896
967.189447	2613.656788
967.488419	2613.470265
967.787353	2611.854575
968.086249	2611.874740
968.385108	2613.258537
968.683930	2610.614451
968.982714	2613.671911
969.281462	2615.716099
969.580172	2613.371962
969.878844	2615.058228
970.177480	2612.162086
970.476078	2613.223248
970.774639	2614.012189
971.073162	2613.719802
971.371649	2613.021602
971.670098	2612.560337
971.968510	2614.362549
972.266885	2613.417333
972.565223	2612.719133
972.863524	2615.867334
973.161788	2613.694596
973.460014	2614.488578
973.758204	2615.605194
974.056356	2614.191150
974.354471	2615.274998
974.652550	2614.909514
974.950591	2614.750718
975.248595	2617.266254
975.546563	2613.417333
975.844493	2615.267436
976.142386	2613.475306
976.440243	2610.551437
976.738062	2611.287445
977.035845	2612.449431
977.333590	2614.370111
977.631299	2611.085799
977.928971	2608.781992
978.226606	2607.854420
978.524204	2611.753752
978.821765	2607.872064
979.119290	2609.565891
979.416777	2612.686366
979.714228	2610.748042
980.011642	2612.431787
980.309020	2611.237034
980.606360	2608.643360
980.903664	2611.257198
981.200931	2612.855244
981.498162	2613.243413
981.795356	2611.156375
982.092513	2614.397837
982.389633	2617.788013
982.686717	2621.198354
982.983764	2623.781945
983.280775	2627.880403
983.577749	2629.901906
983.874686	2630.693367
984.171587	2622.977881
984.468451	2623.308077
984.765279	2618.655092
985.062070	2620.333796
985.358824	2616.603342
985.655543	2615.922786
985.952224	2614.402878
986.248869	2612.439349
986.545478	2614.324741
986.842050	2610.690069
987.138586	2610.155706
987.435086	2608.857609
987.731549	2610.818618
988.027975	2611.980604
988.324366	2606.947012
988.620719	2608.207300
988.917037	2606.732763
989.213318	2608.419029
989.509563	2609.122270
989.805772	2610.264091
990.101944	2607.635129
990.398080	2608.363576
990.694180	2608.003134
990.990244	2607.229317
991.286271	2606.402567
991.582262	2607.181426
991.878217	2608.015737
992.174136	2609.250819
992.470019	2606.455499
992.765865	2606.684872
993.061676	2605.041456
993.357450	2603.506424
993.653188	2601.588265
993.948890	2606.294182
994.244556	2609.238216
994.540186	2608.978597
994.835780	2606.558843
995.131337	2607.950202
995.426859	2610.485902
995.722345	2610.596807
996.017795	2613.387086
996.313208	2612.086468
996.608586	2612.736777
996.903928	2614.143259
997.199234	2613.039246
997.494504	2612.177209
997.789738	2612.240223
998.084936	2610.667383
998.380099	2610.808536
998.675225	2609.326437
998.970316	2609.286107
999.265371	2609.749893
999.560390	2606.412650
999.855373	2607.315016
1000.150320	2607.037753
1000.445232	2606.460541
1000.740108	2605.822835
1001.034948	2608.151848
1001.329752	2607.131014
1001.624521	2607.630088
1001.919254	2605.974069
1002.213951	2603.987855
1002.508613	2605.895931
1002.803239	2607.196549
1003.097829	2605.679162
1003.392384	2607.637650
1003.686903	2605.222937
1003.981386	2607.854420
1004.275834	2608.134204
1004.570246	2609.641509
1004.864623	2605.427104
1005.158964	2604.875098
1005.453270	2604.491970
1005.747540	2606.231168
1006.041775	2604.028184
1006.335974	2605.091867
1006.630138	2604.885180
1006.924266	2604.212186
1007.218359	2603.312340
1007.512416	2602.727566
1007.806438	2598.664396
1008.100425	2603.335025
1008.394376	2601.043821
1008.688292	2603.960128
1008.982172	2607.410798
1009.276017	2607.912393
1009.569827	2604.887701
1009.863602	2605.447269
1010.157341	2604.590272
1010.451045	2603.859305
1010.744714	2603.370313
1011.038347	2604.444079
1011.331945	2604.055910
1011.625508	2603.304778
1011.919036	2603.405601
1012.212528	2604.247474
1012.505986	2602.162957
1012.799408	2606.730242
1013.092795	2606.402567
1013.386147	2606.062289
1013.679464	2601.951228
1013.972745	2606.306785
1014.265992	2603.496342
1014.559204	2606.853751
1014.852380	2604.411312
1015.145521	2605.154882
1015.438628	2604.842330
1015.731699	2605.785026
1016.024736	2604.239912
1016.317737	2604.706219
1016.610703	2605.923658
1016.903635	2604.799480
1017.196531	2602.112545
1017.489393	2604.466764
1017.782219	2604.018102
1018.075011	2602.515838
1018.367768	2603.352669
1018.660490	2602.379727
1018.953177	2602.379727
1019.245829	2602.379727
