Dividing Wavelength (nm)	Counts (n)	Blue Motor Position (mm): 41.800000	Red Motor Position (mm): 0.000000	
326.493990	2255.744947
326.888308	2255.744947
327.282561	2255.744947
327.676750	2215.052753
328.070874	2211.987732
328.464933	2211.173585
328.858929	2216.270192
329.252859	2218.833618
329.646726	2228.462222
330.040528	2241.559140
330.434265	2254.320821
330.827938	2273.963677
331.221547	2291.315328
331.615091	2308.467854
332.008571	2325.353199
332.401986	2345.336333
332.795338	2363.759230
333.188625	2384.097765
333.581847	2404.559808
333.975006	2422.450863
334.368100	2443.505243
334.761129	2458.031327
335.154095	2478.115284
335.546996	2504.357011
335.939833	2542.223638
336.332606	2559.343396
336.725315	2571.963925
337.117960	2586.474886
337.510540	2594.870928
337.903056	2608.701333
338.295508	2616.421861
338.687896	2623.953344
339.080220	2631.807462
339.472480	2637.435910
339.864676	2643.026550
340.256807	2648.047539
340.648875	2652.529125
341.040879	2654.631286
341.432818	2657.378715
341.824694	2659.087666
342.216506	2662.238387
342.608253	2661.303253
342.999937	2660.289981
343.391557	2663.337359
343.783113	2659.465753
344.174605	2662.445075
344.566033	2659.127995
344.957397	2660.705877
345.348697	2657.973571
345.739934	2656.224291
346.131106	2656.443581
346.522215	2653.141625
346.913260	2651.276398
347.304241	2650.215235
347.695159	2647.515697
348.086012	2649.098620
348.476802	2642.847589
348.867528	2640.891621
349.258191	2638.247536
349.648789	2638.610499
350.039324	2630.837040
350.429796	2638.761734
350.820203	2633.821403
351.210548	2636.374747
351.600828	2633.929788
351.991045	2632.223357
352.381198	2629.342338
352.771288	2630.678244
353.161314	2629.768315
353.551276	2630.645476
353.941175	2626.975516
354.331010	2631.139509
354.720782	2629.574231
355.110490	2629.488531
355.500135	2629.291926
355.889717	2629.438120
356.279235	2628.815537
356.668689	2629.430558
357.058080	2630.713532
357.447408	2631.386526
357.836672	2631.883079
358.225873	2629.801083
358.615010	2629.231432
359.004084	2631.583131
359.393095	2634.577576
359.782043	2632.951804
360.170927	2634.403656
360.559748	2630.090949
360.948505	2637.587145
361.337199	2636.014305
361.725830	2638.126548
362.114398	2637.060344
362.502903	2637.241826
362.891344	2636.362145
363.279722	2638.219810
363.668037	2638.975983
364.056289	2638.880201
364.444478	2643.702065
364.832603	2641.728453
365.220665	2642.928247
365.608665	2642.456900
365.996601	2643.903711
366.384474	2642.852630
366.772284	2643.202990
367.160031	2646.164668
367.547715	2643.744914
367.935336	2647.601397
368.322893	2643.283649
368.710388	2642.252733
369.097820	2647.719864
369.485189	2643.976807
369.872495	2647.011582
370.259738	2649.534680
370.646918	2651.755308
371.034035	2650.121974
371.421090	2649.469145
371.808081	2649.605256
372.195010	2652.307314
372.581875	2653.277736
372.968678	2652.133394
373.355418	2651.137767
373.742096	2655.785710
374.128710	2653.547438
374.515262	2652.703045
374.901751	2652.947541
375.288177	2654.439722
375.674540	2654.900988
376.060841	2657.192192
376.447079	2656.746050
376.833254	2658.702018
377.219367	2657.202275
377.605417	2657.532470
377.991404	2658.792759
378.377329	2662.036741
378.763191	2658.457522
379.148991	2658.709580
379.534727	2661.583037
379.920402	2661.310815
380.306013	2661.832574
380.691563	2663.067657
381.077049	2663.425579
381.462474	2664.176711
381.847835	2669.422032
382.233134	2669.737104
382.618371	2671.728359
383.003545	2680.409226
383.388657	2686.355267
383.773706	2696.982020
384.158693	2704.967207
384.543618	2716.697972
384.928480	2731.647514
385.313280	2753.614342
385.698017	2776.838938
386.082692	2805.754996
386.467305	2837.448730
386.851856	2872.197404
387.236344	2919.138108
387.620770	2959.341310
388.005133	3002.339832
388.389435	3052.206925
388.773674	3094.287957
389.157851	3161.582320
389.541965	3231.225860
389.926018	3259.484048
390.310008	3343.744414
390.693936	3416.606731
391.077802	3479.933706
391.461606	3528.800131
391.845348	3606.096142
392.229027	3687.062114
392.612645	3735.946183
392.996200	3844.207483
393.379694	3931.346347
393.763125	4046.413205
394.146494	4111.338225
394.529801	4207.863718
394.913047	4317.350018
395.296230	4329.181606
395.679351	4454.870174
396.062410	4548.882653
396.445408	4572.825613
396.828343	4661.577647
397.211217	4750.556533
397.594028	4686.400288
397.976778	4826.004962
398.359466	4898.002721
398.742092	4953.493222
399.124656	4895.996342
399.507158	5031.832753
399.889598	5116.529178
400.271977	5258.243575
400.654294	5264.998721
401.036549	5324.476775
401.418742	5259.957567
401.800874	5473.478159
402.182944	5541.702614
402.564952	5663.292725
402.946898	5731.807047
403.328783	5586.631898
403.710606	5600.560606
404.092367	5929.717705
404.474067	5954.487415
404.855705	5865.261512
405.237282	5806.048119
405.618797	6054.448454
406.000250	6039.531680
406.381642	6240.429223
406.762972	6263.187512
407.144240	6327.593293
407.525447	6311.277599
407.906593	6338.769531
408.287677	6492.466750
408.668700	6402.567854
409.049661	6524.798191
409.430560	6553.560494
409.811399	6411.042033
410.192176	6689.593510
410.572891	6689.906061
410.953545	6891.148923
411.334138	6628.340970
411.714669	6795.997144
412.095139	6590.849909
412.475547	6837.029616
412.855894	6902.930099
413.236180	7082.795948
413.616405	6760.797287
413.996568	6979.684187
414.376670	7014.339599
414.756711	6914.653303
415.136691	7010.415061
415.516609	7210.281688
415.896466	7204.650719
416.276262	7404.487098
416.655997	7384.909777
417.035670	7572.846513
417.415283	7910.387052
417.794834	7961.040565
418.174324	7821.012435
418.553753	7744.709530
418.933121	8055.786531
419.312428	8154.376377
419.691674	7938.665404
420.070859	8415.475379
420.449983	8090.822551
420.829045	8453.223539
421.208047	8232.627688
421.586988	8536.871405
421.965867	8547.901449
422.344686	8660.563676
422.723444	8699.546919
423.102141	8060.220226
423.480777	8814.230648
423.859352	8351.112447
424.237866	8956.290363
424.616319	8825.674067
424.994712	9246.098736
425.373044	8798.850088
425.751314	9270.021532
426.129524	9141.262901
426.507673	9253.723482
426.885762	9405.462212
427.263789	9316.997524
427.641756	9242.605217
428.019662	9336.118621
428.397508	9588.856869
428.775292	9268.766285
429.153016	9652.773658
429.530679	9486.100509
429.908282	9512.886680
430.285824	9236.351665
430.663305	9924.174258
431.040726	9379.175116
431.418086	9355.262402
431.795385	9678.397843
432.172624	9777.988358
432.549802	9692.061891
432.926920	9763.978992
433.303977	9635.641297
433.680974	9841.365744
434.057910	9939.592627
434.434786	10006.907154
434.811601	9833.587244
435.188355	10397.687318
435.565050	10140.205344
435.941683	10064.409076
436.318257	10548.969824
436.694770	10695.427947
437.071222	10754.351473
437.447614	10591.474313
437.823946	10499.198512
438.200218	10620.629826
438.576429	10448.171953
438.952580	10689.194560
439.328670	10731.174768
439.704700	10522.818839
440.080670	10513.245688
440.456580	11060.944368
440.832429	10827.375107
441.208218	10418.655997
441.583947	10740.621891
441.959616	10895.576878
442.335224	10703.897085
442.710773	10836.444143
443.086261	11050.042873
443.461689	10326.707872
443.837057	10998.456745
444.212365	11257.211611
444.587612	10890.316434
444.962800	11107.370874
445.337927	10870.426561
445.712995	10502.520633
446.088002	11564.716954
446.462949	11238.607232
446.837837	11212.683099
447.212664	11168.711634
447.587431	11716.642208
447.962139	12454.904065
448.336786	14739.141613
448.711374	15250.712864
449.085901	13086.205240
449.460369	12719.610012
449.834776	12167.089468
450.209124	13071.817787
450.583412	13487.534019
450.957640	14429.072843
451.331808	13515.696425
451.705917	12547.079042
452.079965	11822.720687
452.453954	12737.284298
452.827883	12376.423382
453.201752	12678.123837
453.575562	12198.702544
453.949311	12616.818365
454.323001	12591.448758
454.696632	12823.919047
455.070202	13105.351543
455.443713	13312.782421
455.817164	13804.103357
456.190556	13773.783337
456.563888	14144.290501
456.937160	14297.660045
457.310373	13645.528821
457.683526	13740.718409
458.056619	13278.646247
458.429653	13467.185401
458.802628	12855.169160
459.175542	13247.257503
459.548398	14200.033059
459.921194	14548.621286
460.293930	14623.449653
460.666607	15482.358925
461.039224	16538.415121
461.411782	17247.062720
461.784280	17064.704020
462.156719	17166.653795
462.529099	16836.417889
462.901419	15776.293482
463.273680	15549.338215
463.645882	15438.140444
464.018024	15161.423947
464.390106	15385.384769
464.762130	16113.166067
465.134094	16900.778300
465.505999	18931.859185
465.877845	22197.024613
466.249631	25025.608475
466.621358	24661.291848
466.993026	23217.397002
467.364634	22648.893479
467.736184	21183.044408
468.107674	20376.346367
468.479105	20518.698469
468.850477	19973.149841
469.221790	19569.532379
469.593043	18884.404283
469.964238	18310.380697
470.335373	17963.022512
470.706449	18436.364173
471.077467	18014.142333
471.448425	19876.324399
471.819324	23975.599143
472.190164	25882.307200
472.560945	22249.384558
472.931667	19923.411297
473.302330	19307.639395
473.672934	18898.758969
474.043479	19158.761519
474.413965	18971.215473
474.784393	18575.578157
475.154761	19309.290373
475.525070	19259.725749
475.895321	18951.791907
476.265513	19558.787159
476.635645	20144.833897
477.005719	19918.241593
477.375734	20098.225909
477.745691	20586.784293
478.115588	21129.739247
478.485427	21672.671517
478.855207	22756.133945
479.224928	24551.709766
479.594591	26770.137572
479.964194	26726.886992
480.333739	26948.347401
480.703226	26527.083380
481.072653	26229.504069
481.442022	26836.915216
481.811333	27751.498991
482.180584	27649.955029
482.549777	26693.970778
482.918912	26359.686826
483.287988	26482.864899
483.657005	26127.297195
484.025964	25893.914457
484.394864	25783.979495
484.763706	25454.426665
485.132489	24902.644650
485.501213	25089.066519
485.869879	24999.281049
486.238487	24835.398178
486.607036	24965.086902
486.975527	24693.749317
487.343959	25003.780278
487.712333	24915.885241
488.080648	24576.660957
488.448905	25082.031589
488.817104	24836.040925
489.185244	25534.475147
489.553326	25478.014224
489.921350	26526.233946
490.289315	28851.970273
490.657222	30584.587123
491.025070	31092.485894
491.392861	30852.534533
491.760593	29988.369858
492.128267	29088.748228
492.495883	28027.131639
492.863440	27152.544379
493.230939	26288.374663
493.598380	26126.535981
493.965763	25736.174233
494.333088	25251.565593
494.700354	25209.260230
495.067563	25068.707819
495.434713	24808.256606
495.801805	24980.510312
496.168839	24778.917091
496.535815	24636.161696
496.902733	24861.768454
497.269593	24538.743918
497.636395	24709.114754
498.003139	24647.693335
498.369825	24390.274376
498.736453	24606.053405
499.103023	24478.648323
499.469535	24476.321831
499.835989	24684.246742
500.202385	24721.536157
500.568723	24247.513940
500.935003	24450.634632
501.301226	24112.128713
501.667390	24965.432221
502.033497	25171.794374
502.399546	24900.103908
502.765537	24450.899292
503.131470	24841.099723
503.497345	24977.858665
503.863163	24209.261665
504.228923	24776.590598
504.594625	25005.610217
504.960269	24554.091711
505.325856	25027.163671
505.691385	24443.377891
506.056856	25041.157914
506.422270	25019.082701
506.787625	24565.608227
507.152924	24988.510623
507.518164	25020.259810
507.883347	24831.498846
508.248472	24517.757595
508.613540	25295.199300
508.978550	25092.186993
509.343503	25086.664409
509.708398	25310.708410
510.073236	25492.194989
510.438016	25695.650917
510.802738	25361.235895
511.167403	25616.446829
511.532010	25337.277811
511.896561	26097.493893
512.261053	26064.819655
512.625488	25883.562448
512.989866	25786.061491
513.354186	25620.694001
513.718449	25747.761325
514.082655	26133.371785
514.446803	25838.413874
514.810894	26329.011404
515.174927	25833.355076
515.538904	25850.767221
515.902822	26347.081420
516.266684	26101.521775
516.630488	26000.572670
516.994235	25961.866690
517.357925	26283.167151
517.721558	26437.058455
518.085133	26562.134523
518.448651	26453.389273
518.812112	26211.988580
519.175516	26428.105366
519.538863	26585.495230
519.902152	26379.377572
520.265385	26640.660576
520.628560	26434.414370
520.991678	26422.169407
521.354739	26503.019432
521.717743	26579.188746
522.080690	26343.698806
522.443580	26676.649374
522.806413	26653.714644
523.169189	26776.101257
523.531908	26815.104664
523.894569	26424.435406
524.257174	26515.206422
524.619722	26675.409250
524.982213	26370.190070
525.344647	26411.162047
525.707025	26573.835041
526.069345	26525.061877
526.431608	26496.014749
526.793815	26677.909662
527.155964	26167.500397
527.518057	26343.172006
527.880093	26246.709527
528.242072	26476.563457
528.603995	26195.314963
528.965860	25988.330228
529.327669	26031.492587
529.689421	26027.061412
530.051117	25868.408739
530.412755	26041.307713
530.774337	25825.667316
531.135862	25712.120367
531.497331	25895.847740
531.858743	25482.909184
532.220098	25946.944875
532.581396	25638.950540
532.942638	25531.551277
533.303824	25651.871017
533.664953	25650.928321
534.026025	25318.088659
534.387040	25559.063375
534.747999	25617.560924
535.108902	25765.385199
535.469748	25280.090962
535.830537	25447.008607
536.191270	25577.539203
536.551947	25422.044813
536.912567	25045.944489
537.273131	25457.416069
537.633638	25135.132583
537.994089	25346.772824
538.354483	24861.730645
538.714821	25363.693457
539.075103	25406.545786
539.435328	25188.394894
539.795497	24764.522076
540.155609	25125.067919
540.515665	25443.978873
540.875665	24641.840556
541.235609	24979.260106
541.595496	24930.250008
541.955328	25296.444465
542.315102	25204.665218
542.674821	24718.219078
543.034483	24604.430153
543.394090	24781.414982
543.753640	24595.376241
544.113134	25222.039555
544.472571	24811.445136
544.831953	25106.287101
545.191278	24756.776343
545.550548	24645.313911
545.909761	24842.259189
546.268918	25082.076959
546.628019	25059.439658
546.987064	24740.304373
547.346053	24477.461132
547.704986	24589.493214
548.063863	24748.914663
548.422684	24774.642192
548.781449	24274.627786
549.140158	24685.091135
549.498811	24272.797847
549.857408	24025.932543
550.215949	24421.189252
550.574434	24107.856335
550.932864	24321.218130
551.291237	24503.516335
551.649555	24337.591798
552.007817	24402.978084
552.366022	24258.365024
552.724173	24284.836123
553.082267	24246.639300
553.440305	24730.711057
553.798288	23971.677125
554.156215	24468.707168
554.514086	24601.274391
554.871902	23981.472087
555.229661	24252.628191
555.587365	24105.129070
555.945014	23998.715354
556.302606	24218.827254
556.660143	24206.173958
557.017625	24447.516678
557.375050	23952.283806
557.732421	24348.455484
558.089735	24165.857330
558.446994	24220.410177
558.804197	24249.280865
559.161345	24161.378265
559.518437	23953.506286
559.875474	24123.814107
560.232455	24304.632734
560.589381	24113.099135
560.946251	24123.259580
561.303065	24426.502628
561.659825	24525.336970
562.016528	24121.825372
562.373177	23861.963973
562.729770	24223.197935
563.086307	24074.776283
563.442789	24243.085287
563.799216	24076.316356
564.155587	24081.183590
564.511904	24068.429470
564.868164	24003.486806
565.224370	23969.700993
565.580520	23910.303598
565.936615	24029.899932
566.292654	23725.467171
566.648638	23984.862263
567.004567	23813.783146
567.360441	23748.255707
567.716260	23478.601867
568.072023	23797.517863
568.427732	23576.846394
568.783385	23338.283871
569.138982	23598.029323
569.494525	23624.568477
569.850013	23384.705336
570.205445	23477.162618
570.560823	23304.697183
570.916145	23061.675759
571.271412	23244.019335
571.626625	23001.507068
571.981782	23099.010545
572.336884	22907.396287
572.691931	23049.163615
573.046923	22778.718314
573.401860	22667.880985
573.756743	22697.132281
574.111570	22581.994847
574.466342	22512.159743
574.821059	22584.996854
575.175722	22291.505919
575.530330	22259.398810
575.884882	22266.053133
576.239380	22199.220036
576.593823	22086.063776
576.948211	22049.356614
577.302544	21910.107342
577.656823	21774.732197
578.011047	21889.355432
578.365216	21745.586766
578.719330	21626.824743
579.073389	21509.776712
579.427394	21674.204027
579.781344	21425.634813
580.135239	21302.277779
580.489080	21260.579875
580.842866	21050.111702
581.196597	21253.610480
581.550273	21211.942823
581.903895	21087.592681
582.257463	21404.512379
582.610975	20935.125503
582.964434	21261.099114
583.317837	20929.073598
583.671186	21026.325017
584.024481	21015.383193
584.377721	20782.035743
584.730906	20857.519460
585.084037	20843.585711
585.437113	20775.840165
585.790135	20975.787450
586.143103	20424.323028
586.496016	20457.077925
586.848874	20683.269457
587.201679	20594.182186
587.554428	20309.052004
587.907124	20642.476440
588.259765	20390.789272
588.612352	20473.660801
588.964884	20045.124915
589.317362	20211.125070
589.669786	20276.624782
590.022155	20284.746081
590.374470	20508.253198
590.726731	20261.148440
591.078937	20073.720860
591.431090	20136.757968
591.783188	19908.141642
592.135232	19869.765858
592.487222	19971.093050
592.839157	19984.530246
593.191038	19865.427945
593.542866	19755.699670
593.894639	19458.258990
594.246358	19676.334264
594.598022	19572.037832
594.949633	19322.231015
595.301190	19305.731319
595.652692	19474.052925
596.004141	19690.376398
596.355535	19031.500111
596.706876	19045.519560
597.058162	18946.518860
597.409395	19179.082411
597.760573	19229.819103
598.111698	19008.111678
598.462768	18957.324573
598.813785	18921.499614
599.164748	18731.695130
599.515657	18770.398589
599.866511	18576.571265
600.217312	18914.023582
600.568060	18441.256613
600.918753	18754.400487
601.269392	18646.814702
601.619978	18450.335731
601.970510	18634.413464
602.320988	18586.963603
602.671412	18783.548439
603.021783	18706.191933
603.372100	18419.695598
603.722363	18568.747394
604.072572	18519.754940
604.422728	18668.693310
604.772830	18416.202078
605.122878	18375.194812
605.472872	18362.075210
605.822813	18347.082818
606.172701	18330.237802
606.522534	18504.339092
606.872314	18530.888328
607.222041	18371.713896
607.571714	18589.746320
607.921333	18405.116581
608.270899	18490.382657
608.620411	18646.938211
608.969870	18434.110777
609.319276	18430.503832
609.668627	18460.803687
610.017926	18594.827803
610.367171	18708.314259
610.716362	18762.143699
611.065500	18573.191171
611.414585	18719.445126
611.763616	18705.609680
612.112594	18634.917579
612.461518	18611.773642
612.810389	18791.193348
613.159207	18661.333225
613.507971	18574.091017
613.856682	18827.358586
614.205340	18750.049971
614.553945	18906.706348
614.902496	18651.656731
615.250994	18859.354790
615.599439	18818.718048
615.947830	18799.682652
616.296169	18873.863230
616.644454	18828.354214
616.992686	18804.204567
617.340864	19028.278814
617.688990	18765.191077
618.037063	18942.732954
618.385082	18804.401172
618.733048	19074.864117
619.080961	18962.799267
619.428821	18992.080809
619.776628	18870.140338
620.124382	18801.106777
620.472083	18847.225773
620.819731	18861.956025
621.167326	18565.944512
621.514868	18586.870342
621.862357	18368.515284
622.209793	18372.641468
622.557176	18208.720789
622.904506	18032.229993
623.251783	17961.520248
623.599007	17713.714769
623.946179	17652.442065
624.293297	17585.760203
624.640363	17311.700394
624.987376	17337.006987
625.334336	17141.211092
625.681243	16997.079462
626.028097	17007.507089
626.374899	16925.391734
626.721647	16786.691947
627.068343	16621.644571
627.414987	16565.213894
627.761577	16527.415323
628.108115	16556.628809
628.454600	16283.000020
628.801032	16390.028757
629.147412	16323.316648
629.493739	16329.297977
629.840014	16146.891387
630.186236	16240.069554
630.532405	16006.137330
630.878521	16203.659820
631.224585	16107.877897
631.570597	15924.357212
631.916556	15951.821418
632.262462	15926.973571
632.608316	15844.432238
632.954117	15789.266892
633.299866	15778.824141
633.645562	15694.412541
633.991206	15455.998731
634.336797	15329.453167
634.682336	15295.286747
635.027823	15172.882490
635.373257	15040.670669
635.718639	14960.022290
636.063968	14897.476694
636.409245	14648.010155
636.754470	14687.953737
637.099642	14537.518145
637.444762	14303.994254
637.789829	14345.866078
638.134845	14176.649667
638.479808	14206.727712
638.824719	14122.069094
639.169577	13993.005474
639.514383	14029.135423
639.859137	13858.043703
640.203839	13953.588692
640.548489	13791.455102
640.893086	13792.153302
641.237632	13658.098938
641.582125	13817.608608
641.926566	13635.698571
642.270955	13658.837468
642.615292	13607.838635
642.959576	13615.496147
643.303809	13640.704437
643.647990	13577.054829
643.992118	13641.609324
644.336195	13413.907967
644.680219	13631.148930
645.024192	13529.859546
645.368112	13776.107309
645.711981	13828.069002
646.055797	14015.166386
646.399562	13996.027645
646.743274	14257.204785
647.086935	14528.794428
647.430544	14494.849818
647.774101	14532.229974
648.117606	14666.561601
648.461059	14655.463501
648.804460	14625.801351
649.147810	14351.998642
649.491108	14264.224592
649.834354	14272.355973
650.177548	13960.490031
650.520690	13773.679993
650.863781	13696.754506
651.206820	13741.880395
651.549807	13563.113518
651.892742	13357.817568
652.235626	13302.175833
652.578458	13304.323364
652.921238	13006.184485
653.263967	13197.894524
653.606644	13033.994010
653.949269	13005.682890
654.291843	12805.309627
654.634365	12968.761479
654.976836	12818.681288
655.319255	12815.268427
655.661622	12775.632355
656.003938	12694.192514
656.346203	12615.237963
656.688416	12703.006972
657.030577	12655.962924
657.372687	12558.804766
657.714746	12550.706153
658.056753	12741.128177
658.398708	12546.421172
658.740612	12550.960731
659.082465	12666.960201
659.424266	12635.072383
659.766016	12655.993171
660.107715	12563.319119
660.449362	12647.541677
660.790958	12594.990168
661.132503	12537.180737
661.473996	12614.285185
661.815438	12613.375257
662.156829	12653.023932
662.498168	12621.224333
662.839456	12627.397226
663.180693	12637.156900
663.521879	12738.373187
663.863013	12711.539125
664.204097	12675.852797
664.545129	12809.408086
664.886110	12775.677725
665.227040	12875.941234
665.567918	12873.040050
665.908746	12895.173236
666.249522	12886.245352
666.590248	12940.614197
666.930922	13052.946228
667.271545	13025.781970
667.612118	13114.077780
667.952639	13007.530473
668.293109	13032.678269
668.633528	12988.235457
668.973896	12960.120942
669.314213	13026.180222
669.654480	12761.416301
669.994695	12853.503058
670.334859	12873.425698
670.674973	12820.629694
671.015035	12853.608922
671.355047	12797.740335
671.695008	12767.730346
672.034918	12774.843414
672.374777	12818.444354
672.714585	12730.819018
673.054342	12767.979883
673.394049	12719.093294
673.733705	12820.687667
674.073310	12719.504148
674.412864	12735.441756
674.752368	12582.989702
675.091820	12633.239923
675.431223	12603.721447
675.770574	12457.941360
676.109875	12390.989796
676.449125	12346.700739
676.788324	12293.544292
677.127473	12129.432049
677.466571	12114.021242
677.805619	12008.661126
678.144616	11942.906836
678.483562	11918.442117
678.822458	11783.997064
679.161303	11761.513518
679.500098	11742.029458
679.838842	11706.093593
680.177535	11736.038047
680.516179	11800.768983
680.854771	11742.132802
681.193314	11958.473919
681.531805	12126.823252
681.870247	12559.576063
682.208638	12969.444556
682.546978	13269.546965
682.885268	13296.305409
683.223508	13001.662570
683.561697	12844.802027
683.899836	12754.499838
684.237925	12546.630380
684.575963	12466.438225
684.913951	12378.805327
685.251889	12327.892194
685.589776	12433.297679
685.927614	12342.138494
686.265401	12318.513127
686.603137	12373.736447
686.940824	12519.975279
687.278460	12659.116166
687.616046	12695.548585
687.953582	12856.142102
688.291068	12788.520065
688.628504	13020.720652
688.965889	13026.349100
689.303224	12980.633397
689.640510	12865.435469
689.977745	12555.986761
690.314930	12332.714057
690.652065	12248.617529
690.989150	11946.528905
691.326185	11721.012888
691.663170	11513.927329
692.000105	11278.230702
692.336990	11160.083699
692.673825	10895.912114
693.010610	10787.015630
693.347345	10576.323125
693.684030	10383.191480
694.020665	10317.790071
694.357251	10126.442994
694.693786	10057.442201
695.030272	9902.640969
695.366707	9789.187281
695.703093	9720.940141
696.039429	9715.062155
696.375716	9622.168813
696.711952	9491.781890
697.048139	9544.484632
697.384276	9498.262293
697.720363	9518.318523
698.056400	9451.122463
698.392388	9397.479545
698.728326	9364.006284
699.064214	9299.212333
699.400053	9342.404939
699.735842	9152.315631
700.071581	9121.428481
700.407270	9043.078868
700.742910	8971.686047
701.078501	8867.384574
701.414042	8740.574349
701.749533	8683.964712
702.084974	8543.566057
702.420366	8662.769181
702.755709	8536.440386
703.091002	8405.241837
703.426246	8432.028008
703.761440	8390.229280
704.096584	8347.160183
704.431679	8280.009493
704.766725	8263.096422
705.101721	8218.940955
705.436668	8263.504755
705.771565	8153.557190
706.106413	8246.619410
706.441212	8280.871530
706.775961	8237.542813
707.110661	8279.134853
707.445311	8416.244155
707.779913	8314.100296
708.114465	8437.570756
708.448967	8479.876119
708.783421	8633.737176
709.117825	8801.519379
709.452180	8838.196293
709.786485	8937.370913
710.120742	9222.312052
710.454949	9219.489006
710.789107	9324.009769
711.123216	9546.450682
711.457275	9720.652795
711.791286	9863.776194
712.125247	9867.267193
712.459159	9847.311785
712.793023	10081.586807
713.126837	9662.682046
713.460602	9821.838835
713.794318	9646.036156
714.127985	9674.322070
714.461602	9333.414042
714.795171	9289.840828
715.128691	9032.126961
715.462162	8788.649313
715.795584	8742.926047
716.128957	8570.629491
716.462281	8406.660921
716.795556	8453.213457
717.128782	8248.572857
717.461960	7993.059454
717.795088	8057.210657
718.128167	7971.316957
718.461198	7800.270607
718.794180	7752.742609
719.127113	7742.587205
719.459997	7569.174033
719.792833	7351.131526
720.125619	7422.612567
720.458357	7270.311748
720.791046	7268.254957
721.123686	7255.001763
721.456278	7091.920437
721.788821	7112.566482
722.121315	7013.669126
722.453761	7082.279230
722.786158	7021.346803
723.118506	7032.167640
723.450805	6993.330591
723.783056	7055.210754
724.115259	6977.962633
724.447412	6977.821481
724.779518	7026.834099
725.111574	7022.649942
725.443582	7098.421004
725.775542	7078.127840
726.107453	7277.145032
726.439315	7180.858993
726.771129	7252.672750
727.102895	7426.721108
727.434612	7536.799743
727.766281	7577.698624
728.097901	7654.361971
728.429473	7656.431365
728.760996	7640.216493
729.092471	7611.585260
729.423897	7550.244500
729.755276	7545.132770
730.086606	7464.607899
730.417887	7572.768376
730.749120	7794.004453
731.080305	7974.674366
731.411442	8083.522960
731.742530	8066.831699
732.073570	8183.531890
732.404562	8271.270653
732.735506	8124.106769
733.066401	8257.258765
733.397249	8178.231117
733.728048	7939.429139
734.058798	7606.203828
734.389501	7376.130608
734.720156	7206.762962
735.050762	6970.471479
735.381320	6890.196145
735.711831	6823.741134
736.042293	6721.645166
736.372707	6740.216777
736.703073	6608.040243
737.033391	6644.273537
737.363661	6653.700494
737.693883	6689.550660
738.024056	6777.755729
738.354182	6813.071532
738.684260	6841.511202
739.014290	6970.105995
739.344272	7074.596511
739.674207	7106.978363
740.004093	7183.606422
740.333931	7191.160591
740.663722	7196.902465
740.993464	7280.126874
741.323159	7252.299705
741.652806	7009.737026
741.982405	7041.912190
742.311956	7085.308963
742.641460	6905.359936
742.970915	6712.558486
743.300323	6702.445932
743.629683	6663.855899
743.958996	6527.911103
744.288260	6437.538338
744.617477	6384.026490
744.946647	6375.668257
745.275768	6214.374019
745.604842	6169.056567
745.933869	6153.786912
746.262847	6112.913236
746.591778	6096.136276
746.920662	6055.529782
747.249498	6059.635802
747.578286	6105.238079
747.907027	6180.313463
748.235720	6236.262709
748.564365	6210.525098
748.892963	6253.780719
749.221514	6389.052520
749.550017	6204.795827
749.878473	6095.440597
750.206881	6165.316030
750.535242	6102.011741
750.863555	6030.679414
751.191821	6042.624428
751.520039	6036.832142
751.848210	5944.417710
752.176334	5980.517413
752.504411	6024.327560
752.832440	5944.150529
753.160421	5879.094438
753.488356	5925.263846
753.816243	5952.811231
754.144082	5804.203057
754.471875	5780.900323
754.799620	5821.189225
755.127318	5834.011400
755.454969	5791.595131
755.782572	5758.951139
756.110129	5801.952182
756.437638	5777.613491
756.765100	5718.702567
757.092515	5728.437035
757.419882	5785.056755
757.747203	5753.594913
758.074477	5820.065048
758.401703	5795.305420
758.728882	5758.391571
759.056014	5822.837682
759.383099	5947.442402
759.710138	5950.525068
760.037129	5941.196413
760.364073	5943.243121
760.690970	6024.385533
761.017820	6005.481207
761.344623	5964.103416
761.671379	6068.924128
761.998088	6199.497574
762.324751	6455.409228
762.651366	7089.437668
762.977935	8449.120040
763.304456	10099.525753
763.630931	10962.525921
763.957359	10513.578404
764.283740	9554.166168
764.610074	8689.762039
764.936362	7692.828496
765.262602	7104.588856
765.588796	6566.924593
765.914943	6234.911680
766.241044	6068.535959
766.567097	5855.542168
766.893104	5598.271922
767.219064	5422.262556
767.544978	5359.900963
767.870845	5278.771153
768.196665	5173.227036
768.522438	5103.986788
768.848165	5071.642745
769.173846	5001.674050
769.499479	4953.402481
769.825066	4905.458587
770.150607	4847.208055
770.476101	4822.067821
770.801548	4812.729083
771.126949	4730.296135
771.452303	4680.663455
771.777611	4647.081809
772.102872	4661.300383
772.428087	4626.866782
772.753256	4578.267538
773.078378	4530.051422
773.403453	4459.384528
773.728482	4451.485040
774.053465	4401.277668
774.378401	4392.390114
774.703291	4388.087489
775.028135	4313.591838
775.352932	4267.288840
775.677683	4250.600100
776.002388	4271.543574
776.327046	4280.738638
776.651658	4207.407494
776.976224	4148.176457
777.300743	4150.134945
777.625216	4171.688398
777.949643	4166.501051
778.274024	4124.125112
778.598359	4086.550872
778.922647	4112.180098
779.246889	4097.850618
779.571086	4093.197633
779.895236	4072.997729
780.219339	4063.958941
780.543397	4059.560534
780.867409	4110.428297
781.191374	4122.723671
781.515294	4060.112540
781.839167	4057.231521
782.162995	4075.293975
782.486776	4061.541707
782.810511	4076.962597
783.134201	4063.744692
783.457844	4013.665869
783.781441	3965.487562
784.104993	3969.127275
784.428498	3989.722909
784.751958	3986.788957
785.075372	3963.576965
785.398739	3926.915173
785.722061	3942.754479
786.045337	3982.246878
786.368568	4011.321733
786.691752	3921.153134
787.014891	3978.763441
787.337983	4112.291003
787.661030	4275.712608
787.984031	4438.332669
788.306987	4604.272330
788.629897	4686.491029
788.952760	4642.159122
789.275579	4575.620933
789.598351	4504.782639
789.921078	4351.912169
790.243759	4159.874454
790.566395	4144.917351
790.888984	4137.975682
791.211529	4028.723796
791.534027	3968.227429
791.856480	3951.561374
792.178888	3891.972415
792.501249	3851.638143
792.823566	3860.198023
793.145836	3883.934296
793.468062	3832.635514
793.790241	3790.156231
794.112375	3818.048935
794.434464	3886.699368
794.756507	3911.199376
795.078505	3882.840365
795.400457	3925.606994
795.722364	4071.321546
796.044226	4173.866177
796.366042	4246.841920
796.687812	4222.394844
797.009538	4220.350656
797.331218	4186.222045
797.652852	4158.420081
797.974442	4139.755209
798.295986	4133.524343
798.617484	4050.277249
798.938938	3970.228767
799.260346	4015.198380
799.581709	4002.693798
799.903026	3925.831325
800.224299	3892.857138
800.545526	3888.279770
800.866708	3848.588245
801.187845	3788.222949
801.508936	3823.077486
801.829983	3814.409222
802.150984	3735.547932
802.471940	3730.766398
802.792851	3739.175042
803.113717	3740.445413
803.434538	3741.350300
803.755314	3678.726567
804.076045	3659.600429
804.396731	3682.623378
804.717372	3705.321174
805.037967	3687.737629
805.358518	3679.278573
805.679024	3708.887790
805.999485	3722.723237
806.319901	3725.705079
806.640272	3736.553642
806.960598	3752.418153
807.280879	3725.430336
807.601115	3739.381730
807.921306	3755.339502
808.241453	3795.751912
808.561554	3767.405504
808.881611	3701.588199
809.201623	3747.482864
809.521590	3752.345057
809.841513	3721.853638
810.161390	3754.381683
810.481223	3730.234556
810.801011	3681.993234
811.120755	3675.515352
811.440453	3705.880742
811.760107	3707.887121
812.079716	3660.727127
812.399281	3635.738127
812.718801	3660.333917
813.038276	3632.136223
813.357707	3628.534318
813.677093	3647.778923
813.996434	3592.152311
814.315731	3603.701594
814.634983	3609.279631
814.954191	3624.738329
815.273354	3652.016013
815.592473	3644.255157
815.911547	3656.250582
816.230577	3693.537477
816.549562	3748.841455
816.868502	3790.534318
817.187399	3811.679437
817.506250	3809.705826
817.825058	3787.973412
818.143821	3883.072258
818.462539	3981.518431
818.781213	4030.072304
819.099843	4091.735698
819.418429	4355.289742
819.736970	4591.855968
820.055466	4851.583776
820.373919	5217.513572
820.692327	5636.430936
821.010691	6116.343741
821.329011	7587.808658
821.647286	10457.293921
821.965517	15162.737168
822.283704	19180.078038
822.601847	21192.920028
822.919945	19273.319220
823.237999	16628.409799
823.556010	14119.225884
823.873976	11968.689817
824.191897	9858.795534
824.509775	8521.790793
824.827609	7396.300265
825.145398	6865.940633
825.463144	6751.012408
825.780845	6860.871753
826.098502	7079.609939
826.416116	8012.082248
826.733685	9374.859888
827.051210	10473.612136
827.368692	10431.049674
827.686129	9116.092420
828.003522	7604.076462
828.320872	6584.009063
828.638177	5872.034303
828.955439	5305.080935
829.272656	4801.416734
829.589830	4530.212739
829.906960	4353.202704
830.224046	4161.928724
830.541088	4038.445661
830.858086	3990.514370
831.175041	3911.854726
831.491952	3901.298550
831.808819	3915.063421
832.125642	3988.669308
832.442421	4147.475736
832.759157	4438.904840
833.075849	5014.395402
833.392497	5902.656792
833.709101	6688.199631
834.025662	7000.388206
834.342179	6590.038283
834.658653	5909.154839
834.975083	5255.836424
835.291469	4677.757230
835.607811	4278.457516
835.924110	4131.485196
836.240366	3929.357612
836.556578	3724.270871
836.872746	3617.695837
837.188871	3571.075247
837.504952	3503.876666
837.820990	3421.574788
838.136984	3378.316647
838.452935	3408.956780
838.768842	3399.991088
839.084706	3422.875406
839.400526	3596.845625
839.716303	3950.298565
840.032037	4495.572451
840.347727	4731.115323
840.663373	4431.907719
840.978977	4040.031104
841.294537	3730.867221
841.610054	3505.230216
841.925527	3400.868249
842.240957	3334.380471
842.556344	3274.945267
842.871687	3215.910835
843.186987	3167.921571
843.502244	3132.020994
843.817458	3094.088832
844.132629	3064.217474
844.447756	3073.495718
844.762840	3055.705486
845.077881	3022.181813
845.392879	3006.186232
845.707833	3004.615912
846.022745	3004.472240
846.337613	3002.576766
846.652438	2988.088490
846.967221	2987.680156
847.281960	2971.745069
847.596656	2967.331539
847.911309	2970.925881
848.225919	2964.589151
848.540485	2957.022379
848.855009	2960.039510
849.169490	2946.085596
849.483928	2938.135696
849.798323	2941.102415
850.112675	2934.591765
850.426984	2948.008796
850.741251	2941.147786
851.055474	2935.476488
851.369654	2927.637493
851.683792	2934.052362
851.997887	2942.836572
852.311938	2942.153496
852.625947	2928.045827
852.939914	2935.852053
853.253837	2938.357507
853.567718	2926.351999
853.881555	2924.665733
854.195350	2936.235181
854.509103	2932.592948
854.822812	2925.646238
855.136479	2920.332861
855.450103	2923.894437
855.763685	2919.087696
856.077224	2917.661050
856.390720	2929.472473
856.704173	2935.098401
857.017584	2928.663368
857.330953	2926.755291
857.644278	2939.118721
857.957561	2945.805812
858.270802	2951.071297
858.584000	2949.289249
858.897155	2937.077054
859.210268	2931.645211
859.523339	2934.160746
859.836367	2932.880293
860.149352	2926.606577
860.462295	2924.106165
860.775195	2930.019438
861.088054	2928.764191
861.400869	2910.731984
861.713642	2909.701068
862.026373	2927.183789
862.339062	2930.430293
862.651708	2935.993206
862.964312	2938.614606
863.276873	2927.924839
863.589392	2941.200718
863.901869	2955.399128
864.214303	2977.491984
864.526696	2992.532267
864.839045	2984.647902
865.151353	2985.222594
865.463619	2984.078252
865.775842	2984.325268
866.088023	3006.556757
866.400162	3013.601769
866.712258	2982.349136
867.024313	2971.646766
867.336325	2981.683704
867.648296	3004.454596
867.960224	2994.974706
868.272110	2982.699496
868.583954	2984.073211
868.895755	2998.460664
869.207515	2982.757469
869.519233	2993.782473
869.830909	3004.590707
870.142542	3012.326357
870.454134	3007.849813
870.765684	3013.437932
871.077191	3013.130421
871.388657	3022.728778
871.700081	3037.935419
872.011463	3048.186605
872.322803	3046.913714
872.634101	3046.848179
872.945357	3063.715880
873.256571	3087.714292
873.567744	3082.660536
873.878874	3078.743559
874.189963	3099.848350
874.501010	3099.830706
874.812015	3093.506578
875.122979	3089.256886
875.433900	3087.994077
875.744780	3096.712752
876.055618	3103.074688
876.366415	3100.092846
876.677169	3109.539968
876.987882	3102.878083
877.298554	3102.741972
877.609183	3125.202833
877.919771	3151.933551
878.230317	3177.472037
878.540822	3229.169069
878.851285	3266.697939
879.161707	3312.625371
879.472087	3422.751898
879.782425	3672.180628
880.092722	4127.467397
880.402977	4667.115354
880.713191	5326.765458
881.023363	6537.262443
881.333494	7841.131680
881.643583	8364.542081
881.953631	8034.550671
882.263637	7370.681121
882.573602	6751.380412
882.883526	6165.391648
883.193408	5592.943423
883.503248	5135.219256
883.813048	4826.733408
884.122806	4504.172659
884.432522	4177.372299
884.742197	3937.862039
885.051831	3746.328440
885.361424	3615.331536
885.670975	3543.016184
885.980485	3453.386990
886.289954	3373.517469
886.599382	3328.192454
886.908768	3293.279943
887.218113	3249.694127
887.527417	3185.840352
887.836680	3142.728404
888.145901	3135.290182
888.455082	3120.859879
888.764221	3067.920202
889.073319	3038.943650
889.382376	3037.781664
889.691392	3041.917930
890.000366	3041.812066
890.309300	3027.598533
890.618193	3041.116387
890.927044	3055.934859
891.235855	3053.585681
891.544625	3043.798281
891.853353	3055.909653
892.162041	3070.145871
892.470687	3115.264198
892.779293	3168.844102
893.087858	3217.208932
893.396381	3289.715848
893.704864	3422.141918
894.013306	3669.912109
894.321707	3983.091271
894.630068	4181.382537
894.938387	4167.355527
895.246665	4126.345740
895.554903	3997.884537
895.863100	3793.155718
896.171256	3622.366467
896.479371	3481.481340
896.787446	3352.453007
897.095480	3248.978283
897.403473	3184.854807
897.711425	3150.774086
898.019336	3143.900473
898.327207	3109.262705
898.635038	3070.592013
898.942827	3058.452915
899.250576	3044.814073
899.558284	3017.743077
899.865952	2997.003770
900.173579	2971.853454
900.481165	2967.515541
900.788711	2952.429888
901.096216	2929.868204
901.403681	2920.383273
901.711105	2925.429468
902.018489	2924.131371
902.325832	2923.551638
902.633135	2933.956580
902.940397	2971.109883
903.247619	3059.383008
903.554800	3263.879934
903.861941	3630.457518
904.169041	4073.590065
904.476101	4366.155949
904.783121	4298.914518
905.090100	4040.751989
905.397039	3756.448556
905.703938	3506.510669
906.010796	3320.650888
906.317614	3205.243753
906.624391	3108.756069
906.931129	3033.105993
907.237826	2973.456541
907.544483	2924.035589
907.851099	2895.631208
908.157675	2875.033053
908.464211	2850.449866
908.770707	2839.727332
909.077163	2824.888696
909.383578	2809.891263
909.689954	2800.239974
909.996289	2798.548667
910.302584	2802.135448
910.608839	2798.394912
910.915054	2791.808644
911.221229	2786.066770
911.527363	2792.844601
911.833458	2797.331228
912.139513	2801.308698
912.445527	2805.623926
912.751502	2813.117601
913.057436	2822.955413
913.363331	2837.032835
913.669186	2860.217102
913.975000	2896.304202
914.280775	2959.633697
914.586510	3031.722197
914.892205	3113.159517
915.197859	3252.199581
915.503475	3455.441260
915.809050	3679.734797
916.114585	3824.791479
916.420081	3833.706759
916.725536	3770.349538
917.030952	3646.218686
917.336328	3514.556350
917.641665	3379.100547
917.946961	3277.473406
918.252218	3205.725183
918.557435	3123.662761
918.862612	3063.042886
919.167750	3014.604959
919.472848	2972.423104
919.777906	2945.752880
920.082925	2918.069383
920.387904	2886.927655
920.692843	2869.323946
920.997743	2860.194417
921.302603	2842.288238
921.607423	2834.408915
921.912204	2820.180258
922.216946	2809.682055
922.521647	2798.798204
922.826310	2791.299487
923.130932	2784.519136
923.435516	2775.523197
923.740059	2765.793770
924.044564	2760.682040
924.349028	2752.918663
924.653454	2747.625451
924.957840	2739.917527
925.262186	2736.053482
925.566493	2734.326887
925.870761	2729.356310
926.174989	2724.718448
926.479178	2721.020762
926.783328	2712.622199
927.087438	2715.394834
927.391509	2712.695296
927.695541	2707.399564
927.999533	2704.427804
928.303486	2702.003009
928.607400	2701.597196
928.911275	2703.515355
929.215110	2701.448482
929.518906	2697.949921
929.822663	2697.569314
930.126381	2699.270703
930.430060	2699.968903
930.733699	2701.914789
931.037299	2702.068544
931.340861	2704.619368
931.644383	2703.298585
931.947866	2699.459747
932.251309	2699.724407
932.554714	2700.551157
932.858080	2697.327339
933.161407	2695.562935
933.464694	2693.798531
933.767943	2692.800382
934.071153	2692.734847
934.374323	2693.790969
934.677455	2695.174766
934.980548	2691.391380
935.283602	2694.058150
935.586617	2690.998170
935.889593	2693.135619
936.192530	2691.156966
936.495428	2688.540608
936.798287	2693.276772
937.101108	2696.369519
937.403890	2701.448482
937.706632	2705.365458
938.009336	2710.988866
938.312002	2721.242572
938.614628	2731.702967
938.917216	2737.709502
939.219765	2736.887793
939.522275	2737.860736
939.824747	2733.144737
940.127179	2731.047617
940.429573	2727.264231
940.731929	2724.526884
941.034246	2719.281564
941.336524	2723.382542
941.638763	2715.767879
941.940964	2713.411140
942.243126	2711.291335
942.545250	2711.505584
942.847335	2708.896787
943.149381	2703.795139
943.451389	2699.684078
943.753359	2697.622246
944.055290	2697.352544
944.357182	2696.508151
944.659036	2695.630990
944.960851	2693.465815
945.262628	2691.882892
945.564367	2694.499251
945.866067	2694.297605
946.167729	2696.188038
946.469352	2692.881041
946.770937	2693.884231
947.072484	2690.584795
947.373992	2692.543284
947.675462	2690.725948
947.976893	2687.479445
948.278286	2686.680422
948.579641	2685.289063
948.880958	2680.797395
949.182236	2685.052129
949.483476	2684.784948
949.784678	2683.098682
950.085841	2682.851665
950.386967	2685.278981
950.688054	2686.007428
950.989103	2685.155473
951.290114	2688.280988
951.591087	2688.477593
951.892021	2694.796679
952.192917	2694.504292
952.493776	2695.021011
952.794596	2695.661237
953.095378	2696.901361
953.396122	2695.666278
953.696828	2695.179807
953.997496	2691.310722
954.298126	2692.366843
954.598718	2688.260823
954.899272	2685.619259
955.199788	2685.505833
955.500266	2680.232786
955.800706	2680.149607
956.101108	2675.582322
956.401472	2677.797909
956.701798	2674.737928
957.002087	2671.887156
957.302337	2669.139727
957.602550	2669.563184
957.902724	2667.665189
958.202861	2666.447751
958.502960	2664.453974
958.803022	2666.440189
959.103045	2664.269972
959.403031	2663.239056
959.702979	2661.005825
960.002889	2660.857111
960.302762	2657.779487
960.602596	2660.322749
960.902393	2660.763850
961.202153	2658.550783
961.501875	2660.413490
961.801559	2660.670588
962.101205	2661.106648
962.400814	2660.670588
962.700385	2657.991215
962.999918	2653.567603
963.299414	2653.524753
963.598873	2655.145484
963.898293	2653.509629
964.197677	2656.191523
964.497022	2654.830412
964.796331	2656.360402
965.095601	2658.888541
965.394835	2657.066163
965.694030	2654.943838
965.993189	2654.379228
966.292309	2655.861328
966.591393	2657.086328
966.890439	2655.281595
967.189447	2656.015083
967.488419	2656.196564
967.787353	2655.926863
968.086249	2654.716986
968.385108	2655.919301
968.683930	2655.558858
968.982714	2656.284785
969.281462	2655.949548
969.580172	2655.148004
969.878844	2657.078766
970.177480	2654.457366
970.476078	2656.171359
970.774639	2656.718324
971.073162	2655.319404
971.371649	2657.119096
971.670098	2658.397028
971.968510	2655.561379
972.266885	2655.573982
972.565223	2655.934424
972.863524	2655.347130
973.161788	2655.059784
973.460014	2657.272851
973.758204	2657.280412
974.056356	2654.543066
974.354471	2655.629435
974.652550	2653.388642
974.950591	2656.930052
975.248595	2656.224291
975.546563	2658.245793
975.844493	2653.602891
976.142386	2654.880823
976.440243	2654.275885
976.738062	2655.906698
977.035845	2655.846204
977.333590	2657.194713
977.631299	2653.441574
977.928971	2650.956285
978.226606	2651.536018
978.524204	2651.415030
978.821765	2649.194402
979.119290	2653.892757
979.416777	2653.615494
979.714228	2653.552479
980.011642	2653.867551
980.309020	2651.982160
980.606360	2653.277736
980.903664	2653.814619
981.200931	2653.950730
981.498162	2655.863848
981.795356	2658.190341
982.092513	2657.552635
982.389633	2661.714107
982.686717	2662.876093
982.983764	2667.967659
983.280775	2670.299192
983.577749	2671.723318
983.874686	2672.643329
984.171587	2668.680982
984.468451	2665.227792
984.765279	2661.746875
985.062070	2662.838285
985.358824	2659.175886
985.655543	2662.084632
985.952224	2658.011380
986.248869	2657.325783
986.545478	2654.636327
986.842050	2650.159783
987.138586	2651.941831
987.435086	2651.669608
987.731549	2653.650782
988.027975	2653.295380
988.324366	2652.186327
988.620719	2648.760862
988.917037	2650.646254
989.213318	2651.588950
989.509563	2650.406799
989.805772	2648.581902
990.101944	2648.541572
990.398080	2651.019299
990.694180	2650.920997
990.990244	2650.379073
991.286271	2650.636172
991.582262	2650.381593
991.878217	2650.248003
992.174136	2649.665750
992.470019	2651.276398
992.765865	2648.208856
993.061676	2648.347488
993.357450	2644.188536
993.653188	2647.215749
993.948890	2650.646254
994.244556	2650.943682
994.540186	2652.450987
994.835780	2651.135246
995.131337	2652.211532
995.426859	2654.638848
995.722345	2653.640699
996.017795	2651.513332
996.313208	2654.689259
996.608586	2653.832263
996.903928	2656.856956
997.199234	2655.831081
997.494504	2654.900988
997.789738	2652.130874
998.084936	2653.159269
998.380099	2652.025010
998.675225	2652.224135
998.970316	2651.795637
999.265371	2653.035761
999.560390	2651.740184
999.855373	2649.267498
1000.150320	2649.575009
1000.445232	2651.067190
1000.740108	2647.019144
1001.034948	2649.506953
1001.329752	2648.909577
1001.624521	2646.935965
1001.919254	2651.299083
1002.213951	2648.914618
1002.508613	2647.193064
1002.803239	2647.830770
1003.097829	2649.262457
1003.392384	2649.590132
1003.686903	2648.241624
1003.981386	2646.615852
1004.275834	2648.428146
1004.570246	2648.309679
1004.864623	2647.394710
1005.158964	2647.440080
1005.453270	2648.130718
1005.747540	2648.085348
1006.041775	2646.545275
1006.335974	2649.915287
1006.630138	2647.747591
1006.924266	2648.982673
1007.218359	2647.790440
1007.512416	2645.534524
1007.806438	2645.990748
1008.100425	2647.228352
1008.394376	2642.429173
1008.688292	2648.612148
1008.982172	2647.528300
1009.276017	2649.111223
1009.569827	2651.188178
1009.863602	2646.129380
1010.157341	2644.677528
1010.451045	2645.678197
1010.744714	2648.337406
1011.038347	2649.643064
1011.331945	2647.324134
1011.625508	2650.426964
1011.919036	2647.238434
1012.212528	2648.249185
1012.505986	2647.293887
1012.799408	2645.637868
1013.092795	2645.521921
1013.386147	2647.742549
1013.679464	2647.631644
1013.972745	2646.625934
1014.265992	2647.006541
1014.559204	2647.198105
1014.852380	2648.889412
1015.145521	2646.464617
1015.438628	2648.050060
1015.731699	2647.132570
1016.024736	2646.091572
1016.317737	2647.969401
1016.610703	2647.888743
1016.903635	2647.714823
1017.196531	2643.918834
1017.489393	2643.697023
1017.782219	2648.160965
1018.075011	2647.717344
1018.367768	2645.567292
1018.660490	2646.930924
1018.953177	2646.930924
1019.245829	2646.930924
