Dividing Wavelength (nm)	Counts (n)	Blue Motor Position (mm): 9.200000	Red Motor Position (mm): 0.000000	
326.493990	2161.072078
326.888308	2161.072078
327.282561	2161.072078
327.676750	2120.934411
328.070874	2116.878803
328.464933	2116.243617
328.858929	2120.198402
329.252859	2123.898609
329.646726	2131.664507
330.040528	2145.038688
330.434265	2158.518733
330.827938	2177.843997
331.221547	2193.353106
331.615091	2210.203163
332.008571	2226.899465
332.401986	2248.215984
332.795338	2264.957656
333.188625	2285.369288
333.581847	2304.094653
333.975006	2321.350523
334.368100	2341.920951
334.761129	2359.212109
335.154095	2373.642412
335.546996	2393.020607
335.939833	2413.079358
336.332606	2429.034610
336.725315	2443.767383
337.117960	2455.057047
337.510540	2465.431741
337.903056	2478.127887
338.295508	2488.605925
338.687896	2495.101452
339.080220	2502.345590
339.472480	2509.085613
339.864676	2512.138032
340.256807	2520.932324
340.648875	2524.584640
341.040879	2526.822913
341.432818	2529.461957
341.824694	2531.579241
342.216506	2534.629139
342.608253	2533.837678
342.999937	2532.731145
343.391557	2535.823893
343.783113	2532.257277
344.174605	2533.847761
344.566033	2531.659900
344.957397	2533.910775
345.348697	2530.203006
345.739934	2529.136802
346.131106	2525.366019
346.522215	2524.756040
346.913260	2521.433919
347.304241	2517.363187
347.695159	2517.597601
348.086012	2519.495596
348.476802	2514.288084
348.867528	2513.584843
349.258191	2510.345901
349.648789	2508.654594
350.039324	2504.364572
350.429796	2507.875736
350.820203	2503.802484
351.210548	2505.261898
351.600828	2500.929026
351.991045	2502.610251
352.381198	2500.445075
352.771288	2500.808038
353.161314	2503.971362
353.551276	2501.304592
353.941175	2499.177225
354.331010	2500.576145
354.720782	2499.232678
355.110490	2500.273676
355.500135	2500.613954
355.889717	2499.199910
356.279235	2499.187307
356.668689	2499.804849
357.058080	2499.847698
357.447408	2500.855929
357.836672	2501.118069
358.225873	2501.856598
358.615010	2499.419200
359.004084	2500.911382
359.393095	2501.891886
359.782043	2500.992040
360.170927	2502.847185
360.559748	2500.157729
360.948505	2504.508245
361.337199	2508.039573
361.725830	2506.013030
362.114398	2503.137051
362.502903	2503.540344
362.891344	2505.985303
363.279722	2505.050169
363.668037	2506.141579
364.056289	2506.524707
364.444478	2507.815242
364.832603	2507.487567
365.220665	2510.784482
365.608665	2507.890859
365.996601	2509.869512
366.384474	2509.806498
366.772284	2508.284069
367.160031	2510.182064
367.547715	2510.368587
367.935336	2513.045439
368.322893	2507.898421
368.710388	2506.295334
369.097820	2510.242558
369.485189	2506.222237
369.872495	2511.971673
370.259738	2512.780779
370.646918	2515.868485
371.034035	2512.100223
371.421090	2515.724813
371.808081	2513.053001
372.195010	2514.860255
372.581875	2512.032167
372.968678	2516.571726
373.355418	2515.354288
373.742096	2514.774555
374.128710	2513.489061
374.515262	2517.191788
374.901751	2513.605007
375.288177	2517.194309
375.674540	2516.332272
376.060841	2517.035512
376.447079	2514.535100
376.833254	2518.353774
377.219367	2516.584329
377.605417	2519.135153
377.991404	2518.996521
378.377329	2517.617766
378.763191	2519.238497
379.148991	2517.287570
379.534727	2520.186234
379.920402	2520.733199
380.306013	2522.827798
380.691563	2518.094155
381.077049	2520.443332
381.462474	2518.847807
381.847835	2520.375277
382.233134	2521.222191
382.618371	2516.687673
383.003545	2520.352592
383.388657	2520.471059
383.773706	2520.571882
384.158693	2521.441481
384.543618	2519.228414
384.928480	2523.210926
385.313280	2522.951307
385.698017	2522.580782
386.082692	2522.106913
386.467305	2521.532222
386.851856	2524.594723
387.236344	2522.989115
387.620770	2522.109434
388.005133	2519.389731
388.389435	2518.971316
388.773674	2521.736388
389.157851	2523.329393
389.541965	2524.531708
389.926018	2524.496420
390.310008	2523.336955
390.693936	2526.543129
391.077802	2525.933149
391.461606	2523.735206
391.845348	2524.927439
392.229027	2526.558252
392.612645	2523.445340
392.996200	2526.502799
393.379694	2527.233767
393.763125	2527.143026
394.146494	2525.965917
394.529801	2525.391225
394.913047	2526.265865
395.296230	2527.521113
395.679351	2528.259642
396.062410	2528.433561
396.445408	2524.602284
396.828343	2528.375588
397.211217	2527.750485
397.594028	2527.873993
397.976778	2528.370547
398.359466	2530.318953
398.742092	2528.610002
399.124656	2529.978675
399.507158	2529.862728
399.889598	2531.304498
400.271977	2529.330887
400.654294	2529.051103
401.036549	2528.620084
401.418742	2527.924405
401.800874	2528.824251
402.182944	2533.192411
402.564952	2529.719056
402.946898	2528.892306
403.328783	2530.200486
403.710606	2530.056813
404.092367	2532.423635
404.474067	2528.184024
404.855705	2531.995137
405.237282	2530.497914
405.618797	2531.554036
406.000250	2531.788449
406.381642	2532.272400
406.762972	2532.486649
407.144240	2526.515402
407.525447	2531.193593
407.906593	2524.783766
408.287677	2531.019673
408.668700	2531.236443
409.049661	2532.373223
409.430560	2532.330373
409.811399	2530.432379
410.192176	2533.880528
410.572891	2532.640404
410.953545	2533.336083
411.334138	2533.590662
411.714669	2532.048069
412.095139	2534.631660
412.475547	2532.229550
412.855894	2537.515200
413.236180	2533.474715
413.616405	2536.471681
413.996568	2534.568646
414.376670	2534.142668
414.756711	2534.253573
415.136691	2533.310878
415.516609	2535.715508
415.896466	2535.045035
416.276262	2534.979500
416.655997	2534.210724
417.035670	2535.178625
417.415283	2536.509490
417.794834	2536.728780
418.174324	2535.057638
418.553753	2534.137627
418.933121	2535.375230
419.312428	2536.416228
419.691674	2537.457227
420.070859	2538.687268
420.449983	2534.314067
420.829045	2536.517052
421.208047	2534.598892
421.586988	2537.532844
421.965867	2538.057124
422.344686	2537.875642
422.723444	2538.546116
423.102141	2537.026208
423.480777	2536.600231
423.859352	2535.992772
424.237866	2539.133410
424.616319	2536.774150
424.994712	2539.120807
425.373044	2538.188194
425.751314	2535.355066
426.129524	2537.351362
426.507673	2536.229706
426.885762	2534.084695
427.263789	2541.737166
427.641756	2539.342618
428.019662	2538.430169
428.397508	2538.851106
428.775292	2538.503266
429.153016	2537.043852
429.530679	2539.839172
429.908282	2539.146013
430.285824	2539.433359
430.663305	2538.105015
431.040726	2540.681045
431.418086	2538.848585
431.795385	2541.285983
432.172624	2539.821528
432.549802	2540.227341
432.926920	2539.201466
433.303977	2539.559388
433.680974	2541.535520
434.057910	2541.767413
434.434786	2541.921168
434.811601	2541.560726
435.188355	2538.800694
435.565050	2540.101312
435.941683	2542.105171
436.318257	2541.028884
436.694770	2541.031405
437.071222	2540.038297
437.447614	2540.323123
437.823946	2539.808925
438.200218	2542.639533
438.576429	2542.238761
438.952580	2543.393185
439.328670	2541.827907
439.704700	2541.512835
440.080670	2546.221273
440.456580	2543.965356
440.832429	2544.691283
441.208218	2539.382948
441.583947	2544.658515
441.959616	2541.238092
442.335224	2543.680531
442.710773	2543.874616
443.086261	2543.957795
443.461689	2542.805891
443.837057	2543.927548
444.212365	2543.241951
444.587612	2541.482588
444.962800	2541.142310
445.337927	2542.052238
445.712995	2540.751621
446.088002	2543.965356
446.462949	2545.238248
446.837837	2546.574153
447.212664	2541.452341
447.587431	2542.148020
447.962139	2543.559543
448.336786	2545.525593
448.711374	2545.102137
449.085901	2545.644061
449.460369	2543.355377
449.834776	2542.795809
450.209124	2540.968390
450.583412	2544.650953
450.957640	2545.749925
451.331808	2544.151879
451.705917	2545.034081
452.079965	2545.815460
452.453954	2544.305634
452.827883	2546.233876
453.201752	2546.788402
453.575562	2548.288146
453.949311	2546.493495
454.323001	2546.180943
454.696632	2547.315203
455.070202	2546.599359
455.443713	2546.213711
455.817164	2546.826211
456.190556	2546.725388
456.563888	2550.037426
456.937160	2548.484751
457.310373	2548.441901
457.683526	2545.739842
458.056619	2548.089020
458.429653	2546.707744
458.802628	2548.323434
459.175542	2545.066848
459.548398	2548.608259
459.921194	2544.149358
460.293930	2546.972405
460.666607	2546.793444
461.039224	2545.540717
461.411782	2548.051212
461.784280	2547.819318
462.156719	2550.191181
462.529099	2545.875954
462.901419	2549.215718
463.273680	2546.745553
463.645882	2542.382434
464.018024	2545.112219
464.390106	2545.873433
464.762130	2548.315872
465.134094	2548.383928
465.505999	2544.988711
465.877845	2548.542724
466.249631	2549.465255
466.621358	2549.619010
466.993026	2549.828218
467.364634	2552.671429
467.736184	2549.074566
468.107674	2548.867878
468.479105	2547.758825
468.850477	2546.896787
469.221790	2549.684545
469.593043	2547.778989
469.964238	2548.346119
470.335373	2549.278732
470.706449	2551.259906
471.077467	2550.954916
471.448425	2546.208670
471.819324	2549.845862
472.190164	2550.506253
472.560945	2548.590615
472.931667	2550.591953
473.302330	2549.447611
473.672934	2550.554144
474.043479	2548.333516
474.413965	2547.463917
474.784393	2550.780996
475.154761	2551.252344
475.525070	2549.669422
475.895321	2548.711603
476.265513	2550.760832
476.635645	2551.174206
477.005719	2549.487940
477.375734	2550.032385
477.745691	2548.086500
478.115588	2551.632951
478.485427	2551.048177
478.855207	2553.407438
479.224928	2549.757642
479.594591	2553.309135
479.964194	2552.898281
480.333739	2551.206974
480.703226	2553.472973
481.072653	2552.860472
481.442022	2550.259237
481.811333	2551.920297
482.180584	2547.189174
482.549777	2548.754452
482.918912	2548.928372
483.287988	2552.089176
483.657005	2552.731923
484.025964	2552.510112
484.394864	2554.768549
484.763706	2554.798796
485.132489	2554.423230
485.501213	2555.045813
485.869879	2551.375852
486.238487	2552.973898
486.607036	2552.338713
486.975527	2554.657644
487.343959	2551.403579
487.712333	2554.536656
488.080648	2553.742674
488.448905	2554.944989
488.817104	2554.133364
489.185244	2554.234187
489.553326	2557.458005
489.921350	2553.334341
490.289315	2556.227963
490.657222	2554.738302
491.025070	2556.190154
491.392861	2554.539177
491.760593	2554.907181
492.128267	2558.554456
492.495883	2556.658982
492.863440	2554.045143
493.230939	2553.664536
493.598380	2555.733930
493.965763	2553.571275
494.333088	2555.917932
494.700354	2556.853066
495.067563	2557.190823
495.434713	2553.846018
495.801805	2556.807696
496.168839	2555.161759
496.535815	2555.262582
496.902733	2553.722510
497.269593	2555.076059
497.636395	2554.118240
498.003139	2553.472972
498.369825	2554.350133
498.736453	2555.504558
499.103023	2558.095711
499.469535	2556.963972
499.835989	2552.656306
500.202385	2552.810061
500.568723	2549.485420
500.935003	2552.941131
501.301226	2549.240924
501.667390	2555.842315
502.033497	2557.170659
502.399546	2559.131668
502.765537	2553.127653
503.131470	2556.903478
503.497345	2557.896585
503.863163	2552.719320
504.228923	2553.452808
504.594625	2557.987326
504.960269	2555.491955
505.325856	2555.996070
505.691385	2555.159238
506.056856	2555.948179
506.422270	2555.002963
506.787625	2556.081770
507.152924	2556.384239
507.518164	2555.897768
507.883347	2555.875082
508.248472	2558.035217
508.613540	2556.956410
508.978550	2556.800134
509.343503	2558.839281
509.708398	2557.034548
510.073236	2559.933211
510.438016	2555.779300
510.802738	2557.521019
511.167403	2557.498334
511.532010	2554.660164
511.896561	2557.004301
512.261053	2556.996739
512.625488	2557.054712
512.989866	2556.535473
513.354186	2559.018242
513.718449	2559.837429
514.082655	2560.419683
514.446803	2558.985474
514.810894	2559.696277
515.174927	2560.621329
515.538904	2561.720300
515.902822	2556.974054
516.266684	2557.379867
516.630488	2557.861297
516.994235	2561.080074
517.357925	2556.648899
517.721558	2559.900444
518.085133	2559.718962
518.448651	2556.575803
518.812112	2557.949517
519.175516	2557.689898
519.538863	2554.140925
519.902152	2556.684187
520.265385	2559.008159
520.628560	2556.868190
520.991678	2556.797613
521.354739	2558.814075
521.717743	2559.953376
522.080690	2560.701987
522.443580	2560.666699
522.806413	2563.315825
523.169189	2561.138047
523.531908	2563.434292
523.894569	2559.781977
524.257174	2560.986812
524.619722	2559.471946
524.982213	2563.076371
525.344647	2562.085784
525.707025	2561.513613
526.069345	2561.420352
526.431608	2561.251473
526.793815	2564.480332
527.155964	2563.202399
527.518057	2564.908830
527.880093	2564.122410
528.242072	2563.590568
528.603995	2563.588048
528.965860	2565.954869
529.327669	2564.543346
529.689421	2565.654921
530.051117	2565.632236
530.412755	2565.838923
530.774337	2566.491752
531.135862	2565.884293
531.497331	2566.910168
531.858743	2568.387226
532.220098	2569.329922
532.581396	2571.275807
532.942638	2567.981413
533.303824	2570.822103
533.664953	2571.235478
534.026025	2571.318657
534.387040	2570.048286
534.747999	2575.744790
535.108902	2572.704974
535.469748	2571.656414
535.830537	2575.918710
536.191270	2574.154306
536.551947	2573.322516
536.912567	2575.064234
537.273131	2575.787640
537.633638	2572.374779
537.994089	2578.530028
538.354483	2579.926427
538.714821	2581.726119
539.075103	2581.852148
539.435328	2582.973805
539.795497	2581.645461
540.155609	2581.612693
540.515665	2580.002045
540.875665	2582.056315
541.235609	2584.619742
541.595496	2583.707293
541.955328	2581.423650
542.315102	2584.884402
542.674821	2585.081007
543.034483	2584.836511
543.394090	2584.155955
543.753640	2588.952613
544.113134	2588.629979
544.472571	2586.074114
544.831953	2591.765577
545.191278	2590.835484
545.550548	2591.188365
545.909761	2592.037799
546.268918	2591.586616
546.628019	2592.166349
546.987064	2592.615012
547.346053	2592.032758
547.704986	2592.151225
548.063863	2593.766915
548.422684	2594.109714
548.781449	2593.232553
549.140158	2592.799014
549.498811	2595.952255
549.857408	2595.702718
550.215949	2595.395208
550.574434	2594.795311
550.932864	2596.708428
551.291237	2597.310846
551.649555	2599.808738
552.007817	2596.993254
552.366022	2599.488625
552.724173	2595.937132
553.082267	2598.258583
553.440305	2598.455188
553.798288	2598.976948
554.156215	2601.270673
554.514086	2595.669951
554.871902	2593.620722
555.229661	2596.332862
555.587365	2593.240115
555.945014	2599.826382
556.302606	2600.569952
556.660143	2601.898296
557.017625	2602.823348
557.375050	2604.212186
557.732421	2602.415015
558.089735	2600.564911
558.446994	2602.225971
558.804197	2603.622371
559.161345	2602.954418
559.518437	2598.944180
559.875474	2597.779674
560.232455	2598.553491
560.589381	2603.080447
560.946251	2600.706063
561.303065	2601.633636
561.659825	2603.715632
562.016528	2602.679675
562.373177	2603.647577
562.729770	2600.607761
563.086307	2602.225971
563.442789	2602.641867
563.799216	2603.292175
564.155587	2600.683378
564.511904	2603.450972
564.868164	2602.079778
565.224370	2602.120107
565.580520	2600.592637
565.936615	2605.661518
566.292654	2598.830754
566.648638	2599.115579
567.004567	2600.206989
567.360441	2601.311002
567.716260	2602.152875
568.072023	2601.184973
568.427732	2601.379057
568.783385	2599.851588
569.138982	2597.973758
569.494525	2599.123141
569.850013	2598.440065
570.205445	2599.428131
570.560823	2597.719180
570.916145	2600.514500
571.271412	2600.703543
571.626625	2600.774119
571.981782	2599.889397
572.336884	2597.204982
572.691931	2595.717842
573.046923	2592.977975
573.401860	2593.159456
573.756743	2598.223295
574.111570	2597.144488
574.466342	2598.437544
574.821059	2597.560383
575.175722	2592.070567
575.530330	2596.710949
575.884882	2597.222626
576.239380	2596.247163
576.593823	2597.199941
576.948211	2596.970568
577.302544	2594.255907
577.656823	2594.631473
578.011047	2596.811772
578.365216	2595.924529
578.719330	2596.947883
579.073389	2596.249683
579.427394	2595.992585
579.781344	2593.018304
580.135239	2595.790938
580.489080	2594.434868
580.842866	2592.655341
581.196597	2600.214551
581.550273	2592.383118
581.903895	2592.617532
582.257463	2596.516865
582.610975	2593.529981
582.964434	2593.903026
583.317837	2594.185331
583.671186	2592.136102
584.024481	2592.234404
584.377721	2593.673654
584.730906	2594.147522
585.084037	2592.746082
585.437113	2593.908067
585.790135	2592.834302
586.143103	2594.147522
586.496016	2593.076277
586.848874	2594.084508
587.201679	2594.795311
587.554428	2590.510330
587.907124	2591.707604
588.259765	2594.011411
588.612352	2594.142481
588.964884	2594.553335
589.317362	2594.051740
589.669786	2592.350351
590.022155	2590.928746
590.374470	2591.785742
590.726731	2591.435382
591.078937	2589.819692
591.431090	2594.155084
591.783188	2592.544435
592.135232	2593.787080
592.487222	2594.323963
592.839157	2593.787080
593.191038	2595.122986
593.542866	2591.911771
593.894639	2594.313880
594.246358	2596.526947
594.598022	2591.929415
594.949633	2591.942017
595.301190	2594.848243
595.652692	2592.229363
596.004141	2593.056112
596.355535	2590.646441
596.706876	2593.918150
597.058162	2593.598037
597.409395	2593.620722
597.760573	2596.108531
598.111698	2595.183479
598.462768	2595.914447
598.813785	2596.189190
599.164748	2595.261617
599.515657	2595.231370
599.866511	2597.131885
600.217312	2595.395208
600.568060	2592.642738
600.918753	2597.721700
601.269392	2597.169694
601.619978	2595.117944
601.970510	2598.011567
602.320988	2599.382761
602.671412	2599.332349
603.021783	2597.872935
603.372100	2598.596341
603.722363	2600.191866
604.072572	2601.621033
604.422728	2599.213882
604.772830	2600.259921
605.122878	2599.390322
605.472872	2604.035746
605.822813	2603.304778
606.172701	2602.450303
606.522534	2603.559357
606.872314	2602.967021
607.222041	2602.311671
607.571714	2603.942484
607.921333	2600.789242
608.270899	2606.153030
608.620411	2604.310488
608.969870	2608.968515
609.319276	2612.714092
609.668627	2614.717951
610.017926	2619.645678
610.367171	2626.138685
610.716362	2625.178345
611.065500	2623.209774
611.414585	2620.757253
611.763616	2624.371760
612.112594	2622.239352
612.461518	2618.029989
612.810389	2620.016203
613.159207	2618.594598
613.507971	2620.457304
613.856682	2622.872017
614.205340	2623.696246
614.553945	2624.505351
614.902496	2623.615587
615.250994	2626.310084
615.599439	2625.195989
615.947830	2625.876545
616.296169	2627.479632
616.644454	2629.342338
616.992686	2627.008284
617.340864	2632.861063
617.688990	2635.021198
618.037063	2637.113277
618.385082	2635.847947
618.733048	2638.575211
619.080961	2639.868267
619.428821	2643.802888
619.776628	2646.114257
620.124382	2645.824390
620.472083	2645.910090
620.819731	2652.115750
621.167326	2647.031747
621.514868	2648.740698
621.862357	2647.760193
622.209793	2648.556696
622.557176	2653.423930
622.904506	2649.461583
623.251783	2648.269350
623.599007	2650.646254
623.946179	2649.161634
624.293297	2652.430822
624.640363	2653.580206
624.987376	2649.456542
625.334336	2648.685245
625.681243	2652.934938
626.028097	2648.886891
626.374899	2655.836122
626.721647	2657.567758
627.068343	2657.272851
627.414987	2658.863335
627.761577	2663.602019
628.108115	2663.533964
628.454600	2663.717966
628.801032	2666.173008
629.147412	2667.786177
629.493739	2671.262053
629.840014	2672.812207
630.186236	2674.634585
630.532405	2676.502332
630.878521	2678.566685
631.224585	2682.312262
631.570597	2683.973322
631.916556	2687.350895
632.262462	2690.776359
632.608316	2696.283820
632.954117	2697.203830
633.299866	2703.122145
633.645562	2702.779347
633.991206	2703.653987
634.336797	2701.398070
634.682336	2706.240099
635.027823	2701.415714
635.373257	2705.274718
635.718639	2704.140458
636.063968	2706.998792
636.409245	2705.572146
636.754470	2710.484750
637.099642	2709.748742
637.444762	2708.944678
637.789829	2715.848538
638.134845	2716.090513
638.479808	2717.527242
638.824719	2720.105792
639.169577	2722.223077
639.514383	2724.020248
639.859137	2725.721638
640.203839	2730.561145
640.548489	2731.854201
640.893086	2737.291086
641.237632	2734.067268
641.582125	2747.295256
641.926566	2745.926582
642.270955	2745.687127
642.615292	2748.099320
642.959576	2754.007552
643.303809	2755.865217
643.647990	2763.094232
643.992118	2767.936260
644.336195	2767.555653
644.680219	2780.007303
645.024192	2788.347892
645.368112	2794.326700
645.711981	2800.416414
646.055797	2810.183650
646.399562	2818.446101
646.743274	2829.153512
647.086935	2853.898015
647.430544	2859.846577
647.774101	2868.164481
648.117606	2887.401524
648.461059	2885.793396
648.804460	2898.096332
649.147810	2897.342679
649.491108	2884.689383
649.834354	2897.927453
650.177548	2893.105589
650.520690	2894.348234
650.863781	2899.767474
651.206820	2897.481311
651.549807	2903.997002
651.892742	2905.418608
652.235626	2908.261818
652.578458	2913.973446
652.921238	2915.185843
653.263967	2926.659509
653.606644	2928.454160
653.949269	2927.007349
654.291843	2936.963628
654.634365	2944.353959
654.976836	2947.973508
655.319255	2954.355609
655.661622	2965.357927
656.003938	2968.513689
656.346203	2969.922692
656.688416	2981.807212
657.030577	2986.752584
657.372687	2989.477328
657.714746	2998.536281
658.056753	3006.755882
658.398708	3016.868437
658.740612	3020.477903
659.082465	3032.737989
659.424266	3033.957948
659.766016	3048.650391
660.107715	3055.594581
660.449362	3063.143709
660.790958	3082.214394
661.132503	3085.289497
661.473996	3099.235850
661.815438	3112.771348
662.156829	3117.958695
662.498168	3124.623100
662.839456	3137.160450
663.180693	3144.538179
663.521879	3162.499810
663.863013	3172.256963
664.204097	3184.128880
664.545129	3195.920139
664.886110	3203.985985
665.227040	3223.906105
665.567918	3237.917992
665.908746	3256.224942
666.249522	3252.963316
666.590248	3274.647839
666.930922	3300.715645
667.271545	3309.353663
667.612118	3328.825119
667.952639	3332.588341
668.293109	3343.227696
668.633528	3352.521063
668.973896	3357.446270
669.314213	3391.191754
669.654480	3363.052033
669.994695	3377.815052
670.334859	3393.649317
670.674973	3405.261614
671.015035	3422.749377
671.355047	3426.694080
671.695008	3428.955038
672.034918	3447.118315
672.374777	3469.170842
672.714585	3472.757623
673.054342	3493.978360
673.394049	3502.006398
673.733705	3516.527442
674.073310	3528.137219
674.412864	3553.446332
674.752368	3544.137841
675.091820	3541.813869
675.431223	3578.994899
675.770574	3555.825756
676.109875	3565.030903
676.449125	3569.394022
676.788324	3567.329669
677.127473	3565.028383
677.466571	3574.004157
677.805619	3578.793253
678.144616	3581.996907
678.483562	3601.720421
678.822458	3584.809870
679.161303	3590.733226
679.500098	3619.629120
679.838842	3618.469655
680.177535	3624.660192
680.516179	3643.425887
680.854771	3656.971467
681.193314	3698.243394
681.531805	3715.451372
681.870247	3808.692554
682.208638	3864.750185
682.546978	3940.246505
682.885268	3966.823468
683.223508	3921.480809
683.561697	3918.476282
683.899836	3924.576078
684.237925	3907.705857
684.575963	3910.375147
684.913951	3945.759006
685.251889	3917.712547
685.589776	3976.033656
685.927614	3987.063700
686.265401	3968.121565
686.603137	4013.121425
686.940824	4056.054411
687.278460	4090.558589
687.616046	4125.851707
687.953582	4177.198379
688.291068	4163.446112
688.628504	4217.598186
688.965889	4245.198504
689.303224	4270.288326
689.640510	4261.743571
689.977745	4209.711301
690.314930	4194.844938
690.652065	4196.324517
690.989150	4137.045589
691.326185	4118.892394
691.663170	4090.702262
692.000105	4048.994275
692.336990	4062.383580
692.673825	4011.251157
693.010610	4003.404601
693.347345	3971.962924
693.684030	3935.480094
694.020665	3942.157102
694.357251	3921.364863
694.693786	3942.436886
695.030272	3882.878174
695.366707	3894.901326
695.703093	3890.397055
696.039429	3900.005494
696.375716	3914.985283
696.711952	3874.847616
697.048139	3911.622833
697.384276	3913.949326
697.720363	3915.083585
698.056400	3910.831372
698.392388	3932.042027
698.728326	3927.489865
699.064214	3915.333122
699.400053	3959.032364
699.735842	3912.512597
700.071581	3913.656939
700.407270	3910.168460
700.742910	3904.749220
701.078501	3907.239550
701.414042	3879.024212
701.749533	3873.940208
702.084974	3846.213862
702.420366	3876.617061
702.755709	3871.286041
703.091002	3851.023123
703.426246	3863.003425
703.761440	3862.184237
704.096584	3859.630893
704.431679	3849.367104
704.766725	3867.898385
705.101721	3862.065770
705.436668	3875.573542
705.771565	3866.781770
706.106413	3895.425606
706.441212	3926.282508
706.775961	3912.893204
707.110661	3926.443825
707.445311	3990.731140
707.779913	3959.992704
708.114465	4011.311650
708.448967	4039.431207
708.783421	4063.658992
709.117825	4136.274293
709.452180	4154.830780
709.786485	4175.192000
710.120742	4280.093371
710.454949	4287.587046
710.789107	4309.695026
711.123216	4372.840519
711.457275	4452.894042
711.791286	4514.196993
712.125247	4494.276874
712.459159	4541.081467
712.793023	4606.109831
713.126837	4490.934589
713.460602	4545.263104
713.794318	4479.791118
714.127985	4539.634656
714.461602	4473.756857
714.795171	4443.270479
715.128691	4403.594078
715.462162	4330.124302
715.795584	4349.847816
716.128957	4303.451557
716.462281	4227.448601
716.795556	4298.594405
717.128782	4230.185948
717.461960	4134.220022
717.795088	4177.742824
718.128167	4165.374353
718.461198	4120.387096
718.794180	4106.208851
719.127113	4137.373264
719.459997	4093.789968
719.792833	4009.106146
720.125619	4050.362949
720.458357	3996.657016
720.791046	4003.868387
721.123686	4042.715518
721.456278	3983.194615
721.788821	3988.225686
722.121315	3957.893064
722.453761	3999.328828
722.786158	3999.888396
723.118506	3997.750947
723.450805	3999.424610
723.783056	4028.292777
724.115259	3989.594360
724.447412	4005.355527
724.779518	4015.614275
725.111574	4022.301366
725.443582	4067.825506
725.775542	4054.907549
726.107453	4130.136688
726.439315	4112.782516
726.771129	4117.548927
727.102895	4183.441848
727.434612	4240.371599
727.766281	4244.666662
728.097901	4285.716778
728.429473	4280.186632
728.760996	4286.672076
729.092471	4290.813384
729.423897	4296.409065
729.755276	4328.276719
730.086606	4306.262000
730.417887	4332.788552
730.749120	4402.026279
731.080305	4511.648690
731.411442	4552.524886
731.742530	4541.386457
732.073570	4634.897340
732.404562	4676.123896
732.735506	4572.598761
733.066401	4664.173841
733.397249	4644.818331
733.728048	4564.033840
734.058798	4450.381027
734.389501	4398.452101
734.720156	4336.156043
735.050762	4228.660998
735.381320	4189.460986
735.711831	4196.206050
736.042293	4157.800019
736.372707	4187.736912
736.703073	4125.665184
737.033391	4135.389570
737.363661	4146.764934
737.693883	4160.537366
738.024056	4210.737176
738.354182	4234.801124
738.684260	4239.189448
739.014290	4291.350267
739.344272	4342.230633
739.674207	4339.178214
740.004093	4374.564594
740.333931	4391.386924
740.663722	4396.995208
740.993464	4460.488540
741.323159	4488.303107
741.652806	4330.633458
741.982405	4334.573120
742.311956	4434.430816
742.641460	4366.813820
742.970915	4256.949433
743.300323	4297.046771
743.629683	4274.641363
743.958996	4216.350501
744.288260	4186.489226
744.617477	4183.489739
744.946647	4203.528326
745.275768	4114.199080
745.604842	4115.761838
745.933869	4109.049541
746.262847	4083.415274
746.591778	4096.187037
746.920662	4085.882919
747.249498	4081.207248
747.578286	4108.605920
747.907027	4159.042664
748.235720	4186.907642
748.564365	4150.276097
748.892963	4160.000483
749.221514	4277.431641
749.550017	4202.449519
749.878473	4122.247282
750.206881	4179.645860
750.535242	4152.794154
750.863555	4115.421560
751.191821	4151.332219
751.520039	4157.918487
751.848210	4106.486114
752.176334	4110.781178
752.504411	4169.215712
752.832440	4127.858086
753.160421	4057.168506
753.488356	4109.904017
753.816243	4164.260258
754.144082	4065.012542
754.471875	4039.184190
754.799620	4081.461827
755.127318	4095.325000
755.454969	4061.161100
755.782572	4043.368348
756.110129	4086.213114
756.437638	4101.220629
756.765100	4050.161302
757.092515	4046.972773
757.419882	4082.349070
757.747203	4077.441507
758.074477	4127.953868
758.401703	4126.403713
758.728882	4077.897731
759.056014	4106.687761
759.383099	4211.369841
759.710138	4204.700394
760.037129	4179.744162
760.364073	4183.129297
760.690970	4254.272581
761.017820	4263.752470
761.344623	4202.084035
761.671379	4267.873614
761.998088	4345.310778
762.324751	4460.715392
762.651366	4759.184467
762.977935	5384.378285
763.304456	6161.860319
763.630931	6613.799762
763.957359	6475.067208
764.283740	6105.532987
764.610074	5773.444457
764.936362	5244.350155
765.262602	4915.785391
765.588796	4622.833859
765.914943	4429.523253
766.241044	4376.707084
766.567097	4285.568064
766.893104	4123.242910
767.219064	4020.673073
767.544978	4014.023791
767.870845	3982.272084
768.196665	3912.840272
768.522438	3866.020555
768.848165	3862.138867
769.173846	3841.195393
769.499479	3817.570026
769.825066	3782.226496
770.150607	3757.534925
770.476101	3745.408429
770.801548	3756.062908
771.126949	3720.961353
771.452303	3689.960778
771.777611	3667.358765
772.102872	3681.726053
772.428087	3666.335410
772.753256	3652.852844
773.078378	3632.973054
773.403453	3592.933690
773.728482	3590.060232
774.053465	3564.811613
774.378401	3558.467321
774.703291	3575.960125
775.028135	3530.849360
775.352932	3485.471413
775.677683	3481.783809
776.002388	3508.403622
776.327046	3525.122609
776.651658	3465.067343
776.976224	3419.384407
777.300743	3433.421500
777.625216	3455.506795
777.949643	3463.721355
778.274024	3426.094183
778.598359	3393.155283
778.922647	3406.776481
779.246889	3412.765372
779.571086	3415.248140
779.895236	3407.933426
780.219339	3389.248389
780.543397	3375.775906
780.867409	3415.054056
781.191374	3431.750357
781.515294	3394.082856
781.839167	3393.054460
782.162995	3408.177922
782.486776	3399.713825
782.810511	3409.239085
783.134201	3422.865324
783.457844	3394.564286
783.781441	3352.095085
784.104993	3359.795448
784.428498	3376.698437
784.751958	3392.472207
785.075372	3370.510420
785.398739	3340.412211
785.722061	3350.408819
786.045337	3384.464334
786.368568	3418.915580
786.691752	3350.897811
787.014891	3379.445866
787.337983	3455.746250
787.661030	3544.747821
787.984031	3635.919609
788.306987	3745.889859
788.629897	3792.311324
788.952760	3772.139147
789.275579	3749.741301
789.598351	3735.489959
789.921078	3661.609329
790.243759	3519.957947
790.566395	3505.807428
790.888984	3522.665046
791.211529	3443.909620
791.534027	3406.771440
791.856480	3417.783841
792.178888	3365.854915
792.501249	3326.576765
792.823566	3334.380471
793.145836	3365.807024
793.468062	3333.868794
793.790241	3296.667599
794.112375	3318.730209
794.434464	3364.995398
794.756507	3386.856362
795.078505	3370.530585
795.400457	3372.688199
795.722364	3458.647434
796.044226	3520.940972
796.366042	3566.848239
796.687812	3571.322263
797.009538	3582.846341
797.331218	3547.880898
797.652852	3532.666696
797.974442	3530.410779
798.295986	3543.217831
798.617484	3493.491889
798.938938	3427.828340
799.260346	3461.505768
799.581709	3467.461891
799.903026	3418.056063
800.224299	3392.134450
800.545526	3395.542270
800.866708	3367.394987
801.187845	3312.544713
801.508936	3349.526618
801.829983	3357.864686
802.150984	3291.608801
802.471940	3283.056483
802.792851	3296.244142
803.113717	3298.671458
803.434538	3306.573466
803.755314	3262.538987
804.076045	3235.069740
804.396731	3249.868047
804.717372	3275.741769
805.037967	3266.902106
805.358518	3254.387442
805.679024	3271.088784
805.999485	3277.208745
806.319901	3276.654218
806.640272	3292.148204
806.960598	3308.012716
807.280879	3282.164199
807.601115	3288.266516
807.921306	3303.747899
808.241453	3338.993127
808.561554	3331.053309
808.881611	3274.685648
809.201623	3300.372847
809.521590	3319.178871
809.841513	3295.520736
810.161390	3326.143225
810.481223	3315.960095
810.801011	3267.822117
811.120755	3257.460025
811.440453	3295.097279
811.760107	3306.870894
812.079716	3275.925771
812.399281	3245.512490
812.718801	3262.896909
813.038276	3247.160947
813.357707	3248.595156
813.677093	3269.795728
813.996434	3230.288206
814.315731	3234.484966
814.634983	3233.970768
814.954191	3247.254209
815.273354	3275.691358
815.592473	3279.268056
815.911547	3272.187756
816.230577	3298.784883
816.549562	3339.358610
816.868502	3378.425032
817.187399	3401.795821
817.506250	3396.505130
817.825058	3370.951521
818.143821	3446.740228
818.462539	3537.733055
818.781213	3572.322932
819.099843	3605.644959
819.418429	3771.372892
819.736970	3944.344963
820.055466	4117.932054
820.373919	4407.957197
820.692327	4735.087752
821.010691	5027.099109
821.329011	5948.526250
821.647286	7652.448853
821.965517	10224.768179
822.283704	12406.088052
822.601847	13901.816042
822.919945	13275.298921
823.237999	12085.662231
823.556010	10661.934520
823.873976	9405.149661
824.191897	7935.955784
824.509775	6916.594147
824.827609	6095.644764
825.145398	5678.065826
825.463144	5603.192088
825.780845	5690.618299
826.098502	5754.328401
826.416116	6285.373630
826.733685	7167.149575
827.051210	8025.698405
827.368692	8208.457876
827.686129	7394.094760
828.003522	6294.309075
828.320872	5553.267021
828.638177	5043.346748
828.955439	4623.295124
829.272656	4229.971698
829.589830	3990.547138
829.906960	3860.689535
830.224046	3714.327195
830.541088	3617.963019
830.858086	3587.970674
831.175041	3532.482693
831.491952	3514.495857
831.808819	3526.617311
832.125642	3580.114036
832.442421	3694.701983
832.759157	3898.097417
833.075849	4291.851862
833.392497	4907.888424
833.709101	5441.958344
834.025662	5741.816257
834.342179	5565.146500
834.658653	5094.789203
834.975083	4611.758444
835.291469	4165.283612
835.607811	3831.465966
835.924110	3723.257599
836.240366	3563.836150
836.556578	3391.017834
836.872746	3302.661531
837.188871	3282.144035
837.504952	3232.541601
837.820990	3159.928821
838.136984	3117.434415
838.452935	3139.204638
838.768842	3138.176242
839.084706	3157.136022
839.400526	3266.758433
839.716303	3498.230574
840.032037	3875.092112
840.347727	4122.511943
840.663373	3962.868682
840.978977	3673.849250
841.294537	3432.181376
841.610054	3240.126017
841.925527	3147.900628
842.240957	3092.536156
842.556344	3051.672563
842.871687	3002.216323
843.186987	2961.796352
843.502244	2929.895930
843.817458	2902.819893
844.132629	2874.423073
844.447756	2881.702499
844.762840	2874.196221
845.077881	2845.277642
845.392879	2830.522185
845.707833	2827.578151
846.022745	2825.846515
846.337613	2828.558656
846.652438	2819.179589
846.967221	2816.860658
847.281960	2807.854637
847.596656	2802.523617
847.911309	2799.297278
848.225919	2793.595733
848.540485	2788.078190
848.855009	2794.467853
849.169490	2787.574075
849.483928	2776.944802
849.798323	2772.891714
850.112675	2770.056065
850.426984	2780.581994
850.741251	2780.892025
851.055474	2771.621343
851.369654	2767.391815
851.683792	2771.898607
851.997887	2777.466561
852.311938	2777.471602
852.625947	2774.315840
852.939914	2775.621499
853.253837	2780.511418
853.567718	2765.415683
853.881555	2760.608943
854.195350	2774.469595
854.509103	2771.938936
854.822812	2769.831734
855.136479	2767.994233
855.450103	2767.888369
855.763685	2757.541401
856.077224	2757.740526
856.390720	2770.197217
856.704173	2779.722478
857.017584	2770.789553
857.330953	2768.004316
857.644278	2775.371962
857.957561	2786.122222
858.270802	2783.586522
858.584000	2788.967954
858.897155	2779.215842
859.210268	2776.438166
859.523339	2773.988165
859.836367	2774.656118
860.149352	2770.129162
860.462295	2763.699170
860.775195	2775.220727
861.088054	2773.579832
861.400869	2760.465270
861.713642	2753.435381
862.026373	2767.681682
862.339062	2770.635798
862.651708	2774.676283
862.964312	2778.966305
863.276873	2771.268463
863.589392	2780.665173
863.901869	2786.722120
864.214303	2802.321970
864.526696	2821.412820
864.839045	2820.422233
865.151353	2816.941317
865.463619	2818.060453
865.775842	2816.159938
866.088023	2832.382371
866.400162	2840.985100
866.712258	2817.962150
867.024313	2807.763896
867.336325	2811.315389
867.648296	2831.333811
867.960224	2821.753098
868.272110	2814.025009
868.583954	2821.122954
868.895755	2835.628874
869.207515	2822.317707
869.519233	2820.296204
869.830909	2828.341886
870.142542	2841.579956
870.454134	2843.518280
870.765684	2846.636233
871.077191	2843.377127
871.388657	2848.912314
871.700081	2860.738861
872.011463	2870.075078
872.322803	2871.542054
872.634101	2869.588607
872.945357	2882.612428
873.256571	2902.683782
873.567744	2899.230591
873.878874	2886.970505
874.189963	2909.237282
874.501010	2914.621234
874.812015	2905.257291
875.122979	2911.283990
875.433900	2904.735531
875.744780	2907.240985
876.055618	2914.069228
876.366415	2912.481264
876.677169	2924.895106
876.987882	2926.057092
877.298554	2915.921852
877.609183	2931.698143
877.919771	2954.174127
878.230317	2980.839310
878.540822	3026.862524
878.851285	3061.160015
879.161707	3088.901484
879.472087	3173.066068
879.782425	3354.751773
880.092722	3720.429512
880.402977	4147.816014
880.713191	4598.331331
881.023363	5385.368872
881.333494	6285.834895
881.643583	6707.010696
881.953631	6584.493014
882.263637	6239.063070
882.573602	5865.546338
882.883526	5427.999389
883.193408	4957.695024
883.503248	4550.316861
883.813048	4313.004543
884.122806	4090.288887
884.432522	3825.396417
884.742197	3627.657157
885.051831	3459.726241
885.361424	3337.750482
885.670975	3276.989455
885.980485	3206.506562
886.289954	3143.829897
886.599382	3108.244392
886.908768	3074.521593
887.218113	3035.220757
887.527417	2990.379694
887.836680	2947.081224
888.145901	2942.234154
888.455082	2940.777261
888.764221	2895.371588
889.073319	2866.939480
889.382376	2867.841847
889.691392	2867.577186
890.000366	2867.793956
890.309300	2856.431195
890.618193	2868.363606
890.927044	2888.379508
891.235855	2885.790875
891.544625	2869.538195
891.853353	2880.106974
892.162041	2893.768501
892.470687	2924.988367
892.779293	2971.334215
893.087858	3009.818383
893.396381	3067.257290
893.704864	3164.475942
894.013306	3356.276723
894.321707	3605.576904
894.630068	3794.738640
894.938387	3802.791883
895.246665	3768.108745
895.554903	3675.754806
895.863100	3501.489680
896.171256	3361.169162
896.479371	3242.901172
896.787446	3142.647746
897.095480	3054.377142
897.403473	2993.653923
897.711425	2956.714869
898.019336	2950.370577
898.327207	2928.925508
898.635038	2899.258318
898.942827	2881.793240
899.250576	2876.081613
899.558284	2843.641788
899.865952	2825.901967
900.173579	2812.926037
900.481165	2808.562919
900.788711	2798.586475
901.096216	2775.256015
901.403681	2760.790424
901.711105	2768.500869
902.018489	2767.628750
902.325832	2765.513986
902.633135	2773.237033
902.940397	2799.829120
903.247619	2862.967051
903.554800	3020.359436
903.861941	3296.367650
904.169041	3654.728154
904.476101	3929.720575
904.783121	3918.773710
905.090100	3720.346333
905.397039	3490.336127
905.703938	3269.336983
906.010796	3109.280349
906.317614	3012.827952
906.624391	2932.252670
906.931129	2870.357383
907.237826	2817.150524
907.544483	2774.310799
907.851099	2748.404309
908.157675	2726.752554
908.464211	2711.414843
908.770707	2699.426979
909.077163	2688.921215
909.383578	2676.018381
909.689954	2665.376506
909.996289	2665.467246
910.302584	2667.203924
910.608839	2667.592093
910.915054	2663.581855
911.221229	2655.516009
911.527363	2658.079435
911.833458	2662.422389
912.139513	2666.621671
912.445527	2666.795590
912.751502	2675.418484
913.057436	2686.309897
913.363331	2695.573017
913.669186	2713.438866
913.975000	2739.166395
914.280775	2790.165228
914.586510	2851.001872
914.892205	2916.524270
915.197859	3017.188550
915.503475	3174.860719
915.809050	3348.770444
916.114585	3474.214517
916.420081	3508.877491
916.725536	3468.094556
917.030952	3374.127448
917.336328	3262.566714
917.641665	3149.501195
917.946961	3058.566341
918.252218	3003.847137
918.557435	2939.920265
918.862612	2888.283726
919.167750	2845.333095
919.472848	2809.127528
919.777906	2783.339506
920.082925	2761.652462
920.387904	2741.303844
920.692843	2723.921946
920.997743	2715.946840
921.302603	2706.494677
921.607423	2693.327183
921.912204	2683.169258
922.216946	2674.291786
922.521647	2668.002947
922.826310	2661.623367
923.130932	2654.132212
923.435516	2646.802374
923.740059	2640.828607
924.044564	2633.357617
924.349028	2627.734210
924.653454	2622.267078
924.957840	2616.951182
925.262186	2613.515635
925.566493	2610.009513
925.870761	2604.849892
926.174989	2603.241764
926.479178	2597.749427
926.783328	2593.146853
927.087438	2591.536205
927.391509	2591.574013
927.695541	2587.399938
927.999533	2583.167889
928.303486	2582.845255
928.607400	2582.331058
928.911275	2583.787951
929.215110	2582.656212
929.518906	2579.145048
929.822663	2582.472210
930.126381	2577.302507
930.430060	2579.306365
930.733699	2580.985070
931.037299	2583.674525
931.340861	2580.339802
931.644383	2583.679566
931.947866	2581.526994
932.251309	2578.895511
932.554714	2580.957343
932.858080	2579.709658
933.161407	2575.656570
933.464694	2575.775037
933.767943	2569.899572
934.071153	2575.989286
934.374323	2574.396282
934.677455	2575.994327
934.980548	2574.776889
935.283602	2573.970304
935.586617	2572.026939
935.889593	2571.026270
936.192530	2572.475602
936.495428	2573.972825
936.798287	2573.564491
937.101108	2576.997517
937.403890	2580.617065
937.706632	2588.284660
938.009336	2591.460587
938.312002	2599.695312
938.614628	2608.822321
938.917216	2612.242744
939.219765	2616.787344
939.522275	2615.005296
939.824747	2611.461365
940.127179	2609.921293
940.429573	2605.802670
940.731929	2606.498349
941.034246	2598.550970
941.336524	2598.750096
941.638763	2595.808582
941.940964	2591.568972
942.243126	2591.485793
942.545250	2592.751123
942.847335	2591.130392
943.149381	2585.421285
943.451389	2584.329875
943.753359	2581.514391
944.055290	2578.308217
944.357182	2576.679924
944.659036	2576.437949
944.960851	2579.011458
945.262628	2573.952660
945.564367	2577.438618
945.866067	2576.722774
946.167729	2578.537589
946.469352	2576.896694
946.770937	2578.530028
947.072484	2575.971642
947.373992	2577.090778
947.675462	2572.528534
947.976893	2569.143399
948.278286	2565.158367
948.579641	2571.230437
948.880958	2561.768191
949.182236	2569.947463
949.483476	2565.513768
949.784678	2568.115004
950.085841	2571.016188
950.386967	2568.576269
950.688054	2569.219017
950.989103	2570.416291
951.290114	2568.523337
951.591087	2573.456106
951.892021	2573.433421
952.192917	2576.924420
952.493776	2579.835687
952.794596	2580.725450
953.095378	2578.950964
953.396122	2580.181006
953.696828	2577.834348
953.997496	2576.057342
954.298126	2574.640777
954.598718	2573.793864
954.899272	2571.215313
955.199788	2569.917216
955.500266	2566.063254
955.800706	2561.879097
956.101108	2562.922615
956.401472	2560.961607
956.701798	2559.822306
957.002087	2553.941800
957.302337	2558.940104
957.602550	2556.832902
957.902724	2553.629248
958.202861	2553.291491
958.502960	2551.199412
958.803022	2552.484906
959.103045	2552.111861
959.403031	2551.194371
959.702979	2548.953578
960.002889	2550.574309
960.302762	2549.611449
960.602596	2550.047508
960.902393	2549.916438
961.202153	2546.869061
961.501875	2546.627086
961.801559	2545.848227
962.101205	2546.657333
962.400814	2548.671273
962.700385	2547.171530
962.999918	2543.887218
963.299414	2541.230530
963.598873	2545.311344
963.898293	2541.774975
964.197677	2547.048022
964.497022	2544.855120
964.796331	2546.022147
965.095601	2543.809081
965.394835	2548.595656
965.694030	2545.964174
965.993189	2542.798329
966.292309	2545.891077
966.591393	2544.144317
966.890439	2545.127342
967.189447	2546.785882
967.488419	2544.509801
967.787353	2543.030222
968.086249	2545.240768
968.385108	2548.414175
968.683930	2544.865202
968.982714	2546.899308
969.281462	2544.131714
969.580172	2546.964843
969.878844	2546.049873
970.177480	2546.120450
970.476078	2544.320758
970.774639	2547.204298
971.073162	2545.916283
971.371649	2547.388300
971.670098	2544.842517
971.968510	2547.042981
972.266885	2545.966694
972.565223	2550.544062
972.863524	2547.504246
973.161788	2549.195553
973.460014	2548.590615
973.758204	2544.822352
974.056356	2544.590459
974.354471	2546.090203
974.652550	2546.622044
974.950591	2547.070707
975.248595	2545.762528
975.546563	2545.379400
975.844493	2547.055584
976.142386	2546.269164
976.440243	2547.998279
976.738062	2545.921324
977.035845	2546.304452
977.333590	2547.063145
977.631299	2543.778834
977.928971	2540.184491
978.226606	2540.123997
978.524204	2542.306817
978.821765	2537.873122
979.119290	2545.152548
979.416777	2544.338402
979.714228	2545.704554
980.011642	2545.855789
980.309020	2545.878474
980.606360	2543.259595
980.903664	2546.690100
981.200931	2544.043494
981.498162	2548.288146
981.795356	2543.181457
982.092513	2547.468958
982.389633	2549.558517
982.686717	2553.160421
982.983764	2553.735113
983.280775	2560.926318
983.577749	2560.528067
983.874686	2560.833057
984.171587	2556.923642
984.468451	2554.130843
984.765279	2550.836449
985.062070	2552.699155
985.358824	2552.242931
985.655543	2550.176058
985.952224	2547.320244
986.248869	2550.518856
986.545478	2547.327806
986.842050	2543.602393
987.138586	2545.480223
987.435086	2544.071221
987.731549	2543.393185
988.027975	2545.518032
988.324366	2540.060983
988.620719	2542.079965
988.917037	2543.877136
989.213318	2545.820501
989.509563	2542.929399
989.805772	2545.480223
990.101944	2544.550130
990.398080	2543.115922
990.694180	2541.734646
990.990244	2542.994934
991.286271	2544.991231
991.582262	2539.652649
991.878217	2543.446118
992.174136	2540.877650
992.470019	2543.524255
992.765865	2540.625592
993.061676	2538.387320
993.357450	2541.167516
993.653188	2538.057124
993.948890	2542.435366
994.244556	2542.276570
994.540186	2543.879657
994.835780	2544.782023
995.131337	2543.168854
995.426859	2545.361756
995.722345	2546.974925
996.017795	2544.933258
996.313208	2549.366953
996.608586	2546.483413
996.903928	2547.804195
997.199234	2547.668084
997.494504	2549.475338
997.789738	2545.752445
998.084936	2546.952240
998.380099	2546.833773
998.675225	2541.709440
998.970316	2546.337219
999.265371	2545.059287
999.560390	2543.468803
999.855373	2545.961653
1000.150320	2541.918648
1000.445232	2544.224976
1000.740108	2541.986703
1001.034948	2543.085675
1001.329752	2542.009389
1001.624521	2541.991745
1001.919254	2541.553164
1002.213951	2542.309337
1002.508613	2542.737835
1002.803239	2542.150541
1003.097829	2540.592824
1003.392384	2539.861857
1003.686903	2541.366642
1003.981386	2543.849410
1004.275834	2540.605427
1004.570246	2542.168185
1004.864623	2542.405119
1005.158964	2541.780016
1005.453270	2542.127856
1005.747540	2540.917979
1006.041775	2540.388658
1006.335974	2540.093750
1006.630138	2539.934954
1006.924266	2541.684234
1007.218359	2540.754141
1007.512416	2539.367824
1007.806438	2537.094264
1008.100425	2539.551826
1008.394376	2537.348842
1008.688292	2541.101981
1008.982172	2541.044008
1009.276017	2544.756817
1009.569827	2542.190870
1009.863602	2539.070396
1010.157341	2540.113915
1010.451045	2540.368493
1010.744714	2542.463092
1011.038347	2540.862526
1011.331945	2541.449821
1011.625508	2543.115922
1011.919036	2542.344625
1012.212528	2539.133410
1012.505986	2544.789585
1012.799408	2540.814635
1013.092795	2540.938143
1013.386147	2541.054090
1013.679464	2540.701209
1013.972745	2542.841179
1014.265992	2540.113915
1014.559204	2544.812270
1014.852380	2543.471323
1015.145521	2541.185160
1015.438628	2541.840510
1015.731699	2542.710109
1016.024736	2539.577032
1016.317737	2536.711136
1016.610703	2538.765406
1016.903635	2543.531817
1017.196531	2542.853782
1017.489393	2541.318751
1017.782219	2539.468647
1018.075011	2542.548792
1018.367768	2541.774975
1018.660490	2539.695499
1018.953177	2539.695499
1019.245829	2539.695499
