Dividing Wavelength (nm)	Counts (n)	Blue Motor Position (mm): 25.800000	Red Motor Position (mm): 0.000000	
326.493990	2200.078006
326.888308	2200.078006
327.282561	2200.078006
327.676750	2160.603250
328.070874	2158.112920
328.464933	2159.342962
328.858929	2161.598878
329.252859	2167.633139
329.646726	2177.349963
330.040528	2188.811027
330.434265	2199.974662
330.827938	2216.638196
331.221547	2234.365413
331.615091	2250.605491
332.008571	2270.626433
332.401986	2290.065122
332.795338	2306.156485
333.188625	2328.488797
333.581847	2344.161744
333.975006	2365.775691
334.368100	2381.884698
334.761129	2402.976886
335.154095	2418.773342
335.546996	2445.098247
335.939833	2479.415902
336.332606	2495.897954
336.725315	2507.311127
337.117960	2521.905267
337.510540	2530.485311
337.903056	2541.948895
338.295508	2554.508930
338.687896	2564.041752
339.080220	2568.399829
339.472480	2576.425346
339.864676	2582.046232
340.256807	2585.927921
340.648875	2589.416399
341.040879	2593.209868
341.432818	2594.906216
341.824694	2599.894438
342.216506	2599.148347
342.608253	2600.436362
342.999937	2598.462750
343.391557	2603.186311
343.783113	2601.134562
344.174605	2598.767740
344.566033	2598.452668
344.957397	2597.620877
345.348697	2596.179107
345.739934	2592.920001
346.131106	2590.654003
346.522215	2589.192068
346.913260	2588.977819
347.304241	2588.292222
347.695159	2586.197623
348.086012	2584.047571
348.476802	2581.577405
348.867528	2577.451221
349.258191	2573.992989
349.648789	2573.193966
350.039324	2569.415622
350.429796	2575.568350
350.820203	2570.796898
351.210548	2570.081054
351.600828	2571.653894
351.991045	2568.271280
352.381198	2567.300857
352.771288	2566.645507
353.161314	2566.481670
353.551276	2567.510065
353.941175	2566.539643
354.331010	2566.262380
354.720782	2565.493604
355.110490	2566.093501
355.500135	2566.274983
355.889717	2563.716597
356.279235	2565.649880
356.668689	2567.111814
357.058080	2566.274983
357.447408	2565.639797
357.836672	2564.487894
358.225873	2564.192986
358.615010	2568.175498
359.004084	2569.700447
359.393095	2566.040569
359.782043	2570.101218
360.170927	2567.225240
360.559748	2569.254305
360.948505	2573.052814
361.337199	2570.990982
361.725830	2570.262535
362.114398	2573.567012
362.502903	2571.437124
362.891344	2572.886456
363.279722	2572.425190
363.668037	2573.970304
364.056289	2575.341498
364.444478	2577.297466
364.832603	2577.965418
365.220665	2573.766137
365.608665	2578.230079
365.996601	2576.125397
366.384474	2577.352918
366.772284	2577.229410
367.160031	2578.837538
367.547715	2579.346695
367.935336	2579.873495
368.322893	2577.884760
368.710388	2576.039698
369.097820	2575.396951
369.485189	2575.825449
369.872495	2580.057497
370.259738	2580.032292
370.646918	2582.245358
371.034035	2580.780903
371.421090	2579.006417
371.808081	2580.579257
372.195010	2582.610842
372.581875	2581.106057
372.968678	2581.703434
373.355418	2581.446335
373.742096	2583.361974
374.128710	2581.428691
374.515262	2586.565627
374.901751	2581.894998
375.288177	2583.119998
375.674540	2584.332396
376.060841	2585.091089
376.447079	2584.970102
376.833254	2585.617890
377.219367	2585.028075
377.605417	2585.229721
377.991404	2588.861873
378.377329	2586.827767
378.763191	2587.480596
379.148991	2586.674012
379.534727	2585.136460
379.920402	2586.976481
380.306013	2586.058991
380.691563	2585.214598
381.077049	2586.361460
381.462474	2589.297932
381.847835	2586.686615
382.233134	2588.957654
382.618371	2588.866914
383.003545	2588.292222
383.388657	2591.062336
383.773706	2590.464959
384.158693	2591.616863
384.543618	2588.733323
384.928480	2588.899681
385.313280	2591.823550
385.698017	2591.342120
386.082692	2585.958168
386.467305	2591.604260
386.851856	2593.482090
387.236344	2592.310022
387.620770	2589.907912
388.005133	2587.178127
388.389435	2592.206678
388.773674	2590.301122
389.157851	2596.095928
389.541965	2591.828592
389.926018	2590.354054
390.310008	2596.163984
390.693936	2596.123655
391.077802	2595.818665
391.461606	2596.337904
391.845348	2595.536360
392.229027	2595.614498
392.612645	2596.322780
392.996200	2596.718511
393.379694	2594.351689
393.763125	2597.504931
394.146494	2598.838316
394.529801	2596.635332
394.913047	2596.020311
395.296230	2598.172884
395.679351	2598.225816
396.062410	2597.804879
396.445408	2595.274220
396.828343	2598.888728
397.211217	2600.701022
397.594028	2600.761516
397.976778	2599.717997
398.359466	2598.732452
398.742092	2599.050044
399.124656	2599.889397
399.507158	2599.949890
399.889598	2600.824531
400.271977	2604.237392
400.654294	2603.153544
401.036549	2602.107504
401.418742	2604.655808
401.800874	2601.928543
402.182944	2602.684716
402.564952	2603.939964
402.946898	2605.757300
403.328783	2603.239243
403.710606	2604.733945
404.092367	2606.107660
404.474067	2605.767382
404.855705	2605.908534
405.237282	2606.193359
405.618797	2607.786364
406.000250	2607.075561
406.381642	2607.070520
406.762972	2604.529779
407.144240	2602.946856
407.525447	2605.288472
407.906593	2601.605909
408.287677	2607.768720
408.668700	2608.547578
409.049661	2608.290479
409.430560	2608.229986
409.811399	2610.138062
410.192176	2609.003803
410.572891	2611.017744
410.953545	2610.122939
411.334138	2609.228134
411.714669	2610.627054
412.095139	2610.064966
412.475547	2609.293669
412.855894	2609.883484
413.236180	2611.594956
413.616405	2610.758124
413.996568	2611.884822
414.376670	2611.879781
414.756711	2611.690738
415.136691	2613.873557
415.516609	2611.176540
415.896466	2613.694596
416.276262	2613.505553
416.655997	2612.288114
417.035670	2613.306427
417.415283	2613.954216
417.794834	2614.778444
418.174324	2614.072683
418.553753	2614.864144
418.933121	2613.132508
419.312428	2613.959257
419.691674	2617.057046
420.070859	2614.375152
420.449983	2616.129474
420.829045	2616.807509
421.208047	2616.462190
421.586988	2614.697786
421.965867	2621.276492
422.344686	2617.266254
422.723444	2617.712396
423.102141	2617.392283
423.480777	2619.194495
423.859352	2617.072169
424.237866	2617.329268
424.616319	2618.042592
424.994712	2620.938734
425.373044	2618.662653
425.751314	2621.480658
426.129524	2619.776748
426.507673	2617.588888
426.885762	2617.470421
427.263789	2621.604167
427.641756	2623.227418
428.019662	2621.470576
428.397508	2620.883282
428.775292	2622.632562
429.153016	2624.885958
429.530679	2623.633231
429.908282	2624.192799
430.285824	2628.203037
430.663305	2625.899230
431.040726	2623.718931
431.418086	2628.283696
431.795385	2627.996350
432.172624	2628.422327
432.549802	2627.840074
432.926920	2628.485342
433.303977	2628.986937
433.680974	2627.320835
434.057910	2631.578090
434.434786	2629.796042
434.811601	2632.177987
435.188355	2635.492546
435.565050	2634.464150
435.941683	2633.239150
436.318257	2636.319295
436.694770	2636.331898
437.071222	2636.755355
437.447614	2639.127217
437.823946	2641.652836
438.200218	2639.701909
438.576429	2640.556385
438.952580	2639.727115
439.328670	2643.560912
439.704700	2640.410191
440.080670	2642.527476
440.456580	2644.750625
440.832429	2647.301448
441.208218	2645.804226
441.583947	2648.148362
441.959616	2650.048877
442.335224	2652.173724
442.710773	2656.090700
443.086261	2658.313849
443.461689	2658.036586
443.837057	2663.080260
444.212365	2665.442041
444.587612	2663.967503
444.962800	2671.118380
445.337927	2673.911179
445.712995	2674.700120
446.088002	2692.341637
446.462949	2695.008408
446.837837	2701.783719
447.212664	2709.610110
447.587431	2725.951010
447.962139	2741.046745
448.336786	2788.002573
448.711374	2812.832776
449.085901	2797.043882
449.460369	2807.549647
449.834776	2818.357881
450.209124	2855.450691
450.583412	2894.501989
450.957640	2947.580298
451.331808	2951.270423
451.705917	2952.901236
452.079965	2962.476908
452.453954	3029.390663
452.827883	3052.637944
453.201752	3105.000409
453.575562	3124.693677
453.949311	3191.993080
454.323001	3241.643405
454.696632	3308.519352
455.070202	3382.994838
455.443713	3466.839309
455.817164	3570.528282
456.190556	3643.088129
456.563888	3756.302362
456.937160	3853.425233
457.310373	3857.314483
457.683526	3932.611677
458.056619	3963.834063
458.429653	4059.414340
458.802628	4080.650201
459.175542	4220.597673
459.548398	4448.477991
459.921194	4614.599134
460.293930	4732.917535
460.666607	5021.727760
461.039224	5350.970559
461.411782	5644.196834
461.784280	5749.682978
462.156719	5891.921654
462.529099	5918.256642
462.901419	5815.918698
463.273680	5883.316405
463.645882	5967.811184
464.018024	6024.193970
464.390106	6223.349793
464.762130	6580.913795
465.134094	6933.691220
465.505999	7708.995476
465.877845	8974.332653
466.249631	10149.165995
466.621358	10268.724520
466.993026	9983.460748
467.364634	9974.187545
467.736184	9687.406385
468.107674	9563.325945
468.479105	9790.261047
468.850477	9798.546183
469.221790	9801.212954
469.593043	9691.220018
469.964238	9670.705043
470.335373	9677.921454
470.706449	10045.897959
471.077467	9986.248506
471.448425	11023.521362
471.819324	13224.912588
472.190164	14560.586465
472.560945	13056.192731
472.931667	11947.043103
473.302330	11788.357662
473.672934	11659.475523
474.043479	12073.639079
474.413965	12148.580872
474.784393	12115.296654
475.154761	12699.846168
475.525070	12903.438208
475.895321	12837.361284
476.265513	13394.844843
476.635645	13923.298919
477.005719	13989.562366
477.375734	14293.339776
477.745691	14813.307069
478.115588	15303.589527
478.485427	15873.121445
478.855207	16753.445538
479.224928	18169.036826
479.594591	19985.624176
479.964194	20268.284193
480.333739	20759.587485
480.703226	20626.251486
481.072653	20599.377095
481.442022	21219.197043
481.811333	22077.884504
482.180584	22261.430395
482.549777	21696.231349
482.918912	21621.655040
483.287988	21878.506869
483.657005	21798.715486
484.025964	21717.139535
484.394864	21869.271475
484.763706	21780.325357
485.132489	21477.674645
485.501213	21721.106923
485.869879	21827.452584
486.238487	21734.067729
486.607036	22053.681924
486.975527	21868.389273
487.343959	22278.224999
487.712333	22382.773488
488.080648	22176.398732
488.448905	22706.564279
488.817104	22574.385226
489.185244	23270.727368
489.553326	23372.848542
489.921350	24314.152953
490.289315	26460.668699
490.657222	28274.904351
491.025070	28841.358644
491.392861	28758.807229
491.760593	28058.006186
492.128267	27326.038209
492.495883	26421.740909
492.863440	25649.657950
493.230939	24873.249682
493.598380	24786.965293
493.965763	24445.182624
494.333088	24075.769390
494.700354	24042.588516
495.067563	23977.524864
495.434713	23782.006232
495.801805	23938.256796
496.168839	23820.838240
496.535815	23668.678573
496.902733	23903.803030
497.269593	23602.500826
497.636395	23823.000895
498.003139	23827.144724
498.369825	23611.196817
498.736453	23819.615761
499.103023	23714.981571
499.469535	23756.041769
499.835989	23966.479696
500.202385	24011.736654
500.568723	23533.525239
500.935003	23818.058044
501.301226	23408.638214
501.667390	24239.470779
502.033497	24496.899821
502.399546	24238.739812
502.765537	23839.303987
503.131470	24224.977462
503.497345	24371.644792
503.863163	23588.002468
504.228923	24223.331525
504.594625	24409.334979
504.960269	23926.241206
505.325856	24423.346866
505.691385	23845.744061
506.056856	24445.006183
506.422270	24423.508183
506.787625	24037.398648
507.152924	24416.080042
507.518164	24444.693632
507.883347	24260.295786
508.248472	23966.716630
508.613540	24741.347892
508.978550	24510.936914
509.343503	24496.020140
509.708398	24791.736745
510.073236	24942.883140
510.438016	25150.286292
510.802738	24845.593912
511.167403	25080.892288
511.532010	24783.975888
511.896561	25564.921195
512.261053	25528.214034
512.625488	25370.279725
512.989866	25275.606856
513.354186	25125.687981
513.718449	25212.363060
514.082655	25596.685506
514.446803	25342.641599
514.810894	25781.423630
515.174927	25278.170282
515.538904	25316.591436
515.902822	25802.074716
516.266684	25555.579937
516.630488	25464.937471
516.994235	25457.877335
517.357925	25743.677990
517.721558	25924.892348
518.085133	26022.869693
518.448651	25937.906086
518.812112	25662.414590
519.175516	25844.894277
519.538863	26021.574117
519.902152	25793.507275
520.265385	26109.814473
520.628560	25884.028754
520.991678	25896.697174
521.354739	25977.136345
521.717743	26026.315322
522.080690	25817.919063
522.443580	26150.882233
522.806413	26158.275085
523.169189	26242.245585
523.531908	26301.199359
523.894569	25905.609934
524.257174	25970.925644
524.619722	26170.872929
524.982213	25853.050864
525.344647	25930.367041
525.707025	26043.316613
526.069345	26047.087396
526.431608	26002.752969
526.793815	26197.117176
527.155964	25645.793906
527.518057	25810.213659
527.880093	25728.070578
528.242072	25966.617978
528.603995	25673.641240
528.965860	25470.538193
529.327669	25523.871080
529.689421	25517.730954
530.051117	25344.290056
530.412755	25506.879871
530.774337	25324.576624
531.135862	25197.509300
531.497331	25396.324846
531.858743	24932.339567
532.220098	25428.557984
532.581396	25107.736432
532.942638	25051.888010
533.303824	25142.550641
533.664953	25173.158007
534.026025	24826.339225
534.387040	25068.488529
534.747999	25133.237109
535.108902	25286.031962
535.469748	24777.727378
535.830537	24978.380425
536.191270	25085.477218
536.551947	24974.997811
536.912567	24647.708459
537.273131	24953.754388
537.633638	24677.897409
537.994089	24869.395720
538.354483	24432.247023
538.714821	24933.620020
539.075103	24975.612831
539.435328	24766.364617
539.795497	24302.197857
540.155609	24719.234870
540.515665	25005.930331
540.875665	24252.045937
541.235609	24514.962275
541.595496	24492.352700
541.955328	24843.942934
542.315102	24770.967191
542.674821	24335.131715
543.034483	24208.054308
543.394090	24370.301324
543.753640	24158.593027
544.113134	24804.082531
544.472571	24398.887187
544.831953	24677.473952
545.191278	24284.813438
545.550548	24228.491146
545.909761	24443.014928
546.268918	24666.254864
546.628019	24626.979234
546.987064	24334.496529
547.346053	24098.691517
547.704986	24208.581109
548.063863	24379.705597
548.422684	24371.669998
548.781449	23933.792854
549.140158	24331.875129
549.498811	23900.614500
549.857408	23638.721517
550.215949	24078.078239
550.574434	23748.530450
550.932864	23978.870852
551.291237	24121.306133
551.649555	23994.745445
552.007817	24044.481469
552.366022	23913.396346
552.724173	23963.820487
553.082267	23894.751638
553.440305	24360.665159
553.798288	23642.215036
554.156215	24167.062166
554.514086	24244.723662
554.871902	23614.415593
555.229661	23903.624069
555.587365	23766.844962
555.945014	23600.055867
556.302606	23886.615216
556.660143	23816.911182
557.017625	24073.914246
557.375050	23607.552062
557.732421	23994.397606
558.089735	23810.221570
558.446994	23868.590570
558.804197	23882.302509
559.161345	23841.864893
559.518437	23572.183327
559.875474	23774.177320
560.232455	23950.741213
560.589381	23801.639006
560.946251	23758.900104
561.303065	24096.909469
561.659825	24173.759339
562.016528	23788.249701
562.373177	23524.801522
562.729770	23871.020406
563.086307	23745.193206
563.442789	23921.865484
563.799216	23737.379418
564.155587	23756.291307
564.511904	23734.884047
564.868164	23668.731505
565.224370	23659.138190
565.580520	23549.344379
565.936615	23692.999620
566.292654	23363.658519
566.648638	23674.014635
567.004567	23491.106450
567.360441	23450.089101
567.716260	23180.951980
568.072023	23513.557228
568.427732	23261.973404
568.783385	23046.005332
569.138982	23275.027472
569.494525	23322.391633
569.850013	23061.015368
570.205445	23164.482530
570.560823	22978.368171
570.916145	22723.474830
571.271412	22910.841916
571.626625	22659.421929
571.981782	22775.013066
572.336884	22586.420980
572.691931	22711.660886
573.046923	22444.613323
573.401860	22325.274088
573.756743	22325.632010
574.111570	22251.403540
574.466342	22192.916073
574.821059	22281.607613
575.175722	21968.047844
575.530330	21956.007048
575.884882	21984.711378
576.239380	21887.722098
576.593823	21780.980707
576.948211	21769.751537
577.302544	21605.447730
577.656823	21484.533134
578.011047	21574.779871
578.365216	21448.430911
578.719330	21321.711427
579.073389	21228.676933
579.427394	21372.483408
579.781344	21157.160604
580.135239	21038.527130
580.489080	21008.582676
580.842866	20764.555542
581.196597	20952.552772
581.550273	20941.016091
581.903895	20833.810914
582.257463	21153.253709
582.610975	20677.129332
582.964434	20979.938840
583.317837	20685.754746
583.671186	20778.569950
584.024481	20747.614745
584.377721	20518.779127
584.730906	20573.190822
585.084037	20609.587952
585.437113	20510.436018
585.790135	20718.799509
586.143103	20192.059426
586.496016	20196.064623
586.848874	20436.719225
587.201679	20378.367869
587.554428	20030.573624
587.907124	20377.284021
588.259765	20153.776904
588.612352	20235.725901
588.964884	19799.260280
589.317362	19972.648246
589.669786	20033.691578
590.022155	20070.978472
590.374470	20254.985629
590.726731	20056.321318
591.078937	19806.690941
591.431090	19910.931920
591.783188	19651.887189
592.135232	19622.996336
592.487222	19726.904599
592.839157	19758.399208
593.191038	19626.542788
593.542866	19517.845428
593.894639	19240.491226
594.246358	19462.992633
594.598022	19368.740701
594.949633	19124.612743
595.301190	19070.407737
595.652692	19243.526001
596.004141	19483.361416
596.355535	18826.736004
596.706876	18833.019802
597.058162	18715.419765
597.409395	18939.100802
597.760573	19030.698568
598.111698	18812.540114
598.462768	18750.279344
598.813785	18703.820070
599.164748	18533.207259
599.515657	18552.446823
599.866511	18355.244446
600.217312	18709.022541
600.568060	18240.565758
600.918753	18554.095280
601.269392	18443.648641
601.619978	18228.625785
601.970510	18439.598073
602.320988	18385.423314
602.671412	18595.790664
603.021783	18500.147372
603.372100	18236.825222
603.722363	18374.894864
604.072572	18308.954051
604.422728	18442.113609
604.772830	18214.492910
605.122878	18162.856371
605.472872	18155.019898
605.822813	18144.042785
606.172701	18102.672556
606.522534	18307.338361
606.872314	18323.643973
607.222041	18162.432914
607.571714	18374.678094
607.921333	18206.469914
608.270899	18278.628990
608.620411	18469.963464
608.969870	18232.535200
609.319276	18232.812463
609.668627	18267.843441
610.017926	18396.390344
610.367171	18512.273868
610.716362	18558.982679
611.065500	18378.131285
611.414585	18508.583743
611.763616	18499.242485
612.112594	18434.730839
612.461518	18397.169202
612.810389	18610.412530
613.159207	18459.233368
613.507971	18359.216875
613.856682	18640.737591
614.205340	18576.984639
614.553945	18724.448472
614.902496	18459.276217
615.250994	18696.202887
615.599439	18631.718967
615.947830	18627.076064
616.296169	18661.350869
616.644454	18638.781624
616.992686	18603.866592
617.340864	18821.934305
617.688990	18582.371112
618.037063	18750.954858
618.385082	18605.878013
618.733048	18892.833092
619.080961	18748.197347
619.428821	18789.174366
619.776628	18686.370116
620.124382	18600.980532
620.472083	18639.663826
620.819731	18670.550975
621.167326	18355.236884
621.514868	18404.282270
621.862357	18158.911668
622.209793	18179.096448
622.557176	18008.271909
622.904506	17832.950661
623.251783	17742.293071
623.599007	17511.965272
623.946179	17456.439483
624.293297	17404.104744
624.640363	17152.591497
624.987376	17168.705545
625.334336	16966.527549
625.681243	16810.571893
626.028097	16813.026935
626.374899	16746.065289
626.721647	16612.956142
627.068343	16438.688495
627.414987	16370.786673
627.761577	16352.686410
628.108115	16389.063376
628.454600	16117.440966
628.801032	16211.597117
629.147412	16146.548588
629.493739	16164.104406
629.840014	15973.694984
630.186236	16077.431848
630.532405	15838.695405
630.878521	16038.796445
631.224585	15926.653457
631.570597	15750.739873
631.916556	15775.562515
632.262462	15767.519354
632.608316	15684.178998
632.954117	15617.928155
633.299866	15618.177692
633.645562	15536.180804
633.991206	15293.522343
634.336797	15162.356561
634.682336	15127.602846
635.027823	15020.485889
635.373257	14902.432148
635.718639	14805.591583
636.063968	14751.920938
636.409245	14508.332384
636.754470	14530.737793
637.099642	14375.462693
637.444762	14141.732115
637.789829	14194.802862
638.134845	14034.534499
638.479808	14058.411924
638.824719	14005.124408
639.169577	13869.320764
639.514383	13907.026074
639.859137	13724.107807
640.203839	13806.008913
640.548489	13651.668947
640.893086	13630.118014
641.237632	13508.568233
641.582125	13661.070699
641.926566	13492.416376
642.270955	13503.464065
642.615292	13459.842961
642.959576	13471.896359
643.303809	13509.578984
643.647990	13435.524434
643.992118	13504.910876
644.336195	13269.622582
644.680219	13467.578611
645.024192	13396.828538
645.368112	13644.369356
645.711981	13696.250391
646.055797	13881.573288
646.399562	13839.661135
646.743274	14110.592908
647.086935	14387.921904
647.430544	14361.700343
647.774101	14378.086613
648.117606	14532.328277
648.461059	14498.441641
648.804460	14498.597916
649.147810	14222.405700
649.491108	14119.361995
649.834354	14137.802536
650.177548	13838.874715
650.520690	13652.480573
650.863781	13564.827510
651.206820	13610.641516
651.549807	13443.038274
651.892742	13247.786824
652.235626	13187.529912
652.578458	13183.857432
652.921238	12874.766645
653.263967	13072.337026
653.606644	12898.782702
653.949269	12864.754914
654.291843	12674.045543
654.634365	12830.477588
654.976836	12679.351358
655.319255	12693.731249
655.661622	12644.622849
656.003938	12564.728122
656.346203	12495.949139
656.688416	12571.863875
657.030577	12524.010722
657.372687	12439.475613
657.714746	12417.723035
658.056753	12610.370729
658.398708	12429.763831
658.740612	12433.249788
659.082465	12531.711085
659.424266	12493.917554
659.766016	12518.341945
660.107715	12426.444231
660.449362	12500.967608
660.790958	12462.359931
661.132503	12404.910942
661.473996	12467.514511
661.815438	12489.529230
662.156829	12504.146056
662.498168	12475.857621
662.839456	12465.765231
663.180693	12503.047084
663.521879	12591.418511
663.863013	12567.800705
664.204097	12541.921942
664.545129	12661.024243
664.886110	12631.359573
665.227040	12719.882234
665.567918	12726.730642
665.908746	12765.166919
666.249522	12738.451325
666.590248	12788.280610
666.930922	12903.811253
667.271545	12889.864901
667.612118	12966.248464
667.952639	12877.423333
668.293109	12883.747461
668.633528	12841.540400
668.973896	12813.458653
669.314213	12901.535172
669.654480	12635.006848
669.994695	12699.977238
670.334859	12726.397926
670.674973	12673.969926
671.015035	12708.852190
671.355047	12646.840956
671.695008	12612.959361
672.034918	12626.126855
672.374777	12668.787620
672.714585	12585.696801
673.054342	12614.640586
673.394049	12567.828432
673.733705	12666.940037
674.073310	12573.905542
674.412864	12590.742996
674.752368	12454.445320
675.091820	12469.147845
675.431223	12466.438225
675.770574	12337.082217
676.109875	12257.520207
676.449125	12219.633415
676.788324	12160.697285
677.127473	11993.225113
677.466571	11979.767753
677.805619	11887.582693
678.144616	11792.695575
678.483562	11770.113726
678.822458	11640.515743
679.161303	11618.546395
679.500098	11611.652617
679.838842	11560.714278
680.177535	11583.840571
680.516179	11648.415231
680.854771	11586.008267
681.193314	11805.333748
681.531805	11960.876029
681.870247	12378.893547
682.208638	12779.728292
682.546978	13095.982558
682.885268	13156.625118
683.223508	12848.519878
683.561697	12678.098631
683.899836	12586.420207
684.237925	12389.739590
684.575963	12300.191053
684.913951	12227.744631
685.251889	12174.230263
685.589776	12274.415634
685.927614	12203.300076
686.265401	12158.380875
686.603137	12208.512629
686.940824	12358.824714
687.278460	12485.400525
687.616046	12524.109025
687.953582	12704.022764
688.291068	12618.791976
688.628504	12851.287471
688.965889	12860.699305
689.303224	12831.982372
689.640510	12732.916138
689.977745	12418.302767
690.314930	12191.372706
690.652065	12110.091662
690.989150	11815.887403
691.326185	11593.383475
691.663170	11391.318906
692.000105	11137.690894
692.336990	11025.983966
692.673825	10780.673858
693.010610	10659.156845
693.347345	10453.679414
693.684030	10254.952088
694.020665	10194.438077
694.357251	10002.561680
694.693786	9949.402712
695.030272	9775.417370
695.366707	9660.927725
695.703093	9596.554711
696.039429	9588.090613
696.375716	9506.922995
696.711952	9382.010765
697.048139	9422.002238
697.384276	9377.176298
697.720363	9392.188854
698.056400	9334.276079
698.392388	9282.163151
698.728326	9238.854598
699.064214	9177.032408
699.400053	9219.862051
699.735842	9037.652066
700.071581	8992.939552
700.407270	8929.529398
700.742910	8844.318775
701.078501	8751.201102
701.414042	8620.625135
701.749533	8560.539622
702.084974	8421.030730
702.420366	8541.226962
702.755709	8414.855317
703.091002	8283.727344
703.426246	8312.204822
703.761440	8266.733614
704.096584	8223.672078
704.431679	8153.363105
704.766725	8142.746435
705.101721	8094.454702
705.436668	8138.186712
705.771565	8031.210906
706.106413	8112.867516
706.441212	8153.663054
706.775961	8105.578008
707.110661	8142.209552
707.445311	8288.720607
707.779913	8185.727313
708.114465	8320.162283
708.448967	8358.903550
708.783421	8496.156526
709.117825	8674.371396
709.452180	8713.321872
709.786485	8802.036097
710.120742	9089.351619
710.454949	9083.375331
710.789107	9182.439046
711.123216	9399.213702
711.457275	9560.654133
711.791286	9721.698834
712.125247	9717.827228
712.459159	9704.914312
712.793023	9961.771183
713.126837	9529.398980
713.460602	9680.167288
713.794318	9507.021298
714.127985	9538.780567
714.461602	9217.041526
714.795171	9169.137961
715.128691	8921.455990
715.462162	8666.363523
715.795584	8615.518446
716.128957	8465.634860
716.462281	8293.754199
716.795556	8347.898712
717.128782	8138.799212
717.461960	7868.482460
717.795088	7950.587733
718.128167	7855.829164
718.461198	7686.945469
718.794180	7628.513455
719.127113	7623.416848
719.459997	7474.566699
719.792833	7240.455514
720.125619	7301.544216
720.458357	7159.345869
720.791046	7147.771380
721.123686	7147.557131
721.456278	6984.659806
721.788821	7004.622775
722.121315	6902.241982
722.453761	6966.809080
722.786158	6912.488127
723.118506	6922.104128
723.450805	6885.223047
723.783056	6956.250384
724.115259	6865.592793
724.447412	6863.765375
724.779518	6908.160297
725.111574	6905.107878
725.443582	6987.684498
725.775542	6965.513504
726.107453	7158.372927
726.439315	7070.682055
726.771129	7126.381764
727.102895	7302.005482
727.434612	7408.393993
727.766281	7445.247348
728.097901	7525.547888
728.429473	7518.865838
728.760996	7494.028073
729.092471	7463.428269
729.423897	7414.823984
729.755276	7429.793691
730.086606	7350.750919
730.417887	7447.291536
730.749120	7642.888305
731.080305	7837.784354
731.411442	7963.863612
731.742530	7950.249976
732.073570	8061.079743
732.404562	8145.130901
732.735506	7987.589802
733.066401	8132.979200
733.397249	8065.465547
733.728048	7834.437028
734.058798	7496.634350
734.389501	7274.027078
734.720156	7099.779595
735.050762	6865.136569
735.381320	6766.612258
735.711831	6715.114351
736.042293	6611.284226
736.372707	6629.644108
736.703073	6496.204766
737.033391	6528.248860
737.363661	6539.956940
737.693883	6568.358801
738.024056	6649.327293
738.354182	6693.697009
738.684260	6731.482978
739.014290	6840.676891
739.344272	6957.576207
739.674207	6977.186296
740.004093	7044.619290
740.333931	7067.115439
740.663722	7075.642551
740.993464	7152.779766
741.323159	7142.896584
741.652806	6892.726804
741.982405	6899.378607
742.311956	6962.415715
742.641460	6802.490150
742.970915	6602.731908
743.300323	6595.124807
743.629683	6546.089504
743.958996	6411.135295
744.288260	6322.249670
744.617477	6267.832935
744.946647	6276.261744
745.275768	6104.353357
745.604842	6065.077727
745.933869	6050.067692
746.262847	6004.435167
746.591778	5991.260112
746.920662	5950.741838
747.249498	5933.980001
747.578286	5985.830789
747.907027	6063.245268
748.235720	6124.404546
748.564365	6091.833651
748.892963	6120.386747
749.221514	6274.888030
749.550017	6118.087981
749.878473	5987.892621
750.206881	6042.266506
750.535242	5983.211909
750.863555	5914.148102
751.191821	5933.294404
751.520039	5936.097286
751.848210	5843.745868
752.176334	5862.027612
752.504411	5915.841929
752.832440	5839.697821
753.160421	5766.522953
753.488356	5817.957845
753.816243	5853.213155
754.144082	5701.444177
754.471875	5664.366490
754.799620	5713.215271
755.127318	5728.832766
755.454969	5676.429972
755.782572	5645.505013
756.110129	5685.841806
756.437638	5673.697666
756.765100	5613.854129
757.092515	5609.954796
757.419882	5662.614689
757.747203	5642.432430
758.074477	5703.821081
758.401703	5694.898239
758.728882	5643.773377
759.056014	5693.617786
759.383099	5828.602242
759.710138	5841.608418
760.037129	5822.527651
760.364073	5830.638868
760.690970	5911.957720
761.017820	5888.128186
761.344623	5846.647052
761.671379	5951.941632
761.998088	6062.582356
762.324751	6300.595394
762.651366	6900.885912
762.977935	8195.204682
763.304456	9825.591974
763.630931	10727.842566
763.957359	10347.283341
764.283740	9413.006299
764.610074	8581.583919
764.936362	7592.723783
765.262602	6992.579459
765.588796	6454.542150
765.914943	6119.386078
766.241044	5952.196210
766.567097	5756.238999
766.893104	5496.496067
767.219064	5318.787832
767.544978	5253.265435
767.870845	5175.646790
768.196665	5075.181635
768.522438	5003.816540
768.848165	4968.593998
769.173846	4899.573040
769.499479	4857.476885
769.825066	4804.479235
770.150607	4743.516561
770.476101	4720.092840
770.801548	4715.581007
771.126949	4646.723887
771.452303	4590.331019
771.777611	4549.043969
772.102872	4564.389242
772.428087	4527.316596
772.753256	4484.824711
773.078378	4442.436168
773.403453	4374.597361
773.728482	4360.101523
774.053465	4310.327691
774.378401	4300.746978
774.703291	4302.718069
775.028135	4232.951020
775.352932	4182.123587
775.677683	4167.100948
776.002388	4188.772869
776.327046	4199.800393
776.651658	4128.402531
776.976224	4062.983477
777.300743	4066.262748
777.625216	4090.011624
777.949643	4085.898042
778.274024	4042.473543
778.598359	3994.028054
778.922647	4018.891025
779.246889	4012.907176
779.571086	4005.912575
779.895236	3991.273064
780.219339	3979.827124
780.543397	3968.045947
780.867409	4023.314638
781.191374	4034.218653
781.515294	3976.610868
781.839167	3966.788180
782.162995	3986.408350
782.486776	3971.461329
782.810511	3985.233762
783.134201	3977.649346
783.457844	3937.279786
783.781441	3880.465982
784.104993	3888.022671
784.428498	3906.508582
784.751958	3903.680495
785.075372	3882.134604
785.398739	3844.338553
785.722061	3853.770552
786.045337	3899.418200
786.368568	3934.368519
786.691752	3843.040456
787.014891	3890.417219
787.337983	4019.145603
787.661030	4178.221734
787.984031	4335.311649
788.306987	4510.731200
788.629897	4587.969239
788.952760	4546.828382
789.275579	4478.505624
789.598351	4417.051438
789.921078	4274.858132
790.243759	4076.188780
790.566395	4059.104309
790.888984	4053.095254
791.211529	3946.941157
791.534027	3886.013772
791.856480	3873.607492
792.178888	3817.580108
792.501249	3767.266872
792.823566	3776.885394
793.145836	3803.260711
793.468062	3752.473606
793.790241	3708.149261
794.112375	3736.329311
794.434464	3801.488745
794.756507	3824.395748
795.078505	3807.157523
795.400457	3839.728417
795.722364	3972.925784
796.044226	4076.851692
796.366042	4151.110408
796.687812	4133.360506
797.009538	4138.958707
797.331218	4097.139815
797.652852	4068.634611
797.974442	4054.335378
798.295986	4051.356056
798.617484	3971.403356
798.938938	3881.000344
799.260346	3923.893002
799.581709	3921.470727
799.903026	3846.004654
800.224299	3807.076864
800.545526	3803.054023
800.866708	3765.353754
801.187845	3705.217830
801.508936	3743.344077
801.829983	3737.070361
802.150984	3661.531191
802.471940	3650.584325
802.792851	3659.975995
803.113717	3658.962723
803.434538	3660.311232
803.755314	3606.890124
804.076045	3581.346598
804.396731	3599.686315
804.717372	3627.581540
805.037967	3611.369189
805.358518	3602.766460
805.679024	3626.684215
805.999485	3641.613592
806.319901	3645.023932
806.640272	3656.621107
806.960598	3672.198272
807.280879	3647.882267
807.601115	3659.791993
807.921306	3678.608099
808.241453	3716.094119
808.561554	3695.748022
808.881611	3626.754791
809.201623	3662.715862
809.521590	3673.733304
809.841513	3646.957215
810.161390	3677.463758
810.481223	3658.090603
810.801011	3598.604988
811.120755	3592.651385
811.440453	3628.526757
811.760107	3631.745533
812.079716	3587.756425
812.399281	3555.409861
812.718801	3578.826021
813.038276	3551.903739
813.357707	3549.569684
813.677093	3570.646749
813.996434	3514.490815
814.315731	3521.351826
814.634983	3527.567568
814.954191	3543.031308
815.273354	3571.148343
815.592473	3565.363619
815.911547	3571.904517
816.230577	3614.046042
816.549562	3660.623783
816.868502	3702.301523
817.187399	3725.395048
817.506250	3727.540059
817.825058	3695.909339
818.143821	3786.607259
818.462539	3892.181623
818.781213	3936.793314
819.099843	3991.575533
819.418429	4235.733737
819.736970	4476.335407
820.055466	4713.524217
820.373919	5078.753292
820.692327	5487.076671
821.010691	5913.628863
821.329011	7279.121164
821.647286	9985.696499
821.965517	14515.455535
822.283704	18543.385349
822.601847	20732.473639
822.919945	18943.690773
823.237999	16384.352418
823.556010	13900.591041
823.873976	11814.677526
824.191897	9726.059432
824.509775	8381.785348
824.827609	7250.994046
825.145398	6706.889709
825.463144	6586.385967
825.780845	6701.878802
826.098502	6884.769343
826.416116	7752.178000
826.733685	9062.167197
827.051210	10177.323360
827.368692	10244.620243
827.686129	9000.728135
828.003522	7490.204358
828.320872	6474.318597
828.638177	5771.314569
828.955439	5219.867791
829.272656	4719.419846
829.589830	4434.143470
829.906960	4261.005042
830.224046	4078.568204
830.541088	3952.012558
830.858086	3903.289806
831.175041	3830.982016
831.491952	3812.218841
831.808819	3823.011951
832.125642	3893.915780
832.442421	4038.284344
832.759157	4313.027229
833.075849	4850.751986
833.392497	5714.329366
833.709101	6486.215720
834.025662	6826.851526
834.342179	6477.297918
834.658653	5818.824924
834.975083	5174.439433
835.291469	4594.242955
835.607811	4185.690203
835.924110	4043.799366
836.240366	3852.966487
836.556578	3646.725322
836.872746	3535.618291
837.188871	3494.714369
837.504952	3434.553239
837.820990	3351.832945
838.136984	3303.947025
838.452935	3327.799244
838.768842	3323.544511
839.084706	3345.339939
839.400526	3497.925584
839.716303	3831.791121
840.032037	4355.113302
840.347727	4626.213952
840.663373	4349.978886
840.978977	3967.919919
841.294537	3665.619567
841.610054	3434.212961
841.925527	3327.592557
842.240957	3263.640479
842.556344	3205.848692
842.871687	3151.381545
843.186987	3095.893565
843.502244	3062.737896
843.817458	3031.394522
844.132629	3000.441837
844.447756	3004.663803
844.762840	2989.525218
845.077881	2959.429530
845.392879	2941.838424
845.707833	2937.997064
846.022745	2936.225099
846.337613	2938.758279
846.652438	2925.444591
846.967221	2924.791762
847.281960	2909.817014
847.596656	2907.871129
847.911309	2905.511869
848.225919	2896.871331
848.540485	2894.242370
848.855009	2897.156157
849.169490	2884.686863
849.483928	2875.030532
849.798323	2873.470295
850.112675	2871.090871
850.426984	2883.769372
850.741251	2879.217211
851.055474	2870.632126
851.369654	2863.476208
851.683792	2868.872763
851.997887	2877.609083
852.311938	2877.442724
852.625947	2868.933257
852.939914	2870.775798
853.253837	2875.035573
853.567718	2861.847915
853.881555	2858.021679
854.195350	2874.430635
854.509103	2872.353680
854.822812	2863.982844
855.136479	2860.370857
855.450103	2860.539736
855.763685	2855.916998
856.077224	2850.782582
856.390720	2865.386805
856.704173	2876.132024
857.017584	2868.083822
857.330953	2864.688605
857.644278	2874.269318
857.957561	2883.660988
858.270802	2886.431102
858.584000	2885.753067
858.897155	2871.390819
859.210268	2872.961139
859.523339	2867.347814
859.836367	2869.018956
860.149352	2863.604757
860.462295	2858.306504
860.775195	2865.452340
861.088054	2867.292361
861.400869	2849.431553
861.713642	2848.143538
862.026373	2863.531660
862.339062	2863.609798
862.651708	2870.982486
862.964312	2874.223948
863.276873	2868.434182
863.589392	2876.673948
863.901869	2889.201216
864.214303	2909.262488
864.526696	2923.947369
864.839045	2921.751946
865.151353	2920.017789
865.463619	2916.070566
865.775842	2917.582912
866.088023	2937.681992
866.400162	2947.229938
866.712258	2917.540062
867.024313	2909.078485
867.336325	2915.004362
867.648296	2935.975562
867.960224	2928.156732
868.272110	2915.518559
868.583954	2920.509302
868.895755	2933.734769
869.207515	2920.342944
869.519233	2923.619694
869.830909	2935.584872
870.142542	2944.467385
870.454134	2944.210287
870.765684	2948.091975
871.077191	2947.174485
871.388657	2953.896864
871.700081	2967.213072
872.011463	2978.038949
872.322803	2979.037098
872.634101	2978.964001
872.945357	2995.246928
873.256571	3021.793644
873.567744	3014.738549
873.878874	3005.036849
874.189963	3029.544418
874.501010	3032.526261
874.812015	3022.209539
875.122979	3020.034282
875.433900	3018.496730
875.744780	3023.978984
876.055618	3033.715973
876.366415	3029.148688
876.677169	3038.444575
876.987882	3038.351314
877.298554	3031.893596
877.609183	3053.547872
877.919771	3073.152920
878.230317	3100.251642
878.540822	3151.189981
878.851285	3193.397042
879.161707	3233.265007
879.472087	3333.775532
879.782425	3557.358267
880.092722	3989.188547
880.402977	4511.936036
880.713191	5135.690604
881.023363	6278.089162
881.333494	7560.548619
881.643583	8120.600646
881.953631	7824.528640
882.263637	7198.440017
882.573602	6618.404856
882.883526	6040.673502
883.193408	5466.415502
883.503248	5007.667982
883.813048	4703.782187
884.122806	4407.432917
884.432522	4090.624124
884.742197	3857.700131
885.051831	3666.723579
885.361424	3525.460366
885.670975	3458.743216
885.980485	3374.016543
886.289954	3296.642393
886.599382	3251.322420
886.908768	3215.149621
887.218113	3174.089422
887.527417	3114.266050
887.836680	3065.434913
888.145901	3057.918553
888.455082	3048.978066
888.764221	2997.822958
889.073319	2968.178453
889.382376	2966.545119
889.691392	2973.073413
890.000366	2970.610809
890.309300	2959.487503
890.618193	2970.114256
890.927044	2987.753253
891.235855	2986.593788
891.544625	2973.539720
891.853353	2986.805516
892.162041	3003.499297
892.470687	3039.276366
892.779293	3095.689398
893.087858	3138.864360
893.396381	3208.046635
893.704864	3328.815037
894.013306	3566.754978
894.321707	3865.720607
894.630068	4070.451947
894.938387	4072.760795
895.246665	4025.694062
895.554903	3905.734765
895.863100	3709.631360
896.171256	3540.578787
896.479371	3403.114083
896.787446	3279.409209
897.095480	3176.990607
897.403473	3113.083899
897.711425	3076.941347
898.019336	3069.104873
898.327207	3036.637322
898.635038	3002.929647
898.942827	2989.200064
899.250576	2977.819659
899.558284	2947.572736
899.865952	2926.314190
900.173579	2908.536561
900.481165	2899.855694
900.788711	2890.171638
901.096216	2864.111393
901.403681	2852.030268
901.711105	2859.655013
902.018489	2859.516381
902.325832	2856.446319
902.633135	2866.510982
902.940397	2899.797721
903.247619	2980.438539
903.554800	3170.290913
903.861941	3509.278262
904.169041	3932.591512
904.476101	4233.177872
904.783121	4193.614897
905.090100	3950.648926
905.397039	3680.574149
905.703938	3431.369750
906.010796	3247.307141
906.317614	3134.090387
906.624391	3041.350801
906.931129	2970.159626
907.237826	2908.501273
907.544483	2862.112576
907.851099	2832.001764
908.157675	2810.307158
908.464211	2791.581792
908.770707	2776.342384
909.077163	2764.926691
909.383578	2752.328848
909.689954	2739.587331
909.996289	2738.571539
910.302584	2739.247053
910.608839	2740.426683
910.915054	2734.462998
911.221229	2724.244580
911.527363	2729.900754
911.833458	2734.583986
912.139513	2738.609347
912.445527	2743.806777
912.751502	2752.238107
913.057436	2758.688263
913.363331	2772.881632
913.669186	2796.388532
913.975000	2827.056392
914.280775	2888.233314
914.586510	2958.663275
914.892205	3033.794111
915.197859	3162.945952
915.503475	3353.904860
915.809050	3565.340934
916.114585	3709.646484
916.420081	3731.361254
916.725536	3676.841175
917.030952	3555.500602
917.336328	3429.877569
917.641665	3302.510296
917.946961	3202.549257
918.252218	3134.004688
918.557435	3052.665670
918.862612	2994.861280
919.167750	2945.342026
919.472848	2906.567991
919.777906	2878.680328
920.082925	2853.426667
920.387904	2819.945844
920.692843	2806.107877
920.997743	2797.704273
921.302603	2781.164248
921.607423	2774.504883
921.912204	2760.903850
922.216946	2750.574526
922.521647	2739.657907
922.826310	2730.104921
923.130932	2727.198696
923.435516	2716.319886
923.740059	2710.328474
924.044564	2701.950077
924.349028	2697.526464
924.653454	2692.293747
924.957840	2684.139680
925.262186	2676.373783
925.566493	2674.526200
925.870761	2668.799449
926.174989	2666.054541
926.479178	2663.082781
926.783328	2658.472645
927.087438	2658.230670
927.391509	2653.633138
927.695541	2650.842859
927.999533	2650.648775
928.303486	2646.731798
928.607400	2645.486633
928.911275	2643.470172
929.215110	2644.727939
929.518906	2643.739873
929.822663	2640.752990
930.126381	2641.204173
930.430060	2643.192908
930.733699	2644.133083
931.037299	2643.142497
931.340861	2646.562919
931.644383	2646.414205
931.947866	2647.407313
932.251309	2643.502939
932.554714	2643.480254
932.858080	2640.243833
933.161407	2640.909265
933.464694	2638.749131
933.767943	2633.428193
934.071153	2639.132259
934.374323	2636.717546
934.677455	2638.257618
934.980548	2632.677061
935.283602	2635.699233
935.586617	2632.803090
935.889593	2635.119500
936.192530	2632.891310
936.495428	2633.650004
936.798287	2638.575211
937.101108	2640.750469
937.403890	2643.210552
937.706632	2646.250368
938.009336	2655.677326
938.312002	2663.249139
938.614628	2673.339008
938.917216	2680.361335
939.219765	2680.668846
939.522275	2678.470903
939.824747	2675.690706
940.127179	2672.424039
940.429573	2671.781292
940.731929	2666.218378
941.034246	2664.426248
941.336524	2661.522543
941.638763	2658.233191
941.940964	2659.127995
942.243126	2656.108344
942.545250	2654.291008
942.847335	2649.877478
943.149381	2648.203815
943.451389	2641.980511
943.753359	2642.713998
944.055290	2640.483288
944.357182	2637.030097
944.659036	2637.748462
944.960851	2638.590335
945.262628	2636.404994
945.564367	2637.972793
945.866067	2637.075468
946.167729	2637.496404
946.469352	2636.586476
946.770937	2638.900366
947.072484	2634.995992
947.373992	2635.056486
947.675462	2632.866104
947.976893	2630.932822
948.278286	2629.324694
948.579641	2628.881072
948.880958	2628.190434
949.182236	2627.565331
949.483476	2626.819240
949.784678	2628.230763
950.085841	2627.298150
950.386967	2628.734879
950.688054	2630.179169
950.989103	2631.794859
951.290114	2628.497945
951.591087	2637.594707
951.892021	2635.520272
952.192917	2636.415077
952.493776	2640.871457
952.794596	2643.029071
953.095378	2640.848772
953.396122	2639.391878
953.696828	2636.548667
953.997496	2638.486991
954.298126	2634.396095
954.598718	2634.179325
954.899272	2630.413583
955.199788	2627.497276
955.500266	2626.758747
955.800706	2622.105762
956.101108	2623.008128
956.401472	2617.851028
956.701798	2617.654423
957.002087	2613.999586
957.302337	2617.571244
957.602550	2612.235182
957.902724	2609.462548
958.202861	2611.418515
958.502960	2609.825511
958.803022	2607.892228
959.103045	2606.528596
959.403031	2606.521034
959.702979	2607.196549
960.002889	2604.862495
960.302762	2604.776795
960.602596	2604.681013
960.902393	2605.359048
961.202153	2604.915427
961.501875	2603.103132
961.801559	2601.868049
962.101205	2604.789398
962.400814	2603.761003
962.700385	2602.281424
962.999918	2599.970055
963.299414	2598.810590
963.598873	2597.388984
963.898293	2598.606423
964.197677	2601.941146
964.497022	2598.659355
964.796331	2600.632967
965.095601	2599.163470
965.394835	2602.236054
965.694030	2600.978286
965.993189	2599.559201
966.292309	2601.013574
966.591393	2602.573811
966.890439	2599.148347
967.189447	2601.331167
967.488419	2600.506938
967.787353	2600.133892
968.086249	2598.195569
968.385108	2600.204469
968.683930	2599.183635
968.982714	2597.905702
969.281462	2598.407297
969.580172	2597.746906
969.878844	2598.780343
970.177480	2603.511466
970.476078	2599.680189
970.774639	2600.741352
971.073162	2597.323449
971.371649	2599.838985
971.670098	2601.250508
971.968510	2602.755292
972.266885	2599.775971
972.565223	2600.758996
972.863524	2600.270004
973.161788	2601.585745
973.460014	2599.292020
973.758204	2599.904520
974.056356	2600.600199
974.354471	2599.387802
974.652550	2599.168512
974.950591	2604.169336
975.248595	2599.886876
975.546563	2597.976279
975.844493	2600.128851
976.142386	2598.109869
976.440243	2599.962493
976.738062	2599.317226
977.035845	2599.901999
977.333590	2598.755137
977.631299	2597.920826
977.928971	2596.453850
978.226606	2593.189703
978.524204	2594.568459
978.821765	2592.778849
979.119290	2596.836978
979.416777	2597.767071
979.714228	2599.556680
980.011642	2597.262955
980.309020	2598.747575
980.606360	2599.952411
980.903664	2598.291351
981.200931	2600.393512
981.498162	2600.343100
981.795356	2599.985178
982.092513	2601.308481
982.389633	2601.384099
982.686717	2608.078751
982.983764	2611.882302
983.280775	2611.857096
983.577749	2614.773403
983.874686	2616.457149
984.171587	2610.858947
984.468451	2608.958432
984.765279	2607.839296
985.062070	2609.336519
985.358824	2603.226640
985.655543	2602.427618
985.952224	2601.994078
986.248869	2601.540374
986.545478	2599.725559
986.842050	2597.900661
987.138586	2597.028542
987.435086	2595.795980
987.731549	2597.230188
988.027975	2597.194900
988.324366	2593.482090
988.620719	2595.052409
988.917037	2592.546956
989.213318	2595.228850
989.509563	2593.232553
989.805772	2594.966710
990.101944	2594.419745
990.398080	2594.286154
990.694180	2593.890423
990.990244	2592.249528
991.286271	2593.272882
991.582262	2596.234560
991.878217	2594.792790
992.174136	2592.148705
992.470019	2593.913109
992.765865	2590.918663
993.061676	2590.084352
993.357450	2589.121492
993.653188	2589.363467
993.948890	2596.055599
994.244556	2593.310691
994.540186	2595.745568
994.835780	2592.302460
995.131337	2595.397728
995.426859	2593.240115
995.722345	2594.976792
996.017795	2599.400405
996.313208	2596.794128
996.608586	2601.021136
996.903928	2597.691453
997.199234	2597.814962
997.494504	2601.797473
997.789738	2597.888058
998.084936	2595.982502
998.380099	2599.700353
998.675225	2596.325301
998.970316	2597.421752
999.265371	2593.635845
999.560390	2596.554673
999.855373	2595.022162
1000.150320	2593.005701
1000.445232	2593.575351
1000.740108	2593.572831
1001.034948	2594.263469
1001.329752	2592.672985
1001.624521	2593.734148
1001.919254	2591.379929
1002.213951	2593.897985
1002.508613	2591.722727
1002.803239	2591.087542
1003.097829	2590.860690
1003.392384	2592.599888
1003.686903	2590.873293
1003.981386	2592.413365
1004.275834	2591.097624
1004.570246	2591.876482
1004.864623	2592.126020
1005.158964	2592.725917
1005.453270	2592.546956
1005.747540	2589.706266
1006.041775	2594.523088
1006.335974	2591.697522
1006.630138	2590.885896
1006.924266	2593.295567
1007.218359	2591.962182
1007.512416	2590.762387
1007.806438	2587.805751
1008.100425	2588.965216
1008.394376	2588.113261
1008.688292	2592.524271
1008.982172	2591.223653
1009.276017	2591.253900
1009.569827	2591.579054
1009.863602	2592.499065
1010.157341	2591.695001
1010.451045	2591.022007
1010.744714	2592.746082
1011.038347	2592.494024
1011.331945	2592.952769
1011.625508	2592.257090
1011.919036	2590.956472
1012.212528	2593.073757
1012.505986	2589.355906
1012.799408	2591.498396
1013.092795	2590.084352
1013.386147	2587.581419
1013.679464	2590.797676
1013.972745	2590.354054
1014.265992	2589.005545
1014.559204	2589.083683
1014.852380	2590.898499
1015.145521	2590.810278
1015.438628	2591.662233
1015.731699	2592.720876
1016.024736	2591.947059
1016.317737	2588.113261
1016.610703	2590.994281
1016.903635	2590.732141
1017.196531	2590.764908
1017.489393	2591.332038
1017.782219	2593.260279
1018.075011	2592.781370
1018.367768	2590.598550
1018.660490	2588.748447
1018.953177	2588.748447
1019.245829	2588.748447
