Dividing Wavelength (nm)	Counts (n)	Blue Motor Position (mm): 36.600000	Red Motor Position (mm): 0.000000	
326.493990	2236.452451
326.888308	2236.452451
327.282561	2236.452451
327.676750	2196.166070
328.070874	2189.867148
328.464933	2191.266069
328.858929	2197.590196
329.252859	2200.917358
329.646726	2209.716692
330.040528	2222.967365
330.434265	2233.697461
330.827938	2254.943403
331.221547	2270.195414
331.615091	2288.333486
332.008571	2305.697740
332.401986	2326.416883
332.795338	2341.167299
333.188625	2363.822244
333.581847	2381.577188
333.975006	2403.768347
334.368100	2421.155287
334.761129	2440.077258
335.154095	2458.666513
335.546996	2482.039822
335.939833	2524.514064
336.332606	2535.864222
336.725315	2551.796789
337.117960	2563.547718
337.510540	2573.758576
337.903056	2583.908939
338.295508	2596.436206
338.687896	2602.788060
339.080220	2611.224431
339.472480	2617.682149
339.864676	2622.899743
340.256807	2627.262862
340.648875	2632.329222
341.040879	2634.822072
341.432818	2636.828451
341.824694	2640.309368
342.216506	2641.867085
342.608253	2642.925727
342.999937	2641.368010
343.391557	2640.468164
343.783113	2641.791467
344.174605	2640.266518
344.566033	2640.518576
344.957397	2637.947587
345.348697	2639.404481
345.739934	2634.779222
346.131106	2632.656897
346.522215	2630.549694
346.913260	2630.801752
347.304241	2627.456946
347.695159	2626.766308
348.086012	2627.769498
348.476802	2622.693056
348.867528	2619.406224
349.258191	2617.793054
349.648789	2617.094855
350.039324	2611.456324
350.429796	2615.733743
350.820203	2615.060749
351.210548	2611.940275
351.600828	2611.872219
351.991045	2611.461365
352.381198	2609.386930
352.771288	2607.932558
353.161314	2608.983638
353.551276	2609.606221
353.941175	2607.451127
354.331010	2609.283587
354.720782	2608.703854
355.110490	2606.042125
355.500135	2605.621188
355.889717	2607.357866
356.279235	2608.199739
356.668689	2608.930706
357.058080	2609.170161
357.447408	2606.780654
357.836672	2610.385079
358.225873	2609.737291
358.615010	2608.429111
359.004084	2607.246961
359.393095	2610.271653
359.782043	2609.351642
360.170927	2612.245265
360.559748	2611.857096
360.948505	2612.993876
361.337199	2614.924638
361.725830	2615.096037
362.114398	2615.917745
362.502903	2613.860954
362.891344	2615.227107
363.279722	2615.350615
363.668037	2615.494288
364.056289	2617.767849
364.444478	2616.192488
364.832603	2620.074177
365.220665	2617.571244
365.608665	2618.957561
365.996601	2620.152314
366.384474	2619.265071
366.772284	2619.945627
367.160031	2617.609052
367.547715	2620.122067
367.935336	2621.657099
368.322893	2617.664505
368.710388	2616.240379
369.097820	2619.743981
369.485189	2617.515791
369.872495	2622.763632
370.259738	2620.963940
370.646918	2622.670371
371.034035	2624.954013
371.421090	2624.338993
371.808081	2625.556431
372.195010	2624.475104
372.581875	2625.841257
372.968678	2624.752367
373.355418	2628.485342
373.742096	2626.879734
374.128710	2627.693881
374.515262	2626.418469
374.901751	2629.203706
375.288177	2630.211937
375.674540	2628.863428
376.060841	2628.699591
376.447079	2629.009622
376.833254	2629.980044
377.219367	2628.896196
377.605417	2632.664458
377.991404	2631.278141
378.377329	2631.986423
378.763191	2633.871815
379.148991	2632.276289
379.534727	2633.531537
379.920402	2633.324849
380.306013	2635.069089
380.691563	2636.019346
381.077049	2636.513379
381.462474	2636.566311
381.847835	2634.938019
382.233134	2638.731487
382.618371	2636.974645
383.003545	2637.572022
383.388657	2640.632002
383.773706	2641.037815
384.158693	2637.193935
384.543618	2639.643936
384.928480	2642.020840
385.313280	2643.397075
385.698017	2643.399595
386.082692	2644.932106
386.467305	2644.788433
386.851856	2644.382620
387.236344	2647.324134
387.620770	2641.630150
388.005133	2641.829276
388.389435	2644.773310
388.773674	2644.014616
389.157851	2646.396561
389.541965	2650.197591
389.926018	2650.457211
390.310008	2648.836480
390.693936	2649.549803
391.077802	2653.602891
391.461606	2649.980822
391.845348	2650.079124
392.229027	2656.284785
392.612645	2654.107006
392.996200	2655.079949
393.379694	2657.570279
393.763125	2654.049033
394.146494	2657.575320
394.529801	2656.947696
394.913047	2660.564724
395.296230	2659.309477
395.679351	2662.205620
396.062410	2661.540187
396.445408	2663.294509
396.828343	2664.491783
397.211217	2667.435817
397.594028	2669.321208
397.976778	2676.247754
398.359466	2678.027281
398.742092	2681.924093
399.124656	2690.627645
399.507158	2703.167515
399.889598	2713.340564
400.271977	2731.634911
400.654294	2748.547982
401.036549	2770.540016
401.418742	2789.638427
401.800874	2826.700990
402.182944	2866.518544
402.564952	2908.861716
402.946898	2958.252421
403.328783	2993.192658
403.710606	3039.195707
404.092367	3138.249339
404.474067	3204.195193
404.855705	3253.220414
405.237282	3303.889052
405.618797	3423.092176
406.000250	3492.125736
406.381642	3616.997638
406.762972	3700.705997
407.144240	3791.119092
407.525447	3866.859907
407.906593	3964.645689
408.287677	4104.411680
408.668700	4156.101151
409.049661	4287.461017
409.430560	4388.488261
409.811399	4406.124737
410.192176	4619.562150
410.572891	4713.267118
410.953545	4910.915637
411.334138	4858.555692
411.714669	5037.821643
412.095139	5002.679760
412.475547	5229.700562
412.855894	5355.565570
413.236180	5555.762392
413.616405	5435.727478
413.996568	5663.943033
414.376670	5751.386888
414.756711	5756.733032
415.136691	5893.817128
415.516609	6119.489421
415.896466	6190.363003
416.276262	6408.138329
416.655997	6454.753878
417.035670	6680.496748
417.415283	7012.124012
417.794834	7112.581606
418.174324	7068.773979
418.553753	7048.732872
418.933121	7386.316259
419.312428	7527.944956
419.691674	7383.210909
420.070859	7867.295268
420.449983	7611.255065
420.829045	7996.268148
421.208047	7826.834968
421.586988	8136.797874
421.965867	8183.541973
422.344686	8330.098397
422.723444	8375.960294
423.102141	7812.074469
423.480777	8548.811378
423.859352	8110.079758
424.237866	8731.727124
424.616319	8618.071790
424.994712	9020.779324
425.373044	8626.934139
425.751314	9082.551103
426.129524	8957.412020
426.507673	9102.602292
426.885762	9269.008260
427.263789	9178.872429
427.641756	9108.293755
428.019662	9216.880209
428.397508	9451.994583
428.775292	9164.963886
429.153016	9535.355103
429.530679	9377.766113
429.908282	9422.171117
430.285824	9143.392788
430.663305	9823.943517
431.040726	9281.832955
431.418086	9270.223178
431.795385	9586.512732
432.172624	9674.846350
432.549802	9595.170914
432.926920	9676.303244
433.303977	9560.079442
433.680974	9758.874823
434.057910	9845.945633
434.434786	9908.196321
434.811601	9759.683928
435.188355	10321.349125
435.565050	10045.252691
435.941683	9978.843051
436.318257	10473.458381
436.694770	10596.482699
437.071222	10669.801241
437.447614	10520.434373
437.823946	10406.330376
438.200218	10559.959540
438.576429	10368.693122
438.952580	10605.282033
439.328670	10664.704634
439.704700	10448.396285
440.080670	10437.620818
440.456580	11000.044709
440.832429	10748.400391
441.208218	10349.687972
441.583947	10683.898828
441.959616	10826.631537
442.335224	10627.480754
442.710773	10775.920050
443.086261	10981.006791
443.461689	10261.094734
443.837057	10910.450802
444.212365	11185.261742
444.587612	10830.145221
444.962800	11067.066849
445.337927	10840.923208
445.712995	10415.782540
446.088002	11508.540856
446.462949	11153.381485
446.837837	11130.698814
447.212664	11120.359407
447.587431	11636.868468
447.962139	12343.267713
448.336786	14613.884064
448.711374	15159.709955
449.085901	13018.976413
449.460369	12630.384110
449.834776	12079.103690
450.209124	12940.246193
450.583412	13349.892875
450.957640	14309.743690
451.331808	13450.937762
451.705917	12432.745673
452.079965	11749.162691
452.453954	12653.182728
452.827883	12286.895010
453.201752	12566.560581
453.575562	12085.200965
453.949311	12508.609997
454.323001	12473.200933
454.696632	12702.369266
455.070202	12984.086587
455.443713	13226.956776
455.817164	13674.891022
456.190556	13674.880940
456.563888	14032.238253
456.937160	14213.939082
457.310373	13547.962330
457.683526	13637.916679
458.056619	13185.463039
458.429653	13338.981297
458.802628	12762.542999
459.175542	13136.349598
459.548398	14085.334206
459.921194	14420.059260
460.293930	14482.597294
460.666607	15363.080184
461.039224	16404.252373
461.411782	17100.828929
461.784280	16972.264382
462.156719	17029.138680
462.529099	16719.296762
462.901419	15647.676003
463.273680	15434.057109
463.645882	15304.249918
464.018024	15035.314443
464.390106	15254.375263
464.762130	15984.472971
465.134094	16740.555307
465.505999	18735.854082
465.877845	22003.247701
466.249631	24832.088661
466.621358	24506.752756
466.993026	23067.394948
467.364634	22497.784893
467.736184	21053.063297
468.107674	20239.834441
468.479105	20369.833196
468.850477	19831.127934
469.221790	19418.040665
469.593043	18746.465711
469.964238	18186.988375
470.335373	17842.579265
470.706449	18285.568138
471.077467	17841.828133
471.448425	19675.109264
471.819324	23704.841290
472.190164	25712.967281
472.560945	22160.493892
472.931667	19793.878848
473.302330	19169.864661
473.672934	18689.389767
474.043479	19021.266569
474.413965	18825.853802
474.784393	18453.221792
475.154761	19147.587802
475.525070	19130.470564
475.895321	18797.625861
476.265513	19382.548421
476.635645	19976.686210
477.005719	19749.037785
477.375734	19937.738256
477.745691	20410.563198
478.115588	20940.355700
478.485427	21470.904375
478.855207	22534.436602
479.224928	24298.157372
479.594591	26523.647834
479.964194	26543.406636
480.333739	26751.596208
480.703226	26318.407337
481.072653	26003.783885
481.442022	26591.700890
481.811333	27499.889961
482.180584	27411.773113
482.549777	26471.050955
482.918912	26112.531655
483.287988	26237.073361
483.657005	25907.442393
484.025964	25665.288048
484.394864	25565.236267
484.763706	25251.822692
485.132489	24682.704149
485.501213	24862.988413
485.869879	24777.351812
486.238487	24596.991931
486.607036	24735.923610
486.975527	24442.281440
487.343959	24779.852225
487.712333	24696.290058
488.080648	24358.318502
488.448905	24851.446692
488.817104	24608.306800
489.185244	25279.846466
489.553326	25249.949903
489.921350	26245.262716
490.289315	28540.079125
490.657222	30312.064867
491.025070	30816.696970
491.392861	30588.950242
491.760593	29742.301056
492.128267	28836.244393
492.495883	27788.274208
492.863440	26910.967246
493.230939	26036.800922
493.598380	25884.278292
493.965763	25488.207437
494.333088	25039.534662
494.700354	24973.460259
495.067563	24846.919735
495.434713	24597.334729
495.801805	24752.655200
496.168839	24560.937598
496.535815	24401.866509
496.902733	24619.321722
497.269593	24286.358551
497.636395	24471.328568
498.003139	24425.254942
498.369825	24173.529966
498.736453	24388.119283
499.103023	24255.915023
499.469535	24267.287866
499.835989	24481.332738
500.202385	24501.197405
500.568723	24018.655638
500.935003	24246.856070
501.301226	23879.925605
501.667390	24717.379726
502.033497	24943.881288
502.399546	24676.367418
502.765537	24237.477003
503.131470	24627.526199
503.497345	24756.098308
503.863163	23985.469722
504.228923	24567.450769
504.594625	24784.492607
504.960269	24313.595905
505.325856	24808.952285
505.691385	24208.508012
506.056856	24820.864532
506.422270	24786.448574
506.787625	24351.767522
507.152924	24759.478401
507.518164	24800.709999
507.883347	24610.285453
508.248472	24292.907010
508.613540	25069.867285
508.978550	24860.558577
509.343503	24851.113975
509.708398	25104.915907
510.073236	25269.207111
510.438016	25484.650903
510.802738	25138.505115
511.167403	25409.782206
511.532010	25120.271262
511.896561	25882.796192
512.261053	25854.091862
512.625488	25686.012231
512.989866	25571.492339
513.354186	25403.785754
513.718449	25524.095411
514.082655	25903.986682
514.446803	25633.022143
514.810894	26113.287828
515.174927	25602.871002
515.538904	25622.128209
515.902822	26119.934590
516.266684	25870.155499
516.630488	25787.281450
516.994235	25751.625369
517.357925	26056.181638
517.721558	26237.211993
518.085133	26344.563364
518.448651	26244.231800
518.812112	25981.607849
519.175516	26196.182042
519.538863	26346.269795
519.902152	26135.872198
520.265385	26412.382007
520.628560	26196.575252
520.991678	26195.279675
521.354739	26267.496725
521.717743	26341.268970
522.080690	26125.920960
522.443580	26453.409437
522.806413	26436.186335
523.169189	26540.124845
523.531908	26592.762053
523.894569	26199.816714
524.257174	26281.715299
524.619722	26463.925284
524.982213	26158.756516
525.344647	26205.603958
525.707025	26345.415319
526.069345	26329.979306
526.431608	26279.923169
526.793815	26470.536757
527.155964	25944.318434
527.518057	26110.994103
527.880093	26027.331114
528.242072	26267.249708
528.603995	25965.352648
528.965860	25768.556084
529.327669	25809.354142
529.689421	25792.239425
530.051117	25638.297710
530.412755	25824.681771
530.774337	25613.701921
531.135862	25488.272972
531.497331	25683.544587
531.858743	25257.456181
532.220098	25733.951084
532.581396	25414.437712
532.942638	25331.016698
533.303824	25442.577433
533.664953	25453.126047
534.026025	25108.459838
534.387040	25349.142167
534.747999	25408.998307
535.108902	25562.246863
535.469748	25059.454782
535.830537	25240.959005
536.191270	25370.367945
536.551947	25222.468053
536.912567	24853.697567
537.273131	25246.322793
537.633638	24936.238899
537.994089	25147.619521
538.354483	24684.702966
538.714821	25179.030951
539.075103	25224.184566
539.435328	24995.875749
539.795497	24567.596962
540.155609	24954.576096
540.515665	25259.069350
540.875665	24478.456760
541.235609	24795.691530
541.595496	24741.693211
541.955328	25101.245947
542.315102	25028.620564
542.674821	24557.227309
543.034483	24439.985194
543.394090	24609.025165
543.753640	24397.820983
544.113134	25030.536203
544.472571	24629.880418
544.831953	24925.077785
545.191278	24561.769389
545.550548	24467.585511
545.909761	24670.496995
546.268918	24910.569344
546.628019	24872.710278
546.987064	24566.787857
547.346053	24316.285361
547.704986	24429.534882
548.063863	24587.983389
548.422684	24598.975625
548.781449	24119.120793
549.140158	24543.737181
549.498811	24107.969761
549.857408	23853.716646
550.215949	24270.889771
550.574434	23947.305667
550.932864	24161.521938
551.291237	24343.716800
551.649555	24188.045969
552.007817	24252.320680
552.366022	24110.528146
552.724173	24144.387056
553.082267	24087.641308
553.440305	24573.613580
553.798288	23825.549199
554.156215	24331.827238
554.514086	24452.225116
554.871902	23816.102076
555.229661	24097.383337
555.587365	23956.649446
555.945014	23839.447660
556.302606	24074.642692
556.660143	24029.078223
557.017625	24285.995588
557.375050	23798.962153
557.732421	24188.224930
558.089735	24014.756305
558.446994	24068.331168
558.804197	24100.231589
559.161345	24025.889694
559.518437	23802.831239
559.875474	23979.420338
560.232455	24168.692979
560.589381	23974.832887
560.946251	23972.677794
561.303065	24279.432006
561.659825	24376.630493
562.016528	23968.380211
562.373177	23716.665317
562.729770	24075.769390
563.086307	23924.585187
563.442789	24103.762918
563.799216	23926.969652
564.155587	23937.576240
564.511904	23911.737806
564.868164	23871.847156
565.224370	23839.399769
565.580520	23759.404219
565.936615	23879.507189
566.292654	23578.978802
566.648638	23840.770963
567.004567	23678.140819
567.360441	23628.888746
567.716260	23360.832952
568.072023	23672.580426
568.427732	23450.134472
568.783385	23223.171643
569.138982	23464.121153
569.494525	23497.738087
569.850013	23259.150358
570.205445	23349.341642
570.560823	23168.210463
570.916145	22917.158481
571.271412	23098.811419
571.626625	22860.342157
571.981782	22962.390234
572.336884	22771.781687
572.691931	22916.619078
573.046923	22645.493221
573.401860	22531.169934
573.756743	22539.197972
574.111570	22443.761368
574.466342	22366.704811
574.821059	22446.521399
575.175722	22156.972646
575.530330	22134.163945
575.884882	22154.510042
576.239380	22070.126168
576.593823	21958.426802
576.948211	21945.778547
577.302544	21788.159310
577.656823	21652.995893
578.011047	21754.764186
578.365216	21625.322479
578.719330	21498.837408
579.073389	21393.275647
579.427394	21541.445241
579.781344	21309.322791
580.135239	21193.167045
580.489080	21159.166983
580.842866	20932.584762
581.196597	21116.680138
581.550273	21094.279771
581.903895	20979.356587
582.257463	21291.885440
582.610975	20828.510140
582.964434	21149.271198
583.317837	20835.842499
583.671186	20924.854152
584.024481	20905.501163
584.377721	20677.943478
584.730906	20737.887838
585.084037	20748.350753
585.437113	20666.434524
585.790135	20869.968590
586.143103	20326.454067
586.496016	20346.535503
586.848874	20579.177192
587.201679	20509.568939
587.554428	20198.025632
587.907124	20519.744508
588.259765	20307.852209
588.612352	20365.049141
588.964884	19932.729869
589.317362	20114.261819
589.669786	20163.521454
590.022155	20185.994918
590.374470	20398.172042
590.726731	20178.985194
591.078937	19956.990422
591.431090	20049.442663
591.783188	19807.590787
592.135232	19769.983779
592.487222	19867.504900
592.839157	19883.271109
593.191038	19777.041395
593.542866	19650.495830
593.894639	19359.616212
594.246358	19591.665565
594.598022	19480.679522
594.949633	19238.893180
595.301190	19214.798986
595.652692	19386.903978
596.004141	19610.174161
596.355535	18948.860476
596.706876	18954.589747
597.058162	18858.018884
597.409395	19087.504810
597.760573	19149.022010
598.111698	18925.693854
598.462768	18866.994658
598.813785	18826.693154
599.164748	18647.764960
599.515657	18688.401701
599.866511	18480.602819
600.217312	18837.589608
600.568060	18362.475981
600.918753	18669.232713
601.269392	18567.787054
601.619978	18357.286113
601.970510	18559.333039
602.320988	18494.839037
602.671412	18702.980718
603.021783	18623.343090
603.372100	18347.294547
603.722363	18491.143872
604.072572	18430.657587
604.422728	18581.814065
604.772830	18344.506788
605.122878	18287.398077
605.472872	18282.722407
605.822813	18261.138707
606.172701	18247.031038
606.522534	18423.978058
606.872314	18454.131720
607.222041	18287.597203
607.571714	18504.543258
607.921333	18326.272935
608.270899	18407.319565
608.620411	18577.413137
608.969870	18361.616465
609.319276	18356.275362
609.668627	18384.899034
610.017926	18512.183127
610.367171	18629.878946
610.716362	18688.885652
611.065500	18498.892125
611.414585	18635.721643
611.763616	18621.389643
612.112594	18554.889262
612.461518	18529.355818
612.810389	18711.341472
613.159207	18591.109952
613.507971	18496.001023
613.856682	18755.907792
614.205340	18687.771557
614.553945	18830.279935
614.902496	18575.678980
615.250994	18805.679104
615.599439	18750.904447
615.947830	18730.271004
616.296169	18799.778433
616.644454	18762.055479
616.992686	18730.490294
617.340864	18952.543039
617.688990	18692.353966
618.037063	18871.776193
618.385082	18723.606599
618.733048	19007.965484
619.080961	18877.815495
619.428821	18913.496782
619.776628	18796.577301
620.124382	18723.190704
620.472083	18776.929404
620.819731	18786.661351
621.167326	18483.519126
621.514868	18524.070168
621.862357	18298.266805
622.209793	18305.967167
622.557176	18130.088871
622.904506	17967.453687
623.251783	17886.969145
623.599007	17629.237634
623.946179	17579.025221
624.293297	17516.088936
624.640363	17259.426149
624.987376	17284.959594
625.334336	17080.923933
625.681243	16923.987773
626.028097	16940.250535
626.374899	16863.451077
626.721647	16722.601238
627.068343	16560.165179
627.414987	16485.911503
627.761577	16457.751618
628.108115	16494.350395
628.454600	16234.153760
628.801032	16321.552244
629.147412	16258.799961
629.493739	16270.573576
629.840014	16084.071048
630.186236	16178.534709
630.532405	15945.696416
630.878521	16147.040101
631.224585	16034.067843
631.570597	15855.505132
631.916556	15893.621297
632.262462	15877.630757
632.608316	15785.319668
632.954117	15738.812503
633.299866	15723.041253
633.645562	15641.843388
633.991206	15398.443878
634.336797	15271.401760
634.682336	15244.537451
635.027823	15124.205109
635.373257	14992.015973
635.718639	14894.262958
636.063968	14850.112533
636.409245	14602.662455
636.754470	14634.346107
637.099642	14477.374659
637.444762	14254.081790
637.789829	14288.147387
638.134845	14119.057005
638.479808	14161.654755
638.824719	14079.773814
639.169577	13944.955716
639.514383	13980.904184
639.859137	13817.001149
640.203839	13906.171599
640.548489	13750.215943
640.893086	13748.842228
641.237632	13606.926186
641.582125	13765.304116
641.926566	13584.596395
642.270955	13597.325308
642.615292	13552.209502
642.959576	13563.783991
643.303809	13595.175256
643.647990	13525.662786
643.992118	13592.372375
644.336195	13355.322197
644.680219	13581.115478
645.024192	13494.236233
645.368112	13733.653232
645.711981	13788.954689
646.055797	13972.094767
646.399562	13945.769862
646.743274	14213.301376
647.086935	14482.065452
647.430544	14449.461790
647.774101	14482.002438
648.117606	14637.262415
648.461059	14607.451551
648.804460	14591.551752
649.147810	14317.108816
649.491108	14216.794896
649.834354	14229.763264
650.177548	13914.723916
650.520690	13730.547881
650.863781	13652.707424
651.206820	13694.642263
651.549807	13525.133465
651.892742	13325.407990
652.235626	13264.420111
652.578458	13268.387499
652.921238	12957.456692
653.263967	13148.501299
653.606644	12988.656393
653.949269	12959.470633
654.291843	12759.546033
654.634365	12927.839913
654.976836	12777.308538
655.319255	12775.486161
655.661622	12738.537024
656.003938	12660.600786
656.346203	12581.570617
656.688416	12668.979183
657.030577	12616.846091
657.372687	12526.133048
657.714746	12514.377077
658.056753	12697.812063
658.398708	12508.478927
658.740612	12514.704752
659.082465	12617.279630
659.424266	12589.074374
659.766016	12620.155608
660.107715	12522.957121
660.449362	12606.098351
660.790958	12554.900393
661.132503	12491.649035
661.473996	12568.980335
661.815438	12583.612284
662.156829	12605.228752
662.498168	12574.291191
662.839456	12583.440885
663.180693	12596.933533
663.521879	12690.121783
663.863013	12666.899708
664.204097	12630.792443
664.545129	12764.698092
664.886110	12739.267992
665.227040	12830.669152
665.567918	12829.585304
665.908746	12853.263603
666.249522	12844.839835
666.590248	12894.651477
666.930922	13010.595494
667.271545	12983.370743
667.612118	13072.253847
667.952639	12974.468065
668.293109	12989.397443
668.633528	12941.380452
668.973896	12913.873396
669.314213	12994.030263
669.654480	12726.319788
669.994695	12813.224239
670.334859	12832.554543
670.674973	12781.212912
671.015035	12807.348774
671.355047	12763.836055
671.695008	12722.468346
672.034918	12732.651477
672.374777	12774.034309
672.714585	12700.556971
673.054342	12722.513717
673.394049	12677.155935
673.733705	12776.038168
674.073310	12676.843383
674.412864	12683.737161
674.752368	12550.764126
675.091820	12581.305956
675.431223	12561.922720
675.770574	12435.314141
676.109875	12352.752644
676.449125	12313.098928
676.788324	12256.733787
677.127473	12086.075605
677.466571	12082.267014
677.805619	11971.593522
678.144616	11896.613920
678.483562	11874.269006
678.822458	11736.227090
679.161303	11714.240098
679.500098	11700.434898
679.838842	11660.652632
680.177535	11688.971314
680.516179	11747.279820
680.854771	11695.923065
681.193314	11911.535736
681.531805	12060.892521
681.870247	12508.254596
682.208638	12918.390270
682.546978	13219.238770
682.885268	13261.859205
683.223508	12954.835292
683.561697	12803.439359
683.899836	12706.200543
684.237925	12499.588852
684.575963	12413.009556
684.913951	12334.052484
685.251889	12287.704115
685.589776	12391.796380
685.927614	12307.644399
686.265401	12277.725151
686.603137	12325.550578
686.940824	12479.154535
687.278460	12605.473248
687.616046	12655.834375
687.953582	12810.678456
688.291068	12742.819484
688.628504	12974.904125
688.965889	12985.656906
689.303224	12951.611474
689.640510	12838.130060
689.977745	12516.479238
690.314930	12291.248046
690.652065	12211.930532
690.989150	11910.305694
691.326185	11685.200531
691.663170	11483.430869
692.000105	11233.558517
692.336990	11128.362239
692.673825	10867.381704
693.010610	10752.564384
693.347345	10544.402539
693.684030	10348.231078
694.020665	10283.671542
694.357251	10091.361605
694.693786	10017.657415
695.030272	9869.442451
695.366707	9752.966591
695.703093	9686.682980
696.039429	9677.916413
696.375716	9592.932642
696.711952	9466.351789
697.048139	9508.813428
697.384276	9465.540163
697.720363	9484.061363
698.056400	9420.618441
698.392388	9363.333290
698.728326	9328.836674
699.064214	9272.257284
699.400053	9315.071803
699.735842	9123.810426
700.071581	9085.898429
700.407270	9011.811111
700.742910	8931.223226
701.078501	8832.572886
701.414042	8707.948002
701.749533	8651.393817
702.084974	8510.899380
702.420366	8628.128892
702.755709	8500.834716
703.091002	8369.704223
703.426246	8398.106083
703.761440	8353.849794
704.096584	8310.112743
704.431679	8238.019202
704.766725	8228.541832
705.101721	8178.480654
705.436668	8227.218530
705.771565	8116.981098
706.106413	8202.191721
706.441212	8238.848472
706.775961	8199.046041
707.110661	8238.714881
707.445311	8378.712764
707.779913	8274.005478
708.114465	8407.354080
708.448967	8438.258874
708.783421	8597.312319
709.117825	8776.860575
709.452180	8802.532651
709.786485	8894.644614
710.120742	9179.457203
710.454949	9181.042646
710.789107	9286.929562
711.123216	9505.090536
711.457275	9673.928860
711.791286	9831.016255
712.125247	9826.615328
712.459159	9813.011774
712.793023	10052.370800
713.126837	9627.046130
713.460602	9780.758472
713.794318	9611.287483
714.127985	9636.463005
714.461602	9302.874732
714.795171	9255.959233
715.128691	9008.423456
715.462162	8760.771732
715.795584	8707.237199
716.128957	8543.503043
716.462281	8376.255202
716.795556	8428.617667
717.128782	8218.083959
717.461960	7960.097870
717.795088	8030.038838
718.128167	7934.703057
718.461198	7772.214066
718.794180	7719.203812
719.127113	7706.038839
719.459997	7540.356277
719.792833	7315.553583
720.125619	7384.768625
720.458357	7237.211532
720.791046	7235.542910
721.123686	7225.221147
721.456278	7064.330202
721.788821	7079.395690
722.121315	6980.120247
722.453761	7047.414610
722.786158	6989.521999
723.118506	7003.027250
723.450805	6964.046528
723.783056	7024.517689
724.115259	6943.523991
724.447412	6933.509739
724.779518	6989.070816
725.111574	6985.244580
725.443582	7072.307827
725.775542	7046.343365
726.107453	7246.898109
726.439315	7154.372771
726.771129	7220.893317
727.102895	7393.688947
727.434612	7502.958477
727.766281	7538.511215
728.097901	7614.408306
728.429473	7614.204140
728.760996	7594.573887
729.092471	7571.765186
729.423897	7510.159765
729.755276	7515.475662
730.086606	7439.064373
730.417887	7537.901235
730.749120	7748.316476
731.080305	7932.558046
731.411442	8049.716982
731.742530	8032.259466
732.073570	8153.216912
732.404562	8237.925940
732.735506	8087.371881
733.066401	8227.682316
733.397249	8154.507447
733.728048	7912.101044
734.058798	7576.642502
734.389501	7352.081784
734.720156	7170.456572
735.050762	6945.414423
735.381320	6857.055599
735.711831	6795.014119
736.042293	6688.658376
736.372707	6701.599018
736.703073	6571.683442
737.033391	6606.842969
737.363661	6619.587006
737.693883	6653.783673
738.024056	6740.279791
738.354182	6777.619618
738.684260	6806.507950
739.014290	6929.832217
739.344272	7041.072838
739.674207	7071.259268
740.004093	7146.397666
740.333931	7159.479460
740.663722	7161.919378
740.993464	7240.261430
741.323159	7223.681075
741.652806	6973.186140
741.982405	7003.014647
742.311956	7050.134312
742.641460	6878.538477
742.970915	6681.411717
743.300323	6672.814029
743.629683	6629.568491
743.958996	6492.010526
744.288260	6400.684983
744.617477	6349.673547
744.946647	6354.137489
745.275768	6181.571231
745.604842	6140.208564
745.933869	6126.431090
746.262847	6081.547177
746.591778	6069.531587
746.920662	6026.286048
747.249498	6020.511407
747.578286	6071.772380
747.907027	6146.431868
748.235720	6206.817329
748.564365	6172.436660
748.892963	6209.131219
749.221514	6357.348704
749.550017	6181.447723
749.878473	6064.840793
750.206881	6119.852384
750.535242	6071.979067
750.863555	5994.856975
751.191821	6012.049830
751.520039	6011.810375
751.848210	5918.692702
752.176334	5947.354182
752.504411	5990.463609
752.832440	5914.906795
753.160421	5844.902813
753.488356	5893.207149
753.816243	5920.936015
754.144082	5772.703407
754.471875	5749.171301
754.799620	5792.736953
755.127318	5803.875382
755.454969	5761.691007
755.782572	5726.576849
756.110129	5764.652684
756.437638	5751.172639
756.765100	5691.893711
757.092515	5693.542168
757.419882	5749.065437
757.747203	5724.588114
758.074477	5781.233039
758.401703	5767.052274
758.728882	5722.710284
759.056014	5785.749913
759.383099	5912.660961
759.710138	5921.609009
760.037129	5908.605353
760.364073	5911.872021
760.690970	5996.248333
761.017820	5967.919569
761.344623	5933.276760
761.671379	6034.775352
761.998088	6160.635319
762.324751	6412.849287
762.651366	7032.326436
762.977935	8373.598514
763.304456	10017.269246
763.630931	10904.335882
763.957359	10473.854112
764.283740	9517.930355
764.610074	8667.296137
764.936362	7668.454517
765.262602	7073.928558
765.588796	6537.806888
765.914943	6199.820208
766.241044	6034.356936
766.567097	5825.204504
766.893104	5569.532304
767.219064	5394.102671
767.544978	5329.122198
767.870845	5247.362244
768.196665	5145.364578
768.522438	5071.844391
768.848165	5041.967993
769.173846	4970.675995
769.499479	4921.292852
769.825066	4874.147981
770.150607	4811.587262
770.476101	4791.445332
770.801548	4785.159013
771.126949	4703.850242
771.452303	4651.031553
771.777611	4613.525368
772.102872	4632.485148
772.428087	4595.162965
772.753256	4551.067993
773.078378	4504.059233
773.403453	4438.060447
773.728482	4423.753652
774.053465	4376.061816
774.378401	4362.324672
774.703291	4364.003376
775.028135	4286.825832
775.352932	4241.044593
775.677683	4227.438519
776.002388	4250.521962
776.327046	4257.156121
776.651658	4185.344884
776.976224	4122.665698
777.300743	4125.957571
777.625216	4148.236951
777.949643	4138.447030
778.274024	4098.359774
778.598359	4057.365111
778.922647	4083.085078
779.246889	4072.181062
779.571086	4062.108837
779.895236	4047.539902
780.219339	4037.850805
780.543397	4033.205382
780.867409	4084.126077
781.191374	4098.521091
781.515294	4033.338972
781.839167	4026.215822
782.162995	4051.492167
782.486776	4033.674209
782.810511	4046.851785
783.134201	4037.891134
783.457844	3994.201974
783.781441	3940.579221
784.104993	3942.557874
784.428498	3962.218374
784.751958	3960.375832
785.075372	3936.579065
785.398739	3902.228643
785.722061	3912.535282
786.045337	3956.045481
786.368568	3987.885408
786.691752	3898.470463
787.014891	3954.487764
787.337983	4082.134821
787.661030	4241.155498
787.984031	4405.194644
788.306987	4576.324173
788.629897	4654.998941
788.952760	4610.959421
789.275579	4543.375192
789.598351	4481.159792
789.921078	4330.182275
790.243759	4133.231956
790.566395	4116.616313
790.888984	4111.489460
791.211529	4006.068850
791.534027	3944.629788
791.856480	3928.132612
792.178888	3868.823437
792.501249	3820.705623
792.823566	3835.324970
793.145836	3863.129454
793.468062	3805.418324
793.790241	3764.068260
794.112375	3793.901808
794.434464	3861.372612
794.756507	3882.255591
795.078505	3861.360009
795.400457	3896.539701
795.722364	4040.121845
796.044226	4144.856857
796.366042	4217.101633
796.687812	4195.701935
797.009538	4197.980536
797.331218	4159.340092
797.652852	4132.427892
797.974442	4113.765541
798.295986	4110.662710
798.617484	4025.283208
798.938938	3941.647945
799.260346	3983.187053
799.581709	3980.240499
799.903026	3902.931884
800.224299	3866.154146
800.545526	3860.160214
800.866708	3819.515911
801.187845	3761.746809
801.508936	3800.452788
801.829983	3793.339720
802.150984	3711.199159
802.471940	3706.397460
802.792851	3715.620251
803.113717	3714.803584
803.434538	3713.616392
803.755314	3656.777383
804.076045	3635.639825
804.396731	3657.049605
804.717372	3681.295034
805.037967	3664.976819
805.358518	3652.724295
805.679024	3684.438194
805.999485	3699.659958
806.319901	3700.912685
806.640272	3714.886763
806.960598	3726.839339
807.280879	3699.423024
807.601115	3713.097153
807.921306	3732.293867
808.241453	3770.399949
808.561554	3742.144282
808.881611	3679.273532
809.201623	3721.541086
809.521590	3728.475193
809.841513	3702.001574
810.161390	3730.353023
810.481223	3706.755382
810.801011	3655.857372
811.120755	3648.542658
811.440453	3683.314017
811.760107	3685.287628
812.079716	3640.260042
812.399281	3611.482615
812.718801	3633.252838
813.038276	3609.365331
813.357707	3605.261832
813.677093	3621.297742
813.996434	3566.084504
814.315731	3576.565063
814.634983	3581.190322
814.954191	3597.105245
815.273354	3626.971561
815.592473	3617.859675
815.911547	3627.601705
816.230577	3671.089218
816.549562	3723.484451
816.868502	3758.515429
817.187399	3788.089358
817.506250	3784.663894
817.825058	3759.977364
818.143821	3852.255685
818.462539	3953.272846
818.781213	3999.979137
819.099843	4062.227304
819.418429	4318.166685
819.736970	4558.665012
820.055466	4811.234381
820.373919	5180.138458
820.692327	5592.915696
821.010691	6060.568415
821.329011	7490.048082
821.647286	10315.224123
821.965517	14971.427900
822.283704	19012.061422
822.601847	21085.508163
822.919945	19203.955464
823.237999	16585.680979
823.556010	14068.012802
823.873976	11937.764859
824.191897	9828.389814
824.509775	8482.547931
824.827609	7358.058072
825.145398	6822.750548
825.463144	6704.999276
825.780845	6817.870711
826.098502	7023.847216
826.416116	7941.359901
826.733685	9282.291700
827.051210	10397.483151
827.368692	10388.895546
827.686129	9092.237680
828.003522	7577.393634
828.320872	6558.800773
828.638177	5850.705181
828.955439	5283.582935
829.272656	4783.825627
829.589830	4502.672916
829.906960	4326.293025
830.224046	4137.549704
830.541088	4011.853574
830.858086	3967.224239
831.175041	3885.325654
831.491952	3872.309395
831.808819	3884.687948
832.125642	3959.576809
832.442421	4114.536837
832.759157	4402.926125
833.075849	4965.118123
833.392497	5850.392629
833.709101	6636.676518
834.025662	6953.782739
834.342179	6564.227575
834.658653	5890.827724
834.975083	5235.472683
835.291469	4651.142458
835.607811	4248.528186
835.924110	4108.610961
836.240366	3903.693098
836.556578	3706.072306
836.872746	3591.408741
837.188871	3545.690517
837.504952	3481.413284
837.820990	3395.930439
838.136984	3355.255889
838.452935	3379.196328
838.768842	3375.569218
839.084706	3400.107035
839.400526	3560.672826
839.716303	3912.300868
840.032037	4453.423363
840.347727	4702.988205
840.663373	4403.997370
840.978977	4019.533772
841.294537	3712.459447
841.610054	3485.322699
841.925527	3381.275804
842.240957	3309.958601
842.556344	3252.519694
842.871687	3194.380067
843.186987	3142.093219
843.502244	3107.268928
843.817458	3072.684092
844.132629	3041.222251
844.447756	3048.768858
844.762840	3035.624050
845.077881	3003.544667
845.392879	2984.864672
845.707833	2982.739825
846.022745	2977.693630
846.337613	2982.754949
846.652438	2969.557208
846.967221	2967.714666
847.281960	2951.550207
847.596656	2948.346553
847.911309	2946.481326
848.225919	2942.549226
848.540485	2937.056889
848.855009	2937.210644
849.169490	2925.699170
849.483928	2916.829259
849.798323	2918.182809
850.112675	2914.568302
850.426984	2927.498862
850.741251	2923.160949
851.055474	2910.109401
851.369654	2907.588824
851.683792	2912.201480
851.997887	2920.779003
852.311938	2921.996442
852.625947	2907.407343
852.939914	2912.561923
853.253837	2917.267840
853.567718	2903.437434
853.881555	2901.796539
854.195350	2916.488982
854.509103	2913.441604
854.822812	2905.161509
855.136479	2899.084398
855.450103	2905.698392
855.763685	2898.723955
856.077224	2895.671537
856.390720	2907.104874
856.704173	2917.076276
857.017584	2908.231572
857.330953	2905.572363
857.644278	2916.516708
857.957561	2928.030703
858.270802	2930.657144
858.584000	2924.877462
858.897155	2914.898498
859.210268	2914.190215
859.523339	2910.187539
859.836367	2911.689803
860.149352	2906.426838
860.462295	2902.567835
860.775195	2906.857857
861.088054	2908.370203
861.400869	2889.269271
861.713642	2890.161556
862.026373	2903.787794
862.339062	2909.239802
862.651708	2913.181985
862.964312	2916.398241
863.276873	2907.515728
863.589392	2919.470824
863.901869	2930.263934
864.214303	2952.588684
864.526696	2971.019143
864.839045	2964.926908
865.151353	2963.769963
865.463619	2963.757361
865.775842	2963.215437
866.088023	2984.461379
866.400162	2989.116885
866.712258	2959.048923
867.024313	2948.888477
867.336325	2960.737709
867.648296	2981.451811
867.960224	2971.752631
868.272110	2957.917184
868.583954	2964.410190
868.895755	2976.458548
869.207515	2962.381126
869.519233	2971.092239
869.830909	2981.542551
870.142542	2989.933552
870.454134	2991.997904
870.765684	2992.582678
871.077191	2993.895899
871.388657	3001.807990
871.700081	3013.662263
872.011463	3024.173069
872.322803	3024.997298
872.634101	3024.094931
872.945357	3042.858106
873.256571	3070.019842
873.567744	3063.194120
873.878874	3055.960064
874.189963	3075.933116
874.501010	3076.757345
874.812015	3066.480953
875.122979	3068.623443
875.433900	3066.062537
875.744780	3072.207703
876.055618	3079.078796
876.366415	3076.099474
876.677169	3087.008531
876.987882	3084.356884
877.298554	3080.361770
877.609183	3100.047475
877.919771	3125.404479
878.230317	3151.144611
878.540822	3205.556305
878.851285	3242.429825
879.161707	3287.724592
879.472087	3396.484966
879.782425	3636.600164
880.092722	4083.148093
880.402977	4621.019043
880.713191	5266.866468
881.023363	6458.257480
881.333494	7762.492201
881.643583	8300.718553
881.953631	7985.011252
882.263637	7329.915830
882.573602	6724.944601
882.883526	6137.720754
883.193408	5560.483433
883.503248	5099.631231
883.813048	4793.381135
884.122806	4477.298268
884.432522	4153.560409
884.742197	3916.762289
885.051831	3726.647775
885.361424	3591.083586
885.670975	3520.635982
885.980485	3428.609718
886.289954	3351.273377
886.599382	3303.697488
886.908768	3268.996705
887.218113	3220.851166
887.527417	3162.761950
887.836680	3111.077520
888.145901	3108.705657
888.455082	3096.715273
888.764221	3045.900442
889.073319	3016.873478
889.382376	3014.705782
889.691392	3020.422450
890.000366	3017.485978
890.309300	3004.668845
890.618193	3016.389527
890.927044	3034.283103
891.235855	3032.770757
891.544625	3020.021679
891.853353	3030.673637
892.162041	3050.750032
892.470687	3091.343923
892.779293	3145.503560
893.087858	3192.439222
893.396381	3263.706014
893.704864	3392.973802
894.013306	3641.217861
894.321707	3947.702371
894.630068	4153.240296
894.938387	4141.953152
895.246665	4099.967903
895.554903	3970.190958
895.863100	3767.982716
896.171256	3597.362343
896.479371	3454.455714
896.787446	3331.786797
897.095480	3228.884244
897.403473	3164.937208
897.711425	3126.594192
898.019336	3116.902573
898.327207	3088.041967
898.635038	3049.504867
898.942827	3036.329811
899.250576	3026.134078
899.558284	2994.604181
899.865952	2973.769092
900.173579	2952.024075
900.481165	2946.816563
900.788711	2933.104625
901.096216	2908.990265
901.403681	2896.344531
901.711105	2905.017836
902.018489	2901.373082
902.325832	2900.105232
902.633135	2913.648291
902.940397	2946.657767
903.247619	3033.544574
903.554800	3234.419431
903.861941	3592.452260
904.169041	4032.363509
904.476101	4325.559537
904.783121	4268.831433
905.090100	4014.464892
905.397039	3733.317222
905.703938	3481.587204
906.010796	3293.589974
906.317614	3183.521421
906.624391	3086.829570
906.931129	3012.654032
907.237826	2951.310752
907.544483	2905.254770
907.851099	2873.087167
908.157675	2853.217460
908.464211	2833.730879
908.770707	2817.546255
909.077163	2803.622588
909.383578	2790.621452
909.689954	2778.946140
909.996289	2780.675256
910.302584	2778.000924
910.608839	2779.911521
910.915054	2769.756117
911.221229	2767.807711
911.527363	2768.604213
911.833458	2773.983124
912.139513	2779.730039
912.445527	2785.305556
912.751502	2792.204375
913.057436	2798.377267
913.363331	2816.578353
913.669186	2840.889318
913.975000	2875.680841
914.280775	2936.646035
914.586510	3008.719412
914.892205	3090.224787
915.197859	3223.585992
915.503475	3424.508740
915.809050	3642.450423
916.114585	3788.076755
916.420081	3804.014363
916.725536	3745.587390
917.030952	3621.133904
917.336328	3486.111640
917.641665	3354.499716
917.946961	3251.584560
918.252218	3181.784744
918.557435	3101.678289
918.862612	3037.885007
919.167750	2989.510095
919.472848	2950.559620
919.777906	2922.336720
920.082925	2896.573903
920.387904	2867.274717
920.692843	2848.849300
920.997743	2835.580983
921.302603	2823.409117
921.607423	2814.423260
921.912204	2801.250725
922.216946	2789.416617
922.521647	2777.527055
922.826310	2770.051024
923.130932	2766.673451
923.435516	2753.049733
923.740059	2750.670308
924.044564	2740.590521
924.349028	2731.977710
924.653454	2728.053171
924.957840	2721.308107
925.262186	2715.742674
925.566493	2712.115563
925.870761	2711.616489
926.174989	2703.948894
926.479178	2699.381609
926.783328	2694.141329
927.087438	2693.806093
927.391509	2693.193592
927.695541	2688.391893
927.999533	2685.263857
928.303486	2682.438291
928.607400	2681.147755
928.911275	2681.157838
929.215110	2679.690862
929.518906	2679.665656
929.822663	2679.678259
930.126381	2679.874864
930.430060	2679.552230
930.733699	2681.984587
931.037299	2680.724298
931.340861	2680.988959
931.644383	2681.808147
931.947866	2681.155317
932.251309	2679.426201
932.554714	2680.999041
932.858080	2678.523835
933.161407	2677.956705
933.464694	2675.751200
933.767943	2672.673576
934.071153	2673.820438
934.374323	2672.282886
934.677455	2673.906138
934.980548	2672.897907
935.283602	2670.687361
935.586617	2673.573422
935.889593	2672.759275
936.192530	2671.342711
936.495428	2672.504697
936.798287	2672.973524
937.101108	2678.352436
937.403890	2680.449556
937.706632	2684.840401
938.009336	2691.477080
938.312002	2701.055272
938.614628	2708.448124
938.917216	2716.657643
939.219765	2715.127653
939.522275	2717.378528
939.824747	2714.275698
940.127179	2710.089020
940.429573	2707.555840
940.731929	2705.136086
941.034246	2700.354552
941.336524	2699.641228
941.638763	2695.772143
941.940964	2694.418593
942.243126	2691.184693
942.545250	2691.187213
942.847335	2688.855680
943.149381	2682.962571
943.451389	2680.686490
943.753359	2678.438135
944.055290	2677.392096
944.357182	2676.066272
944.659036	2674.581652
944.960851	2673.200376
945.262628	2672.890345
945.564367	2672.300530
945.866067	2676.456962
946.167729	2676.280521
946.469352	2677.389575
946.770937	2673.356652
947.072484	2671.708195
947.373992	2673.737259
947.675462	2673.429749
947.976893	2665.893224
948.278286	2665.386588
948.579641	2664.963131
948.880958	2663.324756
949.182236	2668.864984
949.483476	2664.453974
949.784678	2665.414314
950.085841	2663.317194
950.386967	2665.356341
950.688054	2665.656290
950.989103	2666.127637
951.290114	2666.775426
951.591087	2670.095026
951.892021	2670.853719
952.192917	2672.983607
952.493776	2677.250943
952.794596	2677.480316
953.095378	2676.527538
953.396122	2675.284893
953.696828	2674.377486
953.997496	2671.768689
954.298126	2669.182577
954.598718	2668.002947
954.899272	2667.019922
955.199788	2663.949859
955.500266	2661.867862
955.800706	2659.032213
956.101108	2657.640855
956.401472	2654.906029
956.701798	2652.965185
957.002087	2648.965029
957.302337	2649.438898
957.602550	2649.723723
957.902724	2647.142652
958.202861	2646.693989
958.502960	2646.865389
958.803022	2644.743063
959.103045	2644.475882
959.403031	2640.896663
959.702979	2642.860192
960.002889	2640.611837
960.302762	2640.493370
960.602596	2638.797022
960.902393	2640.659728
961.202153	2638.739049
961.501875	2640.032105
961.801559	2639.548154
962.101205	2637.133441
962.400814	2637.040180
962.700385	2639.253246
962.999918	2636.281486
963.299414	2634.731331
963.598873	2635.248050
963.898293	2633.224026
964.197677	2639.044038
964.497022	2635.734521
964.796331	2636.314254
965.095601	2636.720067
965.394835	2636.367186
965.694030	2635.938688
965.993189	2637.955149
966.292309	2636.208389
966.591393	2635.119500
966.890439	2634.612864
967.189447	2636.029428
967.488419	2633.279479
967.787353	2633.075312
968.086249	2637.582104
968.385108	2635.290899
968.683930	2637.635036
968.982714	2634.973307
969.281462	2635.391722
969.580172	2634.693523
969.878844	2635.308543
970.177480	2637.735859
970.476078	2637.135962
970.774639	2637.690489
971.073162	2637.856847
971.371649	2635.742083
971.670098	2637.471198
971.968510	2638.245016
972.266885	2637.307361
972.565223	2635.424490
972.863524	2635.331229
973.161788	2635.215282
973.460014	2636.508338
973.758204	2634.670837
974.056356	2636.402474
974.354471	2637.950108
974.652550	2636.468009
974.950591	2636.709984
975.248595	2636.798204
975.546563	2635.542957
975.844493	2633.725621
976.142386	2634.746455
976.440243	2636.127731
976.738062	2633.347535
977.035845	2633.561784
977.333590	2635.452216
977.631299	2634.577576
977.928971	2631.646145
978.226606	2629.977523
978.524204	2630.761423
978.821765	2629.266721
979.119290	2635.530354
979.416777	2633.004736
979.714228	2634.068420
980.011642	2631.900723
980.309020	2634.330560
980.606360	2632.407359
980.903664	2634.759058
981.200931	2634.212092
981.498162	2635.968935
981.795356	2634.383492
982.092513	2637.584624
982.389633	2640.107722
982.686717	2644.962353
982.983764	2648.541572
983.280775	2648.143321
983.577749	2651.813281
983.874686	2651.117602
984.171587	2648.067704
984.468451	2645.698362
984.765279	2643.087044
985.062070	2641.151241
985.358824	2638.429018
985.655543	2639.429687
985.952224	2634.849798
986.248869	2635.890797
986.545478	2635.152268
986.842050	2633.317288
987.138586	2631.862915
987.435086	2633.105559
987.731549	2630.562297
988.027975	2632.029273
988.324366	2631.328553
988.620719	2633.438275
988.917037	2630.438789
989.213318	2632.140178
989.509563	2629.816206
989.805772	2630.458953
990.101944	2632.369551
990.398080	2629.238994
990.694180	2630.453912
990.990244	2629.395270
991.286271	2631.023563
991.582262	2633.544140
991.878217	2631.547843
992.174136	2629.604478
992.470019	2631.194962
992.765865	2630.370733
993.061676	2624.875876
993.357450	2628.225722
993.653188	2629.627163
993.948890	2631.310908
994.244556	2628.566000
994.540186	2634.859881
994.835780	2632.281331
995.131337	2633.985241
995.426859	2631.520116
995.722345	2633.695374
996.017795	2633.395426
996.313208	2635.686630
996.608586	2634.801907
996.903928	2635.623616
997.199234	2634.310395
997.494504	2636.462968
997.789738	2636.150416
998.084936	2634.335601
998.380099	2631.285703
998.675225	2634.766619
998.970316	2631.976341
999.265371	2630.234622
999.560390	2631.225209
999.855373	2630.796711
1000.150320	2629.065074
1000.445232	2630.380816
1000.740108	2629.100362
1001.034948	2631.174797
1001.329752	2630.355610
1001.624521	2630.176649
1001.919254	2628.470218
1002.213951	2631.757051
1002.508613	2630.574900
1002.803239	2628.878552
1003.097829	2629.145733
1003.392384	2631.769653
1003.686903	2626.773870
1003.981386	2628.117338
1004.275834	2629.407873
1004.570246	2629.929632
1004.864623	2629.531381
1005.158964	2627.648510
1005.453270	2628.321504
1005.747540	2628.520630
1006.041775	2626.967954
1006.335974	2628.739920
1006.630138	2629.450723
1006.924266	2627.885444
1007.218359	2629.569190
1007.512416	2625.097686
1007.806438	2620.149794
1008.100425	2623.771863
1008.394376	2625.364867
1008.688292	2627.393932
1008.982172	2625.916874
1009.276017	2630.267390
1009.569827	2628.407204
1009.863602	2628.971813
1010.157341	2627.436782
1010.451045	2625.659775
1010.744714	2627.522481
1011.038347	2626.980557
1011.331945	2626.751185
1011.625508	2627.338479
1011.919036	2628.684467
1012.212528	2627.729169
1012.505986	2628.069447
1012.799408	2628.714714
1013.092795	2625.027110
1013.386147	2625.367388
1013.679464	2626.947790
1013.972745	2626.655403
1014.265992	2629.629684
1014.559204	2630.252266
1014.852380	2628.618932
1015.145521	2629.415435
1015.438628	2627.885444
1015.731699	2624.654065
1016.024736	2625.644652
1016.317737	2626.294960
1016.610703	2626.242028
1016.903635	2627.746813
1017.196531	2626.242028
1017.489393	2626.312604
1017.782219	2626.544497
1018.075011	2628.429889
1018.367768	2625.921915
1018.660490	2624.228087
1018.953177	2624.228087
1019.245829	2624.228087
