Dividing Wavelength (nm)	Counts (n)	Blue Motor Position (mm): 15.400000	Red Motor Position (mm): 0.000000	
326.493990	2173.057421
326.888308	2173.057421
327.282561	2173.057421
327.676750	2134.147275
328.070874	2129.020422
328.464933	2131.878756
328.858929	2133.769188
329.252859	2136.652728
329.646726	2147.397948
330.040528	2159.194248
330.434265	2173.029695
330.827938	2191.709690
331.221547	2208.375745
331.615091	2223.050544
332.008571	2241.087792
332.401986	2259.828282
332.795338	2279.501384
333.188625	2301.294293
333.581847	2317.320121
333.975006	2332.700681
334.368100	2352.081397
334.761129	2373.017309
335.154095	2387.082128
335.546996	2412.902918
335.939833	2438.454006
336.332606	2453.199381
336.725315	2464.683130
337.117960	2479.156283
337.510540	2486.236583
337.903056	2501.072699
338.295508	2508.082423
338.687896	2517.075842
339.080220	2525.789476
339.472480	2532.121165
339.864676	2540.439069
340.256807	2544.303114
340.648875	2547.663043
341.040879	2549.666901
341.432818	2555.285267
341.824694	2554.337530
342.216506	2555.867521
342.608253	2556.984136
342.999937	2560.152501
343.391557	2559.587892
343.783113	2555.580175
344.174605	2557.871379
344.566033	2554.894578
344.957397	2555.474311
345.348697	2552.540359
345.739934	2550.975081
346.131106	2549.792930
346.522215	2548.441901
346.913260	2546.463248
347.304241	2544.363608
347.695159	2541.946374
348.086012	2538.289017
348.476802	2537.023688
348.867528	2536.282638
349.258191	2527.866432
349.648789	2530.676875
350.039324	2528.584796
350.429796	2532.736186
350.820203	2531.415404
351.210548	2530.079498
351.600828	2529.295599
351.991045	2524.801410
352.381198	2528.398273
352.771288	2523.720082
353.161314	2526.192768
353.551276	2524.493900
353.941175	2523.226049
354.331010	2524.940042
354.720782	2522.467356
355.110490	2523.006759
355.500135	2521.605318
355.889717	2521.630524
356.279235	2520.962571
356.668689	2522.772346
357.058080	2523.339475
357.447408	2524.093128
357.836672	2524.481297
358.225873	2522.321162
358.615010	2524.604805
359.004084	2524.004908
359.393095	2524.279651
359.782043	2522.898374
360.170927	2524.889630
360.559748	2526.868283
360.948505	2527.753006
361.337199	2526.832995
361.725830	2528.446164
362.114398	2526.522964
362.502903	2529.409025
362.891344	2531.564118
363.279722	2532.907585
363.668037	2528.922553
364.056289	2530.263500
364.444478	2533.300795
364.832603	2532.295085
365.220665	2533.399098
365.608665	2532.781557
365.996601	2532.655528
366.384474	2532.141330
366.772284	2532.342976
367.160031	2533.540250
367.547715	2534.316588
367.935336	2537.240457
368.322893	2534.422452
368.710388	2533.010929
369.097820	2535.662576
369.485189	2533.003367
369.872495	2534.094777
370.259738	2540.857485
370.646918	2536.184335
371.034035	2537.918492
371.421090	2537.532844
371.808081	2539.453524
372.195010	2541.565767
372.581875	2540.131559
372.968678	2539.551826
373.355418	2537.212731
373.742096	2539.410674
374.128710	2540.852444
374.515262	2539.105684
374.901751	2537.426980
375.288177	2542.793288
375.674540	2540.164326
376.060841	2540.723894
376.447079	2540.431507
376.833254	2539.965201
377.219367	2543.413350
377.605417	2541.205325
377.991404	2542.720191
378.377329	2541.759852
378.763191	2540.794471
379.148991	2543.680531
379.534727	2542.568957
379.920402	2541.444779
380.306013	2542.896632
380.691563	2541.893442
381.077049	2546.112888
381.462474	2543.012578
381.847835	2542.422763
382.233134	2543.877136
382.618371	2544.845038
383.003545	2545.840666
383.388657	2542.140459
383.773706	2546.770758
384.158693	2545.253371
384.543618	2547.103475
384.928480	2541.616179
385.313280	2546.727909
385.698017	2545.129863
386.082692	2546.339740
386.467305	2547.907539
386.851856	2545.172713
387.236344	2549.722354
387.620770	2544.146838
388.005133	2541.303627
388.389435	2545.107178
388.773674	2541.737166
389.157851	2545.228165
389.541965	2547.995759
389.926018	2550.123126
390.310008	2550.869217
390.693936	2547.836963
391.077802	2548.235214
391.461606	2550.733105
391.845348	2547.332847
392.229027	2550.667570
392.612645	2546.501057
392.996200	2550.014741
393.379694	2550.236552
393.763125	2550.221428
394.146494	2551.663198
394.529801	2550.823846
394.913047	2549.593805
395.296230	2551.239741
395.679351	2550.425595
396.062410	2553.793086
396.445408	2551.970709
396.828343	2551.769063
397.211217	2551.937941
397.594028	2550.700338
397.976778	2553.183106
398.359466	2551.925338
398.742092	2551.338044
399.124656	2552.021120
399.507158	2553.800647
399.889598	2553.672098
400.271977	2553.203271
400.654294	2551.733774
401.036549	2553.941800
401.418742	2555.229815
401.800874	2553.195709
402.182944	2555.849877
402.564952	2553.677139
402.946898	2552.817622
403.328783	2556.079249
403.710606	2554.942469
404.092367	2553.314176
404.474067	2554.992880
404.855705	2556.974054
405.237282	2555.116389
405.618797	2554.766028
406.000250	2554.529094
406.381642	2554.264434
406.762972	2553.236038
407.144240	2553.084804
407.525447	2553.972047
407.906593	2554.584547
408.287677	2557.246276
408.668700	2555.378529
409.049661	2557.407593
409.430560	2558.438509
409.811399	2558.622511
410.192176	2558.914898
410.572891	2559.834909
410.953545	2560.613767
411.334138	2558.400700
411.714669	2561.513613
412.095139	2561.198541
412.475547	2559.693756
412.855894	2558.045299
413.236180	2559.615618
413.616405	2559.971020
413.996568	2560.462532
414.376670	2557.190823
414.756711	2559.671071
415.136691	2561.367419
415.516609	2558.720814
415.896466	2560.517985
416.276262	2559.658468
416.655997	2558.922460
417.035670	2559.519837
417.415283	2561.168294
417.794834	2560.369271
418.174324	2560.858263
418.553753	2562.161401
418.933121	2562.882286
419.312428	2562.867163
419.691674	2563.719118
420.070859	2563.900599
420.449983	2561.818603
420.829045	2561.347255
421.208047	2562.458829
421.586988	2563.220043
421.965867	2564.954200
422.344686	2561.624518
422.723444	2563.663665
423.102141	2565.440672
423.480777	2566.035528
423.859352	2562.461350
424.237866	2563.114179
424.616319	2564.404715
424.994712	2561.874055
425.373044	2563.204920
425.751314	2561.342214
426.129524	2561.354817
426.507673	2562.189127
426.885762	2560.210475
427.263789	2565.158367
427.641756	2563.767009
428.019662	2564.374468
428.397508	2564.737431
428.775292	2566.174160
429.153016	2565.813717
429.530679	2565.176011
429.908282	2567.378995
430.285824	2567.386557
430.663305	2568.208265
431.040726	2564.450085
431.418086	2564.311453
431.795385	2565.538974
432.172624	2564.235836
432.549802	2564.795404
432.926920	2566.776577
433.303977	2564.286247
433.680974	2564.434962
434.057910	2566.887483
434.434786	2565.266752
434.811601	2567.033676
435.188355	2570.043245
435.565050	2566.101063
435.941683	2568.175498
436.318257	2569.677762
436.694770	2566.383367
437.071222	2570.718760
437.447614	2569.967628
437.823946	2567.570559
438.200218	2567.736917
438.576429	2568.956877
438.952580	2566.902606
439.328670	2567.268090
439.704700	2566.769016
440.080670	2569.634912
440.456580	2569.246743
440.832429	2569.208934
441.208218	2567.502504
441.583947	2568.785477
441.959616	2570.628019
442.335224	2567.575600
442.710773	2571.353945
443.086261	2569.962587
443.461689	2568.024263
443.837057	2567.189952
444.212365	2568.152812
444.587612	2567.184911
444.962800	2566.401012
445.337927	2568.646846
445.712995	2566.242215
446.088002	2569.902093
446.462949	2570.355797
446.837837	2568.299006
447.212664	2569.881928
447.587431	2569.622309
447.962139	2570.791857
448.336786	2572.178174
448.711374	2571.162381
449.085901	2573.322516
449.460369	2571.744635
449.834776	2572.004254
450.209124	2570.128945
450.583412	2572.523493
450.957640	2571.752196
451.331808	2571.860581
451.705917	2573.478792
452.079965	2574.870150
452.453954	2573.735890
452.827883	2573.627506
453.201752	2571.711867
453.575562	2572.702454
453.949311	2571.628688
454.323001	2574.605489
454.696632	2572.657083
455.070202	2572.218503
455.443713	2571.764799
455.817164	2574.101374
456.190556	2575.669173
456.563888	2576.097671
456.937160	2573.672876
457.310373	2573.201528
457.683526	2574.784450
458.056619	2574.003072
458.429653	2574.323185
458.802628	2574.323185
459.175542	2573.549368
459.548398	2578.114132
459.921194	2577.292424
460.293930	2577.700758
460.666607	2576.730336
461.039224	2578.925758
461.411782	2579.671849
461.784280	2578.202353
462.156719	2578.966087
462.529099	2574.592887
462.901419	2579.069431
463.273680	2575.646488
463.645882	2574.706313
464.018024	2577.584811
464.390106	2572.720098
464.762130	2578.981211
465.134094	2579.956674
465.505999	2581.385841
465.877845	2582.000862
466.249631	2583.422467
466.621358	2581.421129
466.993026	2583.029257
467.364634	2586.122005
467.736184	2584.589495
468.107674	2581.282498
468.479105	2582.444484
468.850477	2581.385841
469.221790	2581.811819
469.593043	2581.610173
469.964238	2583.692169
470.335373	2584.347519
470.706449	2583.074628
471.077467	2583.172930
471.448425	2582.525142
471.819324	2588.221646
472.190164	2590.243149
472.560945	2586.588312
472.931667	2586.308528
473.302330	2582.268043
473.672934	2584.549165
474.043479	2584.962540
474.413965	2584.602097
474.784393	2582.300811
475.154761	2584.801223
475.525070	2583.240986
475.895321	2582.142014
476.265513	2586.921028
476.635645	2584.234093
477.005719	2582.822570
477.375734	2585.083528
477.745691	2584.249217
478.115588	2587.641913
478.485427	2588.072932
478.855207	2586.578230
479.224928	2589.313056
479.594591	2590.742223
479.964194	2591.591657
480.333739	2592.244487
480.703226	2591.697522
481.072653	2590.580906
481.442022	2590.492686
481.811333	2587.888930
482.180584	2591.253900
482.549777	2588.793817
482.918912	2585.451532
483.287988	2591.626945
483.657005	2592.347830
484.025964	2588.065370
484.394864	2590.807758
484.763706	2592.655341
485.132489	2590.764908
485.501213	2593.731627
485.869879	2592.282295
486.238487	2593.134250
486.607036	2594.026535
486.975527	2591.374888
487.343959	2590.848087
487.712333	2595.617019
488.080648	2592.214240
488.448905	2593.882862
488.817104	2592.607450
489.185244	2593.847574
489.553326	2593.913109
489.921350	2595.974941
490.289315	2597.078953
490.657222	2600.312853
491.025070	2598.939139
491.392861	2599.627257
491.760593	2595.901844
492.128267	2598.102307
492.495883	2599.508789
492.863440	2596.113572
493.230939	2597.572986
493.598380	2594.868407
493.965763	2597.020980
494.333088	2597.116762
494.700354	2595.521237
495.067563	2596.537029
495.434713	2598.273707
495.801805	2597.991402
496.168839	2598.329159
496.535815	2595.261617
496.902733	2597.570466
497.269593	2600.408635
497.636395	2600.055755
498.003139	2597.923347
498.369825	2598.976948
498.736453	2597.714139
499.103023	2599.728080
499.469535	2598.505600
499.835989	2599.007195
500.202385	2594.848243
500.568723	2593.973603
500.935003	2598.145157
501.301226	2594.081987
501.667390	2600.501897
502.033497	2601.810076
502.399546	2601.671444
502.765537	2602.472988
503.131470	2601.623553
503.497345	2605.875767
503.863163	2602.601537
504.228923	2603.677824
504.594625	2606.425253
504.960269	2604.257556
505.325856	2606.395006
505.691385	2606.624378
506.056856	2606.447938
506.422270	2607.032712
506.787625	2609.898607
507.152924	2611.085799
507.518164	2611.859616
507.883347	2609.006323
508.248472	2607.441045
508.613540	2609.941457
508.978550	2611.337857
509.343503	2612.940944
509.708398	2611.630244
510.073236	2615.370780
510.438016	2615.050667
510.802738	2613.233331
511.167403	2616.399175
511.532010	2618.355143
511.896561	2619.431429
512.261053	2619.154166
512.625488	2621.631893
512.989866	2622.098200
513.354186	2621.531070
513.718449	2621.432767
514.082655	2626.322687
514.446803	2627.456946
514.810894	2627.719086
515.174927	2629.622122
515.538904	2630.895013
515.902822	2632.253604
516.266684	2632.510703
516.630488	2634.736372
516.994235	2633.839047
517.357925	2637.476240
517.721558	2638.403812
518.085133	2639.255767
518.448651	2638.809625
518.812112	2638.529841
519.175516	2641.993113
519.538863	2637.020015
519.902152	2645.095944
520.265385	2648.231541
520.628560	2648.415543
520.991678	2648.672642
521.354739	2653.736481
521.717743	2651.815802
522.080690	2656.224291
522.443580	2658.954076
522.806413	2660.131185
523.169189	2664.020435
523.531908	2667.269459
523.894569	2668.078564
524.257174	2668.796928
524.619722	2674.115346
524.982213	2672.963442
525.344647	2676.414112
525.707025	2680.898218
526.069345	2682.879392
526.431608	2685.626821
526.793815	2687.928107
527.155964	2690.957841
527.518057	2692.596216
527.880093	2695.613346
528.242072	2700.089891
528.603995	2702.423945
528.965860	2704.339584
529.327669	2708.445603
529.689421	2715.551110
530.051117	2715.195708
530.412755	2722.303735
530.774337	2726.545866
531.135862	2726.142574
531.497331	2734.384861
531.858743	2735.962742
532.220098	2745.480440
532.581396	2747.736357
532.942638	2751.915473
533.303824	2760.767739
533.664953	2761.269334
534.026025	2768.843668
534.387040	2778.741973
534.747999	2783.757921
535.108902	2793.310908
535.469748	2799.551856
535.830537	2802.178297
536.191270	2814.156079
536.551947	2819.812254
536.912567	2821.443067
537.273131	2838.721622
537.633638	2842.026098
537.994089	2855.493541
538.354483	2861.227853
538.714821	2874.591952
539.075103	2892.556104
539.435328	2897.138513
539.795497	2903.351735
540.155609	2921.121802
540.515665	2933.424738
540.875665	2938.571756
541.235609	2953.806123
541.595496	2968.496045
541.955328	2986.848366
542.315102	3007.806963
542.674821	3012.810308
543.034483	3020.697193
543.394090	3045.058569
543.753640	3052.645506
544.113134	3082.347984
544.472571	3092.193358
544.831953	3125.618728
545.191278	3132.734317
545.550548	3148.782830
545.909761	3166.240346
546.268918	3197.404759
546.628019	3218.176833
546.987064	3249.915938
547.346053	3260.736775
547.704986	3283.762245
548.063863	3321.149963
548.422684	3331.426355
548.781449	3354.310673
549.140158	3391.267371
549.498811	3420.669901
549.857408	3428.198864
550.215949	3476.525886
550.574434	3496.869462
550.932864	3538.670710
551.291237	3567.223805
551.649555	3607.873149
552.007817	3643.657780
552.366022	3674.668438
552.724173	3697.673743
553.082267	3740.858788
553.440305	3803.336328
553.798288	3805.461174
554.156215	3869.088097
554.514086	3918.224224
554.871902	3919.171961
555.229661	3970.221205
555.587365	4023.002086
555.945014	4051.098957
556.302606	4125.324906
556.660143	4154.533352
557.017625	4232.875403
557.375050	4251.628495
557.732421	4315.731808
558.089735	4359.471379
558.446994	4401.625508
558.804197	4471.251404
559.161345	4528.410527
559.518437	4532.413203
559.875474	4621.644147
560.232455	4667.798431
560.589381	4732.844439
560.946251	4770.027989
561.303065	4868.194378
561.659825	4937.747178
562.016528	4955.693686
562.373177	4990.575950
562.729770	5066.805758
563.086307	5154.088295
563.442789	5225.667639
563.799216	5274.811327
564.155587	5323.571888
564.511904	5410.466256
564.868164	5445.290547
565.224370	5533.435122
565.580520	5567.498199
565.936615	5677.526422
566.292654	5681.584551
566.648638	5822.210058
567.004567	5844.960786
567.360441	5918.087763
567.716260	5938.837153
568.072023	6084.496252
568.427732	6126.594928
568.783385	6151.737683
569.138982	6263.119456
569.494525	6363.902204
569.850013	6415.765595
570.205445	6496.915569
570.560823	6518.685792
570.916145	6591.747234
571.271412	6660.158213
571.626625	6737.595377
571.981782	6817.394322
572.336884	6839.736715
572.691931	6963.514686
573.046923	6955.995805
573.401860	7053.360651
573.756743	7146.208622
574.111570	7195.637136
574.466342	7252.448419
574.821059	7360.601334
575.175722	7362.068309
575.530330	7480.114488
575.884882	7556.054430
576.239380	7632.584187
576.593823	7677.609252
576.948211	7739.658294
577.302544	7779.513657
577.656823	7832.760844
578.011047	7962.066440
578.365216	8002.131010
578.719330	8061.067140
579.073389	8103.049869
579.427394	8271.104294
579.781344	8254.229032
580.135239	8341.877053
580.489080	8391.076194
580.842866	8392.069302
581.196597	8578.632323
581.550273	8600.886497
581.903895	8717.576605
582.257463	8872.266932
582.610975	8829.926281
582.964434	8996.012135
583.317837	9006.492694
583.671186	9120.931928
584.024481	9207.483498
584.377721	9177.528962
584.730906	9299.356006
585.084037	9406.384743
585.437113	9450.091547
585.790135	9590.893495
586.143103	9496.278599
586.496016	9559.335872
586.848874	9785.471951
587.201679	9819.545110
587.554428	9759.759546
587.907124	9978.265839
588.259765	9973.285179
588.612352	10124.240010
588.964884	10024.478096
589.317362	10165.151494
589.669786	10266.592112
590.022155	10365.497030
590.374470	10535.472135
590.726731	10542.809534
591.078937	10509.525316
591.431090	10623.596545
591.783188	10579.834289
592.135232	10645.908692
592.487222	10800.805706
592.839157	10876.060051
593.191038	10926.133832
593.542866	10936.599267
593.894639	10914.012377
594.246358	11083.059910
594.598022	11100.676222
594.949633	11080.695609
595.301190	11114.199117
595.652692	11280.191710
596.004141	11480.930457
596.355535	11223.876981
596.706876	11303.345730
597.058162	11339.319404
597.409395	11506.075732
597.760573	11644.914150
598.111698	11611.876948
598.462768	11648.188379
598.813785	11688.048783
599.164748	11668.380721
599.515657	11749.621436
599.866511	11714.295550
600.217312	11982.699184
600.568060	11793.398816
600.918753	12046.585727
601.269392	12084.875811
601.619978	12004.366063
601.970510	12224.369579
602.320988	12232.886608
602.671412	12440.078031
603.021783	12445.671192
603.372100	12361.211700
603.722363	12529.699664
604.072572	12571.329513
604.422728	12696.125797
604.772830	12661.735045
605.122878	12658.423007
605.472872	12747.868200
605.822813	12818.683809
606.172701	12852.474663
606.522534	13059.857650
606.872314	13151.440292
607.222041	13075.961616
607.571714	13294.467909
607.921333	13265.249381
608.270899	13369.729815
608.620411	13584.742588
608.969870	13444.895939
609.319276	13520.656920
609.668627	13620.091159
610.017926	13769.974745
610.367171	13905.639757
610.716362	14033.982493
611.065500	13919.127364
611.414585	14078.092589
611.763616	14131.249036
612.112594	14164.513089
612.461518	14181.312734
612.810389	14382.989135
613.159207	14305.463751
613.507971	14305.194049
613.856682	14602.395274
614.205340	14601.371920
614.553945	14783.828922
614.902496	14599.788997
615.250994	14879.993972
615.599439	14870.274628
615.947830	14901.449123
616.296169	14963.445233
616.644454	15021.186609
616.992686	15003.386295
617.340864	15232.244597
617.688990	15107.541575
618.037063	15286.628565
618.385082	15222.991559
618.733048	15471.165043
619.080961	15407.283541
619.428821	15508.366237
619.776628	15482.212731
620.124382	15448.366424
620.472083	15538.782039
620.819731	15608.728049
621.167326	15398.738785
621.514868	15488.360418
621.862357	15356.526684
622.209793	15416.561785
622.557176	15343.457492
622.904506	15222.593308
623.251783	15205.193766
623.599007	15090.575571
623.946179	15087.008955
624.293297	15085.179016
624.640363	14927.476600
624.987376	14971.717767
625.334336	14826.865252
625.681243	14741.437859
626.028097	14773.300472
626.374899	14783.647440
626.721647	14674.234237
627.068343	14566.519903
627.414987	14555.482296
627.761577	14569.899996
628.108115	14649.449404
628.454600	14419.648406
628.801032	14526.011711
629.147412	14490.927801
629.493739	14552.155135
629.840014	14411.098609
630.186236	14517.887892
630.532405	14334.616743
630.878521	14536.330953
631.224585	14463.461074
631.570597	14336.449203
631.916556	14374.018402
632.262462	14378.225245
632.608316	14335.317464
632.954117	14297.251711
633.299866	14327.186083
633.645562	14290.877172
633.991206	14077.381786
634.336797	13976.241117
634.682336	13989.829547
635.027823	13913.037650
635.373257	13843.016023
635.718639	13759.070729
636.063968	13738.938882
636.409245	13545.197257
636.754470	13582.579933
637.099642	13464.120380
637.444762	13274.452007
637.789829	13346.686701
638.134845	13210.956154
638.479808	13248.444695
638.824719	13221.466960
639.169577	13085.013008
639.514383	13150.588337
639.859137	12979.499137
640.203839	13085.370929
640.548489	12939.956326
640.893086	12952.450826
641.237632	12821.905106
641.582125	12997.687620
641.926566	12843.846728
642.270955	12868.341695
642.615292	12852.711597
642.959576	12875.694218
643.303809	12920.018563
643.647990	12861.059748
643.992118	12929.367382
644.336195	12719.037841
644.680219	12919.287595
645.024192	12862.740973
645.368112	13103.352725
645.711981	13180.689066
646.055797	13356.653062
646.399562	13325.783556
646.743274	13588.838526
647.086935	13865.549981
647.430544	13831.738962
647.774101	13861.005381
648.117606	14028.596020
648.461059	13993.197037
648.804460	14019.363147
649.147810	13769.936937
649.491108	13668.602182
649.834354	13701.722563
650.177548	13428.663424
650.520690	13264.367179
650.863781	13177.989528
651.206820	13229.767220
651.549807	13069.221593
651.892742	12883.414745
652.235626	12829.421466
652.578458	12844.746574
652.921238	12532.376517
653.263967	12729.525962
653.606644	12569.557547
653.949269	12537.006817
654.291843	12375.954554
654.634365	12514.818178
654.976836	12377.776932
655.319255	12407.071077
655.661622	12365.315199
656.003938	12290.751493
656.346203	12225.004764
656.688416	12292.115125
657.030577	12254.777819
657.372687	12192.123838
657.714746	12164.185764
658.056753	12352.354393
658.398708	12179.722600
658.740612	12194.856144
659.082465	12287.230247
659.424266	12255.574321
659.766016	12283.656069
660.107715	12192.270032
660.449362	12269.651743
660.790958	12235.208060
661.132503	12196.625589
661.473996	12233.511711
661.815438	12268.701486
662.156829	12279.703804
662.498168	12269.477823
662.839456	12260.824683
663.180693	12285.415431
663.521879	12376.783824
663.863013	12356.619209
664.204097	12345.309380
664.545129	12448.368209
664.886110	12429.027822
665.227040	12508.599915
665.567918	12523.234385
665.908746	12566.588308
666.249522	12537.667208
666.590248	12589.341556
666.930922	12697.907845
667.271545	12688.543902
667.612118	12777.943724
667.952639	12685.234384
668.293109	12689.181608
668.633528	12650.619301
668.973896	12626.850261
669.314213	12715.660268
669.654480	12458.672327
669.994695	12522.364786
670.334859	12545.624669
670.674973	12496.501146
671.015035	12526.682534
671.355047	12474.836787
671.695008	12441.613063
672.034918	12457.704426
672.374777	12493.731032
672.714585	12412.714648
673.054342	12442.051643
673.394049	12389.555587
673.733705	12486.086122
674.073310	12405.591498
674.412864	12424.395002
674.752368	12310.321252
675.091820	12300.085189
675.431223	12300.254068
675.770574	12174.550376
676.109875	12098.386103
676.449125	12071.161352
676.788324	11997.696617
677.127473	11844.866476
677.466571	11835.265599
677.805619	11736.978222
678.144616	11654.749441
678.483562	11627.186933
678.822458	11499.204639
679.161303	11470.515433
679.500098	11465.237345
679.838842	11418.042062
680.177535	11438.582244
680.516179	11496.069042
680.854771	11444.513161
681.193314	11659.460399
681.531805	11805.784931
681.870247	12199.662884
682.208638	12602.047784
682.546978	12921.107452
682.885268	12998.758865
683.223508	12685.335207
683.561697	12522.253880
683.899836	12418.713621
684.237925	12239.493040
684.575963	12145.314204
684.913951	12084.618712
685.251889	12014.546673
685.589776	12114.658948
685.927614	12046.890717
686.265401	12011.070798
686.603137	12048.468598
686.940824	12204.983822
687.278460	12315.629587
687.616046	12370.767207
687.953582	12554.217316
688.291068	12465.034263
688.628504	12685.902337
688.965889	12703.135521
689.303224	12673.168382
689.640510	12575.125502
689.977745	12284.795369
690.314930	12045.859801
690.652065	11956.898559
690.989150	11676.927997
691.326185	11460.947323
691.663170	11251.434448
692.000105	11000.193423
692.336990	10901.175079
692.673825	10654.720629
693.010610	10538.214523
693.347345	10325.427419
693.684030	10123.617427
694.020665	10070.909643
694.357251	9866.689981
694.693786	9838.409108
695.030272	9662.135081
695.366707	9538.384836
695.703093	9470.442685
696.039429	9468.630391
696.375716	9402.561028
696.711952	9271.301985
697.048139	9303.184763
697.384276	9259.858566
697.720363	9273.910782
698.056400	9213.011123
698.392388	9170.509155
698.728326	9126.517526
699.064214	9063.929080
699.400053	9104.858208
699.735842	8928.707690
700.071581	8884.864775
700.407270	8816.481523
700.742910	8726.174293
701.078501	8641.876119
701.414042	8524.253397
701.749533	8455.424003
702.084974	8320.923497
702.420366	8421.234897
702.755709	8313.507960
703.091002	8183.357971
703.426246	8207.739511
703.761440	8160.720669
704.096584	8117.291129
704.431679	8049.800161
704.766725	8032.899693
705.101721	7987.171386
705.436668	8025.942901
705.771565	7919.657733
706.106413	8004.112184
706.441212	8054.322076
706.775961	7996.978951
707.110661	8025.930298
707.445311	8182.178341
707.779913	8081.108247
708.114465	8204.644243
708.448967	8254.476048
708.783421	8381.616469
709.117825	8560.665651
709.452180	8595.290816
709.786485	8681.862551
710.120742	8958.168193
710.454949	8958.682391
710.789107	9064.218947
711.123216	9261.577599
711.457275	9421.919059
711.791286	9591.793341
712.125247	9585.065921
712.459159	9575.744827
712.793023	9835.792749
713.126837	9409.059076
713.460602	9556.563237
713.794318	9386.802381
714.127985	9414.808512
714.461602	9110.655535
714.795171	9058.507319
715.128691	8821.920928
715.462162	8562.621618
715.795584	8506.379986
716.128957	8374.878967
716.462281	8197.778191
716.795556	8244.154286
717.128782	8050.016931
717.461960	7770.361442
717.795088	7845.240220
718.128167	7751.026096
718.461198	7590.341838
718.794180	7521.371292
719.127113	7521.696446
719.459997	7382.157308
719.792833	7143.995556
720.125619	7203.075358
720.458357	7062.056641
720.791046	7046.429064
721.123686	7054.550363
721.456278	6905.853969
721.788821	6917.443581
722.121315	6806.238248
722.453761	6872.128649
722.786158	6820.388767
723.118506	6833.137845
723.450805	6802.979142
723.783056	6868.657815
724.115259	6771.066118
724.447412	6764.623523
724.779518	6819.504044
725.111574	6818.163097
725.443582	6898.622433
725.775542	6874.863475
726.107453	7056.360137
726.439315	6976.838456
726.771129	7025.225971
727.102895	7190.323760
727.434612	7307.177706
727.766281	7330.097312
728.097901	7419.459325
728.429473	7400.950729
728.760996	7375.422326
729.092471	7358.277362
729.423897	7311.160217
729.755276	7326.565983
730.086606	7256.909840
730.417887	7357.755602
730.749120	7522.984461
731.080305	7721.479893
731.411442	7851.818926
731.742530	7853.595933
732.073570	7951.777445
732.404562	8039.357411
732.735506	7885.624904
733.066401	8026.416769
733.397249	7971.589180
733.728048	7734.044969
734.058798	7399.108187
734.389501	7185.670775
734.720156	7002.487847
735.050762	6771.668536
735.381320	6672.355284
735.711831	6628.555219
736.042293	6519.386512
736.372707	6538.983997
736.703073	6399.848151
737.033391	6442.944976
737.363661	6451.381347
737.693883	6469.075797
738.024056	6546.598660
738.354182	6601.842145
738.684260	6643.913094
739.014290	6744.537046
739.344272	6848.601584
739.674207	6880.386059
740.004093	6943.904598
740.333931	6962.337577
740.663722	6975.953733
740.993464	7049.017697
741.323159	7048.558952
741.652806	6800.342619
741.982405	6789.703263
742.311956	6858.477205
742.641460	6712.750050
742.970915	6518.912643
743.300323	6509.286560
743.629683	6447.204751
743.958996	6324.319064
744.288260	6231.831535
744.617477	6178.586868
744.946647	6188.291089
745.275768	6027.080030
745.604842	5981.361806
745.933869	5960.231810
746.262847	5918.332259
746.591778	5908.817082
746.920662	5862.985431
747.249498	5855.239698
747.578286	5899.488426
747.907027	5977.495241
748.235720	6033.600763
748.564365	6006.098748
748.892963	6026.631368
749.221514	6187.590369
749.550017	6034.437594
749.878473	5902.951699
750.206881	5949.297547
750.535242	5895.246295
750.863555	5827.087375
751.191821	5852.406570
751.520039	5849.815417
751.848210	5760.455924
752.176334	5775.415548
752.504411	5831.218600
752.832440	5754.961066
753.160421	5677.556669
753.488356	5730.985338
753.816243	5767.364825
754.144082	5619.255725
754.471875	5583.569397
754.799620	5633.013034
755.127318	5640.557121
755.454969	5591.420994
755.782572	5555.774995
756.110129	5599.325523
756.437638	5596.570533
756.765100	5536.338827
757.092515	5523.677969
757.419882	5570.175051
757.747203	5556.601745
758.074477	5621.052897
758.401703	5616.979644
758.728882	5561.300100
759.056014	5604.591009
759.383099	5744.886320
759.710138	5749.380509
760.037129	5732.805195
760.364073	5739.242748
760.690970	5821.131252
761.017820	5810.406197
761.344623	5758.026088
761.671379	5850.523699
761.998088	5967.697758
762.324751	6193.216296
762.651366	6758.848881
762.977935	8014.161724
763.304456	9620.245613
763.630931	10542.834740
763.957359	10204.306136
764.283740	9287.000138
764.610074	8476.438052
764.936362	7504.249013
765.262602	6909.476038
765.588796	6369.263471
765.914943	6022.999216
766.241044	5865.949630
766.567097	5681.771074
766.893104	5423.454789
767.219064	5238.119289
767.544978	5180.095608
767.870845	5109.088435
768.196665	4996.653061
768.522438	4924.814098
768.848165	4897.448194
769.173846	4834.418647
769.499479	4789.587666
769.825066	4733.240169
770.150607	4673.973844
770.476101	4650.008199
770.801548	4645.463598
771.126949	4581.410698
771.452303	4527.601422
771.777611	4482.672138
772.102872	4497.006659
772.428087	4457.247078
772.753256	4422.516049
773.078378	4379.983834
773.403453	4313.566632
773.728482	4296.182213
774.053465	4250.373248
774.378401	4235.179210
774.703291	4244.701950
775.028135	4173.132689
775.352932	4121.193681
775.677683	4108.129531
776.002388	4129.786328
776.327046	4147.826097
776.651658	4067.785176
776.976224	4007.492976
777.300743	4008.423069
777.625216	4028.834701
777.949643	4029.248076
778.274024	3987.318279
778.598359	3932.495731
778.922647	3956.042960
779.246889	3950.898463
779.571086	3952.995583
779.895236	3937.413376
780.219339	3919.645829
780.543397	3909.432452
780.867409	3957.469607
781.191374	3975.189262
781.515294	3917.916714
781.839167	3912.958739
782.162995	3928.611522
782.486776	3915.766662
782.810511	3921.788320
783.134201	3923.598094
783.457844	3884.511508
783.781441	3824.350378
784.104993	3829.336079
784.428498	3846.370138
784.751958	3849.331816
785.075372	3827.463290
785.398739	3790.183958
785.722061	3795.376346
786.045337	3836.073581
786.368568	3875.918861
786.691752	3789.185809
787.014891	3832.988395
787.337983	3950.714461
787.661030	4104.696505
787.984031	4268.443264
788.306987	4443.817445
788.629897	4517.614896
788.952760	4476.148885
789.275579	4410.160181
789.598351	4348.975697
789.921078	4218.682034
790.243759	4024.274977
790.566395	3995.663909
790.888984	3990.907580
791.211529	3884.418246
791.534027	3827.717868
791.856480	3823.737877
792.178888	3761.182199
792.501249	3708.764282
792.823566	3715.859706
793.145836	3749.882453
793.468062	3700.695915
793.790241	3655.799399
794.112375	3680.687575
794.434464	3741.463726
794.756507	3765.459618
795.078505	3752.302207
795.400457	3781.225827
795.722364	3909.644180
796.044226	4012.773585
796.366042	4083.901745
796.687812	4075.462854
797.009538	4083.707661
797.331218	4034.858880
797.652852	4007.881145
797.974442	3988.354236
798.295986	3993.077797
798.617484	3913.377155
798.938938	3824.420954
799.260346	3863.555431
799.581709	3862.116182
799.903026	3792.815440
800.224299	3754.457300
800.545526	3748.932196
800.866708	3712.920713
801.187845	3647.889828
801.508936	3682.729243
801.829983	3689.524718
802.150984	3610.665948
802.471940	3596.134823
802.792851	3611.495218
803.113717	3605.004733
803.434538	3611.361628
803.755314	3554.522618
804.076045	3526.992877
804.396731	3541.488715
804.717372	3569.933425
805.037967	3558.001014
805.358518	3549.557082
805.679024	3577.059096
805.999485	3584.053697
806.319901	3589.225921
806.640272	3602.229577
806.960598	3617.595014
807.280879	3595.665995
807.601115	3603.164712
807.921306	3616.798512
808.241453	3660.081859
808.561554	3639.584527
808.881611	3571.617171
809.201623	3605.428190
809.521590	3620.135756
809.841513	3590.992846
810.161390	3622.089203
810.481223	3605.985237
810.801011	3548.500960
811.120755	3534.776418
811.440453	3569.381419
811.760107	3578.765527
812.079716	3538.809342
812.399281	3504.209382
812.718801	3523.794265
813.038276	3499.306860
813.357707	3493.726303
813.677093	3516.446783
813.996434	3467.837457
814.315731	3469.768219
814.634983	3472.808035
814.954191	3487.732371
815.273354	3518.382586
815.592473	3517.482740
815.911547	3516.293028
816.230577	3552.362484
816.549562	3602.892489
816.868502	3649.238337
817.187399	3672.757840
817.506250	3668.901358
817.825058	3638.316677
818.143821	3723.562589
818.462539	3825.151921
818.781213	3872.727811
819.099843	3923.983742
819.418429	4151.869102
819.736970	4389.446080
820.055466	4623.494250
820.373919	4980.223940
820.692327	5389.878184
821.010691	5787.000119
821.329011	7065.845068
821.647286	9669.016256
821.965517	14053.766501
822.283704	18060.954487
822.601847	20360.746516
822.919945	18639.527714
823.237999	16136.982999
823.556010	13706.451166
823.873976	11666.011379
824.191897	9613.119942
824.509775	8253.734999
824.827609	7132.816797
825.145398	6583.948569
825.463144	6469.968081
825.780845	6581.657365
826.098502	6745.774649
826.416116	7550.494037
826.733685	8830.185900
827.051210	9952.336664
827.368692	10074.924922
827.686129	8884.453921
828.003522	7383.462966
828.320872	6381.213526
828.638177	5690.656108
828.955439	5146.468591
829.272656	4654.366276
829.589830	4366.670147
829.906960	4195.076832
830.224046	4012.965149
830.541088	3888.562075
830.858086	3845.167823
831.175041	3771.534209
831.491952	3750.550406
831.808819	3759.301849
832.125642	3827.690142
832.442421	3967.579641
832.759157	4223.594639
833.075849	4739.471035
833.392497	5572.461215
833.709101	6335.104613
834.025662	6698.902000
834.342179	6379.350820
834.658653	5734.100772
834.975083	5099.532928
835.291469	4541.426786
835.607811	4122.373311
835.924110	3986.718381
836.240366	3795.036068
836.556578	3590.881940
836.872746	3481.279694
837.188871	3445.905917
837.504952	3386.314438
837.820990	3303.652118
838.136984	3254.226125
838.452935	3275.353600
838.768842	3271.532406
839.084706	3294.986374
839.400526	3437.303188
839.716303	3753.933020
840.032037	4254.065893
840.347727	4537.915622
840.663373	4288.128970
840.978977	3921.301848
841.294537	3619.888739
841.610054	3389.200498
841.925527	3279.802419
842.240957	3212.041749
842.556344	3161.539470
842.871687	3105.370934
843.186987	3056.232287
843.502244	3021.166021
843.817458	2985.988849
844.132629	2951.666153
844.447756	2963.918678
844.762840	2949.400154
845.077881	2920.572316
845.392879	2900.760582
845.707833	2897.214130
846.022745	2894.260014
846.337613	2896.493245
846.652438	2883.648385
846.967221	2882.103271
847.281960	2872.003319
847.596656	2864.791949
847.911309	2865.596013
848.225919	2859.597040
848.540485	2853.020855
848.855009	2855.473376
849.169490	2846.626151
849.483928	2836.498473
849.798323	2833.947649
850.112675	2828.488079
850.426984	2839.760099
850.741251	2840.652384
851.055474	2830.484376
851.369654	2823.388952
851.683792	2829.836588
851.997887	2835.885973
852.311938	2837.526868
852.625947	2829.271979
852.939914	2833.302381
853.253837	2837.289934
853.567718	2820.213025
853.881555	2817.589105
854.195350	2836.092660
854.509103	2830.050837
854.822812	2823.290650
855.136479	2822.048005
855.450103	2822.264775
855.763685	2814.829073
856.077224	2810.927220
856.390720	2825.765856
856.704173	2836.586693
857.017584	2827.280723
857.330953	2821.231338
857.644278	2831.898420
857.957561	2842.368897
858.270802	2844.014833
858.584000	2846.127077
858.897155	2834.003102
859.210268	2830.494459
859.523339	2829.760971
859.836367	2828.835919
860.149352	2824.886175
860.462295	2821.553972
860.775195	2829.004798
861.088054	2827.091680
861.400869	2811.963177
861.713642	2806.249029
862.026373	2824.770228
862.339062	2822.968016
862.651708	2828.956907
862.964312	2833.753565
863.276873	2826.516988
863.589392	2835.114676
863.901869	2847.062211
864.214303	2865.580889
864.526696	2881.881460
864.839045	2883.131667
865.151353	2881.092520
865.463619	2875.869884
865.775842	2876.772251
866.088023	2894.741444
866.400162	2901.978020
866.712258	2874.813763
867.024313	2862.410004
867.336325	2871.456354
867.648296	2894.990981
867.960224	2886.410937
868.272110	2874.997765
868.583954	2876.789895
868.895755	2892.964437
869.207515	2880.011192
869.519233	2881.692417
869.830909	2891.409241
870.142542	2902.005747
870.454134	2903.666807
870.765684	2902.373751
871.077191	2905.378278
871.388657	2913.998652
871.700081	2924.121288
872.011463	2934.979934
872.322803	2937.049328
872.634101	2935.789039
872.945357	2950.680608
873.256571	2975.505770
873.567744	2970.552836
873.878874	2963.031434
874.189963	2981.784527
874.501010	2989.830208
874.812015	2976.191367
875.122979	2977.549958
875.433900	2973.869915
875.744780	2978.555668
876.055618	2982.712099
876.366415	2981.013230
876.677169	2989.507574
876.987882	2990.972030
877.298554	2984.196719
877.609183	3000.550222
877.919771	3023.699200
878.230317	3050.606359
878.540822	3099.351796
878.851285	3135.930408
879.161707	3177.295596
879.472087	3267.683485
879.782425	3476.150320
880.092722	3887.684914
880.402977	4396.072677
880.713191	4996.655581
881.023363	6089.071099
881.333494	7348.923501
881.643583	7925.563445
881.953631	7640.710527
882.263637	7058.709315
882.573602	6497.820456
882.883526	5928.185195
883.193408	5362.179564
883.503248	4899.928442
883.813048	4607.778453
884.122806	4323.830421
884.432522	4019.037219
884.742197	3791.592960
885.051831	3599.668671
885.361424	3461.634317
885.670975	3393.412382
885.980485	3315.198880
886.289954	3240.476377
886.599382	3200.132023
886.908768	3163.439985
887.218113	3119.912142
887.527417	3066.712846
887.836680	3015.356091
888.145901	3009.498270
888.455082	3001.384533
888.764221	2953.125567
889.073319	2924.050712
889.382376	2924.275044
889.691392	2925.205137
890.000366	2923.072728
890.309300	2913.950761
890.618193	2923.559200
890.927044	2940.835234
891.235855	2943.433949
891.544625	2927.329983
891.853353	2936.139399
892.162041	2953.670012
892.470687	2991.728203
892.779293	3042.500184
893.087858	3088.183120
893.396381	3151.182419
893.704864	3264.278185
894.013306	3491.730006
894.321707	3778.894293
894.630068	3987.320799
894.938387	3987.358608
895.246665	3944.344963
895.554903	3833.149712
895.863100	3642.374806
896.171256	3479.268273
896.479371	3343.164681
896.787446	3228.864080
897.095480	3128.081332
897.403473	3064.419121
897.711425	3023.152235
898.019336	3017.536390
898.327207	2994.460508
898.635038	2959.336269
898.942827	2944.928651
899.250576	2934.362393
899.558284	2903.414749
899.865952	2883.691235
900.173579	2863.564428
900.481165	2858.235928
900.788711	2848.844259
901.096216	2823.759477
901.403681	2810.009730
901.711105	2820.165134
902.018489	2814.566933
902.325832	2812.709268
902.633135	2821.042295
902.940397	2853.640917
903.247619	2926.888882
903.554800	3103.208279
903.861941	3426.356323
904.169041	3835.622398
904.476101	4139.198162
904.783121	4115.499697
905.090100	3877.088409
905.397039	3618.262967
905.703938	3373.898076
906.010796	3194.954758
906.317614	3086.688418
906.624391	2994.654593
906.931129	2925.689087
907.237826	2864.988554
907.544483	2820.870896
907.851099	2787.440484
908.157675	2770.766868
908.464211	2751.381111
908.770707	2737.812845
909.077163	2725.663664
909.383578	2710.371324
909.689954	2701.060313
909.996289	2700.125179
910.302584	2703.144830
910.608839	2700.339428
910.915054	2697.213913
911.221229	2690.521781
911.527363	2694.716021
911.833458	2698.290199
912.139513	2701.440920
912.445527	2705.095757
912.751502	2713.239741
913.057436	2723.564024
913.363331	2733.023749
913.669186	2752.956471
913.975000	2781.799433
914.280775	2840.493587
914.586510	2905.201838
914.892205	2981.860144
915.197859	3100.760799
915.503475	3281.561781
915.809050	3484.203563
916.114585	3625.870068
916.420081	3659.683608
916.725536	3601.299485
917.030952	3488.904439
917.336328	3365.706201
917.641665	3242.628950
917.946961	3141.889052
918.252218	3075.882704
918.557435	3005.578773
918.862612	2947.174485
919.167750	2899.323853
919.472848	2861.517719
919.777906	2836.916889
920.082925	2811.058290
920.387904	2785.159362
920.692843	2766.867535
920.997743	2754.947727
921.302603	2742.198649
921.607423	2733.230436
921.912204	2720.052860
922.216946	2715.238558
922.521647	2705.499049
922.826310	2694.065712
923.130932	2688.245700
923.435516	2679.166582
923.740059	2674.274142
924.044564	2665.583193
924.349028	2660.889879
924.653454	2654.769918
924.957840	2649.733805
925.262186	2645.965543
925.566493	2642.169554
925.870761	2636.299130
926.174989	2631.976341
926.479178	2627.013325
926.783328	2620.911008
927.087438	2621.026955
927.391509	2621.896554
927.695541	2618.856738
927.999533	2613.944133
928.303486	2612.746859
928.607400	2613.858434
928.911275	2611.342898
929.215110	2608.444235
929.518906	2608.141765
929.822663	2609.122270
930.126381	2604.383585
930.430060	2610.057404
930.733699	2609.051694
931.037299	2608.552619
931.340861	2612.280553
931.644383	2611.816767
931.947866	2610.518669
932.251309	2610.231324
932.554714	2607.662856
932.858080	2606.508432
933.161407	2604.716301
933.464694	2603.541712
933.767943	2601.048862
934.071153	2605.525407
934.374323	2604.408791
934.677455	2603.307299
934.980548	2601.532813
935.283602	2601.308481
935.586617	2599.632298
935.889593	2598.878645
936.192530	2601.023656
936.495428	2599.150867
936.798287	2603.345108
937.101108	2604.512135
937.403890	2610.818618
937.706632	2612.764503
938.009336	2619.126440
938.312002	2627.991309
938.614628	2634.476753
938.917216	2646.028557
939.219765	2644.937147
939.522275	2643.392034
939.824747	2639.386837
940.127179	2638.098822
940.429573	2636.442803
940.731929	2633.355096
941.034246	2630.171608
941.336524	2626.274796
941.638763	2623.068622
941.940964	2624.278499
942.243126	2619.635596
942.545250	2621.321862
942.847335	2614.652416
943.149381	2611.879781
943.451389	2610.929523
943.753359	2605.263267
944.055290	2608.119080
944.357182	2603.713112
944.659036	2603.529110
944.960851	2605.411981
945.262628	2602.692278
945.564367	2605.371651
945.866067	2604.302927
946.167729	2604.640684
946.469352	2604.282762
946.770937	2602.543564
947.072484	2600.053234
947.373992	2602.619181
947.675462	2598.611464
947.976893	2595.140630
948.278286	2594.044179
948.579641	2594.843202
948.880958	2589.590319
949.182236	2594.538212
949.483476	2592.219281
949.784678	2592.360433
950.085841	2593.872779
950.386967	2593.731627
950.688054	2594.878490
950.989103	2596.635332
951.290114	2593.093921
951.591087	2599.370158
951.892021	2600.199427
952.192917	2601.807556
952.493776	2605.641353
952.794596	2606.974738
953.095378	2605.394337
953.396122	2604.023143
953.696828	2602.314192
953.997496	2603.206476
954.298126	2600.368306
954.598718	2596.166504
954.899272	2593.971082
955.199788	2592.461256
955.500266	2592.977975
955.800706	2588.183837
956.101108	2585.111254
956.401472	2585.595205
956.701798	2582.976325
957.002087	2581.020358
957.302337	2580.417940
957.602550	2576.755542
957.902724	2576.571539
958.202861	2577.355439
958.502960	2578.454410
958.803022	2574.550037
959.103045	2575.369224
959.403031	2571.910993
959.702979	2571.595921
960.002889	2571.613565
960.302762	2572.190777
960.602596	2572.213462
960.902393	2573.801425
961.202153	2570.824624
961.501875	2570.479305
961.801559	2571.606003
962.101205	2569.750858
962.400814	2570.312947
962.700385	2566.950497
962.999918	2564.840774
963.299414	2563.467060
963.598873	2565.944787
963.898293	2563.300702
964.197677	2569.370251
964.497022	2571.117011
964.796331	2569.660117
965.095601	2566.627863
965.394835	2569.455951
965.694030	2567.076526
965.993189	2569.818914
966.292309	2566.274983
966.591393	2565.327246
966.890439	2569.125755
967.189447	2568.702298
967.488419	2565.710373
967.787353	2566.718604
968.086249	2570.449058
968.385108	2568.551064
968.683930	2566.194324
968.982714	2568.775395
969.281462	2566.116186
969.580172	2568.427555
969.878844	2567.318502
970.177480	2569.332442
970.476078	2567.759602
970.774639	2567.817576
971.073162	2568.810683
971.371649	2568.299006
971.670098	2569.521486
971.968510	2568.964438
972.266885	2566.121227
972.565223	2566.416135
972.863524	2566.234653
973.161788	2569.445868
973.460014	2567.769685
973.758204	2568.374623
974.056356	2568.593913
974.354471	2568.409911
974.652550	2567.784808
974.950591	2568.535940
975.248595	2566.839592
975.546563	2569.733214
975.844493	2568.291444
976.142386	2565.604509
976.440243	2568.760272
976.738062	2566.804304
977.035845	2565.339849
977.333590	2568.755230
977.631299	2566.096022
977.928971	2565.130641
978.226606	2560.901113
978.524204	2563.615774
978.821765	2562.090825
979.119290	2565.100394
979.416777	2565.082750
979.714228	2566.272462
980.011642	2563.484704
980.309020	2565.208779
980.606360	2565.483522
980.903664	2567.373954
981.200931	2566.648028
981.498162	2568.379664
981.795356	2565.208779
982.092513	2566.685837
982.389633	2569.186249
982.686717	2574.895356
982.983764	2580.556572
983.280775	2581.983218
983.577749	2583.351891
983.874686	2580.763259
984.171587	2582.000862
984.468451	2576.616910
984.765279	2573.317475
985.062070	2574.718915
985.358824	2573.297310
985.655543	2570.827145
985.952224	2570.202042
986.248869	2564.442523
986.545478	2567.109294
986.842050	2563.663665
987.138586	2562.869683
987.435086	2565.879252
987.731549	2563.348593
988.027975	2565.677606
988.324366	2562.365568
988.620719	2565.818758
988.917037	2564.258521
989.213318	2562.395815
989.509563	2561.906823
989.805772	2563.373799
990.101944	2563.146947
990.398080	2562.620146
990.694180	2561.730382
990.990244	2563.880435
991.286271	2564.127451
991.582262	2564.124931
991.878217	2563.046124
992.174136	2561.208623
992.470019	2563.698953
992.765865	2561.785835
993.061676	2559.209806
993.357450	2558.940104
993.653188	2555.179403
993.948890	2561.899261
994.244556	2562.859601
994.540186	2564.344221
994.835780	2561.495969
995.131337	2563.754406
995.426859	2562.617626
995.722345	2563.522513
996.017795	2568.810683
996.313208	2567.099211
996.608586	2567.681465
996.903928	2570.749007
997.199234	2567.162226
997.494504	2570.300344
997.789738	2565.307081
998.084936	2567.762123
998.380099	2563.051165
998.675225	2565.473439
998.970316	2562.733572
999.265371	2564.858418
999.560390	2564.850857
999.855373	2562.680640
1000.150320	2563.066288
1000.445232	2561.851370
1000.740108	2564.281206
1001.034948	2563.557801
1001.329752	2561.783315
1001.624521	2561.090156
1001.919254	2559.295505
1002.213951	2563.683830
1002.508613	2562.242060
1002.803239	2561.440516
1003.097829	2561.919426
1003.392384	2562.375650
1003.686903	2558.554456
1003.981386	2562.516802
1004.275834	2559.567728
1004.570246	2561.944632
1004.864623	2557.836091
1005.158964	2561.823644
1005.453270	2560.913716
1005.747540	2560.701987
1006.041775	2560.384394
1006.335974	2561.266596
1006.630138	2560.207954
1006.924266	2564.747513
1007.218359	2561.730382
1007.512416	2558.897254
1007.806438	2559.608057
1008.100425	2559.454302
1008.394376	2554.501368
1008.688292	2562.166442
1008.982172	2560.586041
1009.276017	2561.024621
1009.569827	2559.524878
1009.863602	2559.905485
1010.157341	2557.657130
1010.451045	2558.236863
1010.744714	2556.984136
1011.038347	2562.158881
1011.331945	2558.710731
1011.625508	2561.821123
1011.919036	2560.313818
1012.212528	2558.342727
1012.505986	2558.977913
1012.799408	2561.198541
1013.092795	2562.161401
1013.386147	2559.668551
1013.679464	2557.261400
1013.972745	2560.709549
1014.265992	2556.144784
1014.559204	2562.778942
1014.852380	2560.855742
1015.145521	2560.006308
1015.438628	2559.663509
1015.731699	2559.308108
1016.024736	2558.320042
1016.317737	2561.732903
1016.610703	2560.099569
1016.903635	2562.163922
1017.196531	2558.987995
1017.489393	2560.270968
1017.782219	2560.966648
1018.075011	2560.500341
1018.367768	2558.622511
1018.660490	2559.504713
1018.953177	2559.504713
1019.245829	2559.504713
