Dividing Wavelength (nm)	Counts (n)	Blue Motor Position (mm): 21.800000	Red Motor Position (mm): 0.000000	
326.493990	2188.538804
326.888308	2188.538804
327.282561	2188.538804
327.676750	2148.834677
328.070874	2144.514408
328.464933	2144.292597
328.858929	2151.924904
329.252859	2156.217447
329.646726	2163.794301
330.040528	2177.140756
330.434265	2188.624504
330.827938	2207.964891
331.221547	2225.480380
331.615091	2242.262381
332.008571	2260.160998
332.401986	2277.109357
332.795338	2297.082408
333.188625	2315.023875
333.581847	2333.091370
333.975006	2352.172138
334.368100	2372.626619
334.761129	2392.103117
335.154095	2408.229768
335.546996	2432.671803
335.939833	2464.826803
336.332606	2480.499750
336.725315	2492.177583
337.117960	2501.584376
337.510540	2513.408402
337.903056	2527.228726
338.295508	2536.937988
338.687896	2543.972918
339.080220	2553.755277
339.472480	2560.008828
339.864676	2566.431258
340.256807	2566.733728
340.648875	2571.905952
341.040879	2577.357959
341.432818	2577.781416
341.824694	2582.643609
342.216506	2582.905749
342.608253	2584.700400
342.999937	2583.145204
343.391557	2583.223342
343.783113	2583.787951
344.174605	2581.433732
344.566033	2580.692683
344.957397	2582.497416
345.348697	2579.850810
345.739934	2578.507342
346.131106	2577.582291
346.522215	2576.669842
346.913260	2572.465520
347.304241	2572.475602
347.695159	2566.027966
348.086012	2568.984603
348.476802	2565.357493
348.867528	2558.499003
349.258191	2556.948848
349.648789	2557.778118
350.039324	2552.555482
350.429796	2556.026317
350.820203	2555.186965
351.210548	2553.029351
351.600828	2550.629762
351.991045	2552.648744
352.381198	2554.781152
352.771288	2549.727395
353.161314	2550.234031
353.551276	2549.140101
353.941175	2548.767055
354.331010	2546.843855
354.720782	2547.557178
355.110490	2548.898125
355.500135	2546.879143
355.889717	2549.104813
356.279235	2551.091027
356.668689	2549.737477
357.058080	2550.496171
357.447408	2551.890050
357.836672	2547.947868
358.225873	2546.773279
358.615010	2551.106151
359.004084	2551.257385
359.393095	2550.526418
359.782043	2548.288146
360.170927	2551.769063
360.559748	2553.906512
360.948505	2553.992211
361.337199	2556.389280
361.725830	2557.901626
362.114398	2554.181255
362.502903	2553.185627
362.891344	2553.578837
363.279722	2554.357695
363.668037	2555.774259
364.056289	2559.590413
364.444478	2558.249466
364.832603	2561.173335
365.220665	2559.897923
365.608665	2560.391956
365.996601	2561.589230
366.384474	2560.835578
366.772284	2559.789538
367.160031	2561.024621
367.547715	2562.310115
367.935336	2561.342214
368.322893	2559.701318
368.710388	2559.663509
369.097820	2559.718962
369.485189	2555.035730
369.872495	2562.889848
370.259738	2562.930177
370.646918	2562.436144
371.034035	2564.492935
371.421090	2562.491597
371.808081	2564.450085
372.195010	2564.462688
372.581875	2562.103428
372.968678	2565.483522
373.355418	2564.102245
373.742096	2567.046279
374.128710	2566.874880
374.515262	2565.929664
374.901751	2567.273131
375.288177	2567.129458
375.674540	2567.545353
376.060841	2567.759603
376.447079	2565.564180
376.833254	2567.356310
377.219367	2567.378995
377.605417	2565.896896
377.991404	2569.639953
378.377329	2568.004098
378.763191	2568.377144
379.148991	2569.995354
379.534727	2567.888152
379.920402	2568.089798
380.306013	2574.343349
380.691563	2572.057186
381.077049	2571.023750
381.462474	2567.676423
381.847835	2570.708677
382.233134	2570.133986
382.618371	2571.064079
383.003545	2573.899728
383.388657	2571.825293
383.773706	2571.348904
384.158693	2573.244378
384.543618	2574.852506
384.928480	2574.429049
385.313280	2572.377299
385.698017	2573.577094
386.082692	2574.618092
386.467305	2573.362845
386.851856	2573.887125
387.236344	2572.158009
387.620770	2570.310426
388.005133	2569.723132
388.389435	2570.050807
388.773674	2571.162381
389.157851	2578.051118
389.541965	2576.750500
389.926018	2576.243864
390.310008	2576.072465
390.693936	2578.144379
391.077802	2577.431056
391.461606	2578.257805
391.845348	2576.475757
392.229027	2577.272260
392.612645	2576.332085
392.996200	2577.433577
393.379694	2578.746797
393.763125	2578.030953
394.146494	2577.688155
394.529801	2578.361149
394.913047	2579.565985
395.296230	2579.964236
395.679351	2577.279822
396.062410	2577.554564
396.445408	2578.383834
396.828343	2577.345357
397.211217	2580.012127
397.594028	2579.049267
397.976778	2580.072621
398.359466	2581.862230
398.742092	2581.874833
399.124656	2581.587488
399.507158	2582.933476
399.889598	2582.666294
400.271977	2582.734350
400.654294	2583.079669
401.036549	2579.644123
401.418742	2583.858527
401.800874	2582.963722
402.182944	2583.485482
402.564952	2585.343147
402.946898	2584.874320
403.328783	2583.931624
403.710606	2583.740060
404.092367	2583.881213
404.474067	2584.458425
404.855705	2588.574527
405.237282	2583.359453
405.618797	2585.070925
406.000250	2584.171079
406.381642	2586.187540
406.762972	2582.215111
407.144240	2581.290059
407.525447	2582.923393
407.906593	2583.467838
408.287677	2585.633013
408.668700	2585.741398
409.049661	2587.740216
409.430560	2584.990266
409.811399	2588.703076
410.192176	2589.192068
410.572891	2587.609146
410.953545	2588.796337
411.334138	2587.563775
411.714669	2587.813313
412.095139	2589.076122
412.475547	2588.476224
412.855894	2591.241297
413.236180	2592.826740
413.616405	2590.157449
413.996568	2591.120309
414.376670	2587.682242
414.756711	2591.203488
415.136691	2591.019486
415.516609	2592.027717
415.896466	2591.669795
416.276262	2588.897161
416.655997	2591.004363
417.035670	2592.413365
417.415283	2593.923191
417.794834	2593.746751
418.174324	2593.383787
418.553753	2590.835484
418.933121	2592.703232
419.312428	2593.393870
419.691674	2593.512337
420.070859	2595.188521
420.449983	2593.277923
420.829045	2592.075608
421.208047	2592.967892
421.586988	2592.867069
421.965867	2594.719693
422.344686	2593.567790
422.723444	2594.008891
423.102141	2595.092739
423.480777	2594.419745
423.859352	2594.056782
424.237866	2595.803541
424.616319	2594.278592
424.994712	2597.247832
425.373044	2597.184818
425.751314	2595.241453
426.129524	2592.211719
426.507673	2595.571648
426.885762	2592.577203
427.263789	2598.316557
427.641756	2595.337235
428.019662	2597.772112
428.397508	2600.368306
428.775292	2597.504931
429.153016	2597.338573
429.530679	2597.583069
429.908282	2598.384612
430.285824	2597.709097
430.663305	2597.610795
431.040726	2597.668768
431.418086	2597.318408
431.795385	2599.970055
432.172624	2598.954262
432.549802	2598.588779
432.926920	2598.019128
433.303977	2597.293202
433.680974	2602.006681
434.057910	2600.600199
434.434786	2600.353183
434.811601	2599.803697
435.188355	2603.309819
435.565050	2599.662545
435.941683	2602.634305
436.318257	2600.164139
436.694770	2601.739500
437.071222	2599.269335
437.447614	2600.978286
437.823946	2603.400560
438.200218	2600.643049
438.576429	2603.173708
438.952580	2600.179263
439.328670	2601.885693
439.704700	2604.091198
440.080670	2606.694954
440.456580	2601.472319
440.832429	2604.839810
441.208218	2605.893411
441.583947	2602.084819
441.959616	2606.442897
442.335224	2601.547936
442.710773	2605.676641
443.086261	2608.172012
443.461689	2604.938112
443.837057	2606.321909
444.212365	2604.948194
444.587612	2605.248143
444.962800	2602.485591
445.337927	2604.862495
445.712995	2601.525251
446.088002	2607.776282
446.462949	2606.647063
446.837837	2606.803339
447.212664	2609.477671
447.587431	2608.139245
447.962139	2612.134359
448.336786	2612.157044
448.711374	2613.929010
449.085901	2611.693258
449.460369	2610.818618
449.834776	2610.090171
450.209124	2610.551437
450.583412	2612.139400
450.957640	2614.571757
451.331808	2614.987652
451.705917	2611.930192
452.079965	2611.000100
452.453954	2613.770214
452.827883	2609.908690
453.201752	2612.280553
453.575562	2612.794750
453.949311	2612.278032
454.323001	2612.938423
454.696632	2613.485388
455.070202	2615.532097
455.443713	2615.741305
455.817164	2617.644340
456.190556	2616.371449
456.563888	2616.643671
456.937160	2617.399844
457.310373	2621.538632
457.683526	2620.812706
458.056619	2618.181223
458.429653	2620.888323
458.802628	2619.590226
459.175542	2618.203908
459.548398	2621.762963
459.921194	2622.496451
460.293930	2625.173304
460.666607	2624.649024
461.039224	2625.654734
461.411782	2628.452574
461.784280	2628.132461
462.156719	2632.056999
462.529099	2632.009108
462.901419	2628.094652
463.273680	2627.678757
463.645882	2628.971813
464.018024	2629.687657
464.390106	2625.853859
464.762130	2633.463481
465.134094	2638.154275
465.505999	2640.657208
465.877845	2650.734474
466.249631	2656.143632
466.621358	2656.551966
466.993026	2655.611791
467.364634	2659.720331
467.736184	2657.759322
468.107674	2655.808396
468.479105	2661.913233
468.850477	2660.295022
469.221790	2661.782163
469.593043	2663.365085
469.964238	2664.355672
470.335373	2667.067813
470.706449	2673.265911
471.077467	2677.107271
471.448425	2688.732171
471.819324	2711.119936
472.190164	2728.821947
472.560945	2716.466079
472.931667	2714.081613
473.302330	2714.946171
473.672934	2721.388766
474.043479	2732.517113
474.413965	2737.661611
474.784393	2746.758373
475.154761	2762.413676
475.525070	2775.893721
475.895321	2785.335802
476.265513	2804.731642
476.635645	2828.173007
477.005719	2843.634226
477.375734	2861.111907
477.745691	2887.683828
478.115588	2921.668767
478.485427	2954.637913
478.855207	3005.334277
479.224928	3081.831266
479.594591	3180.708457
479.964194	3216.200701
480.333739	3247.418046
480.703226	3272.724639
481.072653	3318.397493
481.442022	3393.414903
481.811333	3489.353102
482.180584	3543.704302
482.549777	3560.072928
482.918912	3613.718367
483.287988	3693.524874
483.657005	3756.153648
484.025964	3810.051145
484.394864	3873.156309
484.763706	3932.415072
485.132489	3995.212726
485.501213	4074.084098
485.869879	4162.304290
486.238487	4222.563723
486.607036	4342.346579
486.975527	4403.760436
487.343959	4526.305845
487.712333	4632.548162
488.080648	4686.276780
488.448905	4852.992779
488.817104	4926.316362
489.185244	5109.751347
489.553326	5240.778497
489.921350	5463.491633
490.289315	5913.563328
490.657222	6322.758827
491.025070	6534.101640
491.392861	6654.668396
491.760593	6679.533887
492.128267	6709.523712
492.495883	6662.575446
492.863440	6679.415420
493.230939	6669.476785
493.598380	6798.084182
493.965763	6861.915272
494.333088	6931.778102
494.700354	7067.327167
495.067563	7213.724796
495.434713	7320.856877
495.801805	7461.968855
496.168839	7630.340873
496.535815	7752.982064
496.902733	7960.435627
497.269593	8005.329622
497.636395	8244.963391
498.003139	8400.961897
498.369825	8543.540851
498.736453	8720.946617
499.103023	8855.033747
499.469535	9042.423518
499.835989	9270.160164
500.202385	9484.189912
500.568723	9500.636676
500.935003	9718.550634
501.301226	9795.526532
501.667390	10201.841012
502.033497	10531.882833
502.399546	10565.189737
502.765537	10665.120530
503.131470	10945.774167
503.497345	11190.749038
503.863163	11063.734647
504.228923	11504.150011
504.594625	11781.632763
504.960269	11742.725138
505.325856	12159.557984
505.691385	12123.531378
506.056856	12535.988504
506.422270	12777.754681
506.787625	12734.738515
507.152924	13194.993340
507.518164	13343.999766
507.883347	13435.537037
508.248472	13457.037558
508.613540	14046.114029
508.978550	14162.703315
509.343503	14336.517258
509.708398	14677.596687
510.073236	14929.177990
510.438016	15237.134517
510.802738	15287.856086
511.167403	15595.437047
511.532010	15609.769047
511.896561	16253.985659
512.261053	16462.444932
512.625488	16539.360337
512.989866	16668.108886
513.354186	16736.194709
513.718449	17017.959921
514.082655	17424.700378
514.446803	17484.485942
514.810894	17948.279658
515.174927	17783.522147
515.538904	18003.394593
515.902822	18516.982306
516.266684	18553.669303
516.630488	18631.083782
516.994235	18817.916505
517.357925	19186.097176
517.721558	19505.890332
518.085133	19744.467979
518.448651	19847.819195
518.812112	19821.733744
519.175516	20082.540359
519.538863	20418.495454
519.902152	20387.477234
520.265385	20794.452105
520.628560	20772.359248
520.991678	20943.103129
521.354739	21148.764562
521.717743	21347.368379
522.080690	21305.156278
522.443580	21747.454513
522.806413	21865.747709
523.169189	22104.559769
523.531908	22248.751893
523.894569	22083.581008
524.257174	22256.588367
524.619722	22555.382596
524.982213	22383.869939
525.344647	22596.962033
525.707025	22788.309110
526.069345	22930.189864
526.431608	22990.681190
526.793815	23292.001037
527.155964	22875.291699
527.518057	23139.165856
527.880093	23182.643287
528.242072	23457.149237
528.603995	23285.568525
528.965860	23203.639693
529.327669	23365.148180
529.689421	23414.370006
530.051117	23339.627338
530.412755	23604.318162
530.774337	23484.449606
531.135862	23440.500827
531.497331	23696.004148
531.858743	23339.483665
532.220098	23872.900757
532.581396	23598.586370
532.942638	23647.379698
533.303824	23779.294092
533.664953	23862.256360
534.026025	23603.609880
534.387040	23870.901939
534.747999	23998.947247
535.108902	24193.006464
535.469748	23754.539506
535.830537	23990.936853
536.191270	24132.908349
536.551947	24084.266255
536.912567	23784.335245
537.273131	24108.849442
537.633638	23887.502459
537.994089	24121.737152
538.354483	23724.317788
538.714821	24244.469083
539.075103	24318.047244
539.435328	24139.729030
539.795497	23713.595254
540.155609	24149.627335
540.515665	24446.997439
540.875665	23740.076435
541.235609	24020.475494
541.595496	24030.446897
541.955328	24396.747217
542.315102	24332.354039
542.674821	23930.236320
543.034483	23823.454599
543.394090	23993.117152
543.753640	23804.187309
544.113134	24444.658344
544.472571	24075.542538
544.831953	24362.510221
545.191278	23985.893179
545.550548	23945.327014
545.909761	24163.603934
546.268918	24393.581373
546.628019	24348.831050
546.987064	24081.533950
547.346053	23849.824875
547.704986	23992.998685
548.063863	24159.739890
548.422684	24142.090810
548.781449	23728.000351
549.140158	24133.195694
549.498811	23712.811355
549.857408	23445.947793
550.215949	23901.232041
550.574434	23578.452002
550.932864	23801.936434
551.291237	23946.420944
551.649555	23818.171470
552.007817	23880.134813
552.366022	23765.987966
552.724173	23810.619822
553.082267	23738.778338
553.440305	24210.511871
553.798288	23498.237162
554.156215	24025.962790
554.514086	24099.493060
554.871902	23468.577533
555.229661	23766.093830
555.587365	23632.069714
555.945014	23474.039623
556.302606	23745.820830
556.660143	23677.815665
557.017625	23948.684422
557.375050	23485.510769
557.732421	23874.158525
558.089735	23688.633981
558.446994	23750.814093
558.804197	23759.605865
559.161345	23742.609615
559.518437	23472.532318
559.875474	23685.246325
560.232455	23847.500903
560.589381	23686.456202
560.946251	23651.810873
561.303065	23982.467715
561.659825	24073.866355
562.016528	23669.522967
562.373177	23411.337752
562.729770	23764.334467
563.086307	23644.370129
563.442789	23810.007321
563.799216	23629.594507
564.155587	23660.627851
564.511904	23624.240802
564.868164	23557.100195
565.224370	23557.574063
565.580520	23448.342342
565.936615	23587.833589
566.292654	23264.292335
566.648638	23578.386467
567.004567	23398.560947
567.360441	23352.968752
567.716260	23075.702770
568.072023	23407.771135
568.427732	23168.283560
568.783385	22946.462709
569.138982	23179.895858
569.494525	23233.692531
569.850013	22962.191109
570.205445	23065.580133
570.560823	22866.830122
570.916145	22650.204179
571.271412	22813.167039
571.626625	22568.096386
571.981782	22687.632226
572.336884	22480.183704
572.691931	22610.046348
573.046923	22354.727029
573.401860	22244.018249
573.756743	22234.823185
574.111570	22160.919869
574.466342	22099.337134
574.821059	22191.872554
575.175722	21886.721429
575.530330	21869.508410
575.884882	21895.228377
576.239380	21795.053088
576.593823	21696.107841
576.948211	21671.194458
577.302544	21524.567458
577.656823	21399.143550
578.011047	21487.976242
578.365216	21375.316536
578.719330	21245.741238
579.073389	21149.059469
579.427394	21294.595060
579.781344	21084.502453
580.135239	20966.037858
580.489080	20936.640370
580.842866	20693.530726
581.196597	20881.374200
581.550273	20860.274451
581.903895	20760.464646
582.257463	21075.083057
582.610975	20606.563260
582.964434	20891.640510
583.317837	20616.688418
583.671186	20706.597396
584.024481	20661.552166
584.377721	20447.046029
584.730906	20491.478759
585.084037	20535.122548
585.437113	20428.756723
585.790135	20631.080912
586.143103	20109.941551
586.496016	20116.890781
586.848874	20364.476970
587.201679	20312.091820
587.554428	19966.208172
587.907124	20289.406628
588.259765	20086.106975
588.612352	20148.942437
588.964884	19726.476101
589.317362	19910.074924
589.669786	19957.693663
590.022155	20009.093268
590.374470	20172.610655
590.726731	19981.147632
591.078937	19733.987420
591.431090	19834.926444
591.783188	19582.997301
592.135232	19559.296316
592.487222	19654.780811
592.839157	19693.779177
593.191038	19570.233099
593.542866	19459.118507
593.894639	19175.535959
594.246358	19394.805987
594.598022	19312.647782
594.949633	19052.531805
595.301190	19012.512605
595.652692	19174.837759
596.004141	19418.544780
596.355535	18760.490201
596.706876	18765.896838
597.058162	18660.970262
597.409395	18880.071411
597.760573	18961.720460
598.111698	18745.845649
598.462768	18686.102935
598.813785	18638.128794
599.164748	18469.298031
599.515657	18502.678032
599.866511	18287.793808
600.217312	18662.220468
600.568060	18185.970062
600.918753	18490.617071
601.269392	18394.409170
601.619978	18163.269746
601.970510	18389.761227
602.320988	18325.869643
602.671412	18542.346871
603.021783	18434.453576
603.372100	18178.935132
603.722363	18308.301222
604.072572	18246.521881
604.422728	18378.164052
604.772830	18144.065470
605.122878	18098.110312
605.472872	18091.234178
605.822813	18077.741530
606.172701	18032.923152
606.522534	18247.600688
606.872314	18257.042769
607.222041	18091.670238
607.571714	18313.533939
607.921333	18137.312845
608.270899	18209.774390
608.620411	18417.122089
608.969870	18164.209921
609.319276	18174.332558
609.668627	18201.683338
610.017926	18329.060693
610.367171	18449.758519
610.716362	18497.588987
611.065500	18311.608218
611.414585	18445.309701
611.763616	18419.884641
612.112594	18368.303555
612.461518	18338.492692
612.810389	18544.932983
613.159207	18387.777532
613.507971	18291.007543
613.856682	18587.152647
614.205340	18506.393362
614.553945	18655.064551
614.902496	18387.893479
615.250994	18646.023241
615.599439	18563.683555
615.947830	18568.949040
616.296169	18604.264843
616.644454	18566.400737
616.992686	18545.641265
617.340864	18751.947966
617.688990	18515.739661
618.037063	18691.733904
618.385082	18535.712713
618.733048	18821.778029
619.080961	18683.733592
619.428821	18722.154747
619.776628	18615.506616
620.124382	18531.145427
620.472083	18576.846007
620.819731	18596.882073
621.167326	18294.647256
621.514868	18334.031271
621.862357	18085.615812
622.209793	18103.509388
622.557176	17942.300849
622.904506	17760.635309
623.251783	17672.571392
623.599007	17437.736802
623.946179	17388.832569
624.293297	17333.735278
624.640363	17093.047908
624.987376	17108.151205
625.334336	16901.801654
625.681243	16745.992192
626.028097	16753.432935
626.374899	16680.457192
626.721647	16554.972790
627.068343	16384.430556
627.414987	16317.335319
627.761577	16292.507636
628.108115	16335.790983
628.454600	16056.369907
628.801032	16154.122922
629.147412	16080.315388
629.493739	16098.055209
629.840014	15918.287662
630.186236	16009.240160
630.532405	15768.273006
630.878521	15972.487628
631.224585	15866.406628
631.570597	15692.519588
631.916556	15719.759462
632.262462	15714.728391
632.608316	15621.956037
632.954117	15555.969853
633.299866	15553.706375
633.645562	15487.435367
633.991206	15235.725514
634.336797	15102.026552
634.682336	15070.327777
635.027823	14972.300020
635.373257	14848.973232
635.718639	14741.551285
636.063968	14696.511096
636.409245	14451.576554
636.754470	14474.281911
637.099642	14331.980220
637.444762	14100.147637
637.789829	14137.482422
638.134845	13980.132887
638.479808	14000.521834
638.824719	13954.344865
639.169577	13804.322647
639.514383	13842.045601
639.859137	13672.677955
640.203839	13759.282458
640.548489	13595.686933
640.893086	13583.255448
641.237632	13455.759626
641.582125	13601.184312
641.926566	13440.374024
642.270955	13446.534314
642.615292	13413.234973
642.959576	13425.079164
643.303809	13452.528246
643.647990	13391.817631
643.992118	13443.877626
644.336195	13215.488151
644.680219	13410.840425
645.024192	13343.954395
645.368112	13571.965784
645.711981	13633.563643
646.055797	13808.010251
646.399562	13777.763328
646.743274	14049.347930
647.086935	14332.648173
647.430544	14286.481286
647.774101	14317.892716
648.117606	14479.774248
648.461059	14443.059524
648.804460	14433.685499
649.147810	14163.376309
649.491108	14059.969641
649.834354	14079.816663
650.177548	13781.995377
650.520690	13590.981016
650.863781	13509.762987
651.206820	13556.113876
651.549807	13385.685067
651.892742	13195.336139
652.235626	13127.530099
652.578458	13137.340184
652.921238	12815.008807
653.263967	13016.778470
653.606644	12849.949045
653.949269	12811.106954
654.291843	12622.766926
654.634365	12777.742078
654.976836	12623.311371
655.319255	12638.270995
655.661622	12590.337183
656.003938	12512.345492
656.346203	12439.921756
656.688416	12506.109585
657.030577	12475.744195
657.372687	12395.884756
657.714746	12362.046011
658.056753	12552.397460
658.398708	12381.542673
658.740612	12374.442208
659.082465	12478.337868
659.424266	12434.439501
659.766016	12459.897328
660.107715	12368.246630
660.449362	12442.850666
660.790958	12403.081003
661.132503	12349.420441
661.473996	12408.507805
661.815438	12430.603183
662.156829	12433.806836
662.498168	12421.561873
662.839456	12418.980802
663.180693	12439.097527
663.521879	12534.188812
663.863013	12506.467507
664.204097	12491.712050
664.545129	12606.143721
664.886110	12570.608628
665.227040	12661.808142
665.567918	12659.519458
665.908746	12695.989686
666.249522	12681.647603
666.590248	12723.842061
666.930922	12837.479751
667.271545	12830.429697
667.612118	12904.595152
667.952639	12818.603150
668.293109	12817.952841
668.633528	12776.348199
668.973896	12755.780291
669.314213	12835.758197
669.654480	12579.874269
669.994695	12639.319555
670.334859	12664.358966
670.674973	12605.700100
671.015035	12648.277685
671.355047	12592.401536
671.695008	12560.932133
672.034918	12567.896487
672.374777	12610.272426
672.714585	12521.452337
673.054342	12557.660424
673.394049	12505.809636
673.733705	12606.083227
674.073310	12520.776822
674.412864	12523.189014
674.752368	12402.077814
675.091820	12412.089545
675.431223	12402.108061
675.770574	12277.447888
676.109875	12197.480064
676.449125	12156.989517
676.788324	12089.735483
677.127473	11938.435333
677.466571	11920.503948
677.805619	11821.823362
678.144616	11738.513253
678.483562	11713.347813
678.822458	11581.083060
679.161303	11557.734956
679.500098	11547.216588
679.838842	11503.792089
680.177535	11522.214986
680.516179	11583.510376
680.854771	11535.405165
681.193314	11743.826630
681.531805	11894.927654
681.870247	12291.389199
682.208638	12702.165099
682.546978	13025.721477
682.885268	13090.341507
683.223508	12779.241821
683.561697	12612.364505
683.899836	12513.089062
684.237925	12321.164774
684.575963	12234.482133
684.913951	12169.032833
685.251889	12107.707197
685.589776	12206.448277
685.927614	12134.505970
686.265401	12097.992893
686.603137	12138.995118
686.940824	12286.698405
687.278460	12409.158114
687.616046	12462.070065
687.953582	12628.561733
688.291068	12549.357644
688.628504	12778.924228
688.965889	12792.835292
689.303224	12759.329263
689.640510	12655.826813
689.977745	12348.228208
690.314930	12129.757203
690.652065	12049.948176
690.989150	11763.267839
691.326185	11535.697552
691.663170	11328.110398
692.000105	11083.508572
692.336990	10981.047121
692.673825	10725.417771
693.010610	10604.127609
693.347345	10398.080528
693.684030	10202.070384
694.020665	10146.393361
694.357251	9946.801477
694.693786	9898.366071
695.030272	9725.073887
695.366707	9609.384447
695.703093	9543.020177
696.039429	9533.303353
696.375716	9468.015370
696.711952	9331.440430
697.048139	9370.862253
697.384276	9321.736209
697.720363	9348.010702
698.056400	9280.524776
698.392388	9231.003001
698.728326	9193.027989
699.064214	9128.092887
699.400053	9177.440742
699.735842	8991.006269
700.071581	8945.651008
700.407270	8876.330102
700.742910	8798.091394
701.078501	8705.366931
701.414042	8583.020647
701.749533	8514.004731
702.084974	8375.418370
702.420366	8489.560176
702.755709	8368.580045
703.091002	8247.000017
703.426246	8265.369982
703.761440	8219.324083
704.096584	8173.981424
704.431679	8107.082792
704.766725	8094.369002
705.101721	8042.162813
705.436668	8086.766942
705.771565	7981.273236
706.106413	8060.883138
706.441212	8104.942822
706.775961	8059.776605
707.110661	8087.384484
707.445311	8236.945436
707.779913	8129.715052
708.114465	8271.253008
708.448967	8303.140827
708.783421	8436.481867
709.117825	8623.959858
709.452180	8656.245928
709.786485	8746.686748
710.120742	9022.594139
710.454949	9025.611270
710.789107	9123.848235
711.123216	9342.203293
711.457275	9495.676181
711.791286	9669.341410
712.125247	9650.835335
712.459159	9644.017174
712.793023	9893.007324
713.126837	9471.786153
713.460602	9626.403382
713.794318	9453.890057
714.127985	9479.836876
714.461602	9170.680554
714.795171	9119.598542
715.128691	8877.812201
715.462162	8620.078169
715.795584	8564.154129
716.128957	8425.676154
716.462281	8254.392869
716.795556	8301.275600
717.128782	8099.105166
717.461960	7829.279927
717.795088	7903.848675
718.128167	7808.331413
718.461198	7640.952502
718.794180	7586.258503
719.127113	7574.494971
719.459997	7433.113291
719.792833	7200.864812
720.125619	7256.640138
720.458357	7121.141485
720.791046	7103.545337
721.123686	7110.756708
721.456278	6947.582120
721.788821	6967.658515
722.121315	6859.752617
722.453761	6916.957110
722.786158	6871.856427
723.118506	6881.104424
723.450805	6847.026224
723.783056	6916.483242
724.115259	6821.333983
724.447412	6817.081770
724.779518	6861.038111
725.111574	6859.243460
725.443582	6944.713703
725.775542	6919.341576
726.107453	7114.174610
726.439315	7028.807711
726.771129	7082.743016
727.102895	7252.282061
727.434612	7367.132148
727.766281	7394.535861
728.097901	7479.882595
728.429473	7469.228117
728.760996	7446.089221
729.092471	7419.169459
729.423897	7367.303548
729.755276	7381.086062
730.086606	7307.354146
730.417887	7405.739825
730.749120	7591.019873
731.080305	7780.242103
731.411442	7912.174141
731.742530	7898.802480
732.073570	8007.416660
732.404562	8098.714477
732.735506	7940.603728
733.066401	8082.076149
733.397249	8018.091303
733.728048	7784.048174
734.058798	7450.858152
734.389501	7236.798157
734.720156	7064.680562
735.050762	6821.142419
735.381320	6722.819755
735.711831	6673.734040
736.042293	6575.734009
736.372707	6592.576504
736.703073	6451.000739
737.033391	6480.360419
737.363661	6495.085630
737.693883	6518.768971
738.024056	6607.067301
738.354182	6654.184445
738.684260	6692.076278
739.014290	6796.221475
739.344272	6906.416057
739.674207	6937.119205
740.004093	7005.051273
740.333931	7019.237080
740.663722	7028.543050
740.993464	7102.418639
741.323159	7109.937520
741.652806	6849.803900
741.982405	6849.435895
742.311956	6914.592809
742.641460	6763.910200
742.970915	6564.852678
743.300323	6558.127779
743.629683	6505.724985
743.958996	6372.275560
744.288260	6279.447753
744.617477	6231.314817
744.946647	6240.645992
745.275768	6070.076031
745.604842	6026.361666
745.933869	6015.359348
746.262847	5966.654240
746.591778	5955.480522
746.920662	5917.671868
747.249498	5902.016565
747.578286	5948.380057
747.907027	6025.663466
748.235720	6084.634884
748.564365	6056.250667
748.892963	6077.050468
749.221514	6231.655094
749.550017	6082.217650
749.878473	5953.338032
750.206881	6005.486248
750.535242	5948.097752
750.863555	5873.481114
751.191821	5895.916769
751.520039	5896.990535
751.848210	5805.256658
752.176334	5823.757693
752.504411	5877.488831
752.832440	5804.666843
753.160421	5728.910904
753.488356	5778.989726
753.816243	5814.686136
754.144082	5662.954967
754.471875	5628.786027
754.799620	5674.658006
755.127318	5686.340880
755.454969	5639.727851
755.782572	5604.205360
756.110129	5652.875180
756.437638	5638.792717
756.765100	5576.731072
757.092515	5573.608077
757.419882	5621.388133
757.747203	5601.906594
758.074477	5664.991593
758.401703	5658.372558
758.728882	5601.962047
759.056014	5653.182691
759.383099	5789.094719
759.710138	5799.829856
760.037129	5781.694305
760.364073	5783.541888
760.690970	5868.830649
761.017820	5858.392940
761.344623	5806.065763
761.671379	5903.778448
761.998088	6015.296333
762.324751	6255.734166
762.651366	6829.299006
762.977935	8112.161755
763.304456	9720.546931
763.630931	10648.068827
763.957359	10280.772878
764.283740	9357.263740
764.610074	8540.024646
764.936362	7548.109572
765.262602	6960.127031
765.588796	6418.455050
765.914943	6072.946968
766.241044	5917.737403
766.567097	5729.266305
766.893104	5464.099092
767.219064	5286.156444
767.544978	5221.614551
767.870845	5148.951359
768.196665	5039.144946
768.522438	4972.311849
768.848165	4935.554276
769.173846	4871.148494
769.499479	4830.471424
769.825066	4775.248104
770.150607	4716.369948
770.476101	4690.649981
770.801548	4687.416081
771.126949	4617.608703
771.452303	4563.870003
771.777611	4518.537427
772.102872	4536.957803
772.428087	4499.010517
772.753256	4459.535762
773.078378	4418.944392
773.403453	4348.564843
773.728482	4332.889375
774.053465	4287.715595
774.378401	4270.643728
774.703291	4279.135551
775.028135	4206.323646
775.352932	4156.753980
775.677683	4139.556084
776.002388	4160.822191
776.327046	4176.923637
776.651658	4101.717183
776.976224	4035.390722
777.300743	4045.536044
777.625216	4065.655289
777.949643	4060.044485
778.274024	4018.167620
778.598359	3967.141060
778.922647	3994.388497
779.246889	3990.670646
779.571086	3983.489522
779.895236	3967.488900
780.219339	3953.751756
780.543397	3944.755817
780.867409	3993.922190
781.191374	4008.491125
781.515294	3952.622537
781.839167	3943.815642
782.162995	3960.640492
782.486776	3950.722022
782.810511	3957.446922
783.134201	3956.191674
783.457844	3916.432094
783.781441	3855.812219
784.104993	3863.628528
784.428498	3880.685272
784.751958	3881.494377
785.075372	3861.233980
785.398739	3820.025068
785.722061	3830.273733
786.045337	3875.402143
786.368568	3908.015887
786.691752	3818.704285
787.014891	3863.429402
787.337983	3986.738546
787.661030	4143.397443
787.984031	4309.064882
788.306987	4476.763906
788.629897	4557.140062
788.952760	4515.061551
789.275579	4447.527734
789.598351	4385.103126
789.921078	4253.135800
790.243759	4055.797312
790.566395	4030.836039
790.888984	4029.142212
791.211529	3922.852003
791.534027	3861.307077
791.856480	3853.334492
792.178888	3794.713434
792.501249	3741.524220
792.823566	3749.315323
793.145836	3784.255561
793.468062	3729.866552
793.790241	3681.746218
794.112375	3712.250240
794.434464	3776.908079
794.756507	3800.084784
795.078505	3784.149696
795.400457	3811.908810
795.722364	3944.995272
796.044226	4053.596849
796.366042	4122.315338
796.687812	4107.454016
797.009538	4116.805356
797.331218	4072.816248
797.652852	4045.636867
797.974442	4027.004762
798.295986	4028.290257
798.617484	3946.331177
798.938938	3856.525542
799.260346	3896.269999
799.581709	3897.300915
799.903026	3825.504802
800.224299	3789.095068
800.545526	3781.689613
800.866708	3745.635281
801.187845	3682.751928
801.508936	3713.765106
801.829983	3717.798029
802.150984	3640.280207
802.471940	3624.145994
802.792851	3637.805000
803.113717	3643.551916
803.434538	3642.946977
803.755314	3586.329778
804.076045	3556.758370
804.396731	3576.683530
804.717372	3602.627829
805.037967	3587.211980
805.358518	3581.954057
805.679024	3607.827779
805.999485	3617.761372
806.319901	3624.224132
806.640272	3635.105462
806.960598	3649.742452
807.280879	3625.239924
807.601115	3636.201913
807.921306	3647.539468
808.241453	3694.883465
808.561554	3672.984692
808.881611	3605.534054
809.201623	3635.559166
809.521590	3653.709841
809.841513	3624.211529
810.161390	3653.682114
810.481223	3631.165801
810.801011	3576.134045
811.120755	3569.837643
811.440453	3605.864249
811.760107	3609.007409
812.079716	3570.437541
812.399281	3533.856408
812.718801	3557.806930
813.038276	3530.622508
813.357707	3526.791231
813.677093	3548.074982
813.996434	3494.321159
814.315731	3501.441789
814.634983	3506.654342
814.954191	3519.158924
815.273354	3547.212945
815.592473	3545.042728
815.911547	3545.824107
816.230577	3587.446394
816.549562	3637.280720
816.868502	3680.919468
817.187399	3707.894683
817.506250	3699.304557
817.825058	3671.714322
818.143821	3762.026593
818.462539	3864.840925
818.781213	3910.221392
819.099843	3966.037048
819.418429	4198.686298
819.736970	4438.496507
820.055466	4677.510213
820.373919	5036.155542
820.692327	5443.808448
821.010691	5856.661304
821.329011	7182.895619
821.647286	9844.236681
821.965517	14303.507783
822.283704	18318.396132
822.601847	20548.206863
822.919945	18791.417680
823.237999	16268.327742
823.556010	13809.590653
823.873976	11746.596744
824.191897	9676.711577
824.509775	8324.727048
824.827609	7204.615431
825.145398	6654.781822
825.463144	6536.738163
825.780845	6651.429455
826.098502	6826.917061
826.416116	7660.955800
826.733685	8958.899161
827.051210	10069.462832
827.368692	10158.572788
827.686129	8945.517418
828.003522	7438.777027
828.320872	6427.269508
828.638177	5740.926494
828.955439	5188.945353
829.272656	4692.603428
829.589830	4406.228081
829.906960	4237.208275
830.224046	4052.223134
830.541088	3926.549690
830.858086	3879.984552
831.175041	3807.149961
831.491952	3790.027682
831.808819	3797.281902
832.125642	3866.302860
832.442421	4007.180425
832.759157	4272.876959
833.075849	4807.713135
833.392497	5653.210417
833.709101	6418.253404
834.025662	6768.248113
834.342179	6431.567091
834.658653	5778.757833
834.975083	5143.181759
835.291469	4570.236980
835.607811	4156.930420
835.924110	4021.998897
836.240366	3831.735668
836.556578	3624.476189
836.872746	3511.418232
837.188871	3477.355156
837.504952	3414.386103
837.820990	3333.193279
838.136984	3284.657050
838.452935	3306.490287
838.768842	3304.453661
839.084706	3325.296312
839.400526	3473.743169
839.716303	3799.943631
840.032037	4306.687978
840.347727	4586.328343
840.663373	4324.647088
840.978977	3949.638174
841.294537	3643.370434
841.610054	3420.256527
841.925527	3310.429949
842.240957	3241.976121
842.556344	3188.870086
842.871687	3131.262300
843.186987	3082.869744
843.502244	3045.227448
843.817458	3011.285359
844.132629	2978.674135
844.447756	2989.303408
844.762840	2975.541058
845.077881	2945.631892
845.392879	2926.309149
845.707833	2922.553490
846.022745	2919.450659
846.337613	2918.064342
846.652438	2911.614186
846.967221	2909.209555
847.281960	2896.044582
847.596656	2889.407903
847.911309	2889.276833
848.225919	2883.540000
848.540485	2878.335009
848.855009	2877.909031
849.169490	2871.801673
849.483928	2860.207019
849.798323	2860.718697
850.112675	2853.482120
850.426984	2866.359748
850.741251	2865.328832
851.055474	2851.231245
851.369654	2850.568333
851.683792	2852.574712
851.997887	2862.233563
852.311938	2864.912937
852.625947	2853.424147
852.939914	2859.743233
853.253837	2859.733151
853.567718	2848.670339
853.881555	2843.349401
854.195350	2861.111907
854.509103	2857.144518
854.822812	2848.176306
855.136479	2845.481809
855.450103	2846.505163
855.763685	2840.332270
856.077224	2836.039728
856.390720	2847.979701
856.704173	2860.053264
857.017584	2852.471369
857.330953	2847.291583
857.644278	2857.046216
857.957561	2864.890251
858.270802	2868.640870
858.584000	2868.376209
858.897155	2856.703418
859.210268	2854.848273
859.523339	2853.930783
859.836367	2849.955833
860.149352	2850.734691
860.462295	2841.859740
860.775195	2852.925073
861.088054	2849.983559
861.400869	2834.434120
861.713642	2831.154850
862.026373	2844.922241
862.339062	2845.779237
862.651708	2857.477235
862.964312	2857.835157
863.276873	2850.311234
863.589392	2861.933615
863.901869	2871.751262
864.214303	2893.544170
864.526696	2909.685944
864.839045	2905.098494
865.151353	2902.656055
865.463619	2902.950963
865.775842	2904.349883
866.088023	2922.946700
866.400162	2928.469284
866.712258	2900.979872
867.024313	2890.567368
867.336325	2896.785632
867.648296	2917.935793
867.960224	2911.432704
868.272110	2896.999881
868.583954	2901.095818
868.895755	2915.490833
869.207515	2901.932650
869.519233	2908.289545
869.830909	2918.588622
870.142542	2927.942483
870.454134	2927.902154
870.765684	2932.119079
871.077191	2929.434665
871.388657	2938.571756
871.700081	2951.540124
872.011463	2963.011270
872.322803	2963.815334
872.634101	2963.384315
872.945357	2979.921820
873.256571	3002.128103
873.567744	2997.966631
873.878874	2989.621000
874.189963	3011.786954
874.501010	3015.015813
874.812015	3005.253618
875.122979	3004.867970
875.433900	3003.738752
875.744780	3006.745800
876.055618	3015.293076
876.366415	3009.442817
876.677169	3021.871782
876.987882	3017.949764
877.298554	3013.064886
877.609183	3033.393339
877.919771	3055.811350
878.230317	3081.417891
878.540822	3130.417907
878.851285	3171.720080
879.161707	3208.555791
879.472087	3304.977941
879.782425	3519.766383
880.092722	3948.493832
880.402977	4466.432061
880.713191	5079.532150
881.023363	6203.084355
881.333494	7465.505225
881.643583	8037.857668
881.953631	7749.440653
882.263637	7143.360370
882.573602	6564.736732
882.883526	5990.181305
883.193408	5425.715747
883.503248	4964.838339
883.813048	4668.602495
884.122806	4372.729614
884.432522	4065.113365
884.742197	3837.948890
885.051831	3638.493118
885.361424	3506.356914
885.670975	3433.371088
885.980485	3355.487782
886.289954	3278.479116
886.599382	3232.155953
886.908768	3193.754964
887.218113	3152.266267
887.527417	3095.412134
887.836680	3047.059907
888.145901	3041.071017
888.455082	3030.529964
888.764221	2981.204794
889.073319	2953.213787
889.382376	2951.494754
889.691392	2954.884930
890.000366	2953.901905
890.309300	2938.934719
890.618193	2953.748150
890.927044	2969.521920
891.235855	2968.876652
891.544625	2953.695218
891.853353	2969.075778
892.162041	2983.672439
892.470687	3021.914632
892.779293	3073.571335
893.087858	3119.019858
893.396381	3186.949406
893.704864	3302.215389
894.013306	3533.755585
894.321707	3830.840863
894.630068	4033.091956
894.938387	4035.521792
895.246665	3988.064369
895.554903	3875.757544
895.863100	3679.699509
896.171256	3517.797812
896.479371	3380.270094
896.787446	3258.362391
897.095480	3157.277174
897.403473	3093.405755
897.711425	3056.842266
898.019336	3046.810370
898.327207	3022.567461
898.635038	2986.765187
898.942827	2971.331694
899.250576	2962.360961
899.558284	2928.751588
899.865952	2909.312899
900.173579	2890.796741
900.481165	2886.174003
900.788711	2871.249667
901.096216	2847.783096
901.403681	2834.610561
901.711105	2842.414267
902.018489	2840.569205
902.325832	2839.979390
902.633135	2850.407016
902.940397	2878.410626
903.247619	2960.999849
903.554800	3142.320071
903.861941	3476.951863
904.169041	3893.240266
904.476101	4189.098023
904.783121	4157.172396
905.090100	3922.148762
905.397039	3651.832011
905.703938	3406.295051
906.010796	3225.032803
906.317614	3114.071965
906.624391	3023.721886
906.931129	2954.857203
907.237826	2895.810168
907.544483	2843.742611
907.851099	2815.739001
908.157675	2795.594551
908.464211	2774.651077
908.770707	2760.550970
909.077163	2751.003024
909.383578	2738.977352
909.689954	2724.993191
909.996289	2721.252655
910.302584	2724.254662
910.608839	2723.967316
910.915054	2720.660319
911.221229	2711.926520
911.527363	2714.855431
911.833458	2721.030844
912.139513	2728.645507
912.445527	2729.580641
912.751502	2738.203535
913.057436	2745.815677
913.363331	2757.738006
913.669186	2780.372787
913.975000	2811.396047
914.280775	2870.901827
914.586510	2937.114863
914.892205	3016.886081
915.197859	3139.360914
915.503475	3323.186589
915.809050	3532.560831
916.114585	3678.603058
916.420081	3702.921584
916.725536	3646.657266
917.030952	3528.951365
917.336328	3406.612644
917.641665	3278.496760
917.946961	3177.522448
918.252218	3113.111626
918.557435	3037.247301
918.862612	2977.207159
919.167750	2927.357709
919.472848	2888.613921
919.777906	2863.612319
920.082925	2836.982424
920.387904	2805.739873
920.692843	2790.419806
920.997743	2778.991510
921.302603	2766.154212
921.607423	2760.795466
921.912204	2746.246696
922.216946	2736.368555
922.521647	2724.552090
922.826310	2720.090669
923.130932	2711.389637
923.435516	2702.229861
923.740059	2695.283151
924.044564	2687.655885
924.349028	2685.972140
924.653454	2678.203722
924.957840	2669.487567
925.262186	2669.351455
925.566493	2662.485404
925.870761	2657.885351
926.174989	2657.988695
926.479178	2650.898312
926.783328	2647.399751
927.087438	2644.259112
927.391509	2644.039822
927.695541	2638.804584
927.999533	2636.909110
928.303486	2634.912813
928.607400	2631.615898
928.911275	2632.916516
929.215110	2631.510034
929.518906	2629.675054
929.822663	2629.743110
930.126381	2627.081380
930.430060	2627.862759
930.733699	2631.809983
931.037299	2633.977679
931.340861	2630.680764
931.644383	2634.572535
931.947866	2630.831999
932.251309	2630.277472
932.554714	2631.293264
932.858080	2627.232615
933.161407	2625.995012
933.464694	2623.381173
933.767943	2622.874537
934.071153	2625.163221
934.374323	2620.870679
934.677455	2623.572737
934.980548	2620.747171
935.283602	2621.929321
935.586617	2620.795062
935.889593	2623.255145
936.192530	2620.301028
936.495428	2623.948303
936.798287	2624.870834
937.101108	2628.061885
937.403890	2632.147740
937.706632	2634.234778
938.009336	2640.687455
938.312002	2651.455359
938.614628	2660.126144
938.917216	2664.355672
939.219765	2666.762823
939.522275	2665.323573
939.824747	2661.257883
940.127179	2661.172183
940.429573	2657.285454
940.731929	2655.750422
941.034246	2650.724392
941.336524	2649.118784
941.638763	2643.727270
941.940964	2643.565953
942.243126	2642.366159
942.545250	2641.143679
942.847335	2639.316261
943.149381	2636.067237
943.451389	2629.841412
943.753359	2628.560959
944.055290	2626.761267
944.357182	2625.576596
944.659036	2624.911164
944.960851	2625.352265
945.262628	2624.389404
945.564367	2622.206585
945.866067	2624.835546
946.167729	2624.575927
946.469352	2622.244393
946.770937	2625.145577
947.072484	2623.313118
947.373992	2620.122067
947.675462	2621.382356
947.976893	2616.923455
948.278286	2613.097220
948.579641	2615.587550
948.880958	2615.509412
949.182236	2615.433794
949.483476	2615.612755
949.784678	2614.990173
950.085841	2614.564195
950.386967	2616.860441
950.688054	2617.412447
950.989103	2620.790020
951.290114	2616.772221
951.591087	2619.406224
951.892021	2624.628859
952.192917	2629.181021
952.493776	2628.550877
952.794596	2627.963582
953.095378	2627.572893
953.396122	2626.216822
953.696828	2624.512912
953.997496	2623.633231
954.298126	2621.452932
954.598718	2620.822788
954.899272	2617.878754
955.199788	2612.807353
955.500266	2611.884822
955.800706	2610.327106
956.101108	2606.442897
956.401472	2608.681169
956.701798	2605.522886
957.002087	2603.113214
957.302337	2600.668255
957.602550	2603.579521
957.902724	2596.458891
958.202861	2598.162801
958.502960	2596.564756
958.803022	2593.908067
959.103045	2594.535691
959.403031	2594.860846
959.702979	2594.308839
960.002889	2593.885382
960.302762	2593.565269
960.602596	2592.713314
960.902393	2592.786411
961.202153	2591.566452
961.501875	2592.889754
961.801559	2591.495875
962.101205	2590.442274
962.400814	2589.665937
962.700385	2590.464959
962.999918	2587.117633
963.299414	2588.889599
963.598873	2588.181317
963.898293	2583.735019
964.197677	2590.207861
964.497022	2587.548652
964.796331	2588.975298
965.095601	2588.524115
965.394835	2587.231059
965.694030	2587.445308
965.993189	2589.358426
966.292309	2589.663416
966.591393	2586.510174
966.890439	2585.955647
967.189447	2588.902202
967.488419	2588.577047
967.787353	2590.651482
968.086249	2589.055957
968.385108	2584.029927
968.683930	2586.288363
968.982714	2589.476893
969.281462	2586.986563
969.580172	2586.653847
969.878844	2585.209557
970.177480	2588.572006
970.476078	2587.624269
970.774639	2588.710638
971.073162	2590.706935
971.371649	2589.607963
971.670098	2586.737026
971.968510	2587.004207
972.266885	2588.730802
972.565223	2588.050247
972.863524	2586.356419
973.161788	2590.081832
973.460014	2586.666450
973.758204	2588.965216
974.056356	2586.656368
974.354471	2587.924218
974.652550	2589.436564
974.950591	2591.102665
975.248595	2588.130905
975.546563	2588.892119
975.844493	2586.684094
976.142386	2587.273909
976.440243	2586.537901
976.738062	2588.216605
977.035845	2586.381625
977.333590	2588.675350
977.631299	2586.588312
977.928971	2584.203846
978.226606	2582.313414
978.524204	2582.908270
978.821765	2583.374577
979.119290	2585.131419
979.416777	2583.755184
979.714228	2586.363981
980.011642	2583.538414
980.309020	2586.774835
980.606360	2583.261151
980.903664	2585.867427
981.200931	2587.808271
981.498162	2585.532190
981.795356	2589.071080
982.092513	2589.560072
982.389633	2589.441605
982.686717	2593.966041
982.983764	2600.605240
983.280775	2602.818307
983.577749	2605.464913
983.874686	2602.823348
984.171587	2599.753285
984.468451	2599.415528
984.765279	2594.848243
985.062070	2593.250197
985.358824	2592.244487
985.655543	2591.687439
985.952224	2588.733323
986.248869	2587.891450
986.545478	2587.044537
986.842050	2585.234762
987.138586	2584.435739
987.435086	2586.792479
987.731549	2582.295770
988.027975	2582.131932
988.324366	2583.825760
988.620719	2584.768456
988.917037	2583.619072
989.213318	2583.858527
989.509563	2581.786613
989.805772	2581.587487
990.101944	2582.794844
990.398080	2583.626634
990.694180	2584.917170
990.990244	2581.413568
991.286271	2581.983218
991.582262	2585.663260
991.878217	2583.397262
992.174136	2585.118816
992.470019	2581.484144
992.765865	2582.817529
993.061676	2578.640933
993.357450	2577.703278
993.653188	2579.777713
993.948890	2581.227045
994.244556	2583.006572
994.540186	2583.999680
994.835780	2582.837694
995.131337	2583.533373
995.426859	2581.857189
995.722345	2585.958168
996.017795	2584.556727
996.313208	2587.594022
996.608586	2585.138980
996.903928	2587.140318
997.199234	2588.140987
997.494504	2586.500092
997.789738	2586.298446
998.084936	2588.461101
998.380099	2585.706110
998.675225	2583.077148
998.970316	2583.208218
999.265371	2585.098651
999.560390	2582.018506
999.855373	2585.693507
1000.150320	2584.191243
1000.445232	2581.448856
1000.740108	2583.424988
1001.034948	2581.869792
1001.329752	2581.698393
1001.624521	2583.729978
1001.919254	2582.220152
1002.213951	2583.767787
1002.508613	2581.474062
1002.803239	2579.286201
1003.097829	2578.698906
1003.392384	2580.518763
1003.686903	2578.910635
1003.981386	2583.833322
1004.275834	2581.751325
1004.570246	2580.060018
1004.864623	2582.278126
1005.158964	2579.145048
1005.453270	2581.116140
1005.747540	2580.891808
1006.041775	2579.447518
1006.335974	2580.949782
1006.630138	2581.368197
1006.924266	2580.874164
1007.218359	2579.926427
1007.512416	2577.302507
1007.806438	2575.880901
1008.100425	2576.379976
1008.394376	2575.754873
1008.688292	2580.181006
1008.982172	2578.880388
1009.276017	2580.319637
1009.569827	2580.397775
1009.863602	2578.340984
1010.157341	2578.875347
1010.451045	2578.557754
1010.744714	2578.688824
1011.038347	2578.141859
1011.331945	2580.987590
1011.625508	2579.558423
1011.919036	2579.248392
1012.212528	2581.660584
1012.505986	2579.508012
1012.799408	2579.069431
1013.092795	2579.918866
1013.386147	2580.722930
1013.679464	2578.131777
1013.972745	2580.130594
1014.265992	2578.335943
1014.559204	2578.013309
1014.852380	2575.495253
1015.145521	2577.562126
1015.438628	2580.032292
1015.731699	2578.008268
1016.024736	2579.200501
1016.317737	2576.841241
1016.610703	2579.087075
1016.903635	2579.361818
1017.196531	2578.242682
1017.489393	2578.537589
1017.782219	2577.683114
1018.075011	2577.791499
1018.367768	2578.451890
1018.660490	2578.956005
1018.953177	2578.956005
1019.245829	2578.956005
