Dividing Wavelength (nm)	Counts (n)	Blue Motor Position (mm): 47.400000	Red Motor Position (mm): 0.000000	
326.493990	2274.407298
326.888308	2274.407298
327.282561	2274.407298
327.676750	2238.952863
328.070874	2234.889693
328.464933	2233.916751
328.858929	2236.142420
329.252859	2243.865468
329.646726	2250.159348
330.040528	2264.869435
330.434265	2275.531476
330.827938	2293.367078
331.221547	2312.921714
331.615091	2330.641370
332.008571	2345.966477
332.401986	2369.362472
332.795338	2386.036089
333.188625	2405.389078
333.581847	2427.451688
333.975006	2444.591611
334.368100	2466.003912
334.761129	2481.402117
335.154095	2499.346104
335.546996	2528.088242
335.939833	2566.343038
336.332606	2580.622107
336.725315	2596.993254
337.117960	2610.667383
337.510540	2618.529063
337.903056	2626.625156
338.295508	2640.032105
338.687896	2647.006541
339.080220	2653.353354
339.472480	2658.427275
339.864676	2664.597647
340.256807	2671.746003
340.648875	2670.873884
341.040879	2675.849503
341.432818	2682.889474
341.824694	2680.862930
342.216506	2682.720595
342.608253	2683.272602
342.999937	2683.229752
343.391557	2685.664629
343.783113	2684.845442
344.174605	2681.971984
344.566033	2679.748835
344.957397	2682.324865
345.348697	2680.731860
345.739934	2679.925276
346.131106	2676.703978
346.522215	2676.313289
346.913260	2672.169460
347.304241	2672.638288
347.695159	2669.961435
348.086012	2669.870694
348.476802	2668.194511
348.867528	2661.630928
349.258191	2661.351144
349.648789	2659.506082
350.039324	2659.881648
350.429796	2659.654796
350.820203	2658.180258
351.210548	2658.069353
351.600828	2654.926194
351.991045	2654.898467
352.381198	2656.103303
352.771288	2654.664054
353.161314	2653.161790
353.551276	2653.718837
353.941175	2652.997952
354.331010	2653.522232
354.720782	2653.789413
355.110490	2654.593477
355.500135	2653.222284
355.889717	2651.982160
356.279235	2652.781183
356.668689	2655.639517
357.058080	2655.188334
357.447408	2652.955103
357.836672	2652.604742
358.225873	2655.899136
358.615010	2655.195895
359.004084	2658.182779
359.393095	2655.594147
359.782043	2659.765701
360.170927	2659.238901
360.559748	2657.686225
360.948505	2660.166473
361.337199	2661.220074
361.725830	2659.493479
362.114398	2659.586740
362.502903	2662.064467
362.891344	2660.879796
363.279722	2660.453819
363.668037	2663.259221
364.056289	2663.788542
364.444478	2663.274344
364.832603	2665.326094
365.220665	2666.026814
365.608665	2664.849705
365.996601	2667.508914
366.384474	2667.839109
366.772284	2666.951866
367.160031	2668.496980
367.547715	2668.653256
367.935336	2668.486897
368.322893	2668.325581
368.710388	2670.931857
369.097820	2670.541168
369.485189	2666.097391
369.872495	2672.572753
370.259738	2672.418997
370.646918	2673.586025
371.034035	2674.480829
371.421090	2679.201870
371.808081	2681.530883
372.195010	2687.761749
372.581875	2692.470187
372.968678	2699.797504
373.355418	2706.439224
373.742096	2717.701162
374.128710	2730.372102
374.515262	2741.646643
374.901751	2757.085176
375.288177	2773.219389
375.674540	2789.325876
376.060841	2810.723053
376.447079	2836.105263
376.833254	2858.727441
377.219367	2878.987838
377.605417	2912.524114
377.991404	2937.193000
378.377329	2974.101808
378.763191	2995.945128
379.148991	3036.329811
379.534727	3078.458734
379.920402	3117.517594
380.306013	3141.455513
380.691563	3206.801470
381.077049	3229.317783
381.462474	3272.144906
381.847835	3323.662978
382.233134	3370.812890
382.618371	3399.829771
383.003545	3469.821151
383.388657	3491.298987
383.773706	3554.938513
384.158693	3586.488575
384.543618	3616.675004
384.928480	3675.739683
385.313280	3734.723703
385.698017	3758.530553
386.082692	3849.374665
386.467305	3853.528576
386.851856	3891.324627
387.236344	3966.142912
387.620770	3995.374042
388.005133	4043.862381
388.389435	4091.435750
388.773674	4098.763067
389.157851	4174.554294
389.541965	4240.374119
389.926018	4206.225343
390.310008	4311.020849
390.693936	4362.901884
391.077802	4395.661823
391.461606	4393.063108
391.845348	4459.709682
392.229027	4522.950957
392.612645	4521.496584
392.996200	4623.557264
393.379694	4686.614537
393.763125	4785.889980
394.146494	4813.956604
394.529801	4868.380901
394.913047	4954.501453
395.296230	4903.847939
395.679351	5010.639742
396.062410	5064.597732
396.445408	5035.076735
396.828343	5095.734419
397.211217	5149.634436
397.594028	5035.538001
397.976778	5153.175846
398.359466	5198.503381
398.742092	5221.780909
399.124656	5139.277385
399.507158	5263.821612
399.889598	5324.257484
400.271977	5444.080670
400.654294	5444.889775
401.036549	5487.301003
401.418742	5407.101286
401.800874	5612.566114
402.182944	5674.337893
402.564952	5773.457060
402.946898	5840.436350
403.328783	5670.849414
403.710606	5695.604000
404.092367	6016.478484
404.474067	6041.906064
404.855705	5931.877840
405.237282	5870.549683
405.618797	6132.193129
406.000250	6103.861844
406.381642	6308.930942
406.762972	6334.865158
407.144240	6389.367592
407.525447	6372.492330
407.906593	6384.893568
408.287677	6550.303908
408.668700	6470.119315
409.049661	6580.414720
409.430560	6608.274657
409.811399	6471.966898
410.192176	6731.127576
410.572891	6751.874445
410.953545	6947.037675
411.334138	6674.069277
411.714669	6845.685277
412.095139	6637.725078
412.475547	6889.230764
412.855894	6960.111908
413.236180	7143.582181
413.616405	6800.342619
413.996568	7020.749427
414.376670	7075.148518
414.756711	6960.182484
415.136691	7068.990748
415.516609	7270.069772
415.896466	7246.061277
416.276262	7459.798638
416.655997	7443.533356
417.035670	7616.018955
417.415283	7964.781102
417.794834	8031.074795
418.174324	7890.618167
418.553753	7814.501785
418.933121	8103.874098
419.312428	8203.169705
419.691674	7980.577557
420.070859	8461.526319
420.449983	8146.401272
420.829045	8504.250098
421.208047	8274.880119
421.586988	8585.455525
421.965867	8610.731870
422.344686	8704.381385
422.723444	8783.948437
423.102141	8115.073021
423.480777	8884.103561
423.859352	8406.784430
424.237866	9021.462400
424.616319	8887.012307
424.994712	9322.820057
425.373044	8855.000980
425.751314	9342.543571
426.129524	9226.939831
426.507673	9303.971183
426.885762	9456.975243
427.263789	9380.821052
427.641756	9319.626486
428.019662	9402.402232
428.397508	9676.295682
428.775292	9332.683074
429.153016	9718.338905
429.530679	9550.392865
429.908282	9561.748064
430.285824	9292.689080
430.663305	9976.488832
431.040726	9430.978013
431.418086	9412.436649
431.795385	9741.853367
432.172624	9842.873049
432.549802	9746.763451
432.926920	9815.892794
433.303977	9684.492598
433.680974	9895.661492
434.057910	9997.381894
434.434786	10064.479652
434.811601	9882.405778
435.188355	10450.208579
435.565050	10203.784377
435.941683	10113.877918
436.318257	10591.991031
436.694770	10777.197982
437.071222	10814.837758
437.447614	10636.393514
437.823946	10570.755171
438.200218	10653.359518
438.576429	10501.076342
438.952580	10754.129662
439.328670	10765.058884
439.704700	10575.624925
440.080670	10568.199306
440.456580	11077.726369
440.832429	10874.875379
441.208218	10476.818310
441.583947	10761.081414
441.959616	10951.758017
442.335224	10772.837384
442.710773	10869.221725
443.086261	11100.013310
443.461689	10364.687925
443.837057	11053.125538
444.212365	11281.610795
444.587612	10915.968345
444.962800	11132.619493
445.337927	10876.080215
445.712995	10556.947450
446.088002	11590.255439
446.462949	11294.085130
446.837837	11251.469736
447.212664	11173.619198
447.587431	11772.856114
447.962139	12537.117722
448.336786	14833.123844
448.711374	15314.823738
449.085901	13115.184313
449.460369	12769.116663
449.834776	12226.754045
450.209124	13155.047237
450.583412	13583.517588
450.957640	14507.636705
451.331808	13531.389537
451.705917	12615.177469
452.079965	11855.727642
452.453954	12771.959874
452.827883	12439.641972
453.201752	12711.839073
453.575562	12276.999225
453.949311	12683.089373
454.323001	12675.452025
454.696632	12913.563365
455.070202	13191.426724
455.443713	13372.245351
455.817164	13876.000293
456.190556	13831.038242
456.563888	14207.262074
456.937160	14339.302496
457.310373	13705.674828
457.683526	13816.494513
458.056619	13333.448631
458.429653	13560.091346
458.802628	12902.513156
459.175542	13317.768122
459.548398	14277.465182
459.921194	14639.299041
460.293930	14716.776534
460.666607	15555.644699
461.039224	16605.991788
461.411782	17347.016197
461.784280	17104.660206
462.156719	17226.691417
462.529099	16881.659724
462.901419	15848.598752
463.273680	15608.055055
463.645882	15511.464027
464.018024	15235.833899
464.390106	15472.485825
464.762130	16171.154460
465.134094	16983.980024
465.505999	19062.205779
465.877845	22339.820337
466.249631	25133.461441
466.621358	24714.972575
466.993026	23293.352067
467.364634	22707.648128
467.736184	21231.477294
468.107674	20446.201636
468.479105	20575.098898
468.850477	20021.038282
469.221790	19635.881525
469.593043	18940.449311
469.964238	18360.275518
470.335373	18002.351074
470.706449	18506.466459
471.077467	18114.400801
471.448425	19998.814355
471.819324	24160.228882
472.190164	25941.815501
472.560945	22237.242939
472.931667	19971.206476
473.302330	19358.081181
473.672934	19024.376961
474.043479	19224.851046
474.413965	19043.021668
474.784393	18629.493298
475.154761	19400.913344
475.525070	19299.109763
475.895321	19044.992759
476.265513	19653.631428
476.635645	20233.810262
477.005719	19988.026286
477.375734	20177.031747
477.745691	20664.314718
478.115588	21225.823640
478.485427	21783.087909
478.855207	22896.951016
479.224928	24672.266440
479.594591	26915.053101
479.964194	26787.600129
480.333739	27025.409000
480.703226	26608.682017
481.072653	26327.778842
481.442022	26963.385163
481.811333	27908.898937
482.180584	27764.575744
482.549777	26823.241086
482.918912	26492.236404
483.287988	26641.131924
483.657005	26240.690389
484.025964	26031.754727
484.394864	25899.144654
484.763706	25540.254830
485.132489	25036.154568
485.501213	25214.951693
485.869879	25122.680933
486.238487	24977.901515
486.607036	25095.292344
486.975527	24862.350707
487.343959	25139.883871
487.712333	25044.593460
488.080648	24703.143507
488.448905	25225.729679
488.817104	24985.097762
489.185244	25697.697626
489.553326	25639.089171
489.921350	26706.578704
490.289315	29082.267824
490.657222	30777.519643
491.025070	31291.205658
491.392861	31016.714831
491.760593	30158.062658
492.128267	29237.454704
492.495883	28156.386824
492.863440	27297.376729
493.230939	26434.179956
493.598380	26259.635045
493.965763	25889.269034
494.333088	25387.817899
494.700354	25365.455341
495.067563	25190.035790
495.434713	24959.705470
495.801805	25144.836804
496.168839	24898.362190
496.535815	24776.388952
496.902733	25000.952191
497.269593	24693.764440
497.636395	24863.101839
498.003139	24789.765654
498.369825	24529.034656
498.736453	24748.009776
499.103023	24607.283446
499.469535	24611.059270
499.835989	24837.008827
500.202385	24854.960376
500.568723	24408.447736
500.935003	24577.795217
501.301226	24276.881182
501.667390	25118.832012
502.033497	25318.164276
502.399546	25053.138216
502.765537	24584.628501
503.131470	24966.354752
503.497345	25115.761949
503.863163	24348.563869
504.228923	24887.760643
504.594625	25150.709748
504.960269	24712.371339
505.325856	25195.815473
505.691385	24584.255455
506.056856	25174.819067
506.422270	25177.478275
506.787625	24686.603481
507.152924	25144.824201
507.518164	25167.738766
507.883347	24976.938655
508.248472	24657.760520
508.613540	25421.175214
508.978550	25234.385341
509.343503	25247.701548
509.708398	25450.239987
510.073236	25623.610308
510.438016	25830.685785
510.802738	25491.368240
511.167403	25749.873568
511.532010	25503.653532
511.896561	26239.112508
512.261053	26206.082868
512.625488	26041.680759
512.989866	25924.973006
513.354186	25766.280003
513.718449	25883.028085
514.082655	26259.695539
514.446803	25989.812327
514.810894	26466.685316
515.174927	25961.755785
515.538904	25991.629663
515.902822	26497.373340
516.266684	26256.207061
516.630488	26151.104044
516.994235	26090.975682
517.357925	26444.940299
517.721558	26585.273419
518.085133	26727.630563
518.448651	26598.569462
518.812112	26368.644956
519.175516	26607.681348
519.538863	26754.509995
519.902152	26550.063480
520.265385	26785.313965
520.628560	26605.188497
520.991678	26568.282210
521.354739	26626.701621
521.717743	26737.637253
522.080690	26489.715827
522.443580	26834.019073
522.806413	26790.720603
523.169189	26924.084328
523.531908	26962.709649
523.894569	26584.592863
524.257174	26702.833127
524.619722	26816.687586
524.982213	26538.322633
525.344647	26547.192543
525.707025	26733.274134
526.069345	26675.288262
526.431608	26646.016802
526.793815	26810.464282
527.155964	26334.912075
527.518057	26493.514337
527.880093	26417.080362
528.242072	26614.844828
528.603995	26355.356474
528.965860	26143.499463
529.327669	26170.048700
529.689421	26162.396229
530.051117	26009.757652
530.412755	26177.708733
530.774337	25951.975947
531.135862	25866.364551
531.497331	26032.084922
531.858743	25649.809185
532.220098	26078.166110
532.581396	25796.738655
532.942638	25669.386506
533.303824	25810.430429
533.664953	25789.250021
534.026025	25454.290554
534.387040	25697.122934
534.747999	25737.938637
535.108902	25909.370635
535.469748	25417.374184
535.830537	25561.742748
536.191270	25702.552257
536.551947	25498.539282
536.912567	25132.322140
537.273131	25595.233653
537.633638	25268.783654
537.994089	25492.636090
538.354483	24972.310876
538.714821	25480.197043
539.075103	25529.005495
539.435328	25294.987572
539.795497	24892.199379
540.155609	25234.914662
540.515665	25558.992798
540.875665	24761.746921
541.235609	25120.941735
541.595496	25037.845876
541.955328	25398.729477
542.315102	25317.695449
542.674821	24831.319885
543.034483	24706.347160
543.394090	24881.144129
543.753640	24697.315933
544.113134	25328.092829
544.472571	24905.082048
544.831953	25214.576127
545.191278	24872.284301
545.550548	24757.766930
545.909761	24968.015813
546.268918	25207.425250
546.628019	25180.666805
546.987064	24857.029769
547.346053	24593.639563
547.704986	24682.873028
548.063863	24847.474262
548.422684	24871.782706
548.781449	24367.337126
549.140158	24777.520691
549.498811	24350.716442
549.857408	24125.880980
550.215949	24507.259392
550.574434	24221.635177
550.932864	24400.596138
551.291237	24582.947276
551.649555	24431.190901
552.007817	24493.071065
552.366022	24328.152237
552.724173	24348.422717
553.082267	24336.621376
553.440305	24812.526463
553.798288	24042.434761
554.156215	24535.366345
554.514086	24669.796274
554.871902	24072.280912
555.229661	24338.302600
555.587365	24184.446585
555.945014	24089.801442
556.302606	24290.782164
556.660143	24293.169150
557.017625	24521.051989
557.375050	24041.582806
557.732421	24422.993985
558.089735	24253.071812
558.446994	24291.840806
558.804197	24331.958308
559.161345	24224.382606
559.518437	24030.998903
559.875474	24193.959242
560.232455	24375.118147
560.589381	24188.028325
560.946251	24196.784809
561.303065	24479.298632
561.659825	24575.176337
562.016528	24166.200129
562.373177	23911.478187
562.729770	24277.660040
563.086307	24123.993068
563.442789	24302.018896
563.799216	24157.090764
564.155587	24137.788186
564.511904	24115.655000
564.868164	24091.422173
565.224370	24038.691704
565.580520	23997.717205
565.936615	24095.452576
566.292654	23810.549245
566.648638	24028.803481
567.004567	23872.550397
567.360441	23808.494975
567.716260	23532.219580
568.072023	23839.556045
568.427732	23615.398618
568.783385	23383.994533
569.138982	23639.790241
569.494525	23665.104395
569.850013	23427.028343
570.205445	23538.165621
570.560823	23357.306665
570.916145	23127.530873
571.271412	23322.996572
571.626625	23071.092635
571.981782	23174.917719
572.336884	22974.360454
572.691931	23120.407722
573.046923	22858.973484
573.401860	22738.351275
573.756743	22777.251339
574.111570	22664.790758
574.466342	22584.316299
574.821059	22649.745434
575.175722	22364.516950
575.530330	22316.719250
575.884882	22324.376762
576.239380	22243.430955
576.593823	22146.953353
576.948211	22114.916820
577.302544	21974.767702
577.656823	21827.195485
578.011047	21941.904420
578.365216	21809.806025
578.719330	21676.928771
579.073389	21561.728323
579.427394	21723.181358
579.781344	21464.537398
580.135239	21361.450843
580.489080	21302.154271
580.842866	21093.508475
581.196597	21308.400260
581.550273	21254.865727
581.903895	21138.155454
582.257463	21449.683638
582.610975	20983.298769
582.964434	21324.163948
583.317837	20986.825056
583.671186	21076.033315
584.024481	21054.920962
584.377721	20815.861885
584.730906	20929.912950
585.084037	20879.844210
585.437113	20824.273051
585.790135	21026.012466
586.143103	20475.155503
586.496016	20516.079590
586.848874	20740.388251
587.201679	20637.957046
587.554428	20356.706031
587.907124	20686.079900
588.259765	20441.112591
588.612352	20503.527117
588.964884	20087.936914
589.317362	20254.930176
589.669786	20313.715071
590.022155	20298.155550
590.374470	20551.856658
590.726731	20304.078906
591.078937	20112.142014
591.431090	20179.181799
591.783188	19949.927766
592.135232	19902.982021
592.487222	20010.731643
592.839157	20013.675677
593.191038	19891.750330
593.542866	19785.903743
593.894639	19484.725048
594.246358	19711.508915
594.598022	19587.738506
594.949633	19349.664974
595.301190	19331.748714
595.652692	19504.672893
596.004141	19721.273630
596.355535	19050.119613
596.706876	19073.916380
597.058162	18967.550554
597.409395	19220.107321
597.760573	19246.956506
598.111698	19028.921561
598.462768	18977.955496
598.813785	18950.357699
599.164748	18742.790710
599.515657	18810.868972
599.866511	18607.002190
600.217312	18950.261917
600.568060	18457.809242
600.918753	18774.980998
601.269392	18675.904681
601.619978	18478.326738
601.970510	18649.481473
602.320988	18604.158979
602.671412	18798.142579
603.021783	18748.086442
603.372100	18442.847097
603.722363	18602.170244
604.072572	18541.157159
604.422728	18695.335808
604.772830	18443.832643
605.122878	18405.015758
605.472872	18378.567344
605.822813	18364.626033
606.172701	18358.107822
606.522534	18524.634777
606.872314	18558.559222
607.222041	18405.340913
607.571714	18608.227190
607.921333	18435.734029
608.270899	18511.759670
608.620411	18652.256628
608.969870	18472.000090
609.319276	18453.436041
609.668627	18490.483480
610.017926	18613.860680
610.367171	18741.285925
610.716362	18792.927505
611.065500	18595.087423
611.414585	18752.590713
611.763616	18731.606910
612.112594	18666.770110
612.461518	18644.752870
612.810389	18843.807871
613.159207	18690.599644
613.507971	18620.000805
613.856682	18853.491928
614.205340	18766.360625
614.553945	18929.593186
614.902496	18668.842024
615.250994	18863.700264
615.599439	18826.912444
615.947830	18811.947779
616.296169	18893.680006
616.644454	18851.344396
616.992686	18821.226023
617.340864	19048.551814
617.688990	18796.478998
618.037063	18968.576429
618.385082	18829.022167
618.733048	19093.208875
619.080961	18985.184510
619.428821	19021.407721
619.776628	18891.015756
620.124382	18822.985385
620.472083	18882.836484
620.819731	18885.478049
621.167326	18571.898115
621.514868	18621.981978
621.862357	18401.675994
622.209793	18389.604951
622.557176	18227.267194
622.904506	18060.372234
623.251783	18003.611362
623.599007	17750.948732
623.946179	17681.438782
624.293297	17612.362371
624.640363	17335.819795
624.987376	17365.799537
625.334336	17173.781987
625.681243	17011.466915
626.028097	17044.506637
626.374899	16938.707942
626.721647	16817.019529
627.068343	16658.412226
627.414987	16588.892194
627.761577	16544.940894
628.108115	16578.817448
628.454600	16315.868343
628.801032	16409.921150
629.147412	16346.163157
629.493739	16354.811256
629.840014	16158.783468
630.186236	16267.206085
630.532405	16022.760535
630.878521	16222.002058
631.224585	16132.463604
631.570597	15946.424863
631.916556	15980.820655
632.262462	15957.933817
632.608316	15871.596496
632.954117	15819.957436
633.299866	15804.173583
633.645562	15715.928185
633.991206	15492.121119
634.336797	15366.127561
634.682336	15332.651779
635.027823	15184.041084
635.373257	15058.493668
635.718639	14982.102543
636.063968	14919.814047
636.409245	14675.189536
636.754470	14701.285068
637.099642	14557.299632
637.444762	14336.096322
637.789829	14383.347057
638.134845	14207.892218
638.479808	14231.124376
638.824719	14136.098626
639.169577	14007.806301
639.514383	14046.925655
639.859137	13879.093041
640.203839	13984.148166
640.548489	13832.558150
640.893086	13809.767093
641.237632	13690.480790
641.582125	13856.317108
641.926566	13663.855936
642.270955	13674.938913
642.615292	13629.016522
642.959576	13646.194254
643.303809	13664.967511
643.647990	13606.275877
643.992118	13670.555630
644.336195	13434.548971
644.680219	13676.499150
645.024192	13568.840268
645.368112	13822.816120
645.711981	13851.588505
646.055797	14041.655129
646.399562	14021.268703
646.743274	14284.555565
647.086935	14549.758066
647.430544	14517.325803
647.774101	14560.304160
648.117606	14696.432958
648.461059	14680.631461
648.804460	14648.781451
649.147810	14379.452766
649.491108	14302.217248
649.834354	14306.668587
650.177548	13983.626407
650.520690	13794.409218
650.863781	13717.302249
651.206820	13758.422941
651.549807	13604.831586
651.892742	13372.898180
652.235626	13315.935662
652.578458	13322.408504
652.921238	13027.377496
653.263967	13225.255387
653.606644	13062.930233
653.949269	13041.220504
654.291843	12827.576404
654.634365	12993.624450
654.976836	12847.226822
655.319255	12838.480420
655.661622	12800.535655
656.003938	12728.089233
656.346203	12648.275165
656.688416	12731.829769
657.030577	12687.369313
657.372687	12581.726893
657.714746	12582.780494
658.056753	12771.745625
658.398708	12576.116088
658.740612	12573.288001
659.082465	12692.813759
659.424266	12658.617092
659.766016	12683.931246
660.107715	12607.973660
660.449362	12676.515708
660.790958	12622.131741
661.132503	12566.351373
661.473996	12646.480514
661.815438	12662.574398
662.156829	12683.296060
662.498168	12648.920432
662.839456	12657.520641
663.180693	12666.123370
663.521879	12765.799584
663.863013	12731.406312
664.204097	12712.065925
664.545129	12849.686905
664.886110	12817.441164
665.227040	12909.757294
665.567918	12910.800813
665.908746	12929.379985
666.249522	12925.110128
666.590248	12975.756080
666.930922	13087.362185
667.271545	13055.413873
667.612118	13142.794713
667.952639	13045.601267
668.293109	13071.797623
668.633528	13012.642203
668.973896	12984.000887
669.314213	13050.511351
669.654480	12796.772433
669.994695	12891.959500
670.334859	12915.751226
670.674973	12849.001308
671.015035	12874.441491
671.355047	12829.930623
671.695008	12796.522896
672.034918	12810.265082
672.374777	12859.733924
672.714585	12770.717230
673.054342	12809.153507
673.394049	12771.274277
673.733705	12861.997402
674.073310	12758.918409
674.412864	12764.798915
674.752368	12613.894495
675.091820	12671.968588
675.431223	12640.884833
675.770574	12495.679438
676.109875	12413.997622
676.449125	12371.478010
676.788324	12330.498470
677.127473	12156.729897
677.466571	12165.347750
677.805619	12041.244624
678.144616	11976.327166
678.483562	11956.502828
678.822458	11824.127169
679.161303	11801.618417
679.500098	11777.705704
679.838842	11732.983108
680.177535	11781.610078
680.516179	11847.192969
680.854771	11781.945314
681.193314	11997.789878
681.531805	12174.063905
681.870247	12614.809465
682.208638	13027.044779
682.546978	13317.735354
682.885268	13335.775123
683.223508	13041.409547
683.561697	12899.208680
683.899836	12804.402220
684.237925	12597.896394
684.575963	12503.248730
684.913951	12426.174529
685.251889	12381.010832
685.589776	12488.515958
685.927614	12402.337433
686.265401	12369.897608
686.603137	12432.481012
686.940824	12587.304929
687.278460	12719.683109
687.616046	12740.598856
687.953582	12894.495201
688.291068	12838.374556
688.628504	13074.439187
688.965889	13078.772059
689.303224	13027.838761
689.640510	12907.382911
689.977745	12582.246132
690.314930	12371.868699
690.652065	12280.495265
690.989150	11980.438227
691.326185	11758.849268
691.663170	11548.479398
692.000105	11313.727986
692.336990	11189.214007
692.673825	10924.427401
693.010610	10826.036681
693.347345	10616.455751
693.684030	10425.723695
694.020665	10361.237255
694.357251	10172.753554
694.693786	10092.435370
695.030272	9939.968193
695.366707	9824.545934
695.703093	9763.583261
696.039429	9750.307382
696.375716	9651.956991
696.711952	9527.838742
697.048139	9583.099871
697.384276	9534.241008
697.720363	9561.203619
698.056400	9490.647630
698.392388	9434.060678
698.728326	9399.422910
699.064214	9347.504067
699.400053	9381.927586
699.735842	9197.358340
700.071581	9170.168877
700.407270	9084.295342
700.742910	9012.582408
701.078501	8910.357890
701.414042	8771.995861
701.749533	8724.840908
702.084974	8581.447808
702.420366	8705.538330
702.755709	8571.972959
703.091002	8445.341695
703.426246	8476.480902
703.761440	8426.666740
704.096584	8387.098724
704.431679	8317.457704
704.766725	8307.342629
705.101721	8264.888552
705.436668	8309.210376
705.771565	8202.710960
706.106413	8287.339330
706.441212	8319.748908
706.775961	8281.973022
707.110661	8332.271135
707.445311	8457.339641
707.779913	8349.474072
708.114465	8480.594484
708.448967	8516.923559
708.783421	8683.221142
709.117825	8845.442952
709.452180	8886.717399
709.786485	8976.853230
710.120742	9262.716900
710.454949	9273.696533
710.789107	9385.431188
711.123216	9604.512172
711.457275	9778.847875
711.791286	9913.469368
712.125247	9930.029558
712.459159	9915.861395
712.793023	10131.035485
713.126837	9709.915137
713.460602	9870.107883
713.794318	9697.690339
714.127985	9726.881140
714.461602	9378.542451
714.795171	9337.636008
715.128691	9086.437832
715.462162	8842.801387
715.795584	8780.845607
716.128957	8611.190615
716.462281	8446.690203
716.795556	8488.703180
717.128782	8290.111965
717.461960	8035.954632
717.795088	8095.548632
718.128167	8006.287442
718.461198	7837.849889
718.794180	7789.013711
719.127113	7786.412476
719.459997	7606.264322
719.792833	7389.550160
720.125619	7463.962632
720.458357	7314.439488
720.791046	7305.625030
721.123686	7290.398225
721.456278	7129.862681
721.788821	7148.459498
722.121315	7056.919705
722.453761	7132.027857
722.786158	7059.266362
723.118506	7073.883188
723.450805	7035.663680
723.783056	7092.427073
724.115259	7011.597212
724.447412	7011.632500
724.779518	7073.613486
725.111574	7074.518373
725.443582	7146.836246
725.775542	7114.240145
726.107453	7316.183727
726.439315	7220.454736
726.771129	7309.375649
727.102895	7488.187896
727.434612	7586.586178
727.766281	7628.185780
728.097901	7700.649846
728.429473	7708.940023
728.760996	7693.803959
729.092471	7674.256885
729.423897	7613.127853
729.755276	7604.497398
730.086606	7513.093717
730.417887	7622.663196
730.749120	7843.811053
731.080305	8033.572687
731.411442	8133.465671
731.742530	8112.239893
732.073570	8223.977068
732.404562	8305.863050
732.735506	8174.059562
733.066401	8309.107033
733.397249	8213.614976
733.728048	7966.648849
734.058798	7638.545351
734.389501	7403.725884
734.720156	7240.107674
735.050762	7018.427975
735.381320	6936.489061
735.711831	6871.632096
736.042293	6758.591783
736.372707	6775.671212
736.703073	6650.506923
737.033391	6691.126021
737.363661	6692.431679
737.693883	6735.447845
738.024056	6817.288457
738.354182	6852.390012
738.684260	6886.742954
739.014290	7019.184148
739.344272	7119.031762
739.674207	7159.446692
740.004093	7236.092395
740.333931	7243.986842
740.663722	7244.188488
740.993464	7324.552042
741.323159	7294.607589
741.652806	7054.784777
741.982405	7097.112825
742.311956	7127.127855
742.641460	6945.754701
742.970915	6753.162460
743.300323	6744.136274
743.629683	6705.909204
743.958996	6568.562968
744.288260	6475.110058
744.617477	6424.678355
744.946647	6413.867600
745.275768	6259.452017
745.604842	6212.831426
745.933869	6193.833838
746.262847	6152.065358
746.591778	6136.793182
746.920662	6096.189208
747.249498	6096.325319
747.578286	6145.847094
747.907027	6218.157405
748.235720	6279.092352
748.564365	6255.293065
748.892963	6298.228572
749.221514	6433.533141
749.550017	6235.935034
749.878473	6135.482482
750.206881	6200.016813
750.535242	6149.441437
750.863555	6076.664819
751.191821	6085.355769
751.520039	6081.970634
751.848210	5989.062168
752.176334	6024.821593
752.504411	6067.036216
752.832440	5982.521271
753.160421	5918.932157
753.488356	5970.304035
753.816243	5990.158619
754.144082	5847.206620
754.471875	5823.107384
754.799620	5862.110791
755.127318	5876.112596
755.454969	5836.209343
755.782572	5801.301873
756.110129	5846.561352
756.437638	5817.607485
756.765100	5765.280308
757.092515	5774.482934
757.419882	5834.434857
757.747203	5804.613911
758.074477	5861.089958
758.401703	5838.009035
758.728882	5801.682480
759.056014	5880.508482
759.383099	5985.316591
759.710138	6002.932903
760.037129	5987.461602
760.364073	5984.510007
760.690970	6068.382204
761.017820	6045.286157
761.344623	6012.584192
761.671379	6123.494618
761.998088	6243.960551
762.324751	6515.746799
762.651366	7167.366345
762.977935	8557.824961
763.304456	10216.508249
763.630931	11061.430839
763.957359	10572.638042
764.283740	9607.602399
764.610074	8728.142864
764.936362	7726.095070
765.262602	7139.675287
765.588796	6611.443022
765.914943	6282.797600
766.241044	6107.272185
766.567097	5886.590634
766.893104	5636.501512
767.219064	5465.084638
767.544978	5401.435029
767.870845	5320.670703
768.196665	5215.358479
768.522438	5148.096884
768.848165	5106.661120
769.173846	5031.774779
769.499479	4993.278008
769.825066	4942.609371
770.150607	4882.160895
770.476101	4863.927042
770.801548	4853.925392
771.126949	4765.473307
771.452303	4712.737797
771.777611	4681.462478
772.102872	4700.376887
772.428087	4658.358870
772.753256	4616.295482
773.078378	4560.641144
773.403453	4499.683512
773.728482	4486.072396
774.053465	4441.478349
774.378401	4428.522584
774.703291	4419.977828
775.028135	4344.942774
775.352932	4300.767143
775.677683	4287.400523
776.002388	4304.230415
776.327046	4309.203513
776.651658	4237.800610
776.976224	4176.129655
777.300743	4180.006302
777.625216	4200.727965
777.949643	4192.349567
778.274024	4151.939678
778.598359	4117.725367
778.922647	4143.067247
779.246889	4128.694918
779.571086	4119.504894
779.895236	4104.779684
780.219339	4096.502109
780.543397	4098.352213
780.867409	4147.437928
781.191374	4158.830935
781.515294	4088.753856
781.839167	4083.294286
782.162995	4111.461733
782.486776	4096.590329
782.810511	4110.370323
783.134201	4094.178137
783.457844	4048.018812
783.781441	3994.257427
784.104993	4003.528109
784.428498	4022.949154
784.751958	4013.494470
785.075372	3991.109226
785.398739	3955.800985
785.722061	3971.002584
786.045337	4021.948485
786.368568	4041.750137
786.691752	3953.993731
787.014891	4015.571425
787.337983	4154.142662
787.661030	4313.589317
787.984031	4469.643276
788.306987	4641.586951
788.629897	4723.762800
788.952760	4679.975338
789.275579	4611.579483
789.598351	4538.553328
789.921078	4379.653638
790.243759	4187.895708
790.566395	4181.284235
790.888984	4171.847195
791.211529	4062.469280
791.534027	4001.844363
791.856480	3985.218638
792.178888	3929.939866
792.501249	3882.782392
792.823566	3892.925193
793.145836	3913.036877
793.468062	3861.213815
793.790241	3821.678566
794.112375	3850.760983
794.434464	3921.226231
794.756507	3940.306998
795.078505	3917.636930
795.400457	3961.590750
795.722364	4111.832258
796.044226	4211.571487
796.366042	4286.752735
796.687812	4253.798712
797.009538	4260.531173
797.331218	4221.028692
797.652852	4194.585319
797.974442	4173.011701
798.295986	4167.655475
798.617484	4082.785130
798.938938	4004.949714
799.260346	4050.105850
799.581709	4034.067419
799.903026	3960.033033
800.224299	3922.592384
800.545526	3915.557454
800.866708	3883.039491
801.187845	3823.984894
801.508936	3853.425232
801.829983	3843.663038
802.150984	3771.337604
802.471940	3765.308384
802.792851	3766.145215
803.113717	3773.167543
803.434538	3767.402983
803.755314	3710.861402
804.076045	3690.875747
804.396731	3716.164696
804.717372	3739.729569
805.037967	3717.805591
805.358518	3707.342676
805.679024	3739.132193
805.999485	3756.551900
806.319901	3758.724637
806.640272	3770.848612
806.960598	3783.133904
807.280879	3758.439812
807.601115	3776.749283
807.921306	3789.999955
808.241453	3829.948579
808.561554	3800.374650
808.881611	3733.997777
809.201623	3776.199797
809.521590	3785.914100
809.841513	3756.446035
810.161390	3786.869399
810.481223	3758.671705
810.801011	3712.827452
811.120755	3707.652707
811.440453	3741.004981
811.760107	3736.762850
812.079716	3689.192002
812.399281	3666.925225
812.718801	3687.767876
813.038276	3663.799710
813.357707	3659.643279
813.677093	3672.992254
813.996434	3618.555354
814.315731	3635.344917
814.634983	3640.774240
814.954191	3654.856703
815.273354	3682.618337
815.592473	3673.400588
815.911547	3687.906508
816.230577	3731.245307
816.549562	3781.296403
816.868502	3827.002025
817.187399	3843.453830
817.506250	3842.488449
817.825058	3826.016479
818.143821	3921.821087
818.462539	4018.961601
818.781213	4060.004155
819.099843	4131.074342
819.418429	4404.556938
819.736970	4643.895800
820.055466	4903.621087
820.373919	5276.119506
820.692327	5691.765162
821.010691	6202.333223
821.329011	7714.008903
821.647286	10650.939764
821.965517	15440.484580
822.283704	19446.273647
822.601847	21391.400338
822.919945	19427.200441
823.237999	16734.342085
823.556010	14194.795300
823.873976	12025.576718
824.191897	9905.325384
824.509775	8577.984535
824.827609	7447.339427
825.145398	6929.985972
825.463144	6813.071532
825.780845	6922.010867
826.098502	7161.528689
826.416116	8131.116493
826.733685	9515.858440
827.051210	10601.662485
827.368692	10515.173929
827.686129	9169.198455
828.003522	7657.759709
828.320872	6631.695858
828.638177	5910.284057
828.955439	5335.249720
829.272656	4830.431095
829.589830	4568.777566
829.906960	4385.551788
830.224046	4193.627500
830.541088	4073.947987
830.858086	4021.167106
831.175041	3946.933595
831.491952	3937.264662
831.808819	3945.229685
832.125642	4031.113303
832.442421	4189.652550
832.759157	4489.107171
833.075849	5078.662551
833.392497	5988.437065
833.709101	6778.771521
834.025662	7076.822181
834.342179	6638.004862
834.658653	5959.087468
834.975083	5288.971928
835.291469	4703.396538
835.607811	4309.727793
835.924110	4165.444929
836.240366	3959.463383
836.556578	3752.241713
836.872746	3647.657935
837.188871	3602.519444
837.504952	3534.690719
837.820990	3451.940178
838.136984	3408.823190
838.452935	3434.162549
838.768842	3426.323555
839.084706	3452.386321
839.400526	3629.698825
839.716303	3997.193899
840.032037	4560.593253
840.347727	4780.889155
840.663373	4460.566678
840.978977	4070.663675
841.294537	3757.983587
841.610054	3535.101573
841.925527	3425.827002
842.240957	3355.734798
842.556344	3299.359575
842.871687	3241.154413
843.186987	3188.615507
843.502244	3154.320538
843.817458	3119.355095
844.132629	3089.687904
844.447756	3098.666199
844.762840	3078.582242
845.077881	3047.564023
845.392879	3031.994419
845.707833	3030.169521
846.022745	3028.153060
846.337613	3027.152391
846.652438	3013.798374
846.967221	3008.409381
847.281960	2996.862618
847.596656	2993.134685
847.911309	2995.151146
848.225919	2987.423057
848.540485	2983.763180
848.855009	2982.530618
849.169490	2970.515027
849.483928	2962.728965
849.798323	2963.780046
850.112675	2960.624283
850.426984	2974.109370
850.741251	2967.092084
851.055474	2955.951134
851.369654	2951.585495
851.683792	2960.755353
851.997887	2970.051241
852.311938	2970.290696
852.625947	2954.567337
852.939914	2961.796352
853.253837	2964.856332
853.567718	2952.147583
853.881555	2951.245217
854.195350	2965.683081
854.509103	2959.888275
854.822812	2949.846297
855.136479	2947.756738
855.450103	2951.277984
855.763685	2945.392437
856.077224	2940.515121
856.390720	2956.064560
856.704173	2960.919191
857.017584	2954.574899
857.330953	2954.723613
857.644278	2963.260807
857.957561	2973.907724
858.270802	2975.737663
858.584000	2975.929227
858.897155	2959.237966
859.210268	2959.527833
859.523339	2957.788634
859.836367	2958.070939
860.149352	2951.993828
860.462295	2944.416974
860.775195	2952.901236
861.088054	2954.590022
861.400869	2936.348607
861.713642	2936.051179
862.026373	2951.247737
862.339062	2952.760083
862.651708	2958.731330
862.964312	2960.863738
863.276873	2953.559106
863.589392	2966.230047
863.901869	2981.172027
864.214303	3002.571725
864.526696	3013.937006
864.839045	3011.671007
865.151353	3011.996162
865.463619	3009.987262
865.775842	3016.137470
866.088023	3033.728576
866.400162	3036.496169
866.712258	3003.889986
867.024313	2994.624346
867.336325	3007.030625
867.648296	3030.164480
867.960224	3019.187368
868.272110	3008.386696
868.583954	3007.958198
868.895755	3022.665764
869.207515	3010.937519
869.519233	3022.645599
869.830909	3028.702546
870.142542	3038.926006
870.454134	3037.443906
870.765684	3038.300903
871.077191	3041.839793
871.388657	3049.159548
871.700081	3063.489028
872.011463	3074.909762
872.322803	3075.615523
872.634101	3071.938002
872.945357	3094.255190
873.256571	3119.564302
873.567744	3111.674897
873.878874	3106.359000
874.189963	3127.471352
874.501010	3128.293060
874.812015	3115.047429
875.122979	3116.678242
875.433900	3115.735546
875.744780	3125.061681
876.055618	3128.358595
876.366415	3125.467494
876.677169	3135.126344
876.987882	3132.124337
877.298554	3128.396404
877.609183	3155.308604
877.919771	3179.884229
878.230317	3207.091336
878.540822	3257.656630
878.851285	3296.612146
879.161707	3347.729446
879.472087	3464.205306
879.782425	3719.880026
880.092722	4184.142569
880.402977	4733.923246
880.713191	5404.172376
881.023363	6655.152347
881.333494	7978.303997
881.643583	8490.389446
881.953631	8144.377248
882.263637	7440.763242
882.573602	6811.634803
882.883526	6221.666048
883.193408	5649.558101
883.503248	5202.851376
883.813048	4877.386922
884.122806	4540.763874
884.432522	4217.003330
884.742197	3973.538285
885.051831	3781.689613
885.361424	3656.457269
885.670975	3577.883325
885.980485	3484.470744
886.289954	3403.270359
886.599382	3359.145139
886.908768	3320.774397
887.218113	3277.947274
887.527417	3215.724312
887.836680	3166.895696
888.145901	3165.022907
888.455082	3147.416677
888.764221	3096.047320
889.073319	3066.037331
889.382376	3064.613205
889.691392	3069.795511
890.000366	3070.408011
890.309300	3057.469890
890.618193	3069.069585
890.927044	3084.533324
891.235855	3082.640371
891.544625	3070.909606
891.853353	3083.555341
892.162041	3101.287599
892.470687	3147.812408
892.779293	3197.656817
893.087858	3247.289497
893.396381	3326.685149
893.704864	3458.196250
894.013306	3717.442628
894.321707	4029.575751
894.630068	4230.962285
894.938387	4213.358576
895.246665	4170.380219
895.554903	4040.883059
895.863100	3831.632324
896.171256	3656.739574
896.479371	3511.740866
896.787446	3385.094478
897.095480	3277.657408
897.403473	3215.706668
897.711425	3180.983200
898.019336	3171.026922
898.327207	3136.701705
898.635038	3100.239039
898.942827	3088.110023
899.250576	3075.068558
899.558284	3042.941285
899.865952	3022.827081
900.173579	3001.732373
900.481165	2993.646362
900.788711	2978.505256
901.096216	2954.048098
901.403681	2945.977211
901.711105	2950.171451
902.018489	2948.606173
902.325832	2951.104064
902.633135	2959.525312
902.940397	2996.393791
903.247619	3092.175714
903.554800	3301.534833
903.861941	3680.589273
904.169041	4136.067605
904.476101	4428.603242
904.783121	4344.229450
905.090100	4076.816403
905.397039	3789.268988
905.703938	3532.346582
906.010796	3349.060311
906.317614	3231.571179
906.624391	3134.327322
906.931129	3060.174469
907.237826	2996.050992
907.544483	2950.027778
907.851099	2920.869744
908.157675	2896.213461
908.464211	2874.871736
908.770707	2862.969572
909.077163	2850.268385
909.383578	2833.625015
909.689954	2824.944148
909.996289	2819.371153
910.302584	2821.380052
910.608839	2823.691422
910.915054	2813.099957
911.221229	2809.200625
911.527363	2811.968218
911.833458	2822.111020
912.139513	2825.682677
912.445527	2830.224757
912.751502	2834.716425
913.057436	2849.199660
913.363331	2864.343286
913.669186	2885.009496
913.975000	2926.992226
914.280775	2989.353819
914.586510	3059.887123
914.892205	3142.919968
915.197859	3285.423305
915.503475	3498.517919
915.809050	3727.887899
916.114585	3873.093294
916.420081	3877.040518
916.725536	3810.673727
917.030952	3684.201260
917.336328	3550.492216
917.641665	3414.832245
917.946961	3314.276349
918.252218	3236.675347
918.557435	3153.783655
918.862612	3088.576330
919.167750	3037.307795
919.472848	2998.380005
919.777906	2971.150213
920.082925	2942.617282
920.387904	2913.134094
920.692843	2893.246742
920.997743	2882.703168
921.302603	2868.512320
921.607423	2860.880013
921.912204	2843.278825
922.216946	2832.039572
922.521647	2821.248982
922.826310	2816.016265
923.130932	2809.240954
923.435516	2799.609830
923.740059	2792.506844
924.044564	2783.662139
924.349028	2776.329781
924.653454	2770.925664
924.957840	2762.839653
925.262186	2760.835795
925.566493	2756.273551
925.870761	2749.425143
926.174989	2744.872981
926.479178	2740.530027
926.783328	2737.545664
927.087438	2738.279152
927.391509	2734.057186
927.695541	2729.351268
927.999533	2725.532594
928.303486	2727.044941
928.607400	2725.779611
928.911275	2726.175342
929.215110	2723.495968
929.518906	2719.026985
929.822663	2719.659650
930.126381	2719.190823
930.430060	2721.857593
930.733699	2724.723489
931.037299	2722.293653
931.340861	2725.303222
931.644383	2724.988150
931.947866	2725.552759
932.251309	2720.844321
932.554714	2721.960937
932.858080	2721.706359
933.161407	2718.880792
933.464694	2717.134032
933.767943	2711.737477
934.071153	2715.014227
934.374323	2716.806357
934.677455	2717.098744
934.980548	2716.662684
935.283602	2713.645554
935.586617	2711.891232
935.889593	2714.217725
936.192530	2711.724874
936.495428	2714.094216
936.798287	2713.829556
937.101108	2718.792572
937.403890	2723.012017
937.706632	2728.829509
938.009336	2735.882083
938.312002	2745.278794
938.614628	2752.265833
938.917216	2757.044847
939.219765	2760.760177
939.522275	2758.423603
939.824747	2756.606267
940.127179	2756.470156
940.429573	2751.746594
940.731929	2746.864237
941.034246	2744.313413
941.336524	2740.726632
941.638763	2735.743452
941.940964	2736.056003
942.243126	2732.370920
942.545250	2731.342524
942.847335	2728.680795
943.149381	2726.180383
943.451389	2723.090155
943.753359	2720.125957
944.055290	2718.306100
944.357182	2716.035061
944.659036	2713.955585
944.960851	2715.709906
945.262628	2715.351984
945.564367	2714.666387
945.866067	2718.185113
946.167729	2718.222921
946.469352	2717.156717
946.770937	2713.753938
947.072484	2712.425594
947.373992	2712.491129
947.675462	2711.180429
947.976893	2705.899821
948.278286	2707.492825
948.579641	2708.990048
948.880958	2702.197093
949.182236	2707.719677
949.483476	2704.936960
949.784678	2706.474512
950.085841	2704.780685
950.386967	2705.183977
950.688054	2709.131200
950.989103	2707.812939
951.290114	2708.717826
951.591087	2708.672455
951.892021	2713.252344
952.192917	2719.092520
952.493776	2719.344578
952.794596	2717.673436
953.095378	2717.645709
953.396122	2715.467931
953.696828	2715.941799
953.997496	2716.100596
954.298126	2711.951726
954.598718	2711.170347
954.899272	2705.519214
955.199788	2705.171374
955.500266	2701.355221
955.800706	2702.350848
956.101108	2698.564942
956.401472	2696.364478
956.701798	2690.216791
957.002087	2690.821730
957.302337	2689.984898
957.602550	2691.066226
957.902724	2688.724610
958.202861	2685.074814
958.502960	2688.996832
958.803022	2684.590863
959.103045	2684.585822
959.403031	2684.590863
959.702979	2681.359484
960.002889	2684.898374
960.302762	2680.757066
960.602596	2679.980728
960.902393	2681.866120
961.202153	2681.719926
961.501875	2682.135822
961.801559	2680.447035
962.101205	2678.259174
962.400814	2680.036181
962.700385	2679.864782
962.999918	2677.805470
963.299414	2671.287258
963.598873	2675.179029
963.898293	2673.321364
964.197677	2679.789164
964.497022	2675.935202
964.796331	2679.317817
965.095601	2675.478978
965.394835	2677.921417
965.694030	2675.153823
965.993189	2677.497960
966.292309	2674.876560
966.591393	2676.908145
966.890439	2677.167764
967.189447	2675.610048
967.488419	2677.626509
967.787353	2678.657425
968.086249	2676.986283
968.385108	2678.170954
968.683930	2675.564677
968.982714	2678.569205
969.281462	2677.727332
969.580172	2680.941068
969.878844	2677.601304
970.177480	2676.492250
970.476078	2674.359842
970.774639	2676.270439
971.073162	2677.225738
971.371649	2677.782785
971.670098	2677.215655
971.968510	2676.398988
972.266885	2677.089627
972.565223	2678.836386
972.863524	2675.390758
973.161788	2679.181705
973.460014	2679.738753
973.758204	2677.964267
974.056356	2675.680624
974.354471	2677.903773
974.652550	2676.691375
974.950591	2677.981911
975.248595	2674.919410
975.546563	2675.496622
975.844493	2675.763803
976.142386	2677.268587
976.440243	2676.308248
976.738062	2675.778927
977.035845	2676.567867
977.333590	2677.024092
977.631299	2675.973011
977.928971	2672.426559
978.226606	2671.894717
978.524204	2673.530572
978.821765	2671.748524
979.119290	2675.201714
979.416777	2673.797753
979.714228	2673.112156
980.011642	2674.780778
980.309020	2673.800274
980.606360	2676.920748
980.903664	2674.876560
981.200931	2676.895542
981.498162	2677.223217
981.795356	2675.511745
982.092513	2679.453928
982.389633	2680.210101
982.686717	2686.264527
982.983764	2689.077490
983.280775	2692.933973
983.577749	2691.204857
983.874686	2693.654858
984.171587	2689.402645
984.468451	2684.618590
984.765279	2686.428364
985.062070	2682.360153
985.358824	2681.714885
985.655543	2677.629030
985.952224	2679.337981
986.248869	2679.612724
986.545478	2675.867147
986.842050	2672.403874
987.138586	2675.272291
987.435086	2672.466888
987.731549	2670.097546
988.027975	2672.688699
988.324366	2669.537978
988.620719	2672.338339
988.917037	2672.469409
989.213318	2672.396312
989.509563	2672.219872
989.805772	2672.658452
990.101944	2671.045283
990.398080	2672.371107
990.694180	2673.170129
990.990244	2671.047804
991.286271	2672.333298
991.582262	2670.586538
991.878217	2671.282217
992.174136	2671.703154
992.470019	2670.654594
992.765865	2669.623678
993.061676	2669.212824
993.357450	2669.535458
993.653188	2667.682833
993.948890	2670.866322
994.244556	2671.471261
994.540186	2671.022598
994.835780	2672.663493
995.131337	2674.138031
995.426859	2672.494615
995.722345	2671.095695
996.017795	2676.134328
996.313208	2675.731036
996.608586	2677.457631
996.903928	2676.993845
997.199234	2678.105419
997.494504	2678.912004
997.789738	2675.055521
998.084936	2676.033505
998.380099	2675.589883
998.675225	2674.634585
998.970316	2673.396981
999.265371	2672.154337
999.560390	2673.933864
999.855373	2671.236847
1000.150320	2670.279028
1000.445232	2670.757937
1000.740108	2671.700633
1001.034948	2671.188956
1001.329752	2669.268276
1001.624521	2667.622340
1001.919254	2671.115859
1002.213951	2672.930675
1002.508613	2669.911023
1002.803239	2668.988492
1003.097829	2670.344563
1003.392384	2670.982269
1003.686903	2668.302895
1003.981386	2670.468071
1004.275834	2667.917247
1004.570246	2670.853719
1004.864623	2668.761640
1005.158964	2668.905313
1005.453270	2672.204748
1005.747540	2669.283400
1006.041775	2667.264418
1006.335974	2667.967659
1006.630138	2668.101249
1006.924266	2670.783143
1007.218359	2670.768020
1007.512416	2667.866836
1007.806438	2666.354489
1008.100425	2666.775426
1008.394376	2662.533295
1008.688292	2668.078564
1008.982172	2666.866167
1009.276017	2669.724501
1009.569827	2667.773574
1009.863602	2667.302226
1010.157341	2667.672751
1010.451045	2665.855415
1010.744714	2668.529747
1011.038347	2667.324912
1011.331945	2669.469922
1011.625508	2667.834068
1011.919036	2665.686537
1012.212528	2668.229799
1012.505986	2669.414470
1012.799408	2668.875066
1013.092795	2666.450271
1013.386147	2669.653925
1013.679464	2668.673420
1013.972745	2667.786177
1014.265992	2667.352638
1014.559204	2668.978410
1014.852380	2667.410611
1015.145521	2669.038904
1015.438628	2667.476146
1015.731699	2670.074861
1016.024736	2668.078564
1016.317737	2667.377844
1016.610703	2671.130983
1016.903635	2671.193997
1017.196531	2669.001095
1017.489393	2669.326250
1017.782219	2669.401867
1018.075011	2667.667710
1018.367768	2666.946825
1018.660490	2667.657628
1018.953177	2667.657628
1019.245829	2667.657628
