Dividing Wavelength (nm)	Counts (n)	Blue Motor Position (mm): 25.400000	Red Motor Position (mm): 0.000000	
326.493990	2201.741586
326.888308	2201.741586
327.282561	2201.741586
327.676750	2160.446975
328.070874	2155.713331
328.464933	2157.255924
328.858929	2159.441264
329.252859	2164.888231
329.646726	2173.463234
330.040528	2187.187775
330.434265	2199.788139
330.827938	2219.879658
331.221547	2233.465568
331.615091	2251.873341
332.008571	2271.314551
332.401986	2288.890533
332.795338	2305.841413
333.188625	2325.869918
333.581847	2344.718792
333.975006	2363.222347
334.368100	2383.139946
334.761129	2398.500342
335.154095	2417.336613
335.546996	2444.682352
335.939833	2479.375573
336.332606	2493.216061
336.725315	2508.067300
337.117960	2519.150277
337.510540	2528.685619
337.903056	2541.719522
338.295508	2550.561706
338.687896	2560.371792
339.080220	2568.326732
339.472480	2574.792012
339.864676	2575.782599
340.256807	2586.989084
340.648875	2588.798858
341.040879	2589.970926
341.432818	2592.506627
341.824694	2598.064499
342.216506	2598.046855
342.608253	2597.356217
342.999937	2599.418049
343.391557	2600.053234
343.783113	2599.715477
344.174605	2596.199272
344.566033	2599.102977
344.957397	2595.080136
345.348697	2591.649631
345.739934	2590.981678
346.131106	2591.843715
346.522215	2590.832964
346.913260	2587.276430
347.304241	2585.877509
347.695159	2583.616552
348.086012	2581.083372
348.476802	2579.916345
348.867528	2574.093812
349.258191	2572.548699
349.648789	2572.679769
350.039324	2571.016188
350.429796	2571.220355
350.820203	2570.963256
351.210548	2566.083419
351.600828	2566.217009
351.991045	2564.520661
352.381198	2567.626012
352.771288	2564.039231
353.161314	2564.931515
353.551276	2564.961762
353.941175	2564.140054
354.331010	2562.932698
354.720782	2563.588048
355.110490	2567.046279
355.500135	2564.888665
355.889717	2563.298181
356.279235	2565.334808
356.668689	2565.007132
357.058080	2565.556618
357.447408	2565.680127
357.836672	2564.288768
358.225873	2564.220712
358.615010	2563.106617
359.004084	2564.250959
359.393095	2566.842113
359.782043	2569.035014
360.170927	2568.319171
360.559748	2566.491752
360.948505	2567.807493
361.337199	2569.405539
361.725830	2569.347566
362.114398	2573.350242
362.502903	2569.455951
362.891344	2571.011147
363.279722	2572.417629
363.668037	2573.572053
364.056289	2571.351425
364.444478	2572.009295
364.832603	2574.363514
365.220665	2571.358986
365.608665	2573.962742
365.996601	2573.078020
366.384474	2576.652198
366.772284	2576.034657
367.160031	2575.417115
367.547715	2576.490881
367.935336	2576.095150
368.322893	2576.311920
368.710388	2575.268401
369.097820	2573.672876
369.485189	2571.938719
369.872495	2579.404668
370.259738	2581.577405
370.646918	2579.313927
371.034035	2578.847620
371.421090	2576.654718
371.808081	2580.359967
372.195010	2576.349729
372.581875	2577.272260
372.968678	2580.974987
373.355418	2578.943402
373.742096	2578.280491
374.128710	2582.031109
374.515262	2581.857189
374.901751	2581.968095
375.288177	2581.796695
375.674540	2583.026737
376.060841	2582.522622
376.447079	2580.435584
376.833254	2580.831314
377.219367	2580.932137
377.605417	2585.363312
377.991404	2581.264854
378.377329	2582.015986
378.763191	2583.772828
379.148991	2585.577561
379.534727	2584.239134
379.920402	2585.343147
380.306013	2584.662591
380.691563	2588.922366
381.077049	2582.595718
381.462474	2585.880030
381.847835	2587.410020
382.233134	2583.813157
382.618371	2586.124526
383.003545	2588.224167
383.388657	2589.955803
383.773706	2588.120823
384.158693	2589.897830
384.543618	2589.423961
384.928480	2589.187027
385.313280	2587.626790
385.698017	2589.492017
386.082692	2586.537901
386.467305	2587.165524
386.851856	2591.929415
387.236344	2590.454877
387.620770	2589.290371
388.005133	2588.138467
388.389435	2587.783066
388.773674	2587.631831
389.157851	2591.798345
389.541965	2592.332707
389.926018	2593.535022
390.310008	2591.057295
390.693936	2590.424630
391.077802	2591.800865
391.461606	2594.185331
391.845348	2595.178438
392.229027	2595.685074
392.612645	2594.656679
392.996200	2595.017121
393.379694	2594.679364
393.763125	2593.756833
394.146494	2596.347986
394.529801	2594.422265
394.913047	2595.465784
395.296230	2594.689446
395.679351	2594.223140
396.062410	2596.055599
396.445408	2593.033427
396.828343	2597.454519
397.211217	2596.305136
397.594028	2597.424272
397.976778	2598.782863
398.359466	2597.993923
398.742092	2599.097935
399.124656	2597.411669
399.507158	2598.049375
399.889598	2600.658172
400.271977	2597.958635
400.654294	2600.723707
401.036549	2600.955601
401.418742	2598.941660
401.800874	2600.012905
402.182944	2600.683378
402.564952	2602.324274
402.946898	2601.225302
403.328783	2602.415015
403.710606	2598.931577
404.092367	2600.819489
404.474067	2603.448451
404.855705	2601.610951
405.237282	2604.723863
405.618797	2601.883173
406.000250	2605.570777
406.381642	2604.005499
406.762972	2601.986517
407.144240	2598.775302
407.525447	2601.245467
407.906593	2601.361413
408.287677	2606.294182
408.668700	2605.598503
409.049661	2606.863833
409.430560	2606.382403
409.811399	2605.974069
410.192176	2606.216045
410.572891	2608.469440
410.953545	2607.849378
411.334138	2608.895418
411.714669	2610.417846
412.095139	2606.891559
412.475547	2610.382558
412.855894	2605.137238
413.236180	2606.415170
413.616405	2610.896756
413.996568	2610.972373
414.376670	2607.423401
414.756711	2609.414657
415.136691	2610.236365
415.516609	2612.814915
415.896466	2611.093361
416.276262	2609.210490
416.655997	2609.797784
417.035670	2611.108484
417.415283	2614.944802
417.794834	2611.597476
418.174324	2611.617641
418.553753	2615.499329
418.933121	2612.971191
419.312428	2614.241562
419.691674	2614.788527
420.070859	2608.683689
420.449983	2614.266767
420.829045	2614.201232
421.208047	2615.060749
421.586988	2617.117540
421.965867	2614.649895
422.344686	2615.484206
422.723444	2617.034361
423.102141	2615.814402
423.480777	2613.838269
423.859352	2614.919597
424.237866	2616.449587
424.616319	2615.862292
424.994712	2619.592746
425.373044	2618.269443
425.751314	2618.150976
426.129524	2614.690224
426.507673	2616.333640
426.885762	2614.357508
427.263789	2620.701800
427.641756	2618.403034
428.019662	2622.302367
428.397508	2621.760442
428.775292	2621.218518
429.153016	2624.200361
429.530679	2621.919239
429.908282	2622.607356
430.285824	2621.808333
430.663305	2620.134670
431.040726	2622.829167
431.418086	2623.729013
431.795385	2623.388735
432.172624	2624.996863
432.549802	2624.822943
432.926920	2625.531226
433.303977	2627.131792
433.680974	2625.412758
434.057910	2627.782101
434.434786	2627.220012
434.811601	2625.911833
435.188355	2629.125568
435.565050	2628.182872
435.941683	2630.123717
436.318257	2630.907616
436.694770	2632.253604
437.071222	2629.004581
437.447614	2630.587503
437.823946	2633.697895
438.200218	2633.783594
438.576429	2634.852319
438.952580	2634.557412
439.328670	2635.323667
439.704700	2638.081178
440.080670	2636.339459
440.456580	2638.645787
440.832429	2641.509163
441.208218	2638.555047
441.583947	2640.422794
441.959616	2642.713998
442.335224	2643.563433
442.710773	2643.754997
443.086261	2645.269863
443.461689	2644.364976
443.837057	2647.422436
444.212365	2649.910246
444.587612	2649.703558
444.962800	2652.924856
445.337927	2654.238076
445.712995	2650.399238
446.088002	2661.852739
446.462949	2660.988181
446.837837	2665.968841
447.212664	2671.123421
447.587431	2676.582991
447.962139	2686.262006
448.336786	2709.441231
448.711374	2718.205277
449.085901	2715.392313
449.460369	2720.299877
449.834776	2723.889178
450.209124	2744.978845
450.583412	2763.159767
450.957640	2789.961061
451.331808	2796.358285
451.705917	2797.916002
452.079965	2803.660397
452.453954	2839.059379
452.827883	2853.514888
453.201752	2885.115361
453.575562	2898.277813
453.949311	2936.088988
454.323001	2961.687967
454.696632	3006.241685
455.070202	3051.896894
455.443713	3103.999740
455.817164	3168.821417
456.190556	3219.726988
456.563888	3290.431692
456.937160	3360.808720
457.310373	3367.463043
457.683526	3420.851383
458.056619	3453.112247
458.429653	3523.101106
458.802628	3550.383831
459.175542	3647.519304
459.548398	3809.741114
459.921194	3933.206533
460.293930	4031.851832
460.666607	4239.355806
461.039224	4492.847707
461.411782	4713.040266
461.784280	4802.253565
462.156719	4911.530657
462.529099	4944.794711
462.901419	4890.990476
463.273680	4954.408191
463.645882	5033.400552
464.018024	5087.217389
464.390106	5249.197224
464.762130	5535.897726
465.134094	5815.021373
465.505999	6430.021978
465.877845	7432.173115
466.249631	8370.241105
466.621358	8469.745921
466.993026	8274.000437
467.364634	8281.602497
467.736184	8081.493895
468.107674	8004.094540
468.479105	8211.636323
468.850477	8252.119309
469.221790	8279.901108
469.593043	8212.742856
469.964238	8228.904796
470.335373	8252.706603
470.706449	8578.100481
471.077467	8555.611894
471.448425	9413.848172
471.819324	11218.747607
472.190164	12339.413751
472.560945	11163.501602
472.931667	10298.573192
473.302330	10208.691940
473.672934	10126.024578
474.043479	10507.024904
474.413965	10595.819788
474.784393	10614.766964
475.154761	11123.961312
475.525070	11312.374437
475.895321	11288.754110
476.265513	11789.708691
476.635645	12271.942948
477.005719	12365.070703
477.375734	12673.485975
477.745691	13175.910052
478.115588	13627.277324
478.485427	14161.818593
478.855207	14970.517972
479.224928	16211.458485
479.594591	17860.351852
479.964194	18152.968148
480.333739	18670.193053
480.703226	18578.900278
481.072653	18619.413511
481.442022	19217.576661
481.811333	20042.001920
482.180584	20263.663975
482.549777	19792.999167
482.918912	19799.214910
483.287988	20074.807229
483.657005	20053.699918
484.025964	20039.801457
484.394864	20216.511543
484.763706	20196.949345
485.132489	19980.945985
485.501213	20243.224617
485.869879	20406.250491
486.238487	20333.788946
486.607036	20708.507994
486.975527	20575.093857
487.343959	21011.987976
487.712333	21160.298722
488.080648	21000.806697
488.448905	21568.090259
488.817104	21477.672124
489.185244	22163.500940
489.553326	22321.044560
489.921350	23243.285847
490.289315	25320.412631
490.657222	27075.684427
491.025070	27677.361262
491.392861	27647.910841
491.760593	27033.164815
492.128267	26404.976552
492.495883	25585.849546
492.863440	24900.023250
493.230939	24177.086500
493.598380	24131.131342
493.965763	23834.986239
494.333088	23501.644982
494.700354	23501.178675
495.067563	23478.170849
495.434713	23300.170227
495.801805	23475.118430
496.168839	23394.132294
496.535815	23265.154372
496.902733	23523.982334
497.269593	23239.121854
497.636395	23487.524710
498.003139	23534.667060
498.369825	23331.286749
498.736453	23549.639287
499.103023	23467.229024
499.469535	23526.875957
499.835989	23746.786211
500.202385	23812.890861
500.568723	23345.868287
500.935003	23649.224761
501.301226	23252.168360
501.667390	24086.927984
502.033497	24369.761921
502.399546	24109.940852
502.765537	23741.379573
503.131470	24125.639005
503.497345	24274.768938
503.863163	23512.876673
504.228923	24151.303519
504.594625	24338.710934
504.960269	23858.036915
505.325856	24383.920002
505.691385	23808.593278
506.056856	24414.305556
506.422270	24385.455033
506.787625	24000.532690
507.152924	24401.354832
507.518164	24428.743421
507.883347	24251.143571
508.248472	23949.382622
508.613540	24722.075560
508.978550	24510.750391
509.343503	24485.186700
509.708398	24785.755416
510.073236	24939.142604
510.438016	25158.538660
510.802738	24835.746018
511.167403	25086.056950
511.532010	24778.402893
511.896561	25574.627937
512.261053	25539.397833
512.625488	25388.692539
512.989866	25283.173628
513.354186	25144.672967
513.718449	25230.576749
514.082655	25612.396262
514.446803	25357.076943
514.810894	25814.077704
515.174927	25300.351359
515.538904	25318.050850
515.902822	25821.137840
516.266684	25576.301600
516.630488	25476.612783
516.994235	25474.631609
517.357925	25754.156028
517.721558	25949.606604
518.085133	26035.008792
518.448651	25980.241696
518.812112	25671.297103
519.175516	25876.121705
519.538863	26038.908124
519.902152	25826.501627
520.265385	26125.663861
520.628560	25898.567442
520.991678	25919.702480
521.354739	26007.733629
521.717743	26048.700565
522.080690	25848.546593
522.443580	26183.924476
522.806413	26179.818456
523.169189	26272.989062
523.531908	26344.649064
523.894569	25923.717759
524.257174	25998.911609
524.619722	26206.929782
524.982213	25882.965071
525.344647	25957.866535
525.707025	26070.490953
526.069345	26078.985297
526.431608	26017.248807
526.793815	26223.666413
527.155964	25663.415259
527.518057	25833.985220
527.880093	25759.875217
528.242072	25997.628636
528.603995	25692.845515
528.965860	25493.472922
529.327669	25544.496961
529.689421	25537.378851
530.051117	25374.743667
530.412755	25551.327724
530.774337	25362.360072
531.135862	25223.783794
531.497331	25430.541678
531.858743	24971.254754
532.220098	25451.878362
532.581396	25136.312213
532.942638	25085.729275
533.303824	25159.113352
533.664953	25196.906882
534.026025	24853.876528
534.387040	25084.950417
534.747999	25154.399873
535.108902	25318.628063
535.469748	24808.090248
535.830537	25002.081410
536.191270	25109.785662
536.551947	25003.273643
536.912567	24669.211501
537.273131	24974.009744
537.633638	24700.017992
537.994089	24909.056998
538.354483	24458.997906
538.714821	24955.571724
539.075103	24991.739482
539.435328	24777.225783
539.795497	24337.901829
540.155609	24742.393931
540.515665	25034.755648
540.875665	24276.382108
541.235609	24549.375712
541.595496	24527.804615
541.955328	24880.307297
542.315102	24794.348062
542.674821	24358.084088
543.034483	24238.081941
543.394090	24403.671242
543.753640	24191.766340
544.113134	24820.980478
544.472571	24424.476084
544.831953	24706.939496
545.191278	24317.197810
545.550548	24261.344346
545.909761	24474.990966
546.268918	24707.499064
546.628019	24653.599047
546.987064	24359.513255
547.346053	24126.760662
547.704986	24245.290791
548.063863	24402.582353
548.422684	24397.871395
548.781449	23959.316216
549.140158	24357.673234
549.498811	23928.131638
549.857408	23660.282532
550.215949	24115.637356
550.574434	23781.194607
550.932864	24007.701211
551.291237	24140.712055
551.649555	24019.449620
552.007817	24061.507966
552.366022	23929.626340
552.724173	23991.065403
553.082267	23909.139091
553.440305	24399.663525
553.798288	23662.818232
554.156215	24197.079717
554.514086	24273.511171
554.871902	23648.617302
555.229661	23937.109933
555.587365	23787.178456
555.945014	23634.600373
556.302606	23907.704883
556.660143	23843.291540
557.017625	24102.086734
557.375050	23637.768738
557.732421	24024.921792
558.089735	23827.023736
558.446994	23898.464448
558.804197	23915.412807
559.161345	23867.237020
559.518437	23615.436427
559.875474	23819.071316
560.232455	24002.660057
560.589381	23825.725639
560.946251	23796.222286
561.303065	24122.581545
561.659825	24207.446849
562.016528	23799.010044
562.373177	23564.356936
562.729770	23903.256065
563.086307	23771.271095
563.442789	23948.850781
563.799216	23774.809985
564.155587	23780.856849
564.511904	23764.689869
564.868164	23693.584394
565.224370	23693.087840
565.580520	23595.496143
565.936615	23719.579104
566.292654	23398.175299
566.648638	23711.546025
567.004567	23531.662532
567.360441	23472.708759
567.716260	23202.702038
568.072023	23539.297360
568.427732	23293.077324
568.783385	23072.431061
569.138982	23305.836484
569.494525	23346.148071
569.850013	23082.228543
570.205445	23188.377599
570.560823	22999.732581
570.916145	22761.497733
571.271412	22937.370988
571.626625	22688.476619
571.981782	22811.964724
572.336884	22606.537705
572.691931	22752.645467
573.046923	22472.150626
573.401860	22364.179192
573.756743	22356.935054
574.111570	22274.030759
574.466342	22209.819062
574.821059	22294.767545
575.175722	21986.064928
575.530330	21984.361018
575.884882	22007.431858
576.239380	21912.857292
576.593823	21805.402577
576.948211	21782.856016
577.302544	21629.713324
577.656823	21497.670381
578.011047	21608.966455
578.365216	21476.583235
578.719330	21354.904904
579.073389	21249.716188
579.427394	21399.113303
579.781344	21178.698933
580.135239	21068.758930
580.489080	21036.130062
580.842866	20797.819596
581.196597	20977.380455
581.550273	20968.664300
581.903895	20863.820903
582.257463	21168.299033
582.610975	20691.899912
582.964434	21004.264928
583.317837	20718.373532
583.671186	20796.211468
584.024481	20774.630288
584.377721	20548.486647
584.730906	20584.712379
585.084037	20640.754886
585.437113	20536.017353
585.790135	20729.547249
586.143103	20200.347083
586.496016	20211.694720
586.848874	20458.013059
587.201679	20402.852754
587.554428	20062.176618
587.907124	20390.963192
588.259765	20174.405305
588.612352	20251.459342
588.964884	19825.978396
589.317362	19996.029118
589.669786	20040.630726
590.022155	20094.094683
590.374470	20271.437435
590.726731	20075.112219
591.078937	19827.581483
591.431090	19933.680127
591.783188	19674.958029
592.135232	19648.920470
592.487222	19743.449666
592.839157	19771.775909
593.191038	19662.503859
593.542866	19548.644358
593.894639	19268.204969
594.246358	19484.483072
594.598022	19397.999558
594.949633	19153.266662
595.301190	19101.226831
595.652692	19276.462379
596.004141	19514.767804
596.355535	18836.777982
596.706876	18845.841977
597.058162	18742.485720
597.409395	18968.946954
597.760573	19059.919616
598.111698	18832.016612
598.462768	18769.062683
598.813785	18723.614161
599.164748	18548.834836
599.515657	18578.590247
599.866511	18370.511581
600.217312	18738.485564
600.568060	18266.749511
600.918753	18578.928004
601.269392	18464.975242
601.619978	18250.958097
601.970510	18471.853896
602.320988	18403.720182
602.671412	18624.931053
603.021783	18521.973048
603.372100	18252.843488
603.722363	18389.690650
604.072572	18333.002875
604.422728	18460.019788
604.772830	18235.580057
605.122878	18184.263631
605.472872	18169.513215
605.822813	18162.269077
606.172701	18119.371378
606.522534	18318.620463
606.872314	18346.240945
607.222041	18178.448660
607.571714	18401.658350
607.921333	18229.777689
608.270899	18296.852761
608.620411	18483.899733
608.969870	18252.467922
609.319276	18247.719155
609.668627	18288.660886
610.017926	18416.071008
610.367171	18536.736067
610.716362	18569.715295
611.065500	18398.058966
611.414585	18524.970014
611.763616	18510.464094
612.112594	18458.668758
612.461518	18431.403678
612.810389	18612.534856
613.159207	18470.147466
613.507971	18381.052633
613.856682	18661.557557
614.205340	18595.813349
614.553945	18737.762159
614.902496	18480.340679
615.250994	18715.520588
615.599439	18658.099325
615.947830	18634.894894
616.296169	18680.000618
616.644454	18651.346700
616.992686	18616.192213
617.340864	18841.090689
617.688990	18593.567515
618.037063	18769.014792
618.385082	18620.126834
618.733048	18895.298217
619.080961	18764.727291
619.428821	18805.311100
619.776628	18703.189926
620.124382	18614.997460
620.472083	18650.829981
620.819731	18676.345782
621.167326	18370.856900
621.514868	18408.214370
621.862357	18175.839863
622.209793	18182.365637
622.557176	18017.928239
622.904506	17852.661572
623.251783	17763.228983
623.599007	17530.983025
623.946179	17470.955485
624.293297	17402.781441
624.640363	17163.470307
624.987376	17186.503338
625.334336	16979.052296
625.681243	16814.667831
626.028097	16825.687793
626.374899	16762.983401
626.721647	16622.945188
627.068343	16457.454190
627.414987	16378.925616
627.761577	16356.298397
628.108115	16413.417190
628.454600	16121.715864
628.801032	16223.035495
629.147412	16156.227603
629.493739	16173.296950
629.840014	15979.683875
630.186236	16083.045173
630.532405	15843.928123
630.878521	16044.389605
631.224585	15931.089673
631.570597	15754.049391
631.916556	15792.387366
632.262462	15780.028977
632.608316	15685.681262
632.954117	15631.866945
633.299866	15623.962416
633.645562	15549.620520
633.991206	15303.602130
634.336797	15170.215720
634.682336	15142.242357
635.027823	15032.693043
635.373257	14910.114867
635.718639	14812.651719
636.063968	14760.493420
636.409245	14517.091389
636.754470	14544.641295
637.099642	14386.097007
637.444762	14157.979754
637.789829	14205.497670
638.134845	14038.569943
638.479808	14067.322164
638.824719	14020.552859
639.169577	13869.686248
639.514383	13915.137291
639.859137	13725.436151
640.203839	13813.825222
640.548489	13661.365606
640.893086	13650.479234
641.237632	13514.027803
641.582125	13667.309127
641.926566	13489.590809
642.270955	13502.657480
642.615292	13467.944095
642.959576	13475.576402
643.303809	13511.960930
643.647990	13446.796454
643.992118	13504.792409
644.336195	13275.261113
644.680219	13478.608656
645.024192	13405.491760
645.368112	13641.599242
645.711981	13697.309033
646.055797	13874.084654
646.399562	13844.460314
646.743274	14113.662970
647.086935	14384.002407
647.430544	14349.994783
647.774101	14380.627355
648.117606	14539.398495
648.461059	14498.681095
648.804460	14497.430889
649.147810	14228.722266
649.491108	14130.026556
649.834354	14143.635151
650.177548	13842.148945
650.520690	13655.361592
650.863781	13573.783120
651.206820	13616.121250
651.549807	13442.818984
651.892742	13247.176844
652.235626	13195.116849
652.578458	13190.849512
652.921238	12877.791338
653.263967	13076.420361
653.606644	12906.843507
653.949269	12876.029454
654.291843	12690.842668
654.634365	12832.902383
654.976836	12687.754961
655.319255	12705.426726
655.661622	12655.799087
656.003938	12574.339082
656.346203	12497.978204
656.688416	12576.852097
657.030577	12532.242927
657.372687	12452.116307
657.714746	12426.446751
658.056753	12611.631017
658.398708	12436.098040
658.740612	12427.328953
659.082465	12529.190508
659.424266	12492.165753
659.766016	12520.761699
660.107715	12429.663007
660.449362	12509.814833
660.790958	12457.500259
661.132503	12412.301274
661.473996	12476.046664
661.815438	12493.768840
662.156829	12502.502639
662.498168	12478.249648
662.839456	12479.497334
663.180693	12504.100685
663.521879	12590.064961
663.863013	12567.173082
664.204097	12535.547403
664.545129	12661.036846
664.886110	12625.975621
665.227040	12722.438099
665.567918	12728.878173
665.908746	12755.089653
666.249522	12741.717992
666.590248	12795.232361
666.930922	12904.834607
667.271545	12887.326680
667.612118	12969.996562
667.952639	12879.694373
668.293109	12886.464643
668.633528	12845.701873
668.973896	12818.789673
669.314213	12911.536821
669.654480	12637.023309
669.994695	12700.022609
670.334859	12728.369017
670.674973	12670.365501
671.015035	12709.628527
671.355047	12647.836584
671.695008	12620.841205
672.034918	12625.078295
672.374777	12664.500118
672.714585	12583.415679
673.054342	12615.807613
673.394049	12570.439749
673.733705	12665.594049
674.073310	12571.354719
674.412864	12588.766864
674.752368	12461.923872
675.091820	12469.407464
675.431223	12469.399903
675.770574	12338.733195
676.109875	12256.784198
676.449125	12214.173845
676.788324	12157.183601
677.127473	11992.995741
677.466571	11982.794966
677.805619	11881.563556
678.144616	11804.925414
678.483562	11767.210022
678.822458	11643.502627
679.161303	11615.246960
679.500098	11607.715476
679.838842	11559.786706
680.177535	11587.167733
680.516179	11640.921556
680.854771	11592.251736
681.193314	11814.531333
681.531805	11957.480812
681.870247	12366.290663
682.208638	12781.515381
682.546978	13099.130759
682.885268	13157.393894
683.223508	12839.707941
683.561697	12687.845702
683.899836	12587.183942
684.237925	12386.924105
684.575963	12306.691621
684.913951	12227.091802
685.251889	12169.955364
685.589776	12263.070517
685.927614	12192.222141
686.265401	12148.069195
686.603137	12201.119777
686.940824	12352.498066
687.278460	12472.200264
687.616046	12520.169363
687.953582	12694.623533
688.291068	12616.677212
688.628504	12843.274557
688.965889	12863.739121
689.303224	12827.170591
689.640510	12721.442472
689.977745	12413.286819
690.314930	12195.357738
690.652065	12101.342740
690.989150	11809.585961
691.326185	11589.637898
691.663170	11385.226671
692.000105	11141.350772
692.336990	11035.526870
692.673825	10782.390371
693.010610	10663.199850
693.347345	10455.509353
693.684030	10256.406461
694.020665	10196.308345
694.357251	10004.641156
694.693786	9946.060427
695.030272	9775.845868
695.366707	9654.210387
695.703093	9589.799564
696.039429	9586.159851
696.375716	9515.697123
696.711952	9384.128049
697.048139	9420.356301
697.384276	9373.808807
697.720363	9389.431343
698.056400	9324.564296
698.392388	9280.166854
698.728326	9237.425431
699.064214	9178.716153
699.400053	9226.249193
699.735842	9037.697436
700.071581	8997.683278
700.407270	8918.277543
700.742910	8847.545113
701.078501	8755.128160
701.414042	8628.217112
701.749533	8559.302019
702.084974	8425.797141
702.420366	8535.293523
702.755709	8417.335565
703.091002	8287.407386
703.426246	8312.164493
703.761440	8270.847196
704.096584	8220.591933
704.431679	8150.834967
704.766725	8146.378587
705.101721	8092.342458
705.436668	8133.548850
705.771565	8032.400619
706.106413	8105.681352
706.441212	8153.418558
706.775961	8107.871733
707.110661	8142.015468
707.445311	8286.436964
707.779913	8181.008793
708.114465	8310.256416
708.448967	8351.740071
708.783421	8488.322572
709.117825	8671.122373
709.452180	8707.184267
709.786485	8796.551322
710.120742	9078.440042
710.454949	9072.751100
710.789107	9167.688629
711.123216	9388.022341
711.457275	9557.523577
711.791286	9710.827586
712.125247	9701.985402
712.459159	9698.814516
712.793023	9957.670205
713.126837	9522.086786
713.460602	9683.819604
713.794318	9505.697995
714.127985	9535.720587
714.461602	9215.221669
714.795171	9166.962703
715.128691	8920.593953
715.462162	8667.676744
715.795584	8617.297973
716.128957	8466.441444
716.462281	8292.501472
716.795556	8345.289914
717.128782	8144.299111
717.461960	7874.163841
717.795088	7944.860982
718.128167	7855.395625
718.461198	7687.855397
718.794180	7629.655276
719.127113	7616.150025
719.459997	7476.419323
719.792833	7233.297076
720.125619	7300.258722
720.458357	7160.570870
720.791046	7148.943448
721.123686	7145.792727
721.456278	6991.533419
721.788821	7005.250399
722.121315	6901.536220
722.453761	6966.567105
722.786158	6909.062663
723.118506	6919.530619
723.450805	6883.680453
723.783056	6957.520754
724.115259	6867.863833
724.447412	6856.122986
724.779518	6904.815491
725.111574	6902.882208
725.443582	6985.441185
725.775542	6966.806560
726.107453	7157.740262
726.439315	7064.816673
726.771129	7123.271372
727.102895	7292.414687
727.434612	7403.511635
727.766281	7434.179495
728.097901	7524.169132
728.429473	7512.070363
728.760996	7492.059503
729.092471	7464.930533
729.423897	7411.779127
729.755276	7422.582320
730.086606	7344.610794
730.417887	7450.268337
730.749120	7639.026781
731.080305	7832.836461
731.411442	7956.231305
731.742530	7945.909542
732.073570	8048.902836
732.404562	8143.215262
732.735506	7990.145667
733.066401	8131.164384
733.397249	8065.778098
733.728048	7827.447468
734.058798	7501.622571
734.389501	7276.698890
734.720156	7096.225582
735.050762	6861.469130
735.381320	6763.209479
735.711831	6718.817079
736.042293	6605.073524
736.372707	6627.857019
736.703073	6489.142109
737.033391	6526.086205
737.363661	6545.920625
737.693883	6562.942081
738.024056	6648.084649
738.354182	6694.370003
738.684260	6724.382513
739.014290	6841.322158
739.344272	6950.790814
739.674207	6978.154197
740.004093	7046.358488
740.333931	7065.005716
740.663722	7067.289359
740.993464	7148.139384
741.323159	7143.337685
741.652806	6886.879066
741.982405	6898.629995
742.311956	6958.604603
742.641460	6799.475540
742.970915	6604.226611
743.300323	6594.633295
743.629683	6545.386263
743.958996	6413.764257
744.288260	6323.641029
744.617477	6270.688749
744.946647	6272.765704
745.275768	6103.468634
745.604842	6061.748045
745.933869	6046.468308
746.262847	6004.447770
746.591778	5992.170040
746.920662	5950.341066
747.249498	5943.583399
747.578286	5987.774154
747.907027	6062.600000
748.235720	6125.677438
748.564365	6094.298776
748.892963	6120.890862
749.221514	6274.333503
749.550017	6115.827023
749.878473	5986.405480
750.206881	6038.289036
750.535242	5984.570500
750.863555	5915.093318
751.191821	5935.305824
751.520039	5932.686945
751.848210	5839.057595
752.176334	5860.495101
752.504411	5915.597433
752.832440	5838.331668
753.160421	5765.481954
753.488356	5813.955169
753.816243	5846.694943
754.144082	5701.285381
754.471875	5667.993601
754.799620	5711.798707
755.127318	5730.140945
755.454969	5678.958110
755.782572	5646.732534
756.110129	5684.999933
756.437638	5672.001318
756.765100	5611.240291
757.092515	5612.450167
757.419882	5657.477754
757.747203	5640.042923
758.074477	5704.131112
758.401703	5693.547209
758.728882	5639.836236
759.056014	5696.236665
759.383099	5829.383620
759.710138	5838.992060
760.037129	5819.981868
760.364073	5825.005378
760.690970	5906.661988
761.017820	5894.238065
761.344623	5844.040775
761.671379	5947.765036
761.998088	6058.297375
762.324751	6299.239323
762.651366	6885.903602
762.977935	8178.152979
763.304456	9802.894179
763.630931	10724.827956
763.957359	10346.769144
764.283740	9415.380683
764.610074	8591.441895
764.936362	7594.077333
765.262602	6995.203379
765.588796	6454.012829
765.914943	6115.937928
766.241044	5951.510613
766.567097	5763.130256
766.893104	5502.429505
767.219064	5313.038397
767.544978	5252.446248
767.870845	5181.103839
768.196665	5069.913629
768.522438	5002.770501
768.848165	4967.242969
769.173846	4902.007918
769.499479	4859.831104
769.825066	4799.586795
770.150607	4744.224843
770.476101	4722.368921
770.801548	4716.422880
771.126949	4644.241119
771.452303	4587.676852
771.777611	4549.056572
772.102872	4566.383018
772.428087	4527.329199
772.753256	4488.033405
773.078378	4439.177062
773.403453	4371.600395
773.728482	4356.189588
774.053465	4313.402795
774.378401	4301.883758
774.703291	4303.880055
775.028135	4230.806009
775.352932	4186.769010
775.677683	4167.826874
776.002388	4187.142055
776.327046	4199.472718
776.651658	4126.514619
776.976224	4063.812747
777.300743	4070.066298
777.625216	4089.394082
777.949643	4085.890480
778.274024	4042.428172
778.598359	3994.017972
778.922647	4020.496633
779.246889	4015.306765
779.571086	4004.743027
779.895236	3991.283146
780.219339	3980.749655
780.543397	3969.815392
780.867409	4020.161396
781.191374	4033.696894
781.515294	3974.664982
781.839167	3963.488744
782.162995	3987.771982
782.486776	3973.573573
782.810511	3983.108915
783.134201	3978.622288
783.457844	3936.092594
783.781441	3879.803070
784.104993	3886.500243
784.428498	3905.205444
784.751958	3901.154877
785.075372	3878.651166
785.398739	3844.648584
785.722061	3856.550748
786.045337	3898.127664
786.368568	3932.523457
786.691752	3844.220086
787.014891	3892.849576
787.337983	4015.359697
787.661030	4170.634797
787.984031	4335.591433
788.306987	4507.724152
788.629897	4588.039815
788.952760	4547.272004
789.275579	4478.616530
789.598351	4415.065224
789.921078	4274.419552
790.243759	4076.403029
790.566395	4054.690779
790.888984	4053.685069
791.211529	3942.106690
791.534027	3887.626941
791.856480	3875.112276
792.178888	3816.249243
792.501249	3764.534567
792.823566	3773.071761
793.145836	3806.870177
793.468062	3755.626848
793.790241	3707.002398
794.112375	3735.137078
794.434464	3799.396666
794.756507	3826.013958
795.078505	3804.213489
795.400457	3835.849250
795.722364	3974.286896
796.044226	4081.053493
796.366042	4149.197290
796.687812	4130.965958
797.009538	4137.718583
797.331218	4099.935135
797.652852	4070.507399
797.974442	4049.949574
798.295986	4048.883370
798.617484	3968.063592
798.938938	3885.902866
799.260346	3924.649175
799.581709	3916.963936
799.903026	3850.329964
800.224299	3809.300013
800.545526	3804.029487
800.866708	3768.776698
801.187845	3704.827141
801.508936	3740.447934
801.829983	3738.106318
802.150984	3660.661592
802.471940	3649.840755
802.792851	3659.693690
803.113717	3660.049092
803.434538	3667.273065
803.755314	3605.241667
804.076045	3579.468768
804.396731	3597.553907
804.717372	3623.485603
805.037967	3611.565794
805.358518	3600.946604
805.679024	3625.776807
805.999485	3640.179384
806.319901	3642.339518
806.640272	3655.141528
806.960598	3671.878159
807.280879	3648.391423
807.601115	3659.860048
807.921306	3671.505114
808.241453	3714.680076
808.561554	3692.834236
808.881611	3627.226139
809.201623	3661.944565
809.521590	3674.237419
809.841513	3645.764982
810.161390	3674.045855
810.481223	3659.580264
810.801011	3599.698918
811.120755	3592.374122
811.440453	3626.646406
811.760107	3631.949700
812.079716	3588.459666
812.399281	3556.680232
812.718801	3578.984817
813.038276	3551.245868
813.357707	3548.362328
813.677093	3566.394535
813.996434	3513.805218
814.315731	3523.602701
814.634983	3528.202754
814.954191	3541.098025
815.273354	3569.749423
815.592473	3565.416552
815.911547	3570.142633
816.230577	3612.037142
816.549562	3663.688805
816.868502	3700.970658
817.187399	3729.922004
817.506250	3725.495871
817.825058	3701.820092
818.143821	3785.881333
818.462539	3895.370153
818.781213	3934.285340
819.099843	3991.855317
819.418429	4233.848346
819.736970	4474.414728
820.055466	4718.136872
820.373919	5082.138427
820.692327	5487.071630
821.010691	5922.397950
821.329011	7270.062211
821.647286	9974.053955
821.965517	14489.112985
822.283704	18517.882152
822.601847	20729.658155
822.919945	18940.575340
823.237999	16388.536576
823.556010	13905.790992
823.873976	11830.756287
824.191897	9741.931505
824.509775	8385.135194
824.827609	7262.127434
825.145398	6713.730554
825.463144	6596.609427
825.780845	6706.652774
826.098502	6885.734724
826.416116	7752.346878
826.733685	9060.768277
827.051210	10169.350775
827.368692	10246.740048
827.686129	9000.007250
828.003522	7494.834658
828.320872	6477.103834
828.638177	5777.467298
828.955439	5222.973142
829.272656	4722.222727
829.589830	4440.535653
829.906960	4265.428654
830.224046	4077.620467
830.541088	3956.544555
830.858086	3907.476484
831.175041	3828.806758
831.491952	3811.634067
831.808819	3823.022034
832.125642	3894.578692
832.442421	4036.940877
832.759157	4309.092608
833.075849	4846.015822
833.392497	5709.406679
833.709101	6477.905377
834.025662	6823.307595
834.342179	6478.220450
834.658653	5816.831147
834.975083	5173.330379
835.291469	4599.153039
835.607811	4189.513918
835.924110	4050.672980
836.240366	3850.922300
836.556578	3645.820435
836.872746	3535.348589
837.188871	3499.236284
837.504952	3431.583999
837.820990	3349.418233
838.136984	3303.757982
838.452935	3328.595747
838.768842	3325.931497
839.084706	3346.801874
839.400526	3499.243846
839.716303	3836.451667
840.032037	4353.298486
840.347727	4622.241523
840.663373	4349.847816
840.978977	3974.798573
841.294537	3666.257273
841.610054	3434.550718
841.925527	3330.309739
842.240957	3259.935231
842.556344	3208.606203
842.871687	3149.579332
843.186987	3100.428083
843.502244	3061.361661
843.817458	3029.705735
844.132629	2997.233143
844.447756	3006.929802
844.762840	2989.522698
845.077881	2959.568162
845.392879	2939.620316
845.707833	2936.714091
846.022745	2937.956735
846.337613	2938.528906
846.652438	2924.411155
846.967221	2922.508119
847.281960	2909.663259
847.596656	2903.452558
847.911309	2905.831982
848.225919	2900.090108
848.540485	2892.195661
848.855009	2893.609705
849.169490	2884.885988
849.483928	2874.450800
849.798323	2875.358207
850.112675	2871.254708
850.426984	2882.609907
850.741251	2877.798126
851.055474	2868.892928
851.369654	2863.942514
851.683792	2868.497197
851.997887	2878.113198
852.311938	2878.876933
852.625947	2866.866384
852.939914	2871.274873
853.253837	2877.588918
853.567718	2860.040661
853.881555	2858.583768
854.195350	2876.053887
854.509103	2871.766385
854.822812	2862.679705
855.136479	2859.700383
855.450103	2862.583923
855.763685	2855.574199
856.077224	2850.081862
856.390720	2864.585262
856.704173	2873.419884
857.017584	2865.351517
857.330953	2866.085005
857.644278	2872.888042
857.957561	2882.085627
858.270802	2884.744836
858.584000	2884.780124
858.897155	2871.143803
859.210268	2871.761344
859.523339	2866.326980
859.836367	2870.440562
860.149352	2861.936135
860.462295	2857.507482
860.775195	2866.528626
861.088054	2864.905375
861.400869	2851.422809
861.713642	2844.685307
862.026373	2860.612832
862.339062	2864.073584
862.651708	2869.371837
862.964312	2872.545243
863.276873	2867.796477
863.589392	2878.080430
863.901869	2886.463869
864.214303	2909.176788
864.526696	2924.537184
864.839045	2920.216915
865.151353	2920.151380
865.463619	2918.490320
865.775842	2920.388314
866.088023	2936.681323
866.400162	2945.342026
866.712258	2919.652306
867.024313	2908.105543
867.336325	2913.330699
867.648296	2936.159564
867.960224	2927.670261
868.272110	2912.914803
868.583954	2916.181471
868.895755	2932.613112
869.207515	2920.398396
869.519233	2924.811927
869.830909	2934.193514
870.142542	2945.619289
870.454134	2943.693568
870.765684	2945.178188
871.077191	2943.073506
871.388657	2953.554065
871.700081	2967.921354
872.011463	2977.723877
872.322803	2980.035246
872.634101	2977.129021
872.945357	2995.851867
873.256571	3020.762728
873.567744	3012.855678
873.878874	3005.961901
874.189963	3028.135416
874.501010	3032.538864
874.812015	3023.810106
875.122979	3021.942358
875.433900	3019.903212
875.744780	3024.644417
876.055618	3032.826209
876.366415	3025.871938
876.677169	3039.288969
876.987882	3034.875438
877.298554	3031.097094
877.609183	3050.911349
877.919771	3072.865574
878.230317	3100.758278
878.540822	3151.978922
878.851285	3189.742205
879.161707	3231.863566
879.472087	3331.524657
879.782425	3552.092782
880.092722	3986.378103
880.402977	4509.120552
880.713191	5130.803206
881.023363	6274.197392
881.333494	7549.911784
881.643583	8108.471630
881.953631	7824.085018
882.263637	7202.803136
882.573602	6616.965606
882.883526	6045.240787
883.193408	5475.514785
883.503248	5011.869783
883.813048	4707.860480
884.122806	4413.799894
884.432522	4094.326851
884.742197	3860.198023
885.051831	3665.445647
885.361424	3530.771222
885.670975	3458.294553
885.980485	3373.333467
886.289954	3300.176242
886.599382	3254.883995
886.908768	3212.555947
887.218113	3173.610513
887.527417	3114.563478
887.836680	3065.830644
888.145901	3058.460477
888.455082	3052.020403
888.764221	2999.415962
889.073319	2971.271200
889.382376	2966.406487
889.691392	2973.028043
890.000366	2969.771457
890.309300	2957.057667
890.618193	2970.578042
890.927044	2986.613952
891.235855	2988.786689
891.544625	2973.970738
891.853353	2980.627582
892.162041	3003.242198
892.470687	3042.127138
892.779293	3090.285281
893.087858	3138.282107
893.396381	3207.560163
893.704864	3329.213288
894.013306	3565.252714
894.321707	3865.340000
894.630068	4071.969334
894.938387	4069.496648
895.246665	4021.068804
895.554903	3906.206113
895.863100	3708.562636
896.171256	3540.533416
896.479371	3401.637025
896.787446	3279.736884
897.095480	3178.026564
897.403473	3111.818570
897.711425	3073.934298
898.019336	3064.935839
898.327207	3041.565050
898.635038	3002.987620
898.942827	2987.208808
899.250576	2978.006182
899.558284	2947.091306
899.865952	2927.072884
900.173579	2905.894997
900.481165	2902.638411
900.788711	2886.126112
901.096216	2865.396887
901.403681	2854.374404
901.711105	2858.987060
902.018489	2856.678212
902.325832	2856.438757
902.633135	2864.618029
902.940397	2898.454254
903.247619	2978.439721
903.554800	3167.966941
903.861941	3504.955473
904.169041	3928.039351
904.476101	4229.817943
904.783121	4188.969474
905.090100	3951.941982
905.397039	3677.589786
905.703938	3427.503185
906.010796	3246.714805
906.317614	3133.485449
906.624391	3041.726367
906.931129	2969.191724
907.237826	2911.473033
907.544483	2862.727596
907.851099	2829.995384
908.157675	2810.357570
908.464211	2792.650517
908.770707	2778.857920
909.077163	2764.924171
909.383578	2749.672160
909.689954	2737.548185
909.996289	2734.861250
910.302584	2737.903586
910.608839	2736.166908
910.915054	2731.566856
911.221229	2726.560990
911.527363	2731.997874
911.833458	2732.428893
912.139513	2737.890983
912.445527	2741.742425
912.751502	2752.732140
913.057436	2762.030548
913.363331	2774.976231
913.669186	2795.095476
913.975000	2826.937925
914.280775	2889.299518
914.586510	2958.406176
914.892205	3033.196734
915.197859	3163.752537
915.503475	3351.918645
915.809050	3563.271541
916.114585	3708.663459
916.420081	3730.652972
916.725536	3674.640711
917.030952	3557.484296
917.336328	3430.212805
917.641665	3302.225471
917.946961	3199.222095
918.252218	3131.403452
918.557435	3053.452090
918.862612	2993.248111
919.167750	2944.669032
919.472848	2906.746952
919.777906	2879.529762
920.082925	2856.214426
920.387904	2825.135712
920.692843	2805.278607
920.997743	2797.094294
921.302603	2783.238682
921.607423	2772.185953
921.912204	2759.545259
922.216946	2751.486975
922.521647	2738.306878
922.826310	2730.004098
923.130932	2725.114179
923.435516	2714.757128
923.740059	2708.269163
924.044564	2703.885880
924.349028	2696.941690
924.653454	2686.816533
924.957840	2683.315452
925.262186	2676.058711
925.566493	2676.351097
925.870761	2670.062258
926.174989	2667.685354
926.479178	2662.470280
926.783328	2658.228149
927.087438	2651.435195
927.391509	2654.626245
927.695541	2652.360246
927.999533	2646.857827
928.303486	2643.795326
928.607400	2645.216931
928.911275	2642.852630
929.215110	2644.329688
929.518906	2640.969759
929.822663	2641.864564
930.126381	2642.802219
930.430060	2642.630819
930.733699	2644.105357
931.037299	2645.642909
931.340861	2646.759524
931.644383	2642.414050
931.947866	2643.558392
932.251309	2644.957312
932.554714	2643.122332
932.858080	2639.704430
933.161407	2637.544295
933.464694	2638.028246
933.767943	2634.524644
934.071153	2636.770478
934.374323	2636.820890
934.677455	2635.444655
934.980548	2633.818882
935.283602	2633.302164
935.586617	2634.343162
935.889593	2632.762761
936.192530	2635.164871
936.495428	2633.594551
936.798287	2638.393730
937.101108	2638.885242
937.403890	2643.891108
937.706632	2648.942344
938.009336	2657.227480
938.312002	2663.395332
938.614628	2672.766837
938.917216	2678.100378
939.219765	2676.537620
939.522275	2677.127435
939.824747	2674.601817
940.127179	2673.749862
940.429573	2669.616116
940.731929	2671.657783
941.034246	2665.124448
941.336524	2661.273006
941.638763	2657.376194
941.940964	2656.320073
942.243126	2653.736481
942.545250	2655.989877
942.847335	2649.910246
943.149381	2648.599546
943.451389	2641.922537
943.753359	2639.180150
944.055290	2637.352731
944.357182	2637.826600
944.659036	2639.192752
944.960851	2639.991775
945.262628	2640.072434
945.564367	2636.833492
945.866067	2635.389202
946.167729	2636.523462
946.469352	2635.041362
946.770937	2637.042700
947.072484	2633.372740
947.373992	2633.619757
947.675462	2631.709160
947.976893	2631.794859
948.278286	2626.567183
948.579641	2628.807976
948.880958	2622.836729
949.182236	2629.324694
949.483476	2625.087604
949.784678	2627.434261
950.085841	2626.720938
950.386967	2626.766308
950.688054	2628.513068
950.989103	2630.708491
951.290114	2629.639766
951.591087	2633.455919
951.892021	2634.141516
952.192917	2639.175108
952.493776	2638.050931
952.794596	2638.101343
953.095378	2639.399440
953.396122	2637.496404
953.696828	2635.989099
953.997496	2637.163688
954.298126	2631.361320
954.598718	2630.711011
954.899272	2627.620784
955.199788	2623.585340
955.500266	2621.974692
955.800706	2619.943107
956.101108	2620.290946
956.401472	2616.605863
956.701798	2612.807353
957.002087	2613.399689
957.302337	2616.036212
957.602550	2611.620162
957.902724	2607.788885
958.202861	2607.609924
958.502960	2605.207814
958.803022	2607.609924
959.103045	2604.388626
959.403031	2608.003134
959.702979	2604.469285
960.002889	2603.922320
960.302762	2603.892073
960.602596	2602.437700
960.902393	2603.070365
961.202153	2606.326950
961.501875	2604.325612
961.801559	2602.815786
962.101205	2599.223964
962.400814	2600.973245
962.700385	2602.251177
962.999918	2599.294540
963.299414	2595.642224
963.598873	2597.504931
963.898293	2593.098962
964.197677	2598.752616
964.497022	2599.632298
964.796331	2600.143975
965.095601	2597.625918
965.394835	2599.176073
965.694030	2599.324787
965.993189	2598.424941
966.292309	2599.113059
966.591393	2602.004161
966.890439	2598.727411
967.189447	2598.840837
967.488419	2597.530137
967.787353	2599.753285
968.086249	2600.169181
968.385108	2600.577514
968.683930	2596.597523
968.982714	2599.516351
969.281462	2599.536516
969.580172	2600.963162
969.878844	2599.654983
970.177480	2599.917123
970.476078	2599.017277
970.774639	2601.154726
971.073162	2598.145157
971.371649	2601.525251
971.670098	2599.786053
971.968510	2597.547781
972.266885	2599.690271
972.565223	2598.848398
972.863524	2600.829572
973.161788	2601.459716
973.460014	2597.585589
973.758204	2599.062647
974.056356	2596.358068
974.354471	2597.814962
974.652550	2598.525764
974.950591	2598.545929
975.248595	2600.443923
975.546563	2600.491814
975.844493	2599.075250
976.142386	2599.465940
976.440243	2598.934098
976.738062	2596.695826
977.035845	2597.252873
977.333590	2597.139447
977.631299	2597.250352
977.928971	2594.689446
978.226606	2593.494693
978.524204	2595.954776
978.821765	2594.641555
979.119290	2598.452668
979.416777	2597.187338
979.714228	2595.543922
980.011642	2591.306832
980.309020	2598.208172
980.606360	2595.422934
980.903664	2598.843357
981.200931	2596.468974
981.498162	2600.348142
981.795356	2599.680189
982.092513	2599.859150
982.389633	2601.431990
982.686717	2605.873246
982.983764	2610.435490
983.280775	2614.060080
983.577749	2613.878598
983.874686	2613.939092
984.171587	2611.549585
984.468451	2608.315685
984.765279	2604.567587
985.062070	2605.868205
985.358824	2603.909717
985.655543	2602.770416
985.952224	2599.891917
986.248869	2597.096597
986.545478	2598.651793
986.842050	2595.934611
987.138586	2594.636514
987.435086	2599.173553
987.731549	2594.066864
988.027975	2595.624580
988.324366	2593.804724
988.620719	2594.507965
988.917037	2592.851946
989.213318	2593.529981
989.509563	2594.102152
989.805772	2593.340938
990.101944	2594.727255
990.398080	2593.769436
990.694180	2593.603078
990.990244	2594.230701
991.286271	2594.898654
991.582262	2593.098962
991.878217	2591.233735
992.174136	2593.005701
992.470019	2593.560228
992.765865	2590.681729
993.061676	2588.632500
993.357450	2590.240628
993.653188	2588.940010
993.948890	2592.299939
994.244556	2594.578541
994.540186	2593.391349
994.835780	2596.249683
995.131337	2592.753643
995.426859	2593.381267
995.722345	2595.531319
996.017795	2597.567945
996.313208	2596.194231
996.608586	2596.342945
996.903928	2600.166660
997.199234	2597.096597
997.494504	2599.922164
997.789738	2599.566763
998.084936	2594.187852
998.380099	2595.138109
998.675225	2594.255907
998.970316	2594.598706
999.265371	2593.872779
999.560390	2593.787080
999.855373	2593.998808
1000.150320	2591.881524
1000.445232	2592.612491
1000.740108	2591.458067
1001.034948	2592.846905
1001.329752	2593.419076
1001.624521	2592.730958
1001.919254	2591.405135
1002.213951	2591.523602
1002.508613	2591.889085
1002.803239	2590.946390
1003.097829	2591.163159
1003.392384	2591.190886
1003.686903	2589.953282
1003.981386	2592.352872
1004.275834	2590.936307
1004.570246	2590.265834
1004.864623	2591.964703
1005.158964	2592.980495
1005.453270	2590.409507
1005.747540	2592.509147
1006.041775	2588.743405
1006.335974	2590.865731
1006.630138	2589.852459
1006.924266	2592.262131
1007.218359	2589.842377
1007.512416	2587.460432
1007.806438	2584.675194
1008.100425	2587.904053
1008.394376	2582.507498
1008.688292	2588.642582
1008.982172	2590.406986
1009.276017	2589.136615
1009.569827	2589.925556
1009.863602	2592.431009
1010.157341	2592.090732
1010.451045	2589.111410
1010.744714	2588.735844
1011.038347	2590.734661
1011.331945	2592.867069
1011.625508	2588.488827
1011.919036	2588.483786
1012.212528	2588.274578
1012.505986	2587.505802
1012.799408	2594.538212
1013.092795	2587.951944
1013.386147	2591.480752
1013.679464	2589.822212
1013.972745	2590.732141
1014.265992	2589.736513
1014.559204	2590.747264
1014.852380	2590.298601
1015.145521	2588.824064
1015.438628	2586.603436
1015.731699	2591.203488
1016.024736	2591.014445
1016.317737	2587.525967
1016.610703	2588.950093
1016.903635	2589.688622
1017.196531	2591.405135
1017.489393	2589.247521
1017.782219	2588.909763
1018.075011	2589.565113
1018.367768	2586.744588
1018.660490	2588.330031
1018.953177	2588.330031
1019.245829	2588.330031
