Dividing Wavelength (nm)	Counts (n)	Blue Motor Position (mm): 22.200000	Red Motor Position (mm): 0.000000	
326.493990	2189.279854
326.888308	2189.279854
327.282561	2189.279854
327.676750	2150.397434
328.070874	2145.946096
328.464933	2147.297125
328.858929	2151.410706
329.252859	2154.127888
329.646726	2164.719353
330.040528	2174.910045
330.434265	2190.043589
330.827938	2207.327185
331.221547	2226.339897
331.615091	2240.187946
332.008571	2257.917684
332.401986	2277.792433
332.795338	2298.153654
333.188625	2316.881540
333.581847	2334.964159
333.975006	2353.238342
334.368100	2372.868595
334.761129	2391.611605
335.154095	2408.325550
335.546996	2430.494024
335.939833	2466.744962
336.332606	2480.328351
336.725315	2492.164980
337.117960	2505.806342
337.510540	2514.971160
337.903056	2530.266021
338.295508	2537.656352
338.687896	2549.918959
339.080220	2549.228321
339.472480	2558.672923
339.864676	2564.550908
340.256807	2570.978379
340.648875	2571.918554
341.040879	2575.981724
341.432818	2577.236972
341.824694	2582.046233
342.216506	2582.386510
342.608253	2585.869948
342.999937	2583.611511
343.391557	2584.115626
343.783113	2586.139649
344.174605	2584.589495
344.566033	2583.364494
344.957397	2581.695872
345.348697	2581.093454
345.739934	2579.142528
346.131106	2578.121694
346.522215	2576.397620
346.913260	2572.702454
347.304241	2572.457958
347.695159	2568.540981
348.086012	2567.620971
348.476802	2566.136351
348.867528	2563.429251
349.258191	2558.655279
349.648789	2557.757953
350.039324	2554.617314
350.429796	2560.578479
350.820203	2553.810730
351.210548	2555.887685
351.600828	2554.143446
351.991045	2552.542880
352.381198	2551.703527
352.771288	2553.137736
353.161314	2550.596994
353.551276	2550.513815
353.941175	2550.609597
354.331010	2550.660009
354.720782	2549.079607
355.110490	2550.811243
355.500135	2548.275543
355.889717	2548.819987
356.279235	2550.927190
356.668689	2547.834442
357.058080	2550.496171
357.447408	2550.531459
357.836672	2548.336037
358.225873	2548.343598
358.615010	2550.032385
359.004084	2553.679660
359.393095	2551.217056
359.782043	2554.887016
360.170927	2553.609084
360.559748	2553.165462
360.948505	2556.268292
361.337199	2557.591595
361.725830	2554.942469
362.114398	2555.703683
362.502903	2555.378529
362.891344	2556.936245
363.279722	2555.650751
363.668037	2560.472615
364.056289	2558.803993
364.444478	2559.340876
364.832603	2559.292985
365.220665	2560.550753
365.608665	2559.930691
365.996601	2561.049827
366.384474	2560.429765
366.772284	2560.699467
367.160031	2563.174673
367.547715	2560.775084
367.935336	2562.191648
368.322893	2560.613767
368.710388	2559.585372
369.097820	2560.646534
369.485189	2558.355330
369.872495	2565.085270
370.259738	2560.525547
370.646918	2564.843295
371.034035	2562.852039
371.421090	2562.713408
371.808081	2564.346741
372.195010	2565.894376
372.581875	2566.448903
372.968678	2564.878583
373.355418	2563.724159
373.742096	2567.492421
374.128710	2564.732390
374.515262	2564.921433
374.901751	2567.721794
375.288177	2567.643656
375.674540	2566.625343
376.060841	2566.418656
376.447079	2568.548543
376.833254	2571.825293
377.219367	2568.296485
377.605417	2568.561146
377.991404	2568.906465
378.377329	2570.247412
378.763191	2569.541650
379.148991	2568.402350
379.534727	2569.834037
379.920402	2571.245560
380.306013	2570.708677
380.691563	2571.913513
381.077049	2570.106260
381.462474	2571.051476
381.847835	2572.896538
382.233134	2572.959553
382.618371	2571.971487
383.003545	2570.683472
383.388657	2573.007444
383.773706	2573.415777
384.158693	2574.330747
384.543618	2571.868143
384.928480	2573.587176
385.313280	2574.444172
385.698017	2573.632547
386.082692	2575.306210
386.467305	2573.589697
386.851856	2575.959039
387.236344	2575.931313
387.620770	2572.394943
388.005133	2572.238668
388.389435	2571.986610
388.773674	2572.387382
389.157851	2578.603124
389.541965	2577.824266
389.926018	2575.177660
390.310008	2574.527352
390.693936	2575.712023
391.077802	2576.677404
391.461606	2576.271591
391.845348	2579.187898
392.229027	2576.395099
392.612645	2579.293762
392.996200	2577.360480
393.379694	2579.034143
393.763125	2576.324523
394.146494	2579.129925
394.529801	2579.513053
394.913047	2581.486664
395.296230	2580.755697
395.679351	2581.998342
396.062410	2580.249061
396.445408	2579.185378
396.828343	2583.372056
397.211217	2579.500450
397.594028	2582.837694
397.976778	2579.876016
398.359466	2581.325347
398.742092	2580.286870
399.124656	2581.423650
399.507158	2582.681418
399.889598	2583.651840
400.271977	2584.153435
400.654294	2584.075297
401.036549	2586.971440
401.418742	2583.523291
401.800874	2584.723085
402.182944	2584.155955
402.564952	2585.259968
402.946898	2583.833322
403.328783	2588.032603
403.710606	2585.963209
404.092367	2584.095462
404.474067	2586.840370
404.855705	2588.569486
405.237282	2588.070411
405.618797	2585.050760
406.000250	2585.736357
406.381642	2585.413723
406.762972	2584.241655
407.144240	2583.944227
407.525447	2586.298446
407.906593	2582.694021
408.287677	2588.070411
408.668700	2586.573189
409.049661	2588.887078
409.430560	2587.999835
409.811399	2591.299270
410.192176	2588.327510
410.572891	2590.797676
410.953545	2589.365988
411.334138	2592.420927
411.714669	2588.486307
412.095139	2591.049733
412.475547	2588.546800
412.855894	2591.206009
413.236180	2590.669126
413.616405	2590.475042
413.996568	2590.568303
414.376670	2588.813982
414.756711	2592.317583
415.136691	2591.271544
415.516609	2590.238107
415.896466	2591.352202
416.276262	2591.072418
416.655997	2593.872779
417.035670	2592.168869
417.415283	2591.649631
417.794834	2591.884044
418.174324	2593.192224
418.553753	2594.510485
418.933121	2593.713983
419.312428	2594.124837
419.691674	2595.498552
420.070859	2594.608788
420.449983	2596.910075
420.829045	2594.407142
421.208047	2596.045517
421.586988	2594.588623
421.965867	2594.810434
422.344686	2594.437389
422.723444	2598.608943
423.102141	2593.595516
423.480777	2594.684405
423.859352	2598.102307
424.237866	2595.415373
424.616319	2596.030393
424.994712	2598.871083
425.373044	2597.373861
425.751314	2595.007039
426.129524	2594.165166
426.507673	2597.706577
426.885762	2593.363623
427.263789	2598.482915
427.641756	2599.032400
428.019662	2599.970055
428.397508	2598.414859
428.775292	2599.070209
429.153016	2600.270004
429.530679	2597.918305
429.908282	2597.704056
430.285824	2601.482401
430.663305	2601.119438
431.040726	2601.081629
431.418086	2599.087853
431.795385	2598.674478
432.172624	2601.021136
432.549802	2602.092381
432.926920	2599.118100
433.303977	2600.143975
433.680974	2603.743359
434.057910	2600.650611
434.434786	2599.584407
434.811601	2602.777978
435.188355	2603.922320
435.565050	2602.462906
435.941683	2602.697319
436.318257	2605.512804
436.694770	2604.161774
437.071222	2604.882659
437.447614	2603.077926
437.823946	2605.351487
438.200218	2604.789398
438.576429	2603.561877
438.952580	2605.303596
439.328670	2602.520879
439.704700	2606.367279
440.080670	2603.675303
440.456580	2605.545571
440.832429	2605.737135
441.208218	2605.434666
441.583947	2605.903493
441.959616	2609.873402
442.335224	2606.710078
442.710773	2608.393823
443.086261	2608.804677
443.461689	2606.533637
443.837057	2610.541355
444.212365	2608.706375
444.587612	2604.625561
444.962800	2608.882815
445.337927	2606.934409
445.712995	2602.349480
446.088002	2610.168309
446.462949	2609.152517
446.837837	2611.862137
447.212664	2609.097064
447.587431	2611.312651
447.962139	2611.542024
448.336786	2614.216356
448.711374	2613.989504
449.085901	2617.402365
449.460369	2613.319030
449.834776	2615.098558
450.209124	2614.002107
450.583412	2615.436315
450.957640	2616.439505
451.331808	2615.753908
451.705917	2616.162241
452.079965	2614.503702
452.453954	2617.324227
452.827883	2615.322889
453.201752	2615.799278
453.575562	2615.736264
453.949311	2616.658795
454.323001	2620.613580
454.696632	2616.197529
455.070202	2620.941255
455.443713	2620.878241
455.817164	2619.784310
456.190556	2621.881430
456.563888	2621.841101
456.937160	2624.031482
457.310373	2621.503344
457.683526	2623.078704
458.056619	2621.722634
458.429653	2622.768673
458.802628	2622.962758
459.175542	2623.623149
459.548398	2627.527522
459.921194	2629.188583
460.293930	2630.539612
460.666607	2632.084726
461.039224	2636.505817
461.411782	2635.883235
461.784280	2634.421300
462.156719	2637.330046
462.529099	2637.884573
462.901419	2637.655201
463.273680	2635.638739
463.645882	2636.883904
464.018024	2637.836682
464.390106	2636.087402
464.762130	2647.830770
465.134094	2650.066521
465.505999	2659.173366
465.877845	2669.691733
466.249631	2679.993331
466.621358	2683.517098
466.993026	2682.796213
467.364634	2688.195288
467.736184	2683.597756
468.107674	2684.046419
468.479105	2693.816175
468.850477	2694.683253
469.221790	2698.794314
469.593043	2700.273893
469.964238	2707.308823
470.335373	2710.247816
470.706449	2719.964640
471.077467	2729.021073
471.448425	2752.527973
471.819324	2802.132927
472.190164	2833.481342
472.560945	2815.701193
472.931667	2804.703916
473.302330	2815.398723
473.672934	2826.280054
474.043479	2845.280163
474.413965	2864.915457
474.784393	2880.227962
475.154761	2913.829773
475.525070	2938.029832
475.895321	2958.471711
476.265513	2997.490242
476.635645	3046.051677
477.005719	3070.203845
477.375734	3112.451234
477.745691	3165.763957
478.115588	3226.386352
478.485427	3288.637041
478.855207	3380.073489
479.224928	3521.331661
479.594591	3699.365050
479.964194	3762.301336
480.333739	3830.800534
480.703226	3864.152808
481.072653	3936.440433
481.442022	4067.233170
481.811333	4221.026171
482.180584	4315.878001
482.549777	4328.765711
482.918912	4412.045573
483.287988	4527.298952
483.657005	4615.249443
484.025964	4688.197460
484.394864	4781.451244
484.763706	4856.950085
485.132489	4934.261220
485.501213	5043.182911
485.869879	5165.090613
486.238487	5229.332557
486.607036	5399.244648
486.975527	5475.222398
487.343959	5636.299866
487.712333	5779.072905
488.080648	5834.770093
488.448905	6062.579836
488.817104	6150.653834
489.185244	6398.991155
489.553326	6572.109419
489.921350	6871.637137
490.289315	7490.620253
490.657222	8060.147129
491.025070	8338.890170
491.392861	8480.294535
491.760593	8475.989390
492.128267	8500.537288
492.495883	8407.487671
492.863440	8405.950119
493.230939	8355.682253
493.598380	8507.254626
493.965763	8571.297444
494.333088	8631.370354
494.700354	8789.791134
495.067563	8959.355385
495.434713	9063.495541
495.801805	9242.332994
496.168839	9417.744984
496.535815	9551.625427
496.902733	9785.950861
497.269593	9827.205143
497.636395	10108.481363
498.003139	10277.135686
498.369825	10421.937789
498.736453	10639.440892
499.103023	10770.808320
499.469535	10977.898920
499.835989	11252.750189
500.202385	11481.719397
500.568723	11465.280194
500.935003	11712.740354
501.301226	11771.202616
501.667390	12260.456679
502.033497	12641.986325
502.399546	12661.359479
502.765537	12740.770255
503.131470	13085.086104
503.497345	13359.024925
503.863163	13155.795849
504.228923	13673.139221
504.594625	13965.942039
504.960269	13886.826171
505.325856	14361.191186
505.691385	14269.046455
506.056856	14741.871398
506.422270	14966.885821
506.787625	14890.605601
507.152924	15366.407345
507.518164	15531.782397
507.883347	15594.998466
508.248472	15588.122332
508.613540	16259.276350
508.978550	16349.843199
509.343503	16509.063002
509.708398	16879.169394
510.073236	17155.036456
510.438016	17464.810319
510.802738	17469.435578
511.167403	17814.507599
511.532010	17777.442516
511.896561	18518.802162
512.261053	18714.676195
512.625488	18753.735055
512.989866	18854.290951
513.354186	18904.710051
513.718449	19180.259520
514.082655	19591.557180
514.446803	19596.109342
514.810894	20092.824313
515.174927	19854.904536
515.538904	20043.335305
515.902822	20559.481404
516.266684	20569.157898
516.630488	20615.869230
516.994235	20781.438366
517.357925	21137.001029
517.721558	21454.689504
518.085133	21662.780773
518.448651	21733.971947
518.812112	21653.714258
519.175516	21911.881828
519.538863	22225.363460
519.902152	22146.257673
520.265385	22549.549981
520.628560	22490.021516
520.991678	22623.382720
521.354739	22796.644658
521.717743	22976.276092
522.080690	22886.740159
522.443580	23301.916987
522.806413	23397.053642
523.169189	23607.221867
523.531908	23754.037911
523.894569	23485.951870
524.257174	23647.934225
524.619722	23929.717081
524.982213	23714.570717
525.344647	23893.635023
525.707025	24060.381268
526.069345	24156.178315
526.431608	24191.980589
526.793815	24465.717764
527.155964	23989.532892
527.518057	24221.988058
527.880093	24234.064142
528.242072	24487.886238
528.603995	24268.732157
528.965860	24143.824967
529.327669	24259.940384
529.689421	24305.288084
530.051117	24189.928840
530.412755	24423.873666
530.774337	24287.278562
531.135862	24190.127965
531.497331	24436.554689
531.858743	24041.981057
532.220098	24550.842688
532.581396	24274.668115
532.942638	24279.636173
533.303824	24374.049422
533.664953	24434.520583
534.026025	24137.314317
534.387040	24405.501181
534.747999	24496.950233
535.108902	24685.587689
535.469748	24207.250244
535.830537	24430.548154
536.191270	24549.597523
536.551947	24474.204546
536.912567	24179.176059
537.273131	24479.293591
537.633638	24226.673810
537.994089	24462.025119
538.354483	24028.639643
538.714821	24532.611355
539.075103	24590.483801
539.435328	24395.093719
539.795497	23959.419560
540.155609	24388.744386
540.515665	24677.466390
540.875665	23955.447130
541.235609	24222.320774
541.595496	24222.439241
541.955328	24574.833539
542.315102	24498.828062
542.674821	24085.952521
543.034483	23970.305931
543.394090	24135.519666
543.753640	23924.585187
544.113134	24555.188162
544.472571	24173.053577
544.831953	24458.357679
545.191278	24073.495830
545.550548	24019.152192
545.909761	24243.044957
546.268918	24457.969510
546.628019	24426.573204
546.987064	24144.056860
547.346053	23910.522888
547.704986	24035.503174
548.063863	24197.535941
548.422684	24194.516290
548.781449	23764.538634
549.140158	24155.686802
549.498811	23737.031578
549.857408	23480.217557
550.215949	23924.791874
550.574434	23596.423715
550.932864	23826.018026
551.291237	23969.343071
551.649555	23841.234749
552.007817	23893.781216
552.366022	23764.394961
552.724173	23817.208610
553.082267	23749.193362
553.440305	24218.076122
553.798288	23496.379497
554.156215	24024.475650
554.514086	24096.634726
554.871902	23468.259940
555.229661	23758.612758
555.587365	23624.311378
555.945014	23462.656698
556.302606	23748.689247
556.660143	23676.421786
557.017625	23935.138842
557.375050	23464.045536
557.732421	23856.544733
558.089735	23669.396938
558.446994	23729.628644
558.804197	23746.448454
559.161345	23720.305030
559.518437	23463.236431
559.875474	23666.820908
560.232455	23835.497916
560.589381	23672.905581
560.946251	23630.421257
561.303065	23960.924344
561.659825	24046.697056
562.016528	23650.376664
562.373177	23402.336772
562.729770	23744.994081
563.086307	23630.023006
563.442789	23794.026864
563.799216	23620.011274
564.155587	23638.305621
564.511904	23608.131795
564.868164	23537.863152
565.224370	23535.337533
565.580520	23432.515639
565.936615	23572.327000
566.292654	23225.120049
566.648638	23558.489033
567.004567	23379.649059
567.360441	23339.365198
567.716260	23050.280231
568.072023	23385.159040
568.427732	23138.883551
568.783385	22935.881327
569.138982	23155.584894
569.494525	23201.850083
569.850013	22948.015384
570.205445	23058.335995
570.560823	22847.739272
570.916145	22621.812401
571.271412	22789.455972
571.626625	22558.888719
571.981782	22659.774810
572.336884	22468.223567
572.691931	22596.465479
573.046923	22332.858504
573.401860	22228.960323
573.756743	22212.979865
574.111570	22135.081435
574.466342	22068.356723
574.821059	22165.046054
575.175722	21854.558868
575.530330	21851.919824
575.884882	21884.137838
576.239380	21774.991816
576.593823	21675.892814
576.948211	21665.744971
577.302544	21495.976554
577.656823	21385.431612
578.011047	21476.590797
578.365216	21344.532730
578.719330	21228.021583
579.073389	21122.908484
579.427394	21274.674941
579.781344	21058.580840
580.135239	20939.970052
580.489080	20913.786299
580.842866	20675.352325
581.196597	20845.634940
581.550273	20847.520332
581.903895	20743.649877
582.257463	21046.285466
582.610975	20569.689740
582.964434	20880.189529
583.317837	20598.084039
583.671186	20682.866165
584.024481	20649.087913
584.377721	20424.527195
584.730906	20476.456120
585.084037	20522.398676
585.437113	20415.730381
585.790135	20609.068713
586.143103	20089.429096
586.496016	20096.680795
586.848874	20346.318734
587.201679	20286.381935
587.554428	19939.197670
587.907124	20277.895153
588.259765	20059.237625
588.612352	20143.624020
588.964884	19703.778306
589.317362	19881.877230
589.669786	19932.616443
590.022155	19989.936883
590.374470	20159.606998
590.726731	19967.833944
591.078937	19710.984635
591.431090	19815.190326
591.783188	19569.320650
592.135232	19532.273211
592.487222	19636.675507
592.839157	19660.736934
593.191038	19545.894408
593.542866	19439.752914
593.894639	19162.010543
594.246358	19372.524087
594.598022	19300.465833
594.949633	19041.713489
595.301190	19007.461369
595.652692	19160.241098
596.004141	19404.338808
596.355535	18738.924145
596.706876	18749.250948
597.058162	18631.461868
597.409395	18857.575262
597.760573	18963.527713
598.111698	18720.322287
598.462768	18662.774995
598.813785	18622.223954
599.164748	18455.941494
599.515657	18484.015680
599.866511	18263.956712
600.217312	18630.403226
600.568060	18159.446031
600.918753	18469.386252
601.269392	18378.988281
601.619978	18146.727200
601.970510	18367.771713
602.320988	18312.021593
602.671412	18515.482562
603.021783	18415.448426
603.372100	18154.596441
603.722363	18291.872101
604.072572	18222.374754
604.422728	18367.373462
604.772830	18129.589797
605.122878	18068.848934
605.472872	18066.560251
605.822813	18060.473057
606.172701	18020.627777
606.522534	18213.923260
606.872314	18243.605574
607.222041	18075.858659
607.571714	18289.565773
607.921333	18120.253580
608.270899	18190.126493
608.620411	18388.362306
608.969870	18144.738464
609.319276	18138.414337
609.668627	18179.701387
610.017926	18310.852045
610.367171	18428.315971
610.716362	18466.353997
611.065500	18291.620043
611.414585	18415.229136
611.763616	18407.967354
612.112594	18350.702367
612.461518	18320.392429
612.810389	18511.542901
613.159207	18369.952013
613.507971	18272.088093
613.856682	18562.433349
614.205340	18488.794694
614.553945	18632.177712
614.902496	18374.002580
615.250994	18614.863869
615.599439	18548.431544
615.947830	18538.419812
616.296169	18576.793075
616.644454	18554.828768
616.992686	18529.784316
617.340864	18733.973732
617.688990	18497.160489
618.037063	18675.171193
618.385082	18508.745060
618.733048	18795.952198
619.080961	18665.421601
619.428821	18707.237972
619.776628	18589.597606
620.124382	18523.893728
620.472083	18551.950269
620.819731	18576.130164
621.167326	18270.870654
621.514868	18313.564186
621.862357	18072.644923
622.209793	18082.785204
622.557176	17914.594668
622.904506	17740.248883
623.251783	17651.325449
623.599007	17422.499915
623.946179	17373.585599
624.293297	17306.200495
624.640363	17068.767190
624.987376	17091.979183
625.334336	16884.384468
625.681243	16722.676855
626.028097	16732.411323
626.374899	16670.453022
626.721647	16538.710028
627.068343	16359.171854
627.414987	16292.202646
627.761577	16269.792197
628.108115	16309.977755
628.454600	16033.185641
628.801032	16138.162629
629.147412	16064.624797
629.493739	16090.798468
629.840014	15904.028759
630.186236	15992.891698
630.532405	15757.222797
630.878521	15951.836541
631.224585	15845.916858
631.570597	15667.921277
631.916556	15709.074737
632.262462	15683.347208
632.608316	15601.557007
632.954117	15550.923658
633.299866	15545.315375
633.645562	15469.539271
633.991206	15218.996445
634.336797	15087.195478
634.682336	15052.262802
635.027823	14952.281598
635.373257	14834.777343
635.718639	14729.356734
636.063968	14686.269992
636.409245	14431.043934
636.754470	14463.897134
637.099642	14307.397033
637.444762	14081.881016
637.789829	14124.120844
638.134845	13959.552377
638.479808	13981.441067
638.824719	13941.447073
639.169577	13787.916212
639.514383	13836.843130
639.859137	13654.471828
640.203839	13736.113315
640.548489	13580.565992
640.893086	13565.896235
641.237632	13438.062655
641.582125	13584.077156
641.926566	13422.329214
642.270955	13429.548147
642.615292	13392.200758
642.959576	13396.369792
643.303809	13440.300928
643.647990	13376.883212
643.992118	13428.567642
644.336195	13196.856047
644.680219	13401.504208
645.024192	13329.292199
645.368112	13559.098239
645.711981	13624.247590
646.055797	13800.304847
646.399562	13764.863015
646.743274	14030.080640
647.086935	14306.020798
647.430544	14278.637251
647.774101	14309.859637
648.117606	14456.950424
648.461059	14435.427218
648.804460	14414.733281
649.147810	14148.419206
649.491108	14040.697310
649.834354	14063.140527
650.177548	13771.797122
650.520690	13578.400817
650.863781	13501.979445
651.206820	13540.632492
651.549807	13368.499773
651.892742	13183.365919
652.235626	13116.532822
652.578458	13119.935601
652.921238	12807.646202
653.263967	13005.017458
653.606644	12830.893483
653.949269	12809.012355
654.291843	12616.747788
654.634365	12756.178542
654.976836	12610.829474
655.319255	12628.836475
655.661622	12581.074063
656.003938	12505.671005
656.346203	12436.176178
656.688416	12497.431239
657.030577	12460.842544
657.372687	12374.401879
657.714746	12357.967718
658.056753	12544.248434
658.398708	12364.145652
658.740612	12361.138603
659.082465	12459.098305
659.424266	12422.902820
659.766016	12445.598095
660.107715	12351.507479
660.449362	12428.589242
660.790958	12391.009960
661.132503	12339.844769
661.473996	12396.010785
661.815438	12417.476018
662.156829	12426.620671
662.498168	12407.645768
662.839456	12407.030747
663.180693	12432.216352
663.521879	12517.154753
663.863013	12494.391423
664.204097	12469.228503
664.545129	12593.329108
664.886110	12554.807131
665.227040	12648.260041
665.567918	12650.407573
665.908746	12684.513499
666.249522	12668.359122
666.590248	12713.452243
666.930922	12823.316629
667.271545	12818.716576
667.612118	12899.206159
667.952639	12804.359370
668.293109	12802.955409
668.633528	12768.403340
668.973896	12744.654464
669.314213	12828.531703
669.654480	12569.585274
669.994695	12634.840490
670.334859	12650.548725
670.674973	12599.648195
671.015035	12640.748722
671.355047	12570.522928
671.695008	12548.369578
672.034918	12555.394426
672.374777	12599.040736
672.714585	12512.249710
673.054342	12545.145760
673.394049	12495.434942
673.733705	12591.728542
674.073310	12495.815549
674.412864	12523.163808
674.752368	12396.030950
675.091820	12401.911456
675.431223	12394.763099
675.770574	12271.048143
676.109875	12183.894155
676.449125	12154.022797
676.788324	12088.371851
677.127473	11924.491501
677.466571	11908.478276
677.805619	11816.257928
678.144616	11728.670401
678.483562	11701.002028
678.822458	11571.255331
679.161303	11554.904348
679.500098	11545.298429
679.838842	11495.287663
680.177535	11513.193841
680.516179	11581.385529
680.854771	11526.855368
681.193314	11739.193809
681.531805	11880.852753
681.870247	12290.829631
682.208638	12694.830220
682.546978	13012.884178
682.885268	13079.634096
683.223508	12767.939554
683.561697	12604.737239
683.899836	12510.949093
684.237925	12316.446254
684.575963	12226.703633
684.913951	12160.689723
685.251889	12098.136566
685.589776	12198.672297
685.927614	12129.477419
686.265401	12090.811769
686.603137	12131.564457
686.940824	12284.447530
687.278460	12405.374728
687.616046	12447.516254
687.953582	12619.568314
688.291068	12552.110114
688.628504	12774.747632
688.965889	12779.665278
689.303224	12759.510745
689.640510	12650.306750
689.977745	12348.931449
690.314930	12121.686316
690.652065	12038.822350
690.989150	11750.359965
691.326185	11528.823939
691.663170	11324.516056
692.000105	11073.532129
692.336990	10973.583692
692.673825	10722.824097
693.010610	10600.243400
693.347345	10397.195806
693.684030	10192.966060
694.020665	10135.355754
694.357251	9939.804355
694.693786	9892.069670
695.030272	9721.590449
695.366707	9605.631308
695.703093	9534.225884
696.039429	9532.085915
696.375716	9456.650088
696.711952	9327.745264
697.048139	9360.923618
697.384276	9318.283018
697.720363	9340.474178
698.056400	9276.280124
698.392388	9224.888082
698.728326	9191.432464
699.064214	9122.739181
699.400053	9174.932768
699.735842	8983.762131
700.071581	8941.176984
700.407270	8873.010502
700.742910	8785.871637
701.078501	8702.551446
701.414042	8580.242972
701.749533	8513.543465
702.084974	8375.998103
702.420366	8492.965475
702.755709	8370.009212
703.091002	8240.312927
703.426246	8266.854602
703.761440	8220.927170
704.096584	8177.043925
704.431679	8105.782175
704.766725	8096.776153
705.101721	8042.561064
705.436668	8086.149401
705.771565	7980.385993
706.106413	8058.571769
706.441212	8111.753421
706.775961	8054.138074
707.110661	8087.336593
707.445311	8237.714212
707.779913	8131.509703
708.114465	8265.501052
708.448967	8307.264491
708.783421	8438.828524
709.117825	8625.807441
709.452180	8657.095362
709.786485	8748.040298
710.120742	9025.810396
710.454949	9021.686732
710.789107	9123.177762
711.123216	9339.266821
711.457275	9500.495524
711.791286	9663.929732
712.125247	9653.837342
712.459159	9647.120004
712.793023	9900.924456
713.126837	9477.606165
713.460602	9626.471438
713.794318	9451.896280
714.127985	9481.568512
714.461602	9166.577055
714.795171	9118.290363
715.128691	8869.698464
715.462162	8616.612376
715.795584	8562.261176
716.128957	8425.073736
716.462281	8250.049915
716.795556	8298.959190
717.128782	8096.357737
717.461960	7829.156419
717.795088	7898.222747
718.128167	7808.243192
718.461198	7641.630537
718.794180	7579.596618
719.127113	7574.225269
719.459997	7428.455264
719.792833	7198.835748
720.125619	7258.878411
720.458357	7119.956814
720.791046	7111.666636
721.123686	7109.032633
721.456278	6950.773170
721.788821	6967.540048
722.121315	6862.021136
722.453761	6923.581186
722.786158	6874.893722
723.118506	6881.290947
723.450805	6847.454722
723.783056	6919.376864
724.115259	6819.443551
724.447412	6817.648900
724.779518	6868.357866
725.111574	6869.353494
725.443582	6946.904084
725.775542	6925.073368
726.107453	7114.560258
726.439315	7030.975407
726.771129	7082.533808
727.102895	7245.148828
727.434612	7370.184567
727.766281	7396.421252
728.097901	7481.568861
728.429473	7472.555278
728.760996	7448.483769
729.092471	7423.996364
729.423897	7370.872685
729.755276	7384.761063
730.086606	7311.659292
730.417887	7411.436329
730.749120	7587.808658
731.080305	7783.339892
731.411442	7910.056856
731.742530	7901.033191
732.073570	8009.211311
732.404562	8098.666586
732.735506	7943.225128
733.066401	8083.507836
733.397249	8020.117847
733.728048	7786.702342
734.058798	7455.987526
734.389501	7239.946357
734.720156	7061.149233
735.050762	6827.814387
735.381320	6726.300672
735.711831	6678.495410
736.042293	6567.058183
736.372707	6589.476194
736.703073	6454.665658
737.033391	6488.854764
737.363661	6500.542679
737.693883	6524.183170
738.024056	6608.161231
738.354182	6658.335835
738.684260	6685.583272
739.014290	6798.598379
739.344272	6910.350678
739.674207	6945.550535
740.004093	7006.616552
740.333931	7021.611464
740.663722	7030.032711
740.993464	7109.388035
741.323159	7104.384689
741.652806	6850.728951
741.982405	6856.433017
742.311956	6915.283447
742.641460	6765.714933
742.970915	6567.912659
743.300323	6562.969808
743.629683	6510.153639
743.958996	6379.265120
744.288260	6289.625843
744.617477	6232.128963
744.946647	6245.591364
745.275768	6072.904119
745.604842	6027.062386
745.933869	6013.302557
746.262847	5970.982070
746.591778	5958.288445
746.920662	5916.187248
747.249498	5902.525722
747.578286	5953.438855
747.907027	6031.183529
748.235720	6089.464309
748.564365	6060.800308
748.892963	6082.222692
749.221514	6238.306897
749.550017	6085.078505
749.878473	5954.177384
750.206881	6009.372977
750.535242	5950.993895
750.863555	5877.808944
751.191821	5897.920628
751.520039	5900.945320
751.848210	5810.015507
752.176334	5822.585624
752.504411	5878.870107
752.832440	5800.938910
753.160421	5732.999279
753.488356	5778.967041
753.816243	5817.045396
754.144082	5668.820350
754.471875	5637.625690
754.799620	5680.110014
755.127318	5689.645356
755.454969	5642.807996
755.782572	5608.157625
756.110129	5651.710674
756.437638	5646.639273
756.765100	5585.553091
757.092515	5577.068829
757.419882	5623.896107
757.747203	5608.177790
758.074477	5673.158263
758.401703	5659.937837
758.728882	5608.354230
759.056014	5656.230068
759.383099	5795.234844
759.710138	5806.264889
760.037129	5786.148164
760.364073	5795.305420
760.690970	5876.762905
761.017820	5856.288258
761.344623	5806.224560
761.671379	5906.737606
761.998088	6022.855543
762.324751	6258.935298
762.651366	6838.940213
762.977935	8121.515616
763.304456	9735.985464
763.630931	10658.153655
763.957359	10288.188415
764.283740	9362.599802
764.610074	8547.782982
764.936362	7553.901857
765.262602	6957.437575
765.588796	6422.603920
765.914943	6075.275982
766.241044	5919.317805
766.567097	5728.124484
766.893104	5471.234845
767.219064	5286.232061
767.544978	5226.446497
767.870845	5152.465044
768.196665	5043.853384
768.522438	4974.620698
768.848165	4941.162560
769.173846	4874.662179
769.499479	4834.219522
769.825066	4775.134678
770.150607	4720.478488
770.476101	4691.091082
770.801548	4693.465465
771.126949	4619.829331
771.452303	4565.205909
771.777611	4522.093961
772.102872	4539.044841
772.428087	4500.779963
772.753256	4462.812512
773.078378	4416.116304
773.403453	4349.436962
773.728482	4337.494469
774.053465	4291.579640
774.378401	4276.156229
774.703291	4280.395840
775.028135	4209.376064
775.352932	4160.605422
775.677683	4142.976507
776.002388	4165.155063
776.327046	4178.647711
776.651658	4100.847584
776.976224	4041.177966
777.300743	4046.650139
777.625216	4069.103438
777.949643	4067.008839
778.274024	4020.327754
778.598359	3970.440496
778.922647	3994.295236
779.246889	3987.290552
779.571086	3984.240654
779.895236	3974.115497
780.219339	3957.729226
780.543397	3945.501907
780.867409	3995.371522
781.191374	4014.129655
781.515294	3953.890387
781.839167	3943.571146
782.162995	3964.043271
782.486776	3951.621868
782.810511	3959.410451
783.134201	3959.070173
783.457844	3912.227772
783.781441	3857.163248
784.104993	3865.985267
784.428498	3885.242475
784.751958	3880.937330
785.075372	3857.621993
785.398739	3819.185716
785.722061	3832.595185
786.045337	3873.007595
786.368568	3908.570414
786.691752	3826.076973
787.014891	3867.991647
787.337983	3993.299608
787.661030	4152.138804
787.984031	4309.977331
788.306987	4479.387826
788.629897	4563.040733
788.952760	4518.620606
789.275579	4451.094350
789.598351	4392.861462
789.921078	4252.520780
790.243759	4054.889905
790.566395	4033.742264
790.888984	4030.031975
791.211529	3925.163372
791.534027	3861.745657
791.856480	3856.215511
792.178888	3792.984318
792.501249	3743.381885
792.823566	3751.367073
793.145836	3783.017957
793.468062	3733.256728
793.790241	3686.036240
794.112375	3717.346846
794.434464	3777.550826
794.756507	3801.574445
795.078505	3784.986528
795.400457	3815.684634
795.722364	3953.199749
796.044226	4056.440060
796.366042	4124.765338
796.687812	4109.861167
797.009538	4116.714616
797.331218	4074.542843
797.652852	4047.963359
797.974442	4028.005431
798.295986	4028.953168
798.617484	3951.868885
798.938938	3859.903115
799.260346	3899.060278
799.581709	3902.536153
799.903026	3825.976150
800.224299	3789.042136
800.545526	3780.726753
800.866708	3745.786516
801.187845	3685.436342
801.508936	3720.878174
801.829983	3722.962692
802.150984	3641.621154
802.471940	3629.431644
802.792851	3640.653252
803.113717	3639.161071
803.434538	3646.546361
803.755314	3587.423709
804.076045	3560.322466
804.396731	3579.146134
804.717372	3604.795525
805.037967	3593.082404
805.358518	3582.584201
805.679024	3605.801235
805.999485	3620.823873
806.319901	3623.306642
806.640272	3636.648055
806.960598	3652.250427
807.280879	3629.489617
807.601115	3641.180053
807.921306	3653.334275
808.241453	3696.723486
808.561554	3673.317408
808.881611	3608.899024
809.201623	3641.716936
809.521590	3654.307217
809.841513	3628.015079
810.161390	3660.215450
810.481223	3635.634783
810.801011	3578.705033
811.120755	3568.506779
811.440453	3605.276955
811.760107	3613.282307
812.079716	3571.584403
812.399281	3534.942777
812.718801	3558.522774
813.038276	3533.203578
813.357707	3532.351623
813.677093	3549.063048
813.996434	3495.893999
814.315731	3502.863394
814.634983	3509.444620
814.954191	3519.027854
815.273354	3548.276628
815.592473	3548.019530
815.911547	3552.498595
816.230577	3588.779779
816.549562	3645.485198
816.868502	3683.722350
817.187399	3706.470557
817.506250	3703.982747
817.825058	3678.547606
818.143821	3762.334103
818.462539	3868.873848
818.781213	3912.368924
819.099843	3967.148622
819.418429	4202.038665
819.736970	4445.619657
820.055466	4685.296276
820.373919	5042.494793
820.692327	5444.625115
821.010691	5868.346698
821.329011	7201.129473
821.647286	9866.329538
821.965517	14335.771168
822.283704	18341.257765
822.601847	20570.594627
822.919945	18812.938366
823.237999	16270.876045
823.556010	13828.535309
823.873976	11759.512180
824.191897	9681.863637
824.509775	8329.291813
824.827609	7208.333282
825.145398	6662.078892
825.463144	6546.008845
825.780845	6658.590414
826.098502	6834.839234
826.416116	7676.653953
826.733685	8980.939085
827.051210	10094.149363
827.368692	10172.957721
827.686129	8958.266496
828.003522	7450.127185
828.320872	6443.655778
828.638177	5749.831692
828.955439	5188.547102
829.272656	4696.545610
829.589830	4413.953649
829.906960	4238.851691
830.224046	4054.902508
830.541088	3928.616563
830.858086	3882.515211
831.175041	3809.909993
831.491952	3791.391314
831.808819	3801.871873
832.125642	3872.077502
832.442421	4013.489429
832.759157	4279.012043
833.075849	4811.120955
833.392497	5663.937992
833.709101	6432.164468
834.025662	6780.193127
834.342179	6444.918587
834.658653	5786.531292
834.975083	5146.002284
835.291469	4576.709822
835.607811	4166.969878
835.924110	4026.770349
836.240366	3832.529650
836.556578	3626.880820
836.872746	3517.659181
837.188871	3481.330105
837.504952	3413.163623
837.820990	3336.081860
838.136984	3282.701082
838.452935	3310.460196
838.768842	3306.099598
839.084706	3330.155984
839.400526	3479.293479
839.716303	3806.368582
840.032037	4316.737518
840.347727	4595.374694
840.663373	4330.825022
840.978977	3952.786375
841.294537	3647.360507
841.610054	3418.711413
841.925527	3310.732418
842.240957	3244.161461
842.556344	3190.253882
842.871687	3135.012918
843.186987	3085.009713
843.502244	3051.037378
843.817458	3016.303828
844.132629	2979.510966
844.447756	2989.270640
844.762840	2975.268835
845.077881	2946.083075
845.392879	2927.902154
845.707833	2926.089859
846.022745	2920.131215
846.337613	2921.893098
846.652438	2910.363980
846.967221	2907.533372
847.281960	2897.231774
847.596656	2891.348747
847.911309	2892.256155
848.225919	2886.196688
848.540485	2879.045811
848.855009	2882.730895
849.169490	2871.393340
849.483928	2862.294057
849.798323	2857.290712
850.112675	2856.300125
850.426984	2868.799666
850.741251	2868.451827
851.055474	2855.564117
851.369654	2850.492716
851.683792	2854.200485
851.997887	2863.123327
852.311938	2865.147350
852.625947	2855.770804
852.939914	2856.131247
853.253837	2862.946887
853.567718	2847.694876
853.881555	2844.350070
854.195350	2862.034438
854.509103	2857.452029
854.822812	2850.154959
855.136479	2846.149762
855.450103	2848.965246
855.763685	2841.272446
856.077224	2835.817917
856.390720	2854.331555
856.704173	2861.593337
857.017584	2852.133612
857.330953	2847.911645
857.644278	2861.454705
857.957561	2865.674151
858.270802	2869.865870
858.584000	2868.991230
858.897155	2859.949921
859.210268	2857.542770
859.523339	2854.021524
859.836367	2854.069415
860.149352	2847.462982
860.462295	2845.272601
860.775195	2854.502954
861.088054	2851.513550
861.400869	2833.136023
861.713642	2832.117710
862.026373	2848.156141
862.339062	2852.342819
862.651708	2855.067563
862.964312	2856.784076
863.276873	2850.487675
863.589392	2861.278265
863.901869	2873.162785
864.214303	2892.414951
864.526696	2911.420101
864.839045	2906.855337
865.151353	2905.045562
865.463619	2905.196797
865.775842	2905.945408
866.088023	2922.268664
866.400162	2930.117741
866.712258	2903.863412
867.024313	2894.108779
867.336325	2898.993657
867.648296	2920.910073
867.960224	2912.972777
868.272110	2900.238822
868.583954	2904.675038
868.895755	2919.740526
869.207515	2906.678896
869.519233	2909.524628
869.830909	2920.040474
870.142542	2929.817792
870.454134	2929.565735
870.765684	2931.385591
871.077191	2932.731579
871.388657	2939.146448
871.700081	2953.317131
872.011463	2964.095118
872.322803	2965.763740
872.634101	2964.881538
872.945357	2980.735967
873.256571	3006.249246
873.567744	3000.575428
873.878874	2989.701659
874.189963	3015.734177
874.501010	3015.953468
874.812015	3005.863598
875.122979	3008.358969
875.433900	3004.157168
875.744780	3007.433917
876.055618	3016.518077
876.366415	3011.171933
876.677169	3022.577544
876.987882	3019.701565
877.298554	3016.225690
877.609183	3032.332176
877.919771	3057.273285
878.230317	3083.646081
878.540822	3135.333032
878.851285	3172.738393
879.161707	3213.347408
879.472087	3309.623364
879.782425	3528.248124
880.092722	3955.833752
880.402977	4471.884069
880.713191	5083.507100
881.023363	6208.627104
881.333494	7474.526369
881.643583	8040.327833
881.953631	7755.129595
882.263637	7142.715103
882.573602	6571.746456
882.883526	5999.056256
883.193408	5434.860400
883.503248	4973.990553
883.813048	4670.586189
884.122806	4378.834451
884.432522	4070.459508
884.742197	3836.993592
885.051831	3644.371103
885.361424	3507.090402
885.670975	3438.422324
885.980485	3356.649768
886.289954	3278.748817
886.599382	3237.033269
886.908768	3197.634132
887.218113	3152.679642
887.527417	3098.845160
887.836680	3047.450597
888.145901	3042.472457
888.455082	3035.165305
888.764221	2984.536997
889.073319	2954.829477
889.382376	2952.646658
889.691392	2956.523305
890.000366	2956.120013
890.309300	2946.047787
890.618193	2955.779735
890.927044	2969.562249
891.235855	2972.188690
891.544625	2957.970116
891.853353	2967.502938
892.162041	2986.399703
892.470687	3025.093079
892.779293	3074.188877
893.087858	3120.607821
893.396381	3189.291022
893.704864	3305.401398
894.013306	3537.055020
894.321707	3831.433199
894.630068	4042.357596
894.938387	4040.134447
895.246665	3997.846728
895.554903	3879.490518
895.863100	3681.254705
896.171256	3516.895446
896.479371	3382.846124
896.787446	3261.898761
897.095480	3162.063750
897.403473	3097.151333
897.711425	3061.137329
898.019336	3052.259857
898.327207	3024.024355
898.635038	2990.813233
898.942827	2975.969556
899.250576	2963.689305
899.558284	2932.010694
899.865952	2910.749628
900.173579	2890.363202
900.481165	2885.536297
900.788711	2874.014740
901.096216	2850.974146
901.403681	2836.042248
901.711105	2843.193125
902.018489	2842.373938
902.325832	2841.826972
902.633135	2849.960874
902.940397	2881.619320
903.247619	2961.224181
903.554800	3148.298879
903.861941	3482.892863
904.169041	3902.324425
904.476101	4200.876679
904.783121	4163.189013
905.090100	3925.758228
905.397039	3655.764111
905.703938	3406.874784
906.010796	3225.741085
906.317614	3115.531379
906.624391	3023.530322
906.931129	2954.340485
907.237826	2894.721279
907.544483	2846.734536
907.851099	2817.916780
908.157675	2797.507668
908.464211	2779.914042
908.770707	2767.018770
909.077163	2753.712644
909.383578	2736.708832
909.689954	2727.107955
909.996289	2725.840105
910.302584	2722.916236
910.608839	2726.976885
910.915054	2720.138560
911.221229	2712.987683
911.527363	2714.951212
911.833458	2723.218705
912.139513	2726.555949
912.445527	2728.343038
912.751502	2738.901734
913.057436	2746.740729
913.363331	2757.985022
913.669186	2778.845317
913.975000	2810.491160
914.280775	2873.838299
914.586510	2942.375307
914.892205	3018.592512
915.197859	3142.574649
915.503475	3330.445850
915.809050	3538.877397
916.114585	3686.431970
916.420081	3708.751679
916.725536	3649.518121
917.030952	3535.159546
917.336328	3408.737490
917.641665	3280.293931
917.946961	3180.098478
918.252218	3112.693210
918.557435	3038.550440
918.862612	2977.207159
919.167750	2928.348296
919.472848	2889.665002
919.777906	2863.345138
920.082925	2841.169102
920.387904	2810.304637
920.692843	2790.823098
920.997743	2780.128291
921.302603	2770.466919
921.607423	2758.254724
921.912204	2746.897004
922.216946	2737.097001
922.521647	2727.332286
922.826310	2719.705021
923.130932	2710.383927
923.435516	2706.114070
923.740059	2696.263655
924.044564	2688.880885
924.349028	2684.782427
924.653454	2678.196160
924.957840	2670.301713
925.262186	2668.212155
925.566493	2664.940446
925.870761	2660.509272
926.174989	2655.311842
926.479178	2649.703558
926.783328	2645.731129
927.087438	2644.687610
927.391509	2645.300110
927.695541	2641.345325
927.999533	2635.432052
928.303486	2635.003554
928.607400	2635.953811
928.911275	2635.033801
929.215110	2633.826444
929.518906	2631.351238
929.822663	2631.623460
930.126381	2631.936012
930.430060	2627.726648
930.733699	2627.472070
931.037299	2631.802421
931.340861	2632.666979
931.644383	2633.718059
931.947866	2634.088584
932.251309	2631.126906
932.554714	2632.598923
932.858080	2629.123048
933.161407	2626.630197
933.464694	2625.415279
933.767943	2622.456122
934.071153	2626.186576
934.374323	2624.182717
934.677455	2625.231277
934.980548	2622.703138
935.283602	2624.880917
935.586617	2622.569548
935.889593	2621.261368
936.192530	2620.215329
936.495428	2620.560648
936.798287	2623.698766
937.101108	2629.213788
937.403890	2633.400467
937.706632	2635.517751
938.009336	2644.750625
938.312002	2652.861841
938.614628	2663.163439
938.917216	2663.586896
939.219765	2665.822648
939.522275	2666.311640
939.824747	2662.339210
940.127179	2662.006494
940.429573	2659.362409
940.731929	2654.722027
941.034246	2651.170534
941.336524	2649.572488
941.638763	2646.867909
941.940964	2646.134421
942.243126	2643.727270
942.545250	2643.908752
942.847335	2640.705099
943.149381	2636.762916
943.451389	2633.345014
943.753359	2629.415435
944.055290	2628.326545
944.357182	2627.885444
944.659036	2626.184055
944.960851	2627.109107
945.262628	2622.816564
945.564367	2625.274127
945.866067	2624.167593
946.167729	2625.168262
946.469352	2626.499127
946.770937	2624.706997
947.072484	2621.861266
947.373992	2623.739095
947.675462	2620.792541
947.976893	2616.696603
948.278286	2617.483023
948.579641	2618.128291
948.880958	2611.466406
949.182236	2617.558641
949.483476	2613.994545
949.784678	2615.781634
950.085841	2615.363218
950.386967	2615.973198
950.688054	2617.661984
950.989103	2618.380349
951.290114	2621.561317
951.591087	2620.273302
951.892021	2623.565176
952.192917	2628.571041
952.493776	2627.628346
952.794596	2628.949128
953.095378	2627.887965
953.396122	2627.373767
953.696828	2624.807820
953.997496	2625.536267
954.298126	2621.488220
954.598718	2620.006121
954.899272	2617.039402
955.199788	2615.453959
955.500266	2610.770727
955.800706	2613.132508
956.101108	2607.521703
956.401472	2604.542382
956.701798	2606.702516
957.002087	2602.795622
957.302337	2600.877463
957.602550	2601.893255
957.902724	2598.596341
958.202861	2597.822523
958.502960	2598.293871
958.803022	2596.116093
959.103045	2594.586103
959.403031	2595.216247
959.702979	2594.649117
960.002889	2593.046030
960.302762	2593.202306
960.602596	2595.279261
960.902393	2589.910432
961.202153	2594.981833
961.501875	2590.056626
961.801559	2594.197934
962.101205	2587.488158
962.400814	2591.082501
962.700385	2591.211050
962.999918	2585.620411
963.299414	2586.185020
963.598873	2587.047057
963.898293	2583.878692
964.197677	2590.391863
964.497022	2587.220977
964.796331	2588.370360
965.095601	2586.772314
965.394835	2588.012438
965.694030	2587.513364
965.993189	2589.809609
966.292309	2587.084866
966.591393	2589.562593
966.890439	2589.996132
967.189447	2588.960175
967.488419	2587.725092
967.787353	2587.881368
968.086249	2588.849270
968.385108	2587.823395
968.683930	2588.398086
968.982714	2589.799527
969.281462	2588.151070
969.580172	2587.712489
969.878844	2589.880186
970.177480	2591.425299
970.476078	2590.263313
970.774639	2587.430185
971.073162	2590.222984
971.371649	2588.380442
971.670098	2589.096286
971.968510	2588.183837
972.266885	2588.914805
972.565223	2589.245000
972.863524	2587.145360
973.161788	2589.446646
973.460014	2587.508323
973.758204	2588.304825
974.056356	2586.800041
974.354471	2591.085021
974.652550	2587.951944
974.950591	2591.004363
975.248595	2586.502612
975.546563	2589.018148
975.844493	2584.801223
976.142386	2588.042685
976.440243	2587.644434
976.738062	2586.956316
977.035845	2588.491348
977.333590	2586.878178
977.631299	2584.975143
977.928971	2582.192426
978.226606	2581.980697
978.524204	2584.738209
978.821765	2580.314596
979.119290	2586.260637
979.416777	2583.520770
979.714228	2585.464135
980.011642	2586.144691
980.309020	2584.907087
980.606360	2585.562437
980.903664	2589.497058
981.200931	2586.394228
981.498162	2587.447829
981.795356	2588.844228
982.092513	2589.103848
982.389633	2590.590988
982.686717	2596.771443
982.983764	2600.038111
983.280775	2601.464757
983.577749	2603.554315
983.874686	2601.613471
984.171587	2599.072730
984.468451	2598.026690
984.765279	2594.775146
985.062070	2595.554004
985.358824	2591.700042
985.655543	2588.839187
985.952224	2590.157449
986.248869	2587.626790
986.545478	2588.899681
986.842050	2588.138467
987.138586	2586.159814
987.435086	2588.042685
987.731549	2582.184864
988.027975	2583.949268
988.324366	2583.271233
988.620719	2584.264340
988.917037	2583.820719
989.213318	2584.536563
989.509563	2582.930955
989.805772	2584.433219
990.101944	2584.032447
990.398080	2581.738722
990.694180	2580.987590
990.990244	2582.152097
991.286271	2583.951789
991.582262	2584.231573
991.878217	2579.966757
992.174136	2584.813826
992.470019	2583.452714
992.765865	2580.556572
993.061676	2578.610686
993.357450	2579.329051
993.653188	2577.184040
993.948890	2583.792992
994.244556	2581.625296
994.540186	2583.387179
994.835780	2582.056315
995.131337	2582.832652
995.426859	2582.837694
995.722345	2586.424475
996.017795	2583.598908
996.313208	2587.137798
996.608586	2584.811305
996.903928	2586.608477
997.199234	2586.215267
997.494504	2587.609146
997.789738	2588.168714
998.084936	2585.459094
998.380099	2585.282653
998.675225	2585.597725
998.970316	2581.325348
999.265371	2583.878692
999.560390	2580.886767
999.855373	2583.470358
1000.150320	2583.813157
1000.445232	2583.067066
1000.740108	2583.311562
1001.034948	2584.274423
1001.329752	2583.004052
1001.624521	2581.743763
1001.919254	2579.684452
1002.213951	2584.052612
1002.508613	2583.525811
1002.803239	2579.049267
1003.097829	2579.810481
1003.392384	2581.499267
1003.686903	2581.418609
1003.981386	2582.759556
1004.275834	2581.496747
1004.570246	2582.694021
1004.864623	2579.329051
1005.158964	2578.797209
1005.453270	2579.447518
1005.747540	2582.681418
1006.041775	2580.513722
1006.335974	2579.944071
1006.630138	2579.744946
1006.924266	2580.342323
1007.218359	2579.530697
1007.512416	2577.166396
1007.806438	2575.003741
1008.100425	2577.335274
1008.394376	2576.006930
1008.688292	2578.111612
1008.982172	2577.801581
1009.276017	2579.886098
1009.569827	2581.214442
1009.863602	2581.216963
1010.157341	2578.988773
1010.451045	2581.307703
1010.744714	2583.503126
1011.038347	2578.731674
1011.331945	2578.451890
1011.625508	2579.510532
1011.919036	2578.474575
1012.212528	2578.913155
1012.505986	2577.685634
1012.799408	2578.109091
1013.092795	2579.182857
1013.386147	2580.264185
1013.679464	2582.215111
1013.972745	2581.249730
1014.265992	2576.720253
1014.559204	2580.392734
1014.852380	2579.825604
1015.145521	2580.735532
1015.438628	2579.495409
1015.731699	2574.025757
1016.024736	2580.160841
1016.317737	2580.402816
1016.610703	2578.398958
1016.903635	2579.162693
1017.196531	2581.572364
1017.489393	2579.437435
1017.782219	2576.899214
1018.075011	2578.701427
1018.367768	2578.585480
1018.660490	2577.660429
1018.953177	2577.660429
1019.245829	2577.660429
