Dividing Wavelength (nm)	Counts (n)	Blue Motor Position (mm): 11.700000	Red Motor Position (mm): 0.000000	
326.493990	2160.487304
326.888308	2160.487304
327.282561	2160.487304
327.676750	2120.442898
328.070874	2117.640017
328.464933	2120.367281
328.858929	2122.842488
329.252859	2126.386419
329.646726	2135.647018
330.040528	2149.777373
330.434265	2161.248518
330.827938	2177.652433
331.221547	2198.086750
331.615091	2215.209029
332.008571	2234.859447
332.401986	2249.826632
332.795338	2271.828748
333.188625	2290.906995
333.581847	2305.181022
333.975006	2324.254228
334.368100	2341.111846
334.761129	2358.375278
335.154095	2378.466796
335.546996	2398.558315
335.939833	2422.506316
336.332606	2436.745055
336.725315	2449.022785
337.117960	2463.372430
337.510540	2478.120325
337.903056	2485.137612
338.295508	2493.697491
338.687896	2502.912720
339.080220	2508.349604
339.472480	2517.988291
339.864676	2524.806451
340.256807	2528.743592
340.648875	2533.567977
341.040879	2534.059489
341.432818	2537.537885
341.824694	2539.435880
342.216506	2541.535520
342.608253	2539.882022
342.999937	2539.561908
343.391557	2545.066848
343.783113	2540.756662
344.174605	2540.144162
344.566033	2538.349511
344.957397	2538.016795
345.348697	2539.246836
345.739934	2535.813811
346.131106	2533.414221
346.522215	2533.845240
346.913260	2532.713501
347.304241	2530.134951
347.695159	2524.662778
348.086012	2526.684281
348.476802	2523.203364
348.867528	2517.590039
349.258191	2514.328413
349.648789	2514.736746
350.039324	2511.898577
350.429796	2514.068793
350.820203	2515.152642
351.210548	2514.018382
351.600828	2510.232475
351.991045	2510.663494
352.381198	2511.707013
352.771288	2511.505367
353.161314	2506.635612
353.551276	2508.788185
353.941175	2509.597290
354.331010	2509.108298
354.720782	2506.910355
355.110490	2508.142917
355.500135	2506.179388
355.889717	2508.011847
356.279235	2503.061434
356.668689	2510.429080
357.058080	2507.908503
357.447408	2508.185767
357.836672	2504.354490
358.225873	2508.768020
358.615010	2509.007475
359.004084	2509.942609
359.393095	2507.961436
359.782043	2509.463699
360.170927	2510.822290
360.559748	2510.945799
360.948505	2510.537465
361.337199	2511.399502
361.725830	2512.813546
362.114398	2512.087620
362.502903	2511.621313
362.891344	2514.560306
363.279722	2511.379338
363.668037	2513.355470
364.056289	2516.927128
364.444478	2514.711541
364.832603	2518.010976
365.220665	2514.260357
365.608665	2516.309586
365.996601	2518.673887
366.384474	2518.071470
366.772284	2517.882426
367.160031	2519.482993
367.547715	2520.866789
367.935336	2519.341840
368.322893	2517.494257
368.710388	2515.750018
369.097820	2518.394103
369.485189	2516.881757
369.872495	2518.346212
370.259738	2523.553724
370.646918	2520.312263
371.034035	2520.284536
371.421090	2520.413086
371.808081	2524.209074
372.195010	2522.709331
372.581875	2521.960720
372.968678	2521.832170
373.355418	2523.951976
373.742096	2523.677233
374.128710	2523.364681
374.515262	2523.362161
374.901751	2527.125382
375.288177	2525.552542
375.674540	2524.486338
376.060841	2527.969775
376.447079	2523.785618
376.833254	2526.275948
377.219367	2524.095648
377.605417	2525.975999
377.991404	2526.275947
378.377329	2526.374250
378.763191	2524.284692
379.148991	2525.645803
379.534727	2526.286030
379.920402	2527.170752
380.306013	2528.073119
380.691563	2528.612522
381.077049	2528.305012
381.462474	2525.812161
381.847835	2529.280475
382.233134	2527.374919
382.618371	2529.973634
383.003545	2530.150074
383.388657	2525.925587
383.773706	2528.088242
384.158693	2528.042872
384.543618	2527.632018
384.928480	2529.840043
385.313280	2529.988757
385.698017	2528.983047
386.082692	2528.317615
386.467305	2530.155115
386.851856	2531.909437
387.236344	2530.727286
387.620770	2527.654703
388.005133	2527.430372
388.389435	2527.616894
388.773674	2527.500948
389.157851	2531.569159
389.541965	2533.205013
389.926018	2531.548994
390.310008	2531.221319
390.693936	2533.368851
391.077802	2532.451361
391.461606	2531.291896
391.845348	2533.222658
392.229027	2533.421783
392.612645	2531.470857
392.996200	2535.687782
393.379694	2533.883049
393.763125	2533.346166
394.146494	2534.152750
394.529801	2536.345652
394.913047	2537.268183
395.296230	2535.990251
395.679351	2535.755837
396.062410	2536.315405
396.445408	2538.692309
396.828343	2536.083512
397.211217	2535.395395
397.594028	2536.421270
397.976778	2536.307844
398.359466	2538.241126
398.742092	2535.796167
399.124656	2538.667104
399.507158	2536.244829
399.889598	2536.416228
400.271977	2535.770961
400.654294	2539.282124
401.036549	2537.386651
401.418742	2538.316743
401.800874	2535.879346
402.182944	2539.738349
402.564952	2537.487474
402.946898	2537.779861
403.328783	2539.435880
403.710606	2538.278935
404.092367	2538.397402
404.474067	2538.941847
404.855705	2538.452855
405.237282	2538.145344
405.618797	2541.545603
406.000250	2539.836651
406.381642	2538.339429
406.762972	2539.755993
407.144240	2536.466640
407.525447	2537.283307
407.906593	2536.567463
408.287677	2540.171888
408.668700	2541.177598
409.049661	2541.807743
409.430560	2540.552495
409.811399	2539.617361
410.192176	2541.598535
410.572891	2541.964018
410.953545	2542.548792
411.334138	2541.830428
411.714669	2542.263967
412.095139	2541.245654
412.475547	2542.326981
412.855894	2542.364790
413.236180	2540.592824
413.616405	2541.598535
413.996568	2544.267826
414.376670	2542.145500
414.756711	2543.672969
415.136691	2544.829914
415.516609	2544.484595
415.896466	2545.724719
416.276262	2545.023999
416.655997	2542.440407
417.035670	2546.924514
417.415283	2546.007024
417.794834	2544.182126
418.174324	2544.797147
418.553753	2543.657846
418.933121	2544.608103
419.312428	2546.188505
419.691674	2543.010058
420.070859	2544.792106
420.449983	2543.975439
420.829045	2542.982331
421.208047	2546.715306
421.586988	2544.913093
421.965867	2546.606921
422.344686	2547.050543
422.723444	2547.617672
423.102141	2544.832435
423.480777	2545.064328
423.859352	2545.097095
424.237866	2546.433001
424.616319	2546.914431
424.994712	2546.082641
425.373044	2546.322096
425.751314	2545.288659
426.129524	2543.521735
426.507673	2547.718495
426.885762	2543.020140
427.263789	2547.494164
427.641756	2547.234545
428.019662	2545.437373
428.397508	2549.480379
428.775292	2548.051212
429.153016	2548.699000
429.530679	2547.025337
429.908282	2548.514998
430.285824	2549.659340
430.663305	2546.979966
431.040726	2546.864020
431.418086	2547.995759
431.795385	2547.007693
432.172624	2548.041129
432.549802	2549.797971
432.926920	2545.777651
433.303977	2549.631613
433.680974	2552.033723
434.057910	2549.233362
434.434786	2550.788558
434.811601	2550.607077
435.188355	2548.837632
435.565050	2549.291335
435.941683	2548.242775
436.318257	2550.886861
436.694770	2548.262940
437.071222	2552.341233
437.447614	2550.430636
437.823946	2551.932900
438.200218	2551.267468
438.576429	2548.199926
438.952580	2552.421892
439.328670	2553.059598
439.704700	2549.649257
440.080670	2550.927190
440.456580	2549.112374
440.832429	2549.056922
441.208218	2550.455842
441.583947	2552.333672
441.959616	2549.097251
442.335224	2551.864844
442.710773	2552.530277
443.086261	2550.823846
443.461689	2550.997766
443.837057	2551.529608
444.212365	2551.716130
444.587612	2549.687066
444.962800	2548.550286
445.337927	2552.406768
445.712995	2547.514329
446.088002	2553.036913
446.462949	2550.733105
446.837837	2552.812581
447.212664	2552.421892
447.587431	2554.219063
447.962139	2553.674619
448.336786	2551.491799
448.711374	2552.361398
449.085901	2553.064639
449.460369	2552.071532
449.834776	2552.300904
450.209124	2555.219732
450.583412	2553.956923
450.957640	2553.561193
451.331808	2550.377704
451.705917	2553.228477
452.079965	2554.450956
452.453954	2554.045143
452.827883	2554.534135
453.201752	2556.999260
453.575562	2553.616645
453.949311	2555.910370
454.323001	2554.413148
454.696632	2556.086811
455.070202	2555.199568
455.443713	2553.898950
455.817164	2556.064126
456.190556	2554.221584
456.563888	2556.049002
456.937160	2555.575134
457.310373	2557.301729
457.683526	2555.935576
458.056619	2555.365926
458.429653	2556.013714
458.802628	2557.019424
459.175542	2554.922304
459.548398	2555.222253
459.921194	2555.353323
460.293930	2555.736451
460.666607	2555.106306
461.039224	2555.713765
461.411782	2557.425237
461.784280	2556.918601
462.156719	2557.589075
462.529099	2558.012532
462.901419	2555.406255
463.273680	2553.883827
463.645882	2552.517674
464.018024	2553.316697
464.390106	2553.409958
464.762130	2558.725855
465.134094	2553.384752
465.505999	2558.173848
465.877845	2558.594785
466.249631	2556.946327
466.621358	2559.209806
466.993026	2557.957079
467.364634	2563.865311
467.736184	2560.336503
468.107674	2556.462377
468.479105	2558.216698
468.850477	2559.555125
469.221790	2559.114024
469.593043	2557.301729
469.964238	2559.734086
470.335373	2559.494631
470.706449	2558.811554
471.077467	2557.997408
471.448425	2559.424055
471.819324	2560.457491
472.190164	2561.503531
472.560945	2560.412121
472.931667	2562.179045
473.302330	2562.854560
473.672934	2562.514282
474.043479	2559.161915
474.413965	2559.441699
474.784393	2560.298695
475.154761	2563.731721
475.525070	2561.775753
475.895321	2561.518654
476.265513	2563.157029
476.635645	2561.538819
477.005719	2560.124775
477.375734	2562.539488
477.745691	2562.194169
478.115588	2562.294992
478.485427	2560.757440
478.855207	2564.775239
479.224928	2566.000240
479.594591	2565.927143
479.964194	2563.585527
480.333739	2567.507545
480.703226	2565.629715
481.072653	2567.578121
481.442022	2565.780950
481.811333	2562.075702
482.180584	2564.518141
482.549777	2564.445044
482.918912	2563.953531
483.287988	2566.726166
483.657005	2563.850188
484.025964	2566.083419
484.394864	2565.186093
484.763706	2564.828172
485.132489	2564.881104
485.501213	2566.257339
485.869879	2565.982596
486.238487	2567.023594
486.607036	2566.227092
486.975527	2565.503686
487.343959	2562.110990
487.712333	2568.414953
488.080648	2561.944632
488.448905	2568.256156
488.817104	2565.307081
489.185244	2567.943605
489.553326	2567.401681
489.921350	2567.943605
490.289315	2568.856053
490.657222	2570.776733
491.025070	2571.237999
491.392861	2571.084243
491.760593	2571.104408
492.128267	2568.006619
492.495883	2567.416804
492.863440	2568.891342
493.230939	2567.593244
493.598380	2567.739438
493.965763	2569.481157
494.333088	2569.677762
494.700354	2568.987123
495.067563	2569.219017
495.434713	2568.717422
495.801805	2570.529717
496.168839	2568.664490
496.535815	2568.876218
496.902733	2568.273800
497.269593	2570.373441
497.636395	2569.125755
498.003139	2571.744635
498.369825	2569.662638
498.736453	2568.636763
499.103023	2568.243553
499.469535	2568.397308
499.835989	2569.163564
500.202385	2568.992165
500.568723	2561.876576
500.935003	2565.538974
501.301226	2564.354303
501.667390	2566.426217
502.033497	2573.564491
502.399546	2571.515262
502.765537	2570.970817
503.131470	2569.944943
503.497345	2568.425035
503.863163	2566.642987
504.228923	2570.035683
504.594625	2571.933678
504.960269	2570.340673
505.325856	2568.175498
505.691385	2569.352607
506.056856	2571.661456
506.422270	2569.924778
506.787625	2569.672720
507.152924	2570.083574
507.518164	2570.161712
507.883347	2569.352607
508.248472	2572.891497
508.613540	2571.631209
508.978550	2571.648853
509.343503	2574.406364
509.708398	2572.578946
510.073236	2573.075499
510.438016	2572.805798
510.802738	2573.319995
511.167403	2574.214800
511.532010	2574.073648
511.896561	2573.904769
512.261053	2575.212948
512.625488	2576.498443
512.989866	2576.808474
513.354186	2575.616241
513.718449	2576.921900
514.082655	2575.419636
514.446803	2577.526838
514.810894	2578.799729
515.174927	2578.187229
515.538904	2578.686303
515.902822	2580.246541
516.266684	2578.227558
516.630488	2577.257136
516.994235	2578.562795
517.357925	2578.991293
517.721558	2582.220152
518.085133	2579.941551
518.448651	2579.419791
518.812112	2578.222517
519.175516	2581.307703
519.538863	2577.872157
519.902152	2584.352560
520.265385	2584.992787
520.628560	2586.979002
520.991678	2587.760380
521.354739	2583.510688
521.717743	2587.553693
522.080690	2589.396235
522.443580	2587.548652
522.806413	2590.076791
523.169189	2589.343303
523.531908	2591.752974
523.894569	2591.097624
524.257174	2593.018304
524.619722	2594.492841
524.982213	2594.339086
525.344647	2592.909919
525.707025	2596.342945
526.069345	2595.732965
526.431608	2595.942173
526.793815	2597.454519
527.155964	2599.309664
527.518057	2597.762030
527.880093	2598.462750
528.242072	2602.611620
528.603995	2601.626074
528.965860	2602.707402
529.327669	2602.656990
529.689421	2604.224789
530.051117	2604.272680
530.412755	2605.974069
530.774337	2607.509101
531.135862	2604.413832
531.497331	2606.730242
531.858743	2607.630088
532.220098	2610.727877
532.581396	2610.624534
532.942638	2610.990017
533.303824	2610.851386
533.664953	2610.536313
534.026025	2609.490274
534.387040	2610.453134
534.747999	2612.005810
535.108902	2613.871037
535.469748	2615.088475
535.830537	2616.505040
536.191270	2619.812037
536.551947	2611.925151
536.912567	2614.806171
537.273131	2618.093003
537.633638	2615.706017
537.994089	2618.569392
538.354483	2619.428909
538.714821	2621.730196
539.075103	2623.189610
539.435328	2621.183230
539.795497	2623.532408
540.155609	2625.334621
540.515665	2623.499641
540.875665	2624.538118
541.235609	2625.127933
541.595496	2626.121041
541.955328	2626.095835
542.315102	2627.681278
542.674821	2627.477111
543.034483	2628.084570
543.394090	2629.513737
543.753640	2629.942235
544.113134	2632.382154
544.472571	2632.603964
544.831953	2632.036835
545.191278	2632.682102
545.550548	2633.821403
545.909761	2633.723101
546.268918	2633.816362
546.628019	2638.852475
546.987064	2636.823410
547.346053	2634.012967
547.704986	2634.796866
548.063863	2640.740387
548.422684	2637.493884
548.781449	2637.398102
549.140158	2637.687968
549.498811	2637.582104
549.857408	2637.899697
550.215949	2639.666621
550.574434	2639.165026
550.932864	2642.963536
551.291237	2642.706437
551.649555	2643.293731
552.007817	2642.136786
552.366022	2644.342291
552.724173	2642.277939
553.082267	2644.990079
553.440305	2642.918165
553.798288	2645.095944
554.156215	2645.002682
554.514086	2644.165851
554.871902	2641.080665
555.229661	2642.547640
555.587365	2642.661066
555.945014	2648.173568
556.302606	2648.110554
556.660143	2647.684576
557.017625	2650.641213
557.375050	2647.319092
557.732421	2648.554175
558.089735	2651.412509
558.446994	2649.086017
558.804197	2652.123312
559.161345	2650.467293
559.518437	2651.258754
559.875474	2653.391162
560.232455	2652.148518
560.589381	2655.591626
560.946251	2651.732623
561.303065	2656.362922
561.659825	2659.440547
562.016528	2654.119609
562.373177	2655.299239
562.729770	2657.214878
563.086307	2659.677481
563.442789	2659.901812
563.799216	2662.056906
564.155587	2659.175886
564.511904	2662.992040
564.868164	2661.913233
565.224370	2661.835095
565.580520	2661.756957
565.936615	2667.239212
566.292654	2660.209323
566.648638	2666.190652
567.004567	2663.259221
567.360441	2670.122752
567.716260	2664.438851
568.072023	2669.585869
568.427732	2667.604696
568.783385	2668.403718
569.138982	2671.075530
569.494525	2672.605520
569.850013	2670.851199
570.205445	2674.538803
570.560823	2675.095850
570.916145	2673.170129
571.271412	2673.041580
571.626625	2678.952333
571.981782	2678.796057
572.336884	2677.407219
572.691931	2676.804801
573.046923	2676.794719
573.401860	2674.483350
573.756743	2683.892664
574.111570	2686.105730
574.466342	2685.823426
574.821059	2686.695545
575.175722	2686.040195
575.530330	2687.250072
575.884882	2692.727286
576.239380	2694.358099
576.593823	2695.583099
576.948211	2695.991433
577.302544	2698.645600
577.656823	2695.583099
578.011047	2700.168029
578.365216	2701.609799
578.719330	2703.535520
579.073389	2703.248174
579.427394	2710.038608
579.781344	2705.299923
580.135239	2711.833259
580.489080	2711.550954
580.842866	2712.922148
581.196597	2721.910525
581.550273	2722.132336
581.903895	2725.787173
582.257463	2731.279510
582.610975	2728.615260
582.964434	2736.222361
583.317837	2738.889132
583.671186	2743.998341
584.024481	2749.899012
584.377721	2747.181830
584.730906	2750.299783
585.084037	2756.182810
585.437113	2760.460229
585.790135	2767.081784
586.143103	2766.181938
586.496016	2767.212854
586.848874	2774.913217
587.201679	2777.499329
587.554428	2781.749022
587.907124	2789.310752
588.259765	2792.698408
588.612352	2802.503452
588.964884	2802.195942
589.317362	2808.043680
589.669786	2815.449135
590.022155	2820.402069
590.374470	2827.739468
590.726731	2833.199038
591.078937	2831.976558
591.431090	2843.127590
591.783188	2844.092971
592.135232	2848.493898
592.487222	2857.265506
592.839157	2866.180787
593.191038	2871.899976
593.542866	2873.185470
593.894639	2879.635626
594.246358	2893.907133
594.598022	2896.054664
594.949633	2900.826117
595.301190	2907.054462
595.652692	2916.287335
596.004141	2924.937955
596.355535	2924.075918
596.706876	2933.850715
597.058162	2940.646191
597.409395	2948.868313
597.760573	2957.350054
598.111698	2963.936322
598.462768	2971.946715
598.813785	2980.819146
599.164748	2986.286277
599.515657	2996.335817
599.866511	3002.559122
600.217312	3017.541431
600.568060	3014.914990
600.918753	3039.089843
601.269392	3049.731719
601.619978	3047.034702
601.970510	3071.058320
602.320988	3079.724064
602.671412	3098.532609
603.021783	3105.859926
603.372100	3110.016357
603.722363	3128.782052
604.072572	3140.772437
604.422728	3155.923625
604.772830	3166.041220
605.122878	3169.353258
605.472872	3188.854962
605.822813	3205.820965
606.172701	3217.219014
606.522534	3239.815986
606.872314	3253.038933
607.222041	3259.040427
607.571714	3287.323820
607.921333	3294.535191
608.270899	3320.786999
608.620411	3351.588449
608.969870	3346.849765
609.319276	3370.351624
609.668627	3399.882703
610.017926	3428.587033
610.367171	3450.475723
610.716362	3482.492091
611.065500	3486.023420
611.414585	3514.110208
611.763616	3534.022766
612.112594	3556.985222
612.461518	3567.422931
612.810389	3601.579269
613.159207	3611.671659
613.507971	3627.493320
613.856682	3683.490457
614.205340	3703.624825
614.553945	3750.323554
614.902496	3743.762492
615.250994	3796.039258
615.599439	3816.029953
615.947830	3838.614323
616.296169	3861.362529
616.644454	3899.516502
616.992686	3914.355138
617.340864	3971.683140
617.688990	3993.239114
618.037063	4047.517217
618.385082	4064.969692
618.733048	4121.952374
619.080961	4140.526506
619.428821	4188.961912
619.776628	4219.891911
620.124382	4234.349941
620.472083	4275.881487
620.819731	4311.124193
621.167326	4300.739416
621.514868	4323.401923
621.862357	4330.852749
622.209793	4349.000903
622.557176	4364.257955
622.904506	4357.638920
623.251783	4373.982340
623.599007	4390.635792
623.946179	4404.698091
624.293297	4425.331533
624.640363	4427.214404
624.987376	4447.673927
625.334336	4444.808031
625.681243	4455.281028
626.028097	4480.249863
626.374899	4523.944064
626.721647	4515.442158
627.068343	4527.843397
627.414987	4551.627561
627.761577	4596.012400
628.108115	4635.179645
628.454600	4612.244915
628.801032	4651.162623
629.147412	4678.813352
629.493739	4716.339701
629.840014	4732.788986
630.186236	4771.656282
630.532405	4774.328094
630.878521	4841.763609
631.224585	4859.750446
631.570597	4879.645359
631.916556	4903.484976
632.262462	4932.280047
632.608316	4971.822857
632.954117	4992.176516
633.299866	5028.603894
633.645562	5050.232964
633.991206	5026.232031
634.336797	5019.073592
634.682336	5064.025561
635.027823	5055.780754
635.373257	5080.638684
635.718639	5069.177620
636.063968	5093.120581
636.409245	5079.421245
636.754470	5106.666161
637.099642	5113.701091
637.444762	5082.193880
637.789829	5132.267661
638.134845	5127.140807
638.479808	5160.256147
638.824719	5178.575700
639.169577	5172.206202
639.514383	5211.164239
639.859137	5203.521850
640.203839	5255.281897
640.548489	5235.240790
640.893086	5285.138131
641.237632	5255.478502
641.582125	5345.889076
641.926566	5335.015307
642.270955	5357.602197
642.615292	5383.541454
642.959576	5414.494138
643.303809	5460.945850
643.647990	5464.373835
643.992118	5530.430594
644.336195	5476.923787
644.680219	5565.421243
645.024192	5599.446511
645.368112	5680.420045
645.711981	5745.145940
646.055797	5821.332898
646.399562	5855.103587
646.743274	5955.873732
647.086935	6096.844558
647.430544	6120.880780
647.774101	6158.160112
648.117606	6266.386124
648.461059	6259.706595
648.804460	6322.398384
649.147810	6273.766373
649.491108	6244.119347
649.834354	6301.376773
650.177548	6230.523355
650.520690	6202.953285
650.863781	6206.386311
651.206820	6242.574234
651.549807	6223.828703
651.892742	6192.787798
652.235626	6197.264343
652.578458	6231.755917
652.921238	6156.433517
653.263967	6251.693681
653.606644	6229.973870
653.949269	6235.577112
654.291843	6221.537499
654.634365	6283.846160
654.976836	6279.465397
655.319255	6311.312887
655.661622	6334.545044
656.003938	6331.394323
656.346203	6333.027657
656.688416	6383.214864
657.030577	6400.637092
657.372687	6408.450880
657.714746	6423.841523
658.056753	6511.870152
658.398708	6502.362535
658.740612	6517.473394
659.082465	6593.325115
659.424266	6585.463436
659.766016	6633.608976
660.107715	6636.842876
660.449362	6678.336613
660.790958	6711.141922
661.132503	6716.477983
661.473996	6758.642194
661.815438	6805.436705
662.156829	6835.847465
662.498168	6863.162957
662.839456	6881.142233
663.180693	6918.983654
663.521879	6995.170612
663.863013	7017.868407
664.204097	7041.334978
664.545129	7116.478417
664.886110	7120.934797
665.227040	7198.908845
665.567918	7235.905873
665.908746	7284.810106
666.249522	7290.252032
666.590248	7344.265475
666.930922	7430.895183
667.271545	7456.438709
667.612118	7527.196345
667.952639	7517.862648
668.293109	7541.707306
668.633528	7557.723052
668.973896	7564.866367
669.314213	7671.960639
669.654480	7544.212760
669.994695	7601.276101
670.334859	7646.757391
670.674973	7652.584964
671.015035	7703.856020
671.355047	7706.255609
671.695008	7709.640744
672.034918	7743.935713
672.374777	7798.705329
672.714585	7782.253524
673.054342	7822.270203
673.394049	7835.331832
673.733705	7903.775578
674.073310	7895.767705
674.412864	7937.233716
674.752368	7899.316678
675.091820	7905.902945
675.431223	7960.266748
675.770574	7904.612410
676.109875	7888.914257
676.449125	7895.550936
676.788324	7885.040130
677.127473	7826.189700
677.466571	7836.314858
677.805619	7827.457550
678.144616	7800.547871
678.483562	7814.355591
678.822458	7758.116479
679.161303	7776.967874
679.500098	7802.090464
679.838842	7791.783825
680.177535	7831.931574
680.516179	7879.837659
680.854771	7874.773820
681.193314	8037.353552
681.531805	8120.540152
681.870247	8396.555928
682.208638	8636.376220
682.546978	8857.773614
682.885268	8939.447868
683.223508	8769.402187
683.561697	8710.382879
683.899836	8675.530862
684.237925	8567.569511
684.575963	8557.940907
684.913951	8537.201600
685.251889	8492.940269
685.589776	8613.060883
685.927614	8576.555368
686.265401	8553.088797
686.603137	8613.388558
686.940824	8734.303154
687.278460	8810.366604
687.616046	8876.630050
687.953582	8984.246082
688.291068	8937.081047
688.628504	9098.592054
688.965889	9112.755176
689.303224	9142.003951
689.640510	9105.828631
689.977745	8943.082540
690.314930	8813.262747
690.652065	8807.047004
690.989150	8646.846696
691.326185	8513.850976
691.663170	8415.510667
692.000105	8270.438862
692.336990	8249.162672
692.673825	8080.420130
693.010610	8038.341618
693.347345	7908.121053
693.684030	7785.852908
694.020665	7772.955115
694.357251	7647.576578
694.693786	7659.148547
695.030272	7530.508383
695.366707	7468.219886
695.703093	7440.899353
696.039429	7451.531146
696.375716	7437.834331
696.711952	7335.080492
697.048139	7379.500619
697.384276	7357.354831
697.720363	7374.585494
698.056400	7342.765731
698.392388	7327.843916
698.728326	7303.525390
699.064214	7278.206195
699.400053	7339.133580
699.735842	7206.715071
700.071581	7198.964297
700.407270	7169.707961
700.742910	7120.607122
701.078501	7076.386121
701.414042	6998.361662
701.749533	6960.888245
702.084974	6871.450614
702.420366	6963.736497
702.755709	6897.309213
703.091002	6815.158570
703.426246	6842.572364
703.761440	6821.828016
704.096584	6798.530324
704.431679	6760.804849
704.766725	6766.773575
705.101721	6736.390541
705.436668	6783.411903
705.771565	6710.673095
706.106413	6778.456449
706.441212	6834.844276
706.775961	6799.641898
707.110661	6824.673748
707.445311	6963.416384
707.779913	6883.440999
708.114465	7000.786457
708.448967	7039.913373
708.783421	7137.444576
709.117825	7292.225643
709.452180	7324.879718
709.786485	7396.993423
710.120742	7614.657843
710.454949	7612.704396
710.789107	7689.075357
711.123216	7847.786003
711.457275	7982.896488
711.791286	8110.803164
712.125247	8104.471475
712.459159	8110.210828
712.793023	8319.695976
713.126837	7997.399887
713.460602	8131.161864
713.794318	8001.422728
714.127985	8058.861635
714.461602	7844.322730
714.795171	7811.587998
715.128691	7638.391596
715.462162	7438.938344
715.795584	7419.507216
716.128957	7328.864750
716.462281	7188.690426
716.795556	7262.518124
717.128782	7106.116326
717.461960	6886.387553
717.795088	6960.018646
718.128167	6894.360138
718.461198	6768.162413
718.794180	6728.251598
719.127113	6730.878039
719.459997	6626.153109
719.792833	6428.277738
720.125619	6488.022973
720.458357	6375.277567
720.791046	6372.068873
721.123686	6394.658283
721.456278	6264.445280
721.788821	6280.221571
722.121315	6187.466860
722.453761	6245.684626
722.786158	6212.400407
723.118506	6228.416153
723.450805	6211.830757
723.783056	6277.285098
724.115259	6181.737589
724.447412	6181.427558
724.779518	6226.888683
725.111574	6238.619448
725.443582	6317.319422
725.775542	6291.455782
726.107453	6463.434745
726.439315	6391.172326
726.771129	6427.138438
727.102895	6576.759884
727.434612	6677.046078
727.766281	6695.864705
728.097901	6772.533093
728.429473	6763.007833
728.760996	6744.274906
729.092471	6735.669656
729.423897	6709.458177
729.755276	6737.973463
730.086606	6688.645773
730.417887	6769.952023
730.749120	6915.119609
731.080305	7098.262208
731.411442	7222.030097
731.742530	7230.083340
732.073570	7331.067734
732.404562	7419.754233
732.735506	7274.407685
733.066401	7411.509426
733.397249	7368.795729
733.728048	7183.936618
734.058798	6903.386324
734.389501	6726.225054
734.720156	6572.298463
735.050762	6361.227872
735.381320	6274.507423
735.711831	6246.090438
736.042293	6147.687115
736.372707	6179.040572
736.703073	6048.993926
737.033391	6085.106232
737.363661	6093.494712
737.693883	6112.288133
738.024056	6184.537950
738.354182	6235.340178
738.684260	6262.290186
739.014290	6354.140009
739.344272	6453.750689
739.674207	6474.676518
740.004093	6534.804881
740.333931	6550.278703
740.663722	6564.406536
740.993464	6640.578371
741.323159	6650.713611
741.652806	6422.409835
741.982405	6419.571666
742.311956	6499.506722
742.641460	6376.550459
742.970915	6193.390216
743.300323	6198.534714
743.629683	6153.068547
743.958996	6033.230238
744.288260	5960.357838
744.617477	5914.627011
744.946647	5935.341113
745.275768	5779.178769
745.604842	5743.711731
745.933869	5728.739504
746.262847	5686.101425
746.591778	5678.781670
746.920662	5646.573738
747.249498	5634.900946
747.578286	5683.260735
747.907027	5758.956181
748.235720	5804.253468
748.564365	5775.372698
748.892963	5794.879443
749.221514	5957.381037
749.550017	5819.026570
749.878473	5695.263722
750.206881	5738.789045
750.535242	5690.691396
750.863555	5634.923631
751.191821	5652.411394
751.520039	5658.238968
751.848210	5576.131175
752.176334	5585.966466
752.504411	5645.633563
752.832440	5575.853911
753.160421	5503.533518
753.488356	5552.480601
753.816243	5590.805973
754.144082	5453.681548
754.471875	5414.332821
754.799620	5463.670594
755.127318	5477.279189
755.454969	5428.662301
755.782572	5396.625768
756.110129	5438.724444
756.437638	5441.287871
756.765100	5380.390733
757.092515	5370.550400
757.419882	5412.956586
757.747203	5399.889916
758.074477	5463.181602
758.401703	5455.745900
758.728882	5404.447119
759.056014	5441.832316
759.383099	5583.004788
759.710138	5589.880922
760.037129	5567.631789
760.364073	5578.288788
760.690970	5657.457589
761.017820	5657.510521
761.344623	5596.406695
761.671379	5692.581828
761.998088	5803.882944
762.324751	6018.850347
762.651366	6560.716412
762.977935	7744.762463
763.304456	9262.096838
763.630931	10159.061780
763.957359	9865.621256
764.283740	9007.269032
764.610074	8251.637879
764.936362	7322.769995
765.262602	6739.442960
765.588796	6216.685388
765.914943	5881.423452
766.241044	5735.315690
766.567097	5560.448145
766.893104	5308.662675
767.219064	5135.562055
767.544978	5074.992591
767.870845	5011.637890
768.196665	4899.331065
768.522438	4831.729192
768.848165	4805.492507
769.173846	4746.581583
769.499479	4708.790573
769.825066	4653.491636
770.150607	4596.327472
770.476101	4573.838885
770.801548	4573.032300
771.126949	4509.478473
771.452303	4455.853199
771.777611	4415.105553
772.102872	4426.871606
772.428087	4392.193509
772.753256	4355.083055
773.078378	4315.908248
773.403453	4250.287548
773.728482	4237.094849
774.053465	4194.386193
774.378401	4180.470088
774.703291	4187.326058
775.028135	4122.887508
775.352932	4071.445054
775.677683	4059.305956
776.002388	4074.580652
776.327046	4090.238476
776.651658	4014.477495
776.976224	3952.501550
777.300743	3961.860452
777.625216	3980.429542
777.949643	3981.294100
778.274024	3939.510496
778.598359	3891.183475
778.922647	3908.146957
779.246889	3901.301071
779.571086	3903.521699
779.895236	3886.868247
780.219339	3872.027090
780.543397	3864.646841
780.867409	3913.977052
781.191374	3929.297118
781.515294	3872.132954
781.839167	3865.463508
782.162995	3883.694841
782.486776	3870.320660
782.810511	3880.080333
783.134201	3881.257443
783.457844	3845.825693
783.781441	3783.680869
784.104993	3790.859472
784.428498	3807.240702
784.751958	3808.490908
785.075372	3787.481899
785.398739	3751.130139
785.722061	3760.804113
786.045337	3796.981953
786.368568	3839.254549
786.691752	3753.953185
787.014891	3791.804688
787.337983	3909.097215
787.661030	4058.796799
787.984031	4215.496025
788.306987	4386.824680
788.629897	4466.280826
788.952760	4424.356070
789.275579	4357.472562
789.598351	4303.862411
789.921078	4177.379861
790.243759	3983.245026
790.566395	3952.219245
790.888984	3955.417857
791.211529	3849.006661
791.534027	3791.603042
791.856480	3790.032723
792.178888	3727.429154
792.501249	3672.306657
792.823566	3679.323943
793.145836	3715.126218
793.468062	3670.575021
793.790241	3619.044346
794.112375	3645.339005
794.434464	3703.551729
794.756507	3729.455698
795.078505	3721.271384
795.400457	3743.089498
795.722364	3874.023387
796.044226	3968.260197
796.366042	4047.045869
796.687812	4039.342986
797.009538	4046.191394
797.331218	3998.726410
797.652852	3964.189465
797.974442	3952.793937
798.295986	3957.948516
798.617484	3880.831465
798.938938	3790.625058
799.260346	3827.269206
799.581709	3829.817509
799.903026	3759.667333
800.224299	3721.594018
800.545526	3717.732494
800.866708	3685.590097
801.187845	3619.485447
801.508936	3649.530724
801.829983	3658.693021
802.150984	3578.425249
802.471940	3561.746592
802.792851	3575.531627
803.113717	3574.735124
803.434538	3581.659149
803.755314	3530.259545
804.076045	3496.786283
804.396731	3512.877646
804.717372	3540.452758
805.037967	3530.975388
805.358518	3521.220756
805.679024	3543.580794
805.999485	3555.198133
806.319901	3559.843556
806.640272	3573.086667
806.960598	3591.544852
807.280879	3563.765574
807.601115	3572.302768
807.921306	3586.309614
808.241453	3628.153711
808.561554	3608.286524
808.881611	3545.456103
809.201623	3573.603385
809.521590	3588.315993
809.841513	3560.105696
810.161390	3590.198864
810.481223	3573.673962
810.801011	3518.627082
811.120755	3505.227695
811.440453	3543.144734
811.760107	3546.113973
812.079716	3512.570136
812.399281	3476.137717
812.718801	3499.208558
813.038276	3470.158908
813.357707	3465.876448
813.677093	3487.147597
813.996434	3441.000875
814.315731	3441.550360
814.634983	3443.281997
814.954191	3456.767083
815.273354	3489.771518
815.592473	3490.767145
815.911547	3489.043071
816.230577	3521.417361
816.549562	3572.895103
816.868502	3616.901856
817.187399	3643.201555
817.506250	3641.101915
817.825058	3607.152264
818.143821	3688.760983
818.462539	3795.041109
818.781213	3842.042307
819.099843	3891.929566
819.418429	4111.565077
819.736970	4344.816745
820.055466	4571.479625
820.373919	4924.741001
820.692327	5330.009441
821.010691	5719.108380
821.329011	6964.104501
821.647286	9488.139656
821.965517	13760.623405
822.283704	17667.764652
822.601847	19990.481328
822.919945	18332.365169
823.237999	15916.170378
823.556010	13522.010470
823.873976	11532.879547
824.191897	9511.638995
824.509775	8165.131679
824.827609	7063.463123
825.145398	6511.197157
825.463144	6393.728191
825.780845	6512.638927
826.098502	6661.678120
826.416116	7443.762728
826.733685	8700.809728
827.051210	9810.960025
827.368692	9955.434453
827.686129	8798.537536
828.003522	7310.782131
828.320872	6318.879659
828.638177	5634.704341
828.955439	5096.422536
829.272656	4616.441676
829.589830	4328.516174
829.906960	4156.320441
830.224046	3980.913493
830.541088	3857.395141
830.858086	3811.054334
831.175041	3743.775095
831.491952	3714.289386
831.808819	3725.629462
832.125642	3790.778814
832.442421	3926.456428
832.759157	4178.740973
833.075849	4687.852141
833.392497	5510.538201
833.709101	6258.847078
834.025662	6623.448530
834.342179	6325.818807
834.658653	5679.404252
834.975083	5055.185898
835.291469	4500.265765
835.607811	4089.000872
835.924110	3956.456335
836.240366	3766.805607
836.556578	3562.754822
836.872746	3454.725416
837.188871	3421.249634
837.504952	3359.898792
837.820990	3279.852830
838.136984	3222.111454
838.452935	3247.831421
838.768842	3244.902511
839.084706	3269.062240
839.400526	3405.738003
839.716303	3716.567988
840.032037	4204.281978
840.347727	4487.846882
840.663373	4256.810802
840.978977	3889.411509
841.294537	3590.350098
841.610054	3364.634956
841.925527	3257.548245
842.240957	3189.936290
842.556344	3140.159937
842.871687	3084.596339
843.186987	3032.160777
843.502244	2997.409583
843.817458	2964.773153
844.132629	2930.392484
844.447756	2941.286417
844.762840	2930.281578
845.077881	2896.578944
845.392879	2881.717623
845.707833	2874.355018
846.022745	2872.764534
846.337613	2871.479039
846.652438	2861.323635
846.967221	2863.753471
847.281960	2848.977849
847.596656	2845.285204
847.911309	2841.920234
848.225919	2837.357990
848.540485	2831.321208
848.855009	2832.473112
849.169490	2826.544715
849.483928	2812.895791
849.798323	2810.186170
850.112675	2808.348670
850.426984	2821.806030
850.741251	2820.449960
851.055474	2809.810604
851.369654	2802.967238
851.683792	2809.263639
851.997887	2816.283446
852.311938	2817.624393
852.625947	2807.564770
852.939914	2810.977632
853.253837	2817.989877
853.567718	2801.102011
853.881555	2798.508337
854.195350	2811.796819
854.509103	2807.652991
854.822812	2801.843061
855.136479	2802.125365
855.450103	2803.567135
855.763685	2797.492545
856.077224	2788.836884
856.390720	2805.074440
856.704173	2814.430822
857.017584	2805.581076
857.330953	2801.941363
857.644278	2812.948723
857.957561	2819.567758
858.270802	2826.479180
858.584000	2822.899960
858.897155	2812.868064
859.210268	2810.118115
859.523339	2809.218269
859.836367	2807.375727
860.149352	2801.492701
860.462295	2799.922381
860.775195	2806.256591
861.088054	2809.714822
861.400869	2792.655558
861.713642	2785.134156
862.026373	2800.030766
862.339062	2804.073771
862.651708	2805.029070
862.964312	2813.034422
863.276873	2804.973617
863.589392	2813.190698
863.901869	2822.070691
864.214303	2844.902076
864.526696	2862.488142
864.839045	2857.903212
865.151353	2861.482431
865.463619	2854.437419
865.775842	2857.522605
866.088023	2871.166488
866.400162	2881.014382
866.712258	2854.082017
867.024313	2844.778568
867.336325	2850.717047
867.648296	2868.819831
867.960224	2864.161805
868.272110	2850.109588
868.583954	2853.252748
868.895755	2870.609440
869.207515	2857.643593
869.519233	2859.793645
869.830909	2869.492825
870.142542	2878.813918
870.454134	2879.360883
870.765684	2883.900443
871.077191	2880.422046
871.388657	2888.621483
871.700081	2900.715211
872.011463	2909.784247
872.322803	2912.829104
872.634101	2913.623086
872.945357	2927.045158
873.256571	2951.686318
873.567744	2946.617438
873.878874	2934.125458
874.189963	2961.536732
874.501010	2962.986064
874.812015	2952.518108
875.122979	2954.612708
875.433900	2946.882098
875.744780	2950.632717
876.055618	2964.594192
876.366415	2959.512709
876.677169	2970.855305
876.987882	2970.729276
877.298554	2959.663944
877.609183	2978.359063
877.919771	3001.084584
878.230317	3023.381608
878.540822	3075.887746
878.851285	3110.243209
879.161707	3147.086482
879.472087	3235.546129
879.782425	3438.813014
880.092722	3841.142461
880.402977	4344.300027
880.713191	4925.275363
881.023363	5996.326471
881.333494	7233.486119
881.643583	7807.020713
881.953631	7531.067951
882.263637	6967.592980
882.573602	6422.868580
882.883526	5864.021388
883.193408	5300.246469
883.503248	4845.136141
883.813048	4554.813570
884.122806	4285.353815
884.432522	3982.866940
884.742197	3754.941251
885.051831	3566.276068
885.361424	3435.095163
885.670975	3363.969523
885.980485	3288.707617
886.289954	3214.370762
886.599382	3174.790143
886.908768	3135.133906
887.218113	3088.999787
887.527417	3039.248639
887.836680	2990.896412
888.145901	2984.342912
888.455082	2976.443424
888.764221	2927.919798
889.073319	2900.132958
889.382376	2897.546846
889.691392	2902.824934
890.000366	2900.372413
890.309300	2888.215670
890.618193	2903.583628
890.927044	2918.250865
891.235855	2921.348654
891.544625	2901.655386
891.853353	2913.517221
892.162041	2927.957607
892.470687	2964.379943
892.779293	3017.072604
893.087858	3060.572720
893.396381	3119.269395
893.704864	3231.556056
894.013306	3451.983028
894.321707	3740.188314
894.630068	3946.981486
894.938387	3948.370324
895.246665	3903.499014
895.554903	3792.306283
895.863100	3604.876183
896.171256	3446.689817
896.479371	3315.486226
896.787446	3196.255376
897.095480	3097.632763
897.403473	3034.041128
897.711425	3002.120541
898.019336	2993.167452
898.327207	2968.052424
898.635038	2933.528082
898.942827	2918.379414
899.250576	2909.383475
899.558284	2877.903990
899.865952	2861.421938
900.173579	2841.501818
900.481165	2834.834892
900.788711	2827.068995
901.096216	2800.436579
901.403681	2786.593570
901.711105	2792.194292
902.018489	2792.620270
902.325832	2792.564817
902.633135	2798.505817
902.940397	2829.261897
903.247619	2902.280489
903.554800	3071.534709
903.861941	3384.613048
904.169041	3788.469965
904.476101	4090.624124
904.783121	4075.241043
905.090100	3845.230837
905.397039	3583.239551
905.703938	3343.517562
906.010796	3167.583813
906.317614	3059.778738
906.624391	2972.307158
906.931129	2902.567835
907.237826	2845.708661
907.544483	2799.652679
907.851099	2767.583379
908.157675	2751.181985
908.464211	2729.487380
908.770707	2721.625700
909.077163	2706.925696
909.383578	2691.658561
909.689954	2683.096161
909.996289	2678.027281
910.302584	2679.307734
910.608839	2683.333096
910.915054	2675.748680
911.221229	2673.933864
911.527363	2670.253822
911.833458	2678.947292
912.139513	2681.392251
912.445527	2687.171934
912.751502	2694.683253
913.057436	2702.464274
913.363331	2713.864844
913.669186	2732.312946
913.975000	2762.539705
914.280775	2817.667243
914.586510	2883.381204
914.892205	2956.036833
915.197859	3072.585790
915.503475	3250.931731
915.809050	3445.275773
916.114585	3589.351950
916.420081	3616.634675
916.725536	3567.622056
917.030952	3458.559213
917.336328	3336.840554
917.641665	3213.357490
917.946961	3115.715382
918.252218	3052.103582
918.557435	2978.139773
918.862612	2922.389652
919.167750	2877.253681
919.472848	2839.185408
919.777906	2812.812612
920.082925	2788.297480
920.387904	2760.659354
920.692843	2744.167220
920.997743	2734.649521
921.302603	2724.748695
921.607423	2713.327961
921.912204	2703.830427
922.216946	2691.678726
922.521647	2682.276974
922.826310	2673.538134
923.130932	2670.735252
923.435516	2661.111689
923.740059	2652.337561
924.044564	2647.558547
924.349028	2643.739873
924.653454	2635.701753
924.957840	2628.308901
925.262186	2625.077522
925.566493	2620.202726
925.870761	2618.478651
926.174989	2614.538990
926.479178	2608.406426
926.783328	2605.086826
927.087438	2601.936105
927.391509	2602.188163
927.695541	2598.745055
927.999533	2594.003849
928.303486	2589.512181
928.607400	2591.896647
928.911275	2591.500917
929.215110	2592.052923
929.518906	2589.066039
929.822663	2589.043354
930.126381	2592.370516
930.430060	2587.364650
930.733699	2589.759198
931.037299	2594.147522
931.340861	2593.149374
931.644383	2593.792121
931.947866	2592.373036
932.251309	2592.360433
932.554714	2588.264496
932.858080	2585.549834
933.161407	2586.525298
933.464694	2583.533373
933.767943	2580.027250
934.071153	2584.954978
934.374323	2583.233424
934.677455	2584.707962
934.980548	2579.989442
935.283602	2584.632344
935.586617	2582.817529
935.889593	2581.378280
936.192530	2582.358784
936.495428	2581.587487
936.798287	2582.613362
937.101108	2583.815677
937.403890	2592.221802
937.706632	2595.702718
938.009336	2600.315374
938.312002	2611.005141
938.614628	2617.856069
938.917216	2625.874024
939.219765	2625.168262
939.522275	2623.827316
939.824747	2620.984105
940.127179	2619.184413
940.429573	2615.327930
940.731929	2613.815584
941.034246	2613.059411
941.336524	2610.730398
941.638763	2605.989193
941.940964	2604.499532
942.243126	2604.401229
942.545250	2600.300251
942.847335	2599.007195
943.149381	2594.994436
943.451389	2590.800196
943.753359	2590.991760
944.055290	2588.514033
944.357182	2587.334403
944.659036	2584.801223
944.960851	2585.174268
945.262628	2583.795513
945.564367	2584.397931
945.866067	2588.372881
946.167729	2586.376584
946.469352	2587.982191
946.770937	2587.432705
947.072484	2584.377766
947.373992	2585.506985
947.675462	2583.067066
947.976893	2578.192270
948.278286	2575.775037
948.579641	2576.412743
948.880958	2570.391085
949.182236	2576.304358
949.483476	2574.318144
949.784678	2572.823442
950.085841	2574.872671
950.386967	2577.375603
950.688054	2575.775037
950.989103	2580.261664
951.290114	2579.281160
951.591087	2581.874833
951.892021	2581.791654
952.192917	2585.002869
952.493776	2587.672160
952.794596	2589.812130
953.095378	2590.462439
953.396122	2587.369691
953.696828	2588.629979
953.997496	2586.001018
954.298126	2581.852148
954.598718	2581.635378
954.899272	2577.161354
955.199788	2575.001220
955.500266	2574.983576
955.800706	2571.991651
956.101108	2570.955694
956.401472	2569.035014
956.701798	2564.263562
957.002087	2564.815569
957.302337	2565.168449
957.602550	2563.779612
957.902724	2560.270968
958.202861	2560.109652
958.502960	2559.597974
958.803022	2557.760474
959.103045	2555.779300
959.403031	2557.029507
959.702979	2556.565720
960.002889	2557.780638
960.302762	2555.590257
960.602596	2555.587737
960.902393	2554.531615
961.202153	2555.076059
961.501875	2553.977088
961.801559	2554.634958
962.101205	2549.651778
962.400814	2554.042623
962.700385	2554.985319
962.999918	2552.426933
963.299414	2547.950388
963.598873	2549.891233
963.898293	2545.928886
964.197677	2551.882488
964.497022	2551.048178
964.796331	2552.192519
965.095601	2553.906512
965.394835	2554.478683
965.694030	2551.736295
965.993189	2552.555483
966.292309	2552.593291
966.591393	2549.301418
966.890439	2550.191181
967.189447	2553.798127
967.488419	2550.261757
967.787353	2553.964485
968.086249	2549.359391
968.385108	2549.883671
968.683930	2551.695966
968.982714	2551.776624
969.281462	2552.555483
969.580172	2552.908363
969.878844	2551.572458
970.177480	2549.253527
970.476078	2552.321069
970.774639	2553.601522
971.073162	2553.220915
971.371649	2552.142108
971.670098	2553.987170
971.968510	2551.910215
972.266885	2553.644372
972.565223	2551.141439
972.863524	2551.670760
973.161788	2552.179917
973.460014	2553.843497
973.758204	2552.563044
974.056356	2553.972047
974.354471	2554.743343
974.652550	2551.002807
974.950591	2553.465411
975.248595	2551.222097
975.546563	2552.152190
975.844493	2552.668908
976.142386	2548.265461
976.440243	2552.081614
976.738062	2551.569937
977.035845	2552.167314
977.333590	2551.189330
977.631299	2552.275698
977.928971	2548.416695
978.226606	2543.587270
978.524204	2550.859134
978.821765	2545.051725
979.119290	2552.348795
979.416777	2548.860317
979.714228	2548.396531
980.011642	2548.943496
980.309020	2550.985163
980.606360	2550.463404
980.903664	2552.429454
981.200931	2552.651264
981.498162	2553.175544
981.795356	2552.439536
982.092513	2551.892571
982.389633	2558.037737
982.686717	2559.739127
982.983764	2562.640311
983.280775	2566.048131
983.577749	2565.962431
983.874686	2565.922102
984.171587	2563.507389
984.468451	2563.804817
984.765279	2559.111503
985.062070	2559.272820
985.358824	2554.541697
985.655543	2554.947510
985.952224	2552.227808
986.248869	2552.973898
986.545478	2551.375852
986.842050	2552.787376
987.138586	2549.503064
987.435086	2550.861655
987.731549	2550.770914
988.027975	2550.032385
988.324366	2546.916952
988.620719	2549.631613
988.917037	2549.480379
989.213318	2549.739998
989.509563	2548.444422
989.805772	2546.387631
990.101944	2546.833773
990.398080	2549.366953
990.694180	2546.387631
990.990244	2550.097920
991.286271	2547.224462
991.582262	2546.901828
991.878217	2549.712272
992.174136	2550.813764
992.470019	2546.732950
992.765865	2546.528783
993.061676	2542.195911
993.357450	2545.455017
993.653188	2542.180788
993.948890	2551.065822
994.244556	2548.802343
994.540186	2546.740512
994.835780	2546.425439
995.131337	2548.893084
995.426859	2549.036757
995.722345	2548.585574
996.017795	2551.164124
996.313208	2552.157231
996.608586	2552.530277
996.903928	2554.140925
997.199234	2550.707900
997.494504	2555.464228
997.789738	2550.758311
998.084936	2553.278888
998.380099	2552.580688
998.675225	2548.197405
998.970316	2550.770914
999.265371	2549.445091
999.560390	2547.569781
999.855373	2548.779658
1000.150320	2548.290666
1000.445232	2548.184802
1000.740108	2547.708413
1001.034948	2549.324103
1001.329752	2547.171530
1001.624521	2547.093392
1001.919254	2549.031716
1002.213951	2547.358053
1002.508613	2546.309493
1002.803239	2547.259750
1003.097829	2546.828732
1003.392384	2546.047353
1003.686903	2546.052394
1003.981386	2547.884853
1004.275834	2548.217570
1004.570246	2548.641027
1004.864623	2546.382590
1005.158964	2547.789072
1005.453270	2548.648588
1005.747540	2545.313865
1006.041775	2548.063814
1006.335974	2547.259750
1006.630138	2544.996272
1006.924266	2546.589277
1007.218359	2544.852599
1007.512416	2545.838145
1007.806438	2540.766744
1008.100425	2544.124153
1008.394376	2543.746066
1008.688292	2546.826211
1008.982172	2548.809905
1009.276017	2547.292518
1009.569827	2546.755635
1009.863602	2544.436704
1010.157341	2546.727909
1010.451045	2543.940151
1010.744714	2546.425439
1011.038347	2545.820501
1011.331945	2546.886705
1011.625508	2547.128680
1011.919036	2548.199926
1012.212528	2543.327650
1012.505986	2548.003321
1012.799408	2546.173382
1013.092795	2549.492982
1013.386147	2544.373690
1013.679464	2546.410316
1013.972745	2545.545758
1014.265992	2548.918290
1014.559204	2545.195398
1014.852380	2543.937630
1015.145521	2545.071890
1015.438628	2545.477702
1015.731699	2546.304452
1016.024736	2545.722198
1016.317737	2545.699513
1016.610703	2545.918803
1016.903635	2546.874102
1017.196531	2545.321427
1017.489393	2548.096582
1017.782219	2545.805378
1018.075011	2545.644061
1018.367768	2546.317055
1018.660490	2543.897301
1018.953177	2543.897301
1019.245829	2543.897301
