Dividing Wavelength (nm)	Counts (n)	Blue Motor Position (mm): 25.100000	Red Motor Position (mm): 0.000000	
326.493990	2195.228416
326.888308	2195.228416
327.282561	2195.228416
327.676750	2157.666778
328.070874	2154.417755
328.464933	2154.362302
328.858929	2157.719710
329.252859	2161.949238
329.646726	2171.149344
330.040528	2185.249452
330.434265	2196.460978
330.827938	2216.086190
331.221547	2234.136041
331.615091	2249.236817
332.008571	2268.602410
332.401986	2287.549587
332.795338	2305.014664
333.188625	2326.676502
333.581847	2343.944975
333.975006	2361.019363
334.368100	2380.326982
334.761129	2398.182749
335.154095	2415.667991
335.546996	2441.859306
335.939833	2478.783237
336.332606	2488.953765
336.725315	2505.158554
337.117960	2515.177847
337.510540	2531.110414
337.903056	2538.856147
338.295508	2550.733105
338.687896	2556.893395
339.080220	2564.475291
339.472480	2572.218503
339.864676	2578.194791
340.256807	2583.586305
340.648875	2589.613004
341.040879	2590.878334
341.432818	2592.652820
341.824694	2597.273038
342.216506	2594.011411
342.608253	2598.162801
342.999937	2596.942842
343.391557	2596.945363
343.783113	2595.440578
344.174605	2596.133737
344.566033	2595.712801
344.957397	2594.497883
345.348697	2593.913109
345.739934	2590.858169
346.131106	2591.372367
346.522215	2587.092427
346.913260	2587.044537
347.304241	2584.002200
347.695159	2581.630337
348.086012	2581.857189
348.476802	2576.692527
348.867528	2574.774368
349.258191	2569.080385
349.648789	2567.212637
350.039324	2567.593244
350.429796	2569.922258
350.820203	2570.123904
351.210548	2566.496793
351.600828	2566.000240
351.991045	2567.721794
352.381198	2565.286917
352.771288	2566.484191
353.161314	2563.600651
353.551276	2564.288768
353.941175	2565.375137
354.331010	2562.368088
354.720782	2561.485887
355.110490	2561.259035
355.500135	2562.869683
355.889717	2560.991853
356.279235	2562.330280
356.668689	2561.133006
357.058080	2559.136709
357.447408	2564.656772
357.836672	2560.918757
358.225873	2560.807851
358.615010	2560.802810
359.004084	2560.346586
359.393095	2566.665672
359.782043	2562.481514
360.170927	2566.471588
360.559748	2565.995199
360.948505	2566.879921
361.337199	2567.051320
361.725830	2569.700447
362.114398	2569.365210
362.502903	2568.730025
362.891344	2572.694892
363.279722	2567.772205
363.668037	2569.660117
364.056289	2570.628019
364.444478	2571.119532
364.832603	2569.902093
365.220665	2573.093143
365.608665	2572.954512
365.996601	2571.847978
366.384474	2574.066086
366.772284	2573.471230
367.160031	2573.556929
367.547715	2575.407033
367.935336	2574.174471
368.322893	2570.801939
368.710388	2571.779923
369.097820	2572.888977
369.485189	2570.638101
369.872495	2576.866447
370.259738	2576.150603
370.646918	2575.641447
371.034035	2574.512228
371.421090	2580.692683
371.808081	2574.572722
372.195010	2577.186560
372.581875	2577.345357
372.968678	2578.958526
373.355418	2578.656057
373.742096	2578.338464
374.128710	2579.714699
374.515262	2577.904925
374.901751	2580.254102
375.288177	2579.782754
375.674540	2578.156982
376.060841	2581.776531
376.447079	2582.933476
376.833254	2583.598908
377.219367	2583.130081
377.605417	2579.997003
377.991404	2583.377097
378.377329	2580.551530
378.763191	2581.837025
379.148991	2581.804257
379.534727	2583.077148
379.920402	2585.663260
380.306013	2581.075810
380.691563	2585.847262
381.077049	2583.515729
381.462474	2585.965730
381.847835	2583.578743
382.233134	2585.204515
382.618371	2585.869948
383.003545	2586.580750
383.388657	2585.804413
383.773706	2585.907756
384.158693	2586.827767
384.543618	2584.690318
384.928480	2587.347006
385.313280	2588.766091
385.698017	2586.885740
386.082692	2586.794999
386.467305	2587.004207
386.851856	2589.386152
387.236344	2588.602253
387.620770	2588.370360
388.005133	2584.468507
388.389435	2589.852459
388.773674	2584.279464
389.157851	2590.827922
389.541965	2589.948241
389.926018	2589.060998
390.310008	2590.023858
390.693936	2591.485793
391.077802	2593.340938
391.461606	2590.550659
391.845348	2591.526122
392.229027	2592.985536
392.612645	2593.043510
392.996200	2590.356575
393.379694	2591.251379
393.763125	2593.121647
394.146494	2592.052923
394.529801	2593.182141
394.913047	2595.128027
395.296230	2593.048551
395.679351	2597.361258
396.062410	2595.690115
396.445408	2594.109714
396.828343	2594.515527
397.211217	2597.825044
397.594028	2596.862184
397.976778	2595.821185
398.359466	2595.087697
398.742092	2594.553335
399.124656	2594.455033
399.507158	2594.127358
399.889598	2600.012905
400.271977	2595.987543
400.654294	2595.949735
401.036549	2596.494179
401.418742	2602.011722
401.800874	2597.399067
402.182944	2597.371340
402.564952	2597.920826
402.946898	2599.314705
403.328783	2601.915940
403.710606	2599.614654
404.092367	2600.655652
404.474067	2597.663727
404.855705	2601.247987
405.237282	2599.992740
405.618797	2599.095415
406.000250	2601.129520
406.381642	2601.537854
406.762972	2598.094746
407.144240	2598.951742
407.525447	2602.067175
407.906593	2600.713625
408.287677	2601.507607
408.668700	2600.932915
409.049661	2605.638832
409.430560	2604.693616
409.811399	2604.396188
410.192176	2601.767226
410.572891	2601.346290
410.953545	2604.444079
411.334138	2604.814604
411.714669	2606.228647
412.095139	2605.727053
412.475547	2606.014398
412.855894	2605.018771
413.236180	2606.861312
413.616405	2607.257043
413.996568	2608.771910
414.376670	2605.921137
414.756711	2610.155706
415.136691	2609.878443
415.516609	2607.798967
415.896466	2606.130345
416.276262	2607.695623
416.655997	2609.064297
417.035670	2609.502877
417.415283	2609.008844
417.794834	2607.214193
418.174324	2609.412136
418.553753	2608.358535
418.933121	2611.736108
419.312428	2610.372476
419.691674	2607.806529
420.070859	2609.767537
420.449983	2611.380707
420.829045	2611.196705
421.208047	2612.446911
421.586988	2611.579832
421.965867	2611.531941
422.344686	2610.876591
422.723444	2617.268774
423.102141	2613.097220
423.480777	2613.593773
423.859352	2612.711571
424.237866	2613.548403
424.616319	2614.165944
424.994712	2614.942282
425.373044	2613.243413
425.751314	2615.116202
426.129524	2610.763165
426.507673	2612.184771
426.885762	2610.974894
427.263789	2615.632920
427.641756	2617.243569
428.019662	2615.847169
428.397508	2614.743156
428.775292	2617.936727
429.153016	2619.597787
429.530679	2619.859928
429.908282	2620.056532
430.285824	2619.733899
430.663305	2619.159207
431.040726	2618.539145
431.418086	2618.297170
431.795385	2621.657099
432.172624	2619.257510
432.549802	2621.841101
432.926920	2619.940586
433.303977	2620.369084
433.680974	2625.511061
434.057910	2622.420834
434.434786	2622.246914
434.811601	2623.391256
435.188355	2625.939559
435.565050	2623.970988
435.941683	2625.682460
436.318257	2625.526184
436.694770	2628.419807
437.071222	2627.819909
437.447614	2629.778398
437.823946	2629.526340
438.200218	2629.090280
438.576429	2629.521299
438.952580	2627.847636
439.328670	2629.511217
439.704700	2629.904427
440.080670	2631.162194
440.456580	2632.150261
440.832429	2636.231075
441.208218	2633.697895
441.583947	2634.539767
441.959616	2637.748462
442.335224	2635.878194
442.710773	2637.887094
443.086261	2639.001189
443.461689	2636.276445
443.837057	2642.063690
444.212365	2643.155099
444.587612	2637.889614
444.962800	2641.925058
445.337927	2641.045377
445.712995	2641.420942
446.088002	2648.861686
446.462949	2649.837149
446.837837	2652.398055
447.212664	2654.979126
447.587431	2658.545742
447.962139	2664.869870
448.336786	2676.693896
448.711374	2683.610359
449.085901	2677.820594
449.460369	2679.005265
449.834776	2686.249403
450.209124	2697.052596
450.583412	2706.366128
450.957640	2725.227605
451.331808	2725.189796
451.705917	2729.739437
452.079965	2731.672720
452.453954	2751.991090
452.827883	2762.209509
453.201752	2780.566871
453.575562	2790.013993
453.949311	2812.487457
454.323001	2835.573421
454.696632	2860.224663
455.070202	2887.837584
455.443713	2922.424940
455.817164	2965.511682
456.190556	3001.724811
456.563888	3051.428067
456.937160	3097.829368
457.310373	3106.968980
457.683526	3142.375524
458.056619	3167.319153
458.429653	3217.909652
458.802628	3241.035946
459.175542	3311.407933
459.548398	3426.389090
459.921194	3520.623379
460.293930	3600.177828
460.666607	3760.294956
461.039224	3953.051035
461.411782	4127.580823
461.784280	4197.509188
462.156719	4293.749856
462.529099	4323.875792
462.901419	4291.950164
463.273680	4352.542313
463.645882	4420.993621
464.018024	4473.996312
464.390106	4610.097384
464.762130	4843.369216
465.134094	5075.400925
465.505999	5585.185087
465.877845	6410.361478
466.249631	7161.571539
466.621358	7242.166986
466.993026	7092.323729
467.364634	7109.405679
467.736184	6972.397199
468.107674	6929.630571
468.479105	7115.339117
468.850477	7170.290214
469.221790	7202.102416
469.593043	7166.365676
469.964238	7196.100922
470.335373	7238.509629
470.706449	7516.156218
471.077467	7515.407607
471.448425	8266.274869
471.819324	9807.630343
472.190164	10756.335167
472.560945	9789.898084
472.931667	9085.406916
473.302330	9026.725365
473.672934	8974.274680
474.043479	9326.653854
474.413965	9421.856045
474.784393	9454.346281
475.154761	9910.716898
475.525070	10105.859963
475.895321	10111.503535
476.265513	10563.495909
476.635645	10995.578247
477.005719	11110.720721
477.375734	11381.465971
477.745691	11846.882938
478.115588	12256.854774
478.485427	12780.650823
478.855207	13529.136141
479.224928	14658.636907
479.594591	16143.014739
479.964194	16414.674958
480.333739	16904.753250
480.703226	16840.176069
481.072653	16922.863595
481.442022	17511.022576
481.811333	18294.372513
482.180584	18535.765645
482.549777	18143.339544
482.918912	18190.073561
483.287988	18480.537284
483.657005	18510.033075
484.025964	18516.221091
484.394864	18717.970589
484.763706	18739.990349
485.132489	18577.645030
485.501213	18861.686323
485.869879	19048.957627
486.238487	19006.775772
486.607036	19391.864473
486.975527	19305.890115
487.343959	19745.539224
487.712333	19942.860068
488.080648	19804.518204
488.448905	20375.547344
488.817104	20337.390850
489.185244	21025.599091
489.553326	21210.987524
489.921350	22086.182243
490.289315	24101.806950
490.657222	25812.068804
491.025070	26428.186024
491.392861	26428.100324
491.760593	25882.372735
492.128267	25343.387690
492.495883	24582.743109
492.863440	23979.175842
493.230939	23289.936685
493.598380	23294.841728
493.965763	23036.263303
494.333088	22758.336929
494.700354	22776.109517
495.067563	22798.134318
495.434713	22647.169405
495.801805	22840.502696
496.168839	22794.789513
496.535815	22699.801572
496.902733	22976.722235
497.269593	22723.321075
497.636395	22996.423064
498.003139	23043.940980
498.369825	22877.073747
498.736453	23101.198405
499.103023	23056.475809
499.469535	23136.655361
499.835989	23365.037274
500.202385	23449.726138
500.568723	23016.121373
500.935003	23319.994565
501.301226	22946.704684
501.667390	23772.551548
502.033497	24074.564555
502.399546	23842.948741
502.765537	23485.155367
503.131470	23877.097517
503.497345	24046.021542
503.863163	23283.317650
504.228923	23931.070631
504.594625	24128.043635
504.960269	23668.794520
505.325856	24192.391443
505.691385	23635.031392
506.056856	24236.234358
506.422270	24240.809206
506.787625	23854.361913
507.152924	24253.427214
507.518164	24289.184118
507.883347	24106.253248
508.248472	23824.059538
508.613540	24604.147848
508.978550	24394.945005
509.343503	24377.764753
509.708398	24677.577295
510.073236	24831.816438
510.438016	25041.087338
510.802738	24744.443160
511.167403	24986.811755
511.532010	24678.464538
511.896561	25475.062628
512.261053	25442.045591
512.625488	25291.168898
512.989866	25189.834143
513.354186	25053.443206
513.718449	25141.875126
514.082655	25524.453333
514.446803	25268.619816
514.810894	25717.733692
515.174927	25221.172476
515.538904	25246.567289
515.902822	25736.219603
516.266684	25497.105073
516.630488	25404.322637
516.994235	25406.114767
517.357925	25675.635016
517.721558	25883.406172
518.085133	25962.280065
518.448651	25885.021862
518.812112	25611.289728
519.175516	25788.304805
519.538863	25966.900283
519.902152	25737.444603
520.265385	26053.315742
520.628560	25828.455074
520.991678	25853.562541
521.354739	25933.162360
521.717743	25969.141075
522.080690	25784.410513
522.443580	26108.639885
522.806413	26110.926048
523.169189	26198.937032
523.531908	26267.811797
523.894569	25859.349786
524.257174	25926.790342
524.619722	26139.852189
524.982213	25815.491747
525.344647	25900.357052
525.707025	26002.112742
526.069345	26015.479362
526.431608	25958.683202
526.793815	26152.790310
527.155964	25598.162564
527.518057	25765.105415
527.880093	25688.963827
528.242072	25933.079181
528.603995	25625.722552
528.965860	25427.338025
529.327669	25475.448276
529.689421	25474.576157
530.051117	25288.043382
530.412755	25484.766849
530.774337	25296.401615
531.135862	25157.180069
531.497331	25359.950401
531.858743	24894.183073
532.220098	25403.276597
532.581396	25066.386368
532.942638	25018.918863
533.303824	25113.190961
533.664953	25118.461487
534.026025	24786.688029
534.387040	25024.842219
534.747999	25085.328504
535.108902	25249.319759
535.469748	24736.636933
535.830537	24939.561020
536.191270	25048.200406
536.551947	24947.445384
536.912567	24605.932417
537.273131	24920.258442
537.633638	24638.021882
537.994089	24841.024106
538.354483	24393.309151
538.714821	24887.853905
539.075103	24936.748056
539.435328	24725.551436
539.795497	24272.969247
540.155609	24683.664489
540.515665	24976.288346
540.875665	24212.538415
541.235609	24493.582742
541.595496	24477.020031
541.955328	24823.609440
542.315102	24735.154834
542.674821	24306.606346
543.034483	24177.202447
543.394090	24343.462221
543.753640	24127.952894
544.113134	24763.778506
544.472571	24373.482293
544.831953	24652.492514
545.191278	24263.968266
545.550548	24203.943247
545.909761	24412.788169
546.268918	24640.713858
546.628019	24592.767444
546.987064	24304.141221
547.346053	24066.690272
547.704986	24189.165105
548.063863	24350.625701
548.422684	24333.765562
548.781449	23897.274736
549.140158	24297.771723
549.498811	23878.995512
549.857408	23605.724644
550.215949	24047.710328
550.574434	23724.569846
550.932864	23951.005874
551.291237	24092.153140
551.649555	23962.444252
552.007817	24006.319934
552.366022	23885.138158
552.724173	23928.887811
553.082267	23859.942471
553.440305	24341.135729
553.798288	23608.119192
554.156215	24137.372290
554.514086	24215.031265
554.871902	23580.062650
555.229661	23876.212795
555.587365	23733.094437
555.945014	23572.984870
556.302606	23853.056255
556.660143	23772.561631
557.017625	24033.733729
557.375050	23582.812600
557.732421	23955.986534
558.089735	23764.064766
558.446994	23837.600077
558.804197	23852.070709
559.161345	23816.825482
559.518437	23542.967320
559.875474	23766.386217
560.232455	23928.905455
560.589381	23766.119036
560.946251	23737.823039
561.303065	24065.611465
561.659825	24156.821062
562.016528	23755.646039
562.373177	23489.891532
562.729770	23844.135933
563.086307	23727.342481
563.442789	23884.167736
563.799216	23710.900757
564.155587	23728.426329
564.511904	23709.161559
564.868164	23642.338544
565.224370	23628.384631
565.580520	23534.800651
565.936615	23664.489374
566.292654	23332.993180
566.648638	23650.883300
567.004567	23472.499551
567.360441	23422.856788
567.716260	23137.187203
568.072023	23475.806548
568.427732	23232.137335
568.783385	23019.088092
569.138982	23242.910281
569.494525	23294.362818
569.850013	23036.412017
570.205445	23133.250062
570.560823	22935.195730
570.916145	22705.687119
571.271412	22884.461557
571.626625	22634.833701
571.981782	22746.583479
572.336884	22554.472668
572.691931	22680.400691
573.046923	22413.504362
573.401860	22311.494094
573.756743	22300.017907
574.111570	22214.177139
574.466342	22144.216006
574.821059	22240.464236
575.175722	21942.978186
575.530330	21924.056215
575.884882	21957.673149
576.239380	21862.004652
576.593823	21753.708065
576.948211	21738.055282
577.302544	21562.565155
577.656823	21442.535282
578.011047	21544.263246
578.365216	21421.425450
578.719330	21304.833644
579.073389	21196.602591
579.427394	21344.961228
579.781344	21119.810695
580.135239	21012.396309
580.489080	20981.781382
580.842866	20736.584700
581.196597	20929.444123
581.550273	20916.339643
581.903895	20812.973304
582.257463	21128.506685
582.610975	20653.176289
582.964434	20946.533634
583.317837	20653.766104
583.671186	20750.788151
584.024481	20714.325485
584.377721	20493.805251
584.730906	20541.245030
585.084037	20579.467058
585.437113	20482.724795
585.790135	20685.507729
586.143103	20154.802779
586.496016	20163.821403
586.848874	20411.725184
587.201679	20343.036943
587.554428	20006.028246
587.907124	20346.981646
588.259765	20120.394383
588.612352	20200.047134
588.964884	19768.794067
589.317362	19940.442835
589.669786	19986.027468
590.022155	20044.366221
590.374470	20212.768486
590.726731	20025.010711
591.078937	19773.910838
591.431090	19886.293281
591.783188	19627.482963
592.135232	19597.924157
592.487222	19698.674137
592.839157	19731.270238
593.191038	19608.959243
593.542866	19498.436986
593.894639	19211.330672
594.246358	19427.008877
594.598022	19339.280197
594.949633	19096.644422
595.301190	19050.616167
595.652692	19212.406958
596.004141	19466.193766
596.355535	18792.877094
596.706876	18803.133321
597.058162	18689.268779
597.409395	18913.111134
597.760573	19002.566409
598.111698	18781.330331
598.462768	18712.460608
598.813785	18673.167334
599.164748	18498.040170
599.515657	18521.569756
599.866511	18326.156988
600.217312	18688.003450
600.568060	18216.789156
600.918753	18521.284930
601.269392	18424.860260
601.619978	18196.357359
601.970510	18413.091687
602.320988	18355.902317
602.671412	18569.846365
603.021783	18469.124112
603.372100	18201.683338
603.722363	18332.062700
604.072572	18273.965923
604.422728	18413.411800
604.772830	18172.116971
605.122878	18121.100494
605.472872	18118.597561
605.822813	18097.807843
606.172701	18074.248010
606.522534	18274.948948
606.872314	18298.206311
607.222041	18130.114077
607.571714	18341.640892
607.921333	18182.133744
608.270899	18246.186644
608.620411	18433.256302
608.969870	18185.236574
609.319276	18197.516825
609.668627	18223.216627
610.017926	18363.416157
610.367171	18474.024113
610.716362	18519.475156
611.065500	18342.676850
611.414585	18478.160380
611.763616	18453.279765
612.112594	18401.749090
612.461518	18370.922435
612.810389	18562.771106
613.159207	18415.503879
613.507971	18321.743458
613.856682	18605.688969
614.205340	18540.743784
614.553945	18684.696453
614.902496	18424.419159
615.250994	18654.953645
615.599439	18593.998533
615.947830	18574.544721
616.296169	18628.396847
616.644454	18593.083564
616.992686	18578.323066
617.340864	18783.409807
617.688990	18534.638947
618.037063	18714.829950
618.385082	18567.290500
618.733048	18843.218056
619.080961	18706.877530
619.428821	18749.654241
619.776628	18632.482702
620.124382	18571.421726
620.472083	18600.736036
620.819731	18627.791908
621.167326	18320.679775
621.514868	18367.900263
621.862357	18117.707797
622.209793	18131.245816
622.557176	17968.834963
622.904506	17781.382177
623.251783	17703.259416
623.599007	17462.899722
623.946179	17413.662772
624.293297	17357.713526
624.640363	17104.103158
624.987376	17120.053369
625.334336	16915.841268
625.681243	16765.297291
626.028097	16778.734486
626.374899	16707.553394
626.721647	16577.816779
627.068343	16399.911939
627.414987	16337.058833
627.761577	16316.707695
628.108115	16354.246647
628.454600	16071.967237
628.801032	16168.921229
629.147412	16112.868639
629.493739	16122.840042
629.840014	15934.227791
630.186236	16038.010025
630.532405	15794.570185
630.878521	15994.973695
631.224585	15884.781633
631.570597	15711.812083
631.916556	15743.316774
632.262462	15726.819598
632.608316	15644.316074
632.954117	15580.174953
633.299866	15581.157978
633.645562	15500.416338
633.991206	15257.226035
634.336797	15129.526047
634.682336	15090.603298
635.027823	14990.879192
635.373257	14869.878897
635.718639	14767.694709
636.063968	14712.645309
636.409245	14475.950533
636.754470	14492.614067
637.099642	14345.588815
637.444762	14113.010141
637.789829	14158.562007
638.134845	13995.498324
638.479808	14021.530843
638.824719	13970.995796
639.169577	13824.832581
639.514383	13870.817987
639.859137	13693.253425
640.203839	13768.525413
640.548489	13616.711065
640.893086	13602.573149
641.237632	13478.094458
641.582125	13626.246408
641.926566	13460.037045
642.270955	13462.731542
642.615292	13429.913630
642.959576	13436.099126
643.303809	13469.365700
643.647990	13402.439342
643.992118	13458.204586
644.336195	13233.568250
644.680219	13431.050410
645.024192	13364.303013
645.368112	13599.399743
645.711981	13654.532322
646.055797	13832.540506
646.399562	13795.324187
646.743274	14066.772678
647.086935	14346.939844
647.430544	14315.460359
647.774101	14335.476260
648.117606	14492.427544
648.461059	14453.572851
648.804460	14457.066370
649.147810	14187.896481
649.491108	14082.974946
649.834354	14100.669396
650.177548	13794.991471
650.520690	13611.501033
650.863781	13535.140155
651.206820	13572.812698
651.549807	13402.658632
651.892742	13207.613869
652.235626	13145.426195
652.578458	13146.200012
652.921238	12833.557733
653.263967	13038.190771
653.606644	12862.362886
653.949269	12831.848782
654.291843	12640.048002
654.634365	12795.189511
654.976836	12645.799958
655.319255	12653.623829
655.661622	12613.471038
656.003938	12527.816793
656.346203	12458.750465
656.688416	12533.936754
657.030577	12487.545536
657.372687	12409.079976
657.714746	12382.719783
658.056753	12570.812795
658.398708	12394.248902
658.740612	12393.071792
659.082465	12487.883293
659.424266	12461.210548
659.766016	12471.222280
660.107715	12387.864280
660.449362	12461.079478
660.790958	12419.270669
661.132503	12372.876930
661.473996	12429.726022
661.815438	12450.881224
662.156829	12462.992596
662.498168	12442.959051
662.839456	12435.901435
663.180693	12463.153913
663.521879	12551.071636
663.863013	12524.038449
664.204097	12497.237154
664.545129	12623.076957
664.886110	12587.771236
665.227040	12676.603929
665.567918	12690.134386
665.908746	12712.267572
666.249522	12701.164430
666.590248	12759.178029
666.930922	12867.025953
667.271545	12849.601205
667.612118	12927.053493
667.952639	12840.217097
668.293109	12848.673633
668.633528	12805.493630
668.973896	12772.703444
669.314213	12855.363244
669.654480	12598.957557
669.994695	12655.655414
670.334859	12687.321422
670.674973	12636.120943
671.015035	12674.574864
671.355047	12613.942386
671.695008	12578.016603
672.034918	12587.123448
672.374777	12633.174388
672.714585	12540.376828
673.054342	12582.160432
673.394049	12535.101261
673.733705	12622.817338
674.073310	12536.427084
674.412864	12553.763612
674.752368	12424.654621
675.091820	12430.643512
675.431223	12428.793408
675.770574	12293.544292
676.109875	12212.948845
676.449125	12180.619925
676.788324	12124.544650
677.127473	11963.464662
677.466571	11947.582506
677.805619	11843.616270
678.144616	11774.345775
678.483562	11734.107285
678.822458	11609.036258
679.161303	11587.878535
679.500098	11574.269941
679.838842	11527.369566
680.177535	11550.531147
680.516179	11609.719334
680.854771	11557.235882
681.193314	11771.827719
681.531805	11921.769278
681.870247	12333.359325
682.208638	12743.507602
682.546978	13060.253380
682.885268	13111.073252
683.223508	12810.373467
683.561697	12651.811534
683.899836	12556.085064
684.237925	12351.865401
684.575963	12257.210176
684.913951	12193.724405
685.251889	12143.922846
685.589776	12234.003224
685.927614	12164.810867
686.265401	12124.736214
686.603137	12163.290959
686.940824	12326.919251
687.278460	12441.542487
687.616046	12489.879590
687.953582	12666.957681
688.291068	12589.291144
688.628504	12817.582317
688.965889	12821.032986
689.303224	12789.621557
689.640510	12688.062471
689.977745	12381.179710
690.314930	12157.418015
690.652065	12081.437744
690.989150	11782.630911
691.326185	11553.898638
691.663170	11354.936898
692.000105	11112.245670
692.336990	10999.618731
692.673825	10750.830227
693.010610	10630.581064
693.347345	10426.298387
693.684030	10223.308765
694.020665	10169.822123
694.357251	9975.646959
694.693786	9919.458258
695.030272	9752.860727
695.366707	9630.269947
695.703093	9567.714269
696.039429	9561.075070
696.375716	9491.592846
696.711952	9358.791210
697.048139	9391.389831
697.384276	9353.394655
697.720363	9365.357313
698.056400	9304.525709
698.392388	9256.528884
698.728326	9218.936999
699.064214	9153.243203
699.400053	9205.840082
699.735842	9017.288325
700.071581	8973.934402
700.407270	8905.951922
700.742910	8819.458325
701.078501	8728.304181
701.414042	8605.216848
701.749533	8538.290489
702.084974	8403.734532
702.420366	8510.327209
702.755709	8398.161536
703.091002	8267.535157
703.426246	8289.759084
703.761440	8242.457938
704.096584	8197.009415
704.431679	8131.340825
704.766725	8119.715924
705.101721	8073.551557
705.436668	8118.410265
705.771565	8011.068976
706.106413	8089.857170
706.441212	8128.721945
706.775961	8085.788958
707.110661	8121.034186
707.445311	8268.177905
707.779913	8164.037748
708.114465	8294.361658
708.448967	8327.603026
708.783421	8466.396074
709.117825	8650.234352
709.452180	8692.562400
709.786485	8779.708827
710.120742	9058.217453
710.454949	9060.896826
710.789107	9159.335438
711.123216	9366.294968
711.457275	9536.935505
711.791286	9699.003560
712.125247	9692.334113
712.459159	9677.986989
712.793023	9925.769783
713.126837	9502.902675
713.460602	9659.165841
713.794318	9481.742432
714.127985	9512.863995
714.461602	9192.163431
714.795171	9136.856933
715.128691	8900.298268
715.462162	8643.721181
715.795584	8588.271009
716.128957	8449.508208
716.462281	8273.135879
716.795556	8325.934404
717.128782	8121.077035
717.461960	7853.157352
717.795088	7930.266842
718.128167	7832.120617
718.461198	7668.696492
718.794180	7610.824046
719.127113	7605.656863
719.459997	7454.694470
719.792833	7221.558749
720.125619	7284.951258
720.458357	7141.389279
720.791046	7135.407950
721.123686	7130.180274
721.456278	6968.921324
721.788821	6989.433779
722.121315	6886.422841
722.453761	6956.530168
722.786158	6896.197638
723.118506	6905.864051
723.450805	6875.438167
723.783056	6939.284380
724.115259	6848.478076
724.447412	6843.366346
724.779518	6890.617081
725.111574	6890.811166
725.443582	6970.143804
725.775542	6956.474715
726.107453	7141.328785
726.439315	7059.515900
726.771129	7113.768797
727.102895	7283.431351
727.434612	7398.455358
727.766281	7421.155674
728.097901	7507.717326
728.429473	7497.070409
728.760996	7476.510063
729.092471	7445.166689
729.423897	7393.237764
729.755276	7407.995742
730.086606	7338.523600
730.417887	7431.293434
730.749120	7619.875438
731.080305	7813.864079
731.411442	7943.187319
731.742530	7925.273579
732.073570	8040.474027
732.404562	8131.645814
732.735506	7972.481464
733.066401	8120.583002
733.397249	8048.073566
733.728048	7810.509191
734.058798	7481.163048
734.389501	7261.088957
734.720156	7078.962151
735.050762	6847.028744
735.381320	6752.534836
735.711831	6702.229162
736.042293	6595.903666
736.372707	6616.211954
736.703073	6475.034440
737.033391	6510.120871
737.363661	6518.537077
737.693883	6550.742489
738.024056	6640.550645
738.354182	6679.901892
738.684260	6714.443878
739.014290	6827.915210
739.344272	6933.981087
739.674207	6966.254553
740.004093	7033.702671
740.333931	7050.507358
740.663722	7058.064047
740.993464	7136.423743
741.323159	7129.512321
741.652806	6877.076542
741.982405	6885.318828
742.311956	6949.666637
742.641460	6789.453726
742.970915	6593.181443
743.300323	6578.005049
743.629683	6535.563575
743.958996	6402.335961
744.288260	6309.803061
744.617477	6256.931440
744.946647	6263.411843
745.275768	6091.377427
745.604842	6051.811931
745.933869	6036.176792
746.262847	5990.211552
746.591778	5980.971117
746.920662	5940.289005
747.249498	5930.597387
747.578286	5978.052288
747.907027	6051.758999
748.235720	6110.017093
748.564365	6089.582776
748.892963	6112.953565
749.221514	6263.895794
749.550017	6099.965032
749.878473	5978.321990
750.206881	6034.677049
750.535242	5975.826619
750.863555	5907.438326
751.191821	5920.676396
751.520039	5923.005409
751.848210	5832.430998
752.176334	5849.018915
752.504411	5903.838942
752.832440	5834.122305
753.160421	5756.670017
753.488356	5803.078880
753.816243	5834.639023
754.144082	5690.101581
754.471875	5657.795346
754.799620	5704.705803
755.127318	5718.886569
755.454969	5669.044681
755.782572	5633.801975
756.110129	5672.518036
756.437638	5660.966232
756.765100	5600.734526
757.092515	5600.265699
757.419882	5649.139685
757.747203	5633.519670
758.074477	5694.573084
758.401703	5688.125448
758.728882	5632.677797
759.056014	5685.297361
759.383099	5814.328214
759.710138	5830.376728
760.037129	5813.108255
760.364073	5816.135468
760.690970	5897.628241
761.017820	5880.589141
761.344623	5832.131049
761.671379	5936.969405
761.998088	6052.230347
762.324751	6291.687675
762.651366	6878.898919
762.977935	8175.864295
763.304456	9793.177355
763.630931	10708.073681
763.957359	10333.011835
764.283740	9390.724399
764.610074	8566.815858
764.936362	7580.985456
765.262602	6984.289281
765.588796	6448.943949
765.914943	6103.637513
766.241044	5945.698163
766.567097	5746.449078
766.893104	5496.072610
767.219064	5308.372809
767.544978	5247.581534
767.870845	5172.100338
768.196665	5065.149738
768.522438	4992.884798
768.848165	4958.796516
769.173846	4894.022730
769.499479	4850.971276
769.825066	4796.027740
770.150607	4736.816868
770.476101	4714.724011
770.801548	4710.176890
771.126949	4637.269203
771.452303	4584.518569
771.777611	4539.768246
772.102872	4558.770876
772.428087	4520.437942
772.753256	4482.369669
773.078378	4438.466260
773.403453	4365.480434
773.728482	4353.863095
774.053465	4309.022032
774.378401	4295.368067
774.703291	4294.377480
775.028135	4223.955081
775.352932	4177.682330
775.677683	4162.921832
776.002388	4180.344059
776.327046	4196.069939
776.651658	4118.476499
776.976224	4058.259916
777.300743	4062.018096
777.625216	4086.031633
777.949643	4081.938216
778.274024	4037.384498
778.598359	3990.232066
778.922647	4012.685365
779.246889	4005.511803
779.571086	4001.645238
779.895236	3985.899194
780.219339	3974.428048
780.543397	3965.646358
780.867409	4016.345242
781.191374	4030.152963
781.515294	3967.408242
781.839167	3963.219043
782.162995	3984.399451
782.486776	3968.088797
782.810511	3979.141527
783.134201	3975.973162
783.457844	3931.280812
783.781441	3876.906927
784.104993	3881.171743
784.428498	3901.054054
784.751958	3893.520050
785.075372	3873.315105
785.398739	3839.007532
785.722061	3850.647557
786.045337	3891.289339
786.368568	3924.329061
786.691752	3839.206658
787.014891	3886.999317
787.337983	4015.410108
787.661030	4168.706556
787.984031	4332.607070
788.306987	4500.051516
788.629897	4581.468671
788.952760	4539.687588
789.275579	4472.733503
789.598351	4409.714039
789.921078	4272.909726
790.243759	4071.253490
790.566395	4050.095767
790.888984	4045.404974
791.211529	3941.877318
791.534027	3878.023543
791.856480	3871.971638
792.178888	3809.819252
792.501249	3758.770007
792.823566	3769.248046
793.145836	3801.667706
793.468062	3748.622165
793.790241	3702.397304
794.112375	3733.402921
794.434464	3797.160914
794.756507	3819.556240
795.078505	3797.939773
795.400457	3833.863035
795.722364	3968.333293
796.044226	4077.370930
796.366042	4144.382988
796.687812	4125.728199
797.009538	4135.666833
797.331218	4095.713169
797.652852	4065.108324
797.974442	4047.257598
798.295986	4045.909089
798.617484	3964.108806
798.938938	3875.823079
799.260346	3919.875202
799.581709	3915.464192
799.903026	3842.911906
800.224299	3804.967141
800.545526	3801.816420
800.866708	3761.214967
801.187845	3700.658106
801.508936	3736.878797
801.829983	3736.873756
802.150984	3656.137156
802.471940	3647.247081
802.792851	3655.882578
803.113717	3656.429543
803.434538	3659.141684
803.755314	3602.327880
804.076045	3577.570773
804.396731	3595.822271
804.717372	3622.255561
805.037967	3606.171760
805.358518	3594.803958
805.679024	3623.112557
805.999485	3638.034373
806.319901	3641.386740
806.640272	3654.198833
806.960598	3665.148219
807.280879	3642.117707
807.601115	3655.184378
807.921306	3671.144671
808.241453	3710.150599
808.561554	3687.767876
808.881611	3624.108185
809.201623	3658.262002
809.521590	3673.514013
809.841513	3641.381699
810.161390	3674.537368
810.481223	3650.715395
810.801011	3596.402004
811.120755	3586.458328
811.440453	3625.257568
811.760107	3626.772435
812.079716	3585.734922
812.399281	3552.259140
812.718801	3575.004826
813.038276	3550.482133
813.357707	3545.032646
813.677093	3561.411355
813.996434	3511.806401
814.315731	3516.845034
814.634983	3522.357536
814.954191	3538.005277
815.273354	3569.351172
815.592473	3561.461766
815.911547	3568.126172
816.230577	3609.148561
816.549562	3660.172600
816.868502	3698.692056
817.187399	3725.117785
817.506250	3720.666446
817.825058	3694.583516
818.143821	3783.532155
818.462539	3886.971591
818.781213	3932.687294
819.099843	3989.027230
819.418429	4229.081935
819.736970	4468.433399
820.055466	4711.911047
820.373919	5071.811623
820.692327	5479.766998
821.010691	5911.710704
821.329011	7260.060561
821.647286	9958.184402
821.965517	14470.430469
822.283704	18501.596704
822.601847	20678.903818
822.919945	18903.893384
823.237999	16360.351484
823.556010	13881.936252
823.873976	11803.816360
824.191897	9720.783865
824.509775	8374.011888
824.827609	7249.426247
825.145398	6693.041659
825.463144	6579.963537
825.780845	6694.117945
826.098502	6874.019082
826.416116	7737.039415
826.733685	9048.914004
827.051210	10155.966512
827.368692	10223.051667
827.686129	8996.591868
828.003522	7482.645148
828.320872	6467.402133
828.638177	5769.850114
828.955439	5213.001740
829.272656	4711.391808
829.589830	4431.698511
829.906960	4258.751646
830.224046	4073.837082
830.541088	3946.139613
830.858086	3901.288468
831.175041	3822.394410
831.491952	3810.945950
831.808819	3819.384841
832.125642	3888.060480
832.442421	4037.003891
832.759157	4307.222340
833.075849	4845.577242
833.392497	5702.961564
833.709101	6471.382124
834.025662	6821.059240
834.342179	6464.914324
834.658653	5805.856555
834.975083	5170.280481
835.291469	4591.845886
835.607811	4183.033515
835.924110	4044.421949
836.240366	3847.821990
836.556578	3641.117038
836.872746	3531.257693
837.188871	3493.746467
837.504952	3426.628545
837.820990	3346.554857
838.136984	3299.621715
838.452935	3321.964109
838.768842	3319.735919
839.084706	3342.431193
839.400526	3496.128413
839.716303	3829.653672
840.032037	4347.672558
840.347727	4622.206235
840.663373	4345.401519
840.978977	3969.233139
841.294537	3658.574554
841.610054	3432.529216
841.925527	3326.634738
842.240957	3252.474324
842.556344	3201.500697
842.871687	3146.045484
843.186987	3094.930704
843.502244	3060.411403
843.817458	3027.101979
844.132629	2993.169973
844.447756	3003.436283
844.762840	2989.363902
845.077881	2956.122533
845.392879	2939.143927
845.707833	2936.835078
846.022745	2934.143102
846.337613	2934.614450
846.652438	2923.884354
846.967221	2920.486617
847.281960	2907.626633
847.596656	2904.009605
847.911309	2903.407187
848.225919	2896.601630
848.540485	2889.654920
848.855009	2893.120713
849.169490	2880.807695
849.483928	2870.727907
849.798323	2871.627753
850.112675	2868.086343
850.426984	2878.138404
850.741251	2877.185626
851.055474	2866.274048
851.369654	2861.419417
851.683792	2865.684233
851.997887	2876.437014
852.311938	2876.111860
852.625947	2864.313039
852.939914	2865.648945
853.253837	2873.772764
853.567718	2859.276927
853.881555	2855.465814
854.195350	2871.600027
854.509103	2869.412166
854.822812	2861.943697
855.136479	2857.820033
855.450103	2859.188706
855.763685	2851.344671
856.077224	2849.421471
856.390720	2857.782224
856.704173	2870.697661
857.017584	2865.454861
857.330953	2860.345651
857.644278	2868.393853
857.957561	2880.921121
858.270802	2881.420195
858.584000	2883.441698
858.897155	2869.465098
859.210268	2866.342104
859.523339	2866.339583
859.836367	2864.076105
860.149352	2861.147195
860.462295	2856.398428
860.775195	2866.621888
861.088054	2862.876310
861.400869	2847.508353
861.713642	2845.922910
862.026373	2861.300950
862.339062	2862.704911
862.651708	2867.839326
862.964312	2868.935777
863.276873	2862.357072
863.589392	2872.308309
863.901869	2886.037892
864.214303	2904.579256
864.526696	2922.780342
864.839045	2919.206163
865.151353	2916.824218
865.463619	2917.214908
865.775842	2919.753129
866.088023	2936.552774
866.400162	2940.537806
866.712258	2914.285997
867.024313	2903.177815
867.336325	2911.629309
867.648296	2932.918102
867.960224	2924.751433
868.272110	2911.576377
868.583954	2916.312541
868.895755	2929.714449
869.207515	2917.489651
869.519233	2918.654157
869.830909	2932.744182
870.142542	2941.104936
870.454134	2943.532251
870.765684	2944.394289
871.077191	2945.115174
871.388657	2950.773869
871.700081	2965.199131
872.011463	2974.225317
872.322803	2975.127683
872.634101	2976.289669
872.945357	2990.687204
873.256571	3017.531349
873.567744	3011.144207
873.878874	3000.310767
874.189963	3024.694828
874.501010	3027.706918
874.812015	3020.056967
875.122979	3021.362626
875.433900	3015.714013
875.744780	3021.221473
876.055618	3030.968544
876.366415	3024.276413
876.677169	3036.090357
876.987882	3036.108001
877.298554	3024.944365
877.609183	3045.754248
877.919771	3072.545461
878.230317	3094.227463
878.540822	3148.538334
878.851285	3188.678522
879.161707	3231.409862
879.472087	3327.610201
879.782425	3550.512380
880.092722	3982.130931
880.402977	4508.213144
880.713191	5126.208194
881.023363	6261.077789
881.333494	7534.944598
881.643583	8096.219106
881.953631	7810.153790
882.263637	7188.403080
882.573602	6604.682835
882.883526	6028.511718
883.193408	5461.422239
883.503248	5004.245038
883.813048	4699.976116
884.122806	4401.317997
884.432522	4085.613217
884.742197	3853.331971
885.051831	3662.612518
885.361424	3524.517670
885.670975	3453.739870
885.980485	3370.437324
886.289954	3291.752474
886.599382	3249.366452
886.908768	3214.045608
887.218113	3167.598937
887.527417	3108.902262
887.836680	3061.686815
888.145901	3056.494427
888.455082	3049.091492
888.764221	2991.108141
889.073319	2966.938329
889.382376	2966.819862
889.691392	2970.507466
890.000366	2969.282465
890.309300	2953.750670
890.618193	2971.170377
890.927044	2986.394662
891.235855	2983.639671
891.544625	2970.860346
891.853353	2982.144969
892.162041	2999.441168
892.470687	3036.584390
892.779293	3090.570106
893.087858	3135.784215
893.396381	3205.538661
893.704864	3322.816064
894.013306	3559.755336
894.321707	3860.361860
894.630068	4063.689239
894.938387	4064.271492
895.246665	4019.586704
895.554903	3897.847880
895.863100	3702.364537
896.171256	3537.236502
896.479371	3400.860687
896.787446	3277.097840
897.095480	3175.274094
897.403473	3110.459979
897.711425	3069.974472
898.019336	3064.240160
898.327207	3036.723021
898.635038	3002.571725
898.942827	2985.393993
899.250576	2976.350163
899.558284	2945.707509
899.865952	2924.912750
900.173579	2901.531878
900.481165	2896.596588
900.788711	2885.390103
901.096216	2862.319263
901.403681	2848.393075
901.711105	2855.206195
902.018489	2852.486492
902.325832	2851.632017
902.633135	2863.952597
902.940397	2895.273286
903.247619	2975.556181
903.554800	3164.972496
903.861941	3502.550842
904.169041	3925.914504
904.476101	4226.611769
904.783121	4189.055173
905.090100	3943.855971
905.397039	3673.733304
905.703938	3424.024789
906.010796	3242.344125
906.317614	3130.985037
906.624391	3038.265614
906.931129	2965.002526
907.237826	2905.645460
907.544483	2859.801207
907.851099	2827.192503
908.157675	2808.547795
908.464211	2788.708334
908.770707	2774.078906
909.077163	2761.496186
909.383578	2747.489340
909.689954	2736.527351
909.996289	2734.833523
910.302584	2736.199676
910.608839	2738.758062
910.915054	2728.791700
911.221229	2719.624362
911.527363	2727.687688
911.833458	2732.098697
912.139513	2737.583473
912.445527	2740.083885
912.751502	2751.315576
913.057436	2758.521905
913.363331	2770.214862
913.669186	2791.889302
913.975000	2823.146977
914.280775	2887.837584
914.586510	2954.368212
914.892205	3031.886034
915.197859	3158.587874
915.503475	3347.300948
915.809050	3558.855490
916.114585	3705.164898
916.420081	3725.634503
916.725536	3670.706091
917.030952	3553.491702
917.336328	3425.300201
917.641665	3296.604584
917.946961	3196.167156
918.252218	3128.172073
918.557435	3051.269271
918.862612	2992.381032
919.167750	2942.052673
919.472848	2902.283010
919.777906	2875.486757
920.082925	2850.832994
920.387904	2817.705051
920.692843	2802.480767
920.997743	2793.033644
921.302603	2776.770882
921.607423	2768.395005
921.912204	2756.321442
922.216946	2746.793661
922.521647	2737.560787
922.826310	2729.391598
923.130932	2722.122254
923.435516	2716.932386
923.740059	2704.876467
924.044564	2697.584438
924.349028	2692.891123
924.653454	2688.575896
924.957840	2681.009124
925.262186	2676.759431
925.566493	2673.275994
925.870761	2666.956907
926.174989	2666.669562
926.479178	2660.489107
926.783328	2656.027686
927.087438	2650.842859
927.391509	2653.890237
927.695541	2649.431336
927.999533	2645.920172
928.303486	2641.713329
928.607400	2644.339771
928.911275	2644.979997
929.215110	2641.098309
929.518906	2640.102681
929.822663	2640.601755
930.126381	2641.685603
930.430060	2639.487660
930.733699	2640.130407
931.037299	2640.813483
931.340861	2644.007054
931.644383	2646.000831
931.947866	2642.048566
932.251309	2640.606796
932.554714	2639.066724
932.858080	2637.423307
933.161407	2636.102525
933.464694	2633.745786
933.767943	2629.806124
934.071153	2635.812659
934.374323	2631.928450
934.677455	2634.116311
934.980548	2631.056330
935.283602	2631.507513
935.586617	2630.224540
935.889593	2632.223357
936.192530	2630.642956
936.495428	2633.657566
936.798287	2633.148409
937.101108	2638.938174
937.403890	2641.047897
937.706632	2643.268525
938.009336	2651.478044
938.312002	2663.596978
938.614628	2670.994872
938.917216	2676.285562
939.219765	2677.006447
939.522275	2676.305727
939.824747	2672.509738
940.127179	2671.516631
940.429573	2666.296516
940.731929	2666.137720
941.034246	2662.397184
941.336524	2661.230157
941.638763	2658.283602
941.940964	2653.620535
942.243126	2650.709268
942.545250	2653.030720
942.847335	2651.346974
943.149381	2645.163999
943.451389	2640.836169
943.753359	2636.576394
944.055290	2636.896507
944.357182	2637.932464
944.659036	2634.443986
944.960851	2633.554222
945.262628	2632.006588
945.564367	2634.053296
945.866067	2634.421300
946.167729	2635.734521
946.469352	2636.906589
946.770937	2634.627988
947.072484	2631.101701
947.373992	2632.354427
947.675462	2631.391567
947.976893	2628.255969
948.278286	2625.095166
948.579641	2625.412758
948.880958	2623.078704
949.182236	2625.952162
949.483476	2622.993005
949.784678	2622.640124
950.085841	2626.305043
950.386967	2623.824795
950.688054	2628.235805
950.989103	2625.684981
951.290114	2629.193624
951.591087	2629.929632
951.892021	2629.911988
952.192917	2634.857360
952.493776	2638.963380
952.794596	2637.166209
953.095378	2637.657721
953.396122	2637.229223
953.696828	2634.295272
953.997496	2633.770992
954.298126	2630.383336
954.598718	2628.626494
954.899272	2628.427368
955.199788	2626.305043
955.500266	2621.042078
955.800706	2621.878910
956.101108	2616.252982
956.401472	2614.957405
956.701798	2612.709051
957.002087	2612.018413
957.302337	2609.180243
957.602550	2609.286107
957.902724	2605.752258
958.202861	2604.865015
958.502960	2606.233689
958.803022	2607.246961
959.103045	2605.863164
959.403031	2601.305961
959.702979	2604.358379
960.002889	2604.431476
960.302762	2601.379057
960.602596	2602.833430
960.902393	2601.709253
961.202153	2602.125148
961.501875	2599.279417
961.801559	2599.067688
962.101205	2598.732452
962.400814	2599.481063
962.700385	2600.176742
962.999918	2598.372009
963.299414	2595.382605
963.598873	2596.839498
963.898293	2593.058633
964.197677	2597.721700
964.497022	2597.242791
964.796331	2598.835795
965.095601	2599.816300
965.394835	2598.218254
965.694030	2597.721700
965.993189	2596.327821
966.292309	2598.044334
966.591393	2596.945363
966.890439	2597.033583
967.189447	2598.762699
967.488419	2595.226329
967.787353	2595.947214
968.086249	2597.262955
968.385108	2593.784559
968.683930	2595.523757
968.982714	2597.147009
969.281462	2595.801021
969.580172	2599.912082
969.878844	2595.942173
970.177480	2597.661207
970.476078	2596.894951
970.774639	2598.669437
971.073162	2597.555342
971.371649	2597.096597
971.670098	2597.804879
971.968510	2597.421752
972.266885	2598.583738
972.565223	2596.834457
972.863524	2595.561566
973.161788	2597.555342
973.460014	2599.193717
973.758204	2597.361258
974.056356	2595.236412
974.354471	2598.823192
974.652550	2595.662389
974.950591	2599.032400
975.248595	2598.079622
975.546563	2594.858325
975.844493	2596.975610
976.142386	2594.427306
976.440243	2595.629622
976.738062	2595.065012
977.035845	2599.402925
977.333590	2595.559045
977.631299	2597.857812
977.928971	2593.290526
978.226606	2592.809096
978.524204	2593.207347
978.821765	2590.734661
979.119290	2596.821854
979.416777	2593.204827
979.714228	2592.856987
980.011642	2595.100300
980.309020	2595.296905
980.606360	2596.022832
980.903664	2595.027204
981.200931	2593.492172
981.498162	2595.674992
981.795356	2596.988212
982.092513	2598.409818
982.389633	2601.129520
982.686717	2602.513317
982.983764	2607.708226
983.280775	2607.814090
983.577749	2611.443721
983.874686	2610.193515
984.171587	2607.688062
984.468451	2606.586569
984.765279	2604.837289
985.062070	2602.891404
985.358824	2601.416866
985.655543	2600.075919
985.952224	2596.836978
986.248869	2595.312029
986.545478	2595.531319
986.842050	2596.138778
987.138586	2594.570979
987.435086	2593.948397
987.731549	2590.744743
988.027975	2593.567790
988.324366	2591.521081
988.620719	2590.490165
988.917037	2594.162646
989.213318	2592.211719
989.509563	2591.110227
989.805772	2592.257090
990.101944	2590.167531
990.398080	2591.999991
990.694180	2588.027562
990.990244	2590.974116
991.286271	2591.740371
991.582262	2591.921853
991.878217	2590.333889
992.174136	2594.815475
992.470019	2590.553180
992.765865	2589.474373
993.061676	2587.193251
993.357450	2588.403127
993.653188	2587.967068
993.948890	2591.485793
994.244556	2592.090732
994.540186	2593.245156
994.835780	2592.945207
995.131337	2593.867738
995.426859	2593.159456
995.722345	2596.148860
996.017795	2595.599375
996.313208	2598.140116
996.608586	2595.274220
996.903928	2597.174735
997.199234	2595.871597
997.494504	2595.049889
997.789738	2591.256421
998.084936	2595.677512
998.380099	2594.097111
998.675225	2594.061823
998.970316	2592.410845
999.265371	2591.684919
999.560390	2592.468818
999.855373	2590.485124
1000.150320	2593.789600
1000.445232	2591.760536
1000.740108	2592.244487
1001.034948	2592.181472
1001.329752	2589.774321
1001.624521	2591.775659
1001.919254	2587.896492
1002.213951	2593.403952
1002.508613	2587.979671
1002.803239	2591.228694
1003.097829	2586.512695
1003.392384	2587.410020
1003.686903	2588.461101
1003.981386	2589.043354
1004.275834	2589.630648
1004.570246	2587.520926
1004.864623	2588.587130
1005.158964	2589.754157
1005.453270	2586.656368
1005.747540	2587.379773
1006.041775	2590.064188
1006.335974	2591.818509
1006.630138	2589.663416
1006.924266	2589.073601
1007.218359	2589.781883
1007.512416	2585.189392
1007.806438	2584.725606
1008.100425	2586.081676
1008.394376	2583.445153
1008.688292	2590.220463
1008.982172	2588.708117
1009.276017	2588.032603
1009.569827	2589.534867
1009.863602	2589.938159
1010.157341	2588.456060
1010.451045	2587.704928
1010.744714	2587.268868
1011.038347	2588.488827
1011.331945	2588.796337
1011.625508	2586.608477
1011.919036	2587.248703
1012.212528	2588.413210
1012.505986	2588.014959
1012.799408	2588.022520
1013.092795	2590.210381
1013.386147	2589.108889
1013.679464	2589.867583
1013.972745	2588.821543
1014.265992	2586.739547
1014.559204	2586.661409
1014.852380	2588.163673
1015.145521	2587.568817
1015.438628	2589.323138
1015.731699	2587.331882
1016.024736	2589.781883
1016.317737	2587.084866
1016.610703	2588.244331
1016.903635	2587.830957
1017.196531	2586.497571
1017.489393	2588.095617
1017.782219	2587.268868
1018.075011	2585.345668
1018.367768	2585.890112
1018.660490	2587.498240
1018.953177	2587.498240
1019.245829	2587.498240
