Dividing Wavelength (nm)	Counts (n)	Blue Motor Position (mm): 14.700000	Red Motor Position (mm): 0.000000	
326.493990	2173.432987
326.888308	2173.432987
327.282561	2173.432987
327.676750	2132.380351
328.070874	2130.046296
328.464933	2128.617129
328.858929	2131.573766
329.252859	2139.092647
329.646726	2147.314769
330.040528	2157.865904
330.434265	2171.005671
330.827938	2191.233301
331.221547	2206.734849
331.615091	2224.333517
332.008571	2241.450755
332.401986	2260.859198
332.795338	2277.638678
333.188625	2298.698098
333.581847	2315.538073
333.975006	2334.422235
334.368100	2355.675740
334.761129	2372.992103
335.154095	2386.731768
335.546996	2412.855027
335.939833	2437.012236
336.332606	2450.436829
336.725315	2461.449230
337.117960	2476.996148
337.510540	2486.619711
337.903056	2499.895589
338.295508	2508.089985
338.687896	2520.070287
339.080220	2525.262676
339.472480	2532.342976
339.864676	2536.249870
340.256807	2541.177598
340.648875	2546.788403
341.040879	2549.061963
341.432818	2552.154711
341.824694	2554.176213
342.216506	2552.968857
342.608253	2555.078580
342.999937	2556.815258
343.391557	2557.236194
343.783113	2556.744681
344.174605	2552.595812
344.566033	2551.093548
344.957397	2553.919115
345.348697	2547.398382
345.739934	2551.582540
346.131106	2547.504246
346.522215	2549.389638
346.913260	2542.994934
347.304241	2543.501570
347.695159	2540.696168
348.086012	2537.953780
348.476802	2535.924716
348.867528	2534.374561
349.258191	2531.871628
349.648789	2528.206709
350.039324	2523.589013
350.429796	2530.364323
350.820203	2529.131761
351.210548	2526.943900
351.600828	2525.071112
351.991045	2526.467511
352.381198	2524.178828
352.771288	2524.211595
353.161314	2519.092303
353.551276	2523.044568
353.941175	2521.665812
354.331010	2520.783610
354.720782	2520.191275
355.110490	2521.479290
355.500135	2520.740761
355.889717	2521.756553
356.279235	2520.609691
356.668689	2524.670340
357.058080	2520.778569
357.447408	2524.776204
357.836672	2520.367715
358.225873	2524.166225
358.615010	2522.878210
359.004084	2525.179497
359.393095	2522.878210
359.782043	2526.361647
360.170927	2526.722090
360.559748	2525.731503
360.948505	2525.025741
361.337199	2526.250742
361.725830	2524.599764
362.114398	2527.866432
362.502903	2528.420958
362.891344	2528.383150
363.279722	2528.552028
363.668037	2526.873324
364.056289	2530.545805
364.444478	2530.308871
364.832603	2532.133768
365.220665	2529.875331
365.608665	2530.003881
365.996601	2531.286854
366.384474	2533.081505
366.772284	2531.818696
367.160031	2530.747451
367.547715	2533.736855
367.935336	2531.397760
368.322893	2533.013450
368.710388	2529.156967
369.097820	2530.064375
369.485189	2527.503468
369.872495	2533.303316
370.259738	2533.812473
370.646918	2537.800025
371.034035	2536.025539
371.421090	2534.326670
371.808081	2533.250384
372.195010	2535.947401
372.581875	2537.384130
372.968678	2537.800025
373.355418	2538.036959
373.742096	2537.071578
374.128710	2535.652494
374.515262	2539.435880
374.901751	2539.410674
375.288177	2538.447813
375.674540	2537.394212
376.060841	2541.643905
376.447079	2540.476878
376.833254	2540.880170
377.219367	2539.811446
377.605417	2539.791281
377.991404	2542.445448
378.377329	2540.991076
378.763191	2542.085006
379.148991	2542.311858
379.534727	2538.523431
379.920402	2540.549975
380.306013	2540.870088
380.691563	2543.143648
381.077049	2539.387989
381.462474	2540.416384
381.847835	2541.006199
382.233134	2540.343287
382.618371	2543.060469
383.003545	2543.425953
383.388657	2542.657177
383.773706	2546.299411
384.158693	2542.949564
384.543618	2545.031560
384.928480	2544.116591
385.313280	2544.167002
385.698017	2545.578526
386.082692	2547.330327
386.467305	2544.686241
386.851856	2545.752445
387.236344	2545.243289
387.620770	2540.975952
388.005133	2540.577701
388.389435	2543.042825
388.773674	2540.444110
389.157851	2545.961653
389.541965	2544.509801
389.926018	2547.663043
390.310008	2547.995759
390.693936	2547.962991
391.077802	2546.354863
391.461606	2549.997097
391.845348	2551.085986
392.229027	2549.067004
392.612645	2545.729760
392.996200	2545.293700
393.379694	2548.837632
393.763125	2547.988197
394.146494	2549.233362
394.529801	2549.379556
394.913047	2549.795451
395.296230	2551.900132
395.679351	2549.467776
396.062410	2549.094730
396.445408	2550.221428
396.828343	2552.227807
397.211217	2548.714123
397.594028	2551.585060
397.976778	2550.329813
398.359466	2551.237221
398.742092	2552.051367
399.124656	2553.561193
399.507158	2552.212684
399.889598	2550.521377
400.271977	2552.414330
400.654294	2550.758311
401.036549	2552.953734
401.418742	2551.252344
401.800874	2552.857952
402.182944	2553.435164
402.564952	2553.810730
402.946898	2554.597150
403.328783	2553.266285
403.710606	2553.863662
404.092367	2553.054557
404.474067	2554.574465
404.855705	2553.546069
405.237282	2553.301573
405.618797	2556.049002
406.000250	2556.336348
406.381642	2553.568754
406.762972	2553.876265
407.144240	2551.471634
407.525447	2552.537838
407.906593	2549.621531
408.287677	2556.406924
408.668700	2555.978426
409.049661	2556.865669
409.430560	2552.812581
409.811399	2556.164949
410.192176	2557.778118
410.572891	2560.470094
410.953545	2553.306614
411.334138	2558.501523
411.714669	2556.785011
412.095139	2558.372974
412.475547	2558.688046
412.855894	2557.319373
413.236180	2557.649568
413.616405	2558.446071
413.996568	2556.396842
414.376670	2559.038406
414.756711	2559.630742
415.136691	2560.966648
415.516609	2556.837943
415.896466	2556.800134
416.276262	2560.906154
416.655997	2558.526729
417.035670	2560.646534
417.415283	2559.358520
417.794834	2560.734755
418.174324	2559.706359
418.553753	2556.359033
418.933121	2561.017059
419.312428	2561.939590
419.691674	2561.770712
420.070859	2559.701318
420.449983	2559.716442
420.829045	2562.544529
421.208047	2560.855742
421.586988	2562.405897
421.965867	2560.775084
422.344686	2562.665517
422.723444	2562.753737
423.102141	2563.799776
423.480777	2559.577810
423.859352	2562.103428
424.237866	2562.239539
424.616319	2561.243911
424.994712	2567.000909
425.373044	2562.458829
425.751314	2559.071174
426.129524	2557.851215
426.507673	2563.761967
426.885762	2557.357182
427.263789	2560.255845
427.641756	2561.758109
428.019662	2564.230795
428.397508	2563.058727
428.775292	2562.373130
429.153016	2564.719787
429.530679	2564.223233
429.908282	2562.814231
430.285824	2567.147102
430.663305	2562.413459
431.040726	2564.389591
431.418086	2563.638459
431.795385	2564.185424
432.172624	2562.262224
432.549802	2565.773388
432.926920	2565.828841
433.303977	2567.310940
433.680974	2564.971844
434.057910	2566.063254
434.434786	2564.162739
434.811601	2565.894376
435.188355	2563.330949
435.565050	2565.937225
435.941683	2565.864129
436.318257	2562.289951
436.694770	2564.566032
437.071222	2564.046793
437.447614	2565.478480
437.823946	2568.573749
438.200218	2565.082750
438.576429	2562.320198
438.952580	2567.923440
439.328670	2567.588203
439.704700	2567.333625
440.080670	2564.654252
440.456580	2563.709035
440.832429	2568.818245
441.208218	2567.691547
441.583947	2566.080898
441.959616	2567.192473
442.335224	2566.065775
442.710773	2567.240364
443.086261	2568.412432
443.461689	2566.819427
443.837057	2567.631053
444.212365	2567.762123
444.587612	2565.692729
444.962800	2566.466547
445.337927	2565.400343
445.712995	2562.809189
446.088002	2566.406053
446.462949	2568.828327
446.837837	2566.343038
447.212664	2570.015519
447.587431	2569.531568
447.962139	2567.956207
448.336786	2569.831517
448.711374	2569.166084
449.085901	2570.466702
449.460369	2569.226578
449.834776	2568.712381
450.209124	2565.682647
450.583412	2572.130283
450.957640	2569.632391
451.331808	2570.494428
451.705917	2570.078533
452.079965	2571.202711
452.453954	2570.494428
452.827883	2573.521641
453.201752	2569.299675
453.575562	2569.589541
453.949311	2570.761610
454.323001	2571.921075
454.696632	2571.895869
455.070202	2573.201528
455.443713	2571.225396
455.817164	2570.885118
456.190556	2571.492577
456.563888	2572.019377
456.937160	2571.510221
457.310373	2574.144224
457.683526	2572.334450
458.056619	2572.233627
458.429653	2573.367886
458.802628	2572.359655
459.175542	2573.471230
459.548398	2575.033988
459.921194	2573.740932
460.293930	2574.857547
460.666607	2573.418298
461.039224	2573.761096
461.411782	2574.721436
461.784280	2576.440469
462.156719	2572.866291
462.529099	2574.522310
462.901419	2574.242526
463.273680	2575.056673
463.645882	2570.459140
464.018024	2572.962073
464.390106	2573.125911
464.762130	2575.986766
465.134094	2577.693196
465.505999	2576.453072
465.877845	2578.956005
466.249631	2580.927096
466.621358	2580.763259
466.993026	2580.269226
467.364634	2583.215780
467.736184	2580.196129
468.107674	2576.795871
468.479105	2578.983732
468.850477	2580.962384
469.221790	2577.975501
469.593043	2577.173957
469.964238	2578.013309
470.335373	2577.670511
470.706449	2580.165882
471.077467	2577.531879
471.448425	2581.295101
471.819324	2580.818712
472.190164	2583.571182
472.560945	2581.398444
472.931667	2582.636047
473.302330	2580.856520
473.672934	2579.134966
474.043479	2579.659246
474.413965	2580.785944
474.784393	2580.334761
475.154761	2583.044381
475.525070	2579.699575
475.895321	2582.212591
476.265513	2578.898032
476.635645	2580.967426
477.005719	2581.106057
477.375734	2582.275605
477.745691	2584.302149
478.115588	2585.138980
478.485427	2584.365163
478.855207	2582.313414
479.224928	2587.329362
479.594591	2587.483117
479.964194	2589.829774
480.333739	2585.713672
480.703226	2587.490679
481.072653	2588.372881
481.442022	2589.169383
481.811333	2588.037644
482.180584	2585.559917
482.549777	2584.816347
482.918912	2584.337437
483.287988	2589.950762
483.657005	2586.079156
484.025964	2585.186871
484.394864	2586.432036
484.763706	2587.626790
485.132489	2588.599732
485.501213	2590.165011
485.869879	2589.224836
486.238487	2587.599063
486.607036	2589.683581
486.975527	2586.774835
487.343959	2587.092427
487.712333	2589.492017
488.080648	2587.331882
488.448905	2587.778024
488.817104	2590.883375
489.185244	2589.519743
489.553326	2588.705597
489.921350	2589.557552
490.289315	2592.594847
490.657222	2594.941504
491.025070	2594.036617
491.392861	2595.977461
491.760593	2594.996957
492.128267	2595.183479
492.495883	2594.031576
492.863440	2590.533015
493.230939	2591.561410
493.598380	2595.632142
493.965763	2591.712645
494.333088	2592.274734
494.700354	2591.503437
495.067563	2588.435895
495.434713	2590.691811
495.801805	2594.545773
496.168839	2591.402614
496.535815	2592.826740
496.902733	2590.996801
497.269593	2592.448653
497.636395	2591.505958
498.003139	2595.483428
498.369825	2593.774477
498.736453	2591.879003
499.103023	2594.381936
499.469535	2593.673654
499.835989	2593.522419
500.202385	2591.226174
500.568723	2590.850608
500.935003	2592.037799
501.301226	2586.426995
501.667390	2595.591813
502.033497	2597.963676
502.399546	2594.145002
502.765537	2594.954107
503.131470	2597.822523
503.497345	2596.658017
503.863163	2596.826896
504.228923	2599.488625
504.594625	2594.921339
504.960269	2598.039293
505.325856	2599.745724
505.691385	2596.799169
506.056856	2599.501228
506.422270	2599.970055
506.787625	2600.751434
507.152924	2599.039962
507.518164	2599.818820
507.883347	2600.932915
508.248472	2599.919643
508.613540	2606.004316
508.978550	2604.983482
509.343503	2606.140427
509.708398	2604.514655
510.073236	2605.154882
510.438016	2604.900303
510.802738	2608.451796
511.167403	2608.212342
511.532010	2608.633278
511.896561	2610.891715
512.261053	2611.552106
512.625488	2610.992538
512.989866	2609.263422
513.354186	2613.208125
513.718449	2616.608383
514.082655	2615.259875
514.446803	2613.377004
514.810894	2616.288270
515.174927	2621.538632
515.538904	2621.228601
515.902822	2619.544855
516.266684	2620.681636
516.630488	2618.657612
516.994235	2619.154166
517.357925	2621.309259
517.721558	2626.226905
518.085133	2623.179527
518.448651	2623.240021
518.812112	2622.498972
519.175516	2625.027110
519.538863	2622.259517
519.902152	2630.206896
520.265385	2633.113121
520.628560	2632.288892
520.991678	2633.236629
521.354739	2633.617236
521.717743	2634.602782
522.080690	2634.222175
522.443580	2638.950777
522.806413	2642.580408
523.169189	2642.681231
523.531908	2641.824235
523.894569	2640.919348
524.257174	2644.150727
524.619722	2645.355563
524.982213	2648.584422
525.344647	2647.334216
525.707025	2649.370842
526.069345	2654.124650
526.431608	2652.428302
526.793815	2654.769918
527.155964	2655.163128
527.518057	2654.447284
527.880093	2659.707728
528.242072	2659.869045
528.603995	2662.588747
528.965860	2661.164622
529.327669	2660.751247
529.689421	2667.461023
530.051117	2669.696774
530.412755	2669.452278
530.774337	2672.630726
531.135862	2672.224913
531.497331	2675.163906
531.858743	2674.954698
532.220098	2680.187416
532.581396	2684.724454
532.942638	2682.561799
533.303824	2684.537931
533.664953	2688.147397
534.026025	2689.924404
534.387040	2692.744930
534.747999	2698.101156
535.108902	2700.420087
535.469748	2700.034438
535.830537	2704.480736
536.191270	2712.470965
536.551947	2706.298072
536.912567	2710.376365
537.273131	2715.740153
537.633638	2720.269630
537.994089	2722.775083
538.354483	2726.966803
538.714821	2735.912330
539.075103	2737.540623
539.435328	2742.196128
539.795497	2743.814339
540.155609	2751.262644
540.515665	2754.216760
540.875665	2754.486462
541.235609	2761.176073
541.595496	2769.196548
541.955328	2777.169133
542.315102	2784.778755
542.674821	2783.692386
543.034483	2789.129271
543.394090	2794.770322
543.753640	2803.892290
544.113134	2815.446614
544.472571	2817.679846
544.831953	2829.546722
545.191278	2835.409584
545.550548	2840.526355
545.909761	2846.600945
546.268918	2858.414889
546.628019	2867.488966
546.987064	2878.902138
547.346053	2884.260885
547.704986	2892.268758
548.063863	2904.879204
548.422684	2908.894483
548.781449	2918.288673
549.140158	2936.419183
549.498811	2942.024946
549.857408	2949.485854
550.215949	2968.226343
550.574434	2975.790595
550.932864	2991.408089
551.291237	3002.783453
551.649555	3019.449508
552.007817	3035.044317
552.366022	3046.724671
552.724173	3060.887792
553.082267	3074.781212
553.440305	3106.812704
553.798288	3104.024946
554.156215	3136.179946
554.514086	3153.214004
554.871902	3150.945485
555.229661	3177.051100
555.587365	3199.859801
555.945014	3215.086606
556.302606	3251.834097
556.660143	3265.782970
557.017625	3304.090698
557.375050	3314.972028
557.732421	3342.045545
558.089735	3367.422714
558.446994	3388.088924
558.804197	3421.431115
559.161345	3456.043678
559.518437	3455.602577
559.875474	3501.993795
560.232455	3525.165459
560.589381	3560.889595
560.946251	3580.088830
561.303065	3630.691932
561.659825	3669.274403
562.016528	3679.439890
562.373177	3703.949980
562.729770	3737.050196
563.086307	3787.804533
563.442789	3824.864575
563.799216	3860.109802
564.155587	3882.295921
564.511904	3933.844239
564.868164	3950.689255
565.224370	4005.279910
565.580520	4022.775234
565.936615	4086.500460
566.292654	4090.780400
566.648638	4171.098583
567.004567	4191.006100
567.360441	4233.936566
567.716260	4253.937344
568.072023	4334.734437
568.427732	4369.241135
568.783385	4392.208632
569.138982	4460.317141
569.494525	4521.904918
569.850013	4562.244231
570.205445	4609.106797
570.560823	4628.966422
570.916145	4680.484494
571.271412	4725.267584
571.626625	4785.280000
571.981782	4829.017051
572.336884	4859.369838
572.691931	4931.291980
573.046923	4938.828505
573.401860	5006.652189
573.756743	5074.196089
574.111570	5111.989619
574.466342	5148.321215
574.821059	5224.079675
575.175722	5236.874124
575.530330	5316.700795
575.884882	5368.138208
576.239380	5423.742135
576.593823	5465.606397
576.948211	5504.433364
577.302544	5536.454773
577.656823	5584.295323
578.011047	5671.338406
578.365216	5710.157811
578.719330	5770.029075
579.073389	5796.059073
579.427394	5910.936887
579.781344	5906.281381
580.135239	5979.471373
580.489080	6021.501993
580.842866	6034.256113
581.196597	6175.121075
581.550273	6191.835020
581.903895	6290.208096
582.257463	6393.950001
582.610975	6390.161574
582.964434	6510.947620
583.317837	6536.168513
583.671186	6621.568180
584.024481	6705.039605
584.377721	6693.437390
584.730906	6783.681605
585.084037	6874.593774
585.437113	6920.622029
585.790135	7018.846391
586.143103	6983.575958
586.496016	7032.991869
586.848874	7203.675256
587.201679	7234.912765
587.554428	7221.301650
587.907124	7382.174952
588.259765	7395.682723
588.612352	7518.744850
588.964884	7469.954043
589.317362	7588.017866
589.669786	7670.773447
590.022155	7756.518433
590.374470	7890.028352
590.726731	7919.322497
591.078937	7912.189264
591.431090	8006.897421
591.783188	7994.188672
592.135232	8041.643574
592.487222	8183.184051
592.839157	8241.787464
593.191038	8302.850961
593.542866	8311.864544
593.894639	8321.026841
594.246358	8459.068757
594.598022	8487.004311
594.949633	8492.075712
595.301190	8532.049541
595.652692	8663.164911
596.004141	8821.265578
596.355535	8652.581009
596.706876	8736.906910
597.058162	8774.647508
597.409395	8889.149756
597.760573	9021.235548
598.111698	9025.334007
598.462768	9059.326507
598.813785	9107.610678
599.164748	9114.224672
599.515657	9184.700003
599.866511	9183.754787
600.217312	9389.181806
600.568060	9263.793186
600.918753	9478.377462
601.269392	9523.097537
601.619978	9478.138007
601.970510	9673.190331
602.320988	9689.158186
602.671412	9856.330409
603.021783	9879.305468
603.372100	9834.320732
603.722363	9978.185180
604.072572	10024.220997
604.422728	10122.097520
604.772830	10131.698397
605.122878	10131.416093
605.472872	10226.144414
605.822813	10297.650661
606.172701	10347.066572
606.522534	10513.079330
606.872314	10590.410630
607.222041	10550.106605
607.571714	10731.474717
607.921333	10733.662578
608.270899	10833.946251
608.620411	11028.912876
608.969870	10923.547720
609.319276	11009.577531
609.668627	11118.907555
610.017926	11250.640467
610.367171	11371.290402
610.716362	11503.265289
611.065500	11431.534711
611.414585	11576.223388
611.763616	11644.896506
612.112594	11693.493229
612.461518	11712.546270
612.810389	11890.257025
613.159207	11844.697598
613.507971	11873.306146
613.856682	12145.450315
614.205340	12155.197386
614.553945	12322.440186
614.902496	12190.954291
615.250994	12458.816000
615.599439	12464.446969
615.947830	12509.323321
616.296169	12572.622569
616.644454	12654.163232
616.992686	12655.713387
617.340864	12874.365873
617.688990	12800.928865
618.037063	12985.528357
618.385082	12943.076800
618.733048	13170.813446
619.080961	13134.590235
619.428821	13242.133170
619.776628	13243.388417
620.124382	13236.597983
620.472083	13340.760824
620.819731	13420.554728
621.167326	13270.678704
621.514868	13353.416641
621.862357	13258.068257
622.209793	13325.707939
622.557176	13291.841468
622.904506	13207.203015
623.251783	13206.151934
623.599007	13146.441988
623.946179	13149.363336
624.293297	13165.369000
624.640363	13053.775498
624.987376	13103.738373
625.334336	12991.595386
625.681243	12948.624590
626.028097	12986.551711
626.374899	13025.781970
626.721647	12940.102520
627.068343	12848.761853
627.414987	12857.072195
627.761577	12913.092017
628.108115	13005.443435
628.454600	12796.918627
628.801032	12910.876430
629.147412	12903.430646
629.493739	12963.927013
629.840014	12862.756096
630.186236	12975.418323
630.532405	12830.159995
630.878521	13028.846992
631.224585	12969.857930
631.570597	12894.608627
631.916556	12928.386878
632.262462	12947.099641
632.608316	12928.162547
632.954117	12907.950040
633.299866	12951.785394
633.645562	12933.246550
633.991206	12753.753747
634.336797	12675.000842
634.682336	12703.324565
635.027823	12649.608550
635.373257	12612.392232
635.718639	12545.049978
636.063968	12534.680324
636.409245	12376.705686
636.754470	12433.446393
637.099642	12335.758914
637.444762	12172.670026
637.789829	12256.073395
638.134845	12146.070377
638.479808	12189.373889
638.824719	12189.172243
639.169577	12083.975965
639.514383	12148.323773
639.859137	12021.989937
640.203839	12121.610699
640.548489	12003.884633
640.893086	12034.875126
641.237632	11924.115935
641.582125	12095.126997
641.926566	11983.568783
642.270955	12001.464879
642.615292	12001.727019
642.959576	12023.255267
643.303809	12098.791916
643.647990	12052.194010
643.992118	12128.111267
644.336195	11939.728389
644.680219	12131.937502
645.024192	12103.734767
645.368112	12315.332159
645.711981	12404.122002
646.055797	12578.366964
646.399562	12561.234602
646.743274	12815.008808
647.086935	13093.156992
647.430544	13071.820308
647.774101	13097.237806
648.117606	13281.741516
648.461059	13252.885951
648.804460	13289.129327
649.147810	13067.822673
649.491108	12977.459990
649.834354	13041.507850
650.177548	12775.057663
650.520690	12614.945576
650.863781	12560.450703
651.206820	12618.088735
651.549807	12467.580046
651.892742	12327.723315
652.235626	12278.282199
652.578458	12297.514201
652.921238	12030.388499
653.263967	12217.460678
653.606644	12077.407341
653.949269	12050.359030
654.291843	11922.467478
654.634365	12051.016901
654.976836	11941.170159
655.319255	11969.972791
655.661622	11932.728747
656.003938	11878.438040
656.346203	11816.852784
656.688416	11895.507387
657.030577	11867.166020
657.372687	11821.692292
657.714746	11799.995166
658.056753	11973.244500
658.398708	11834.335506
658.740612	11842.534943
659.082465	11952.522837
659.424266	11910.378791
659.766016	11936.214704
660.107715	11869.419416
660.449362	11943.917587
660.790958	11914.323494
661.132503	11882.211344
661.473996	11935.161103
661.815438	11968.112605
662.156829	11982.071560
662.498168	11974.219963
662.839456	11987.871408
663.180693	12018.990451
663.521879	12103.991866
663.863013	12097.135897
664.204097	12086.582241
664.545129	12202.097761
664.886110	12177.421313
665.227040	12259.997934
665.567918	12271.491764
665.908746	12319.027325
666.249522	12301.219449
666.590248	12347.865245
666.930922	12452.771657
667.271545	12469.147845
667.612118	12540.349102
667.952639	12461.132410
668.293109	12458.009416
668.633528	12435.611569
668.973896	12416.422417
669.314213	12512.965554
669.654480	12280.306222
669.994695	12327.682986
670.334859	12352.901358
670.674973	12316.247128
671.015035	12359.338911
671.355047	12306.527784
671.695008	12284.818055
672.034918	12286.884928
672.374777	12333.102226
672.714585	12256.522058
673.054342	12292.629322
673.394049	12248.622570
673.733705	12331.539468
674.073310	12266.720312
674.412864	12286.544650
674.752368	12174.520129
675.091820	12178.769822
675.431223	12182.606140
675.770574	12060.645505
676.109875	11985.527271
676.449125	11955.101387
676.788324	11882.576827
677.127473	11736.922769
677.466571	11731.536297
677.805619	11639.023562
678.144616	11555.542054
678.483562	11533.058508
678.822458	11402.308621
679.161303	11381.586958
679.500098	11383.437062
679.838842	11334.779845
680.177535	11360.315810
680.516179	11417.535426
680.854771	11363.703465
681.193314	11581.254459
681.531805	11730.510422
681.870247	12120.857046
682.208638	12510.573527
682.546978	12832.103360
682.885268	12908.428950
683.223508	12604.109616
683.561697	12444.390738
683.899836	12346.236952
684.237925	12153.642190
684.575963	12073.820560
684.913951	12011.496775
685.251889	11947.005294
685.589776	12045.262424
685.927614	11978.126858
686.265401	11946.412959
686.603137	11977.862197
686.940824	12137.439922
687.278460	12249.104000
687.616046	12297.675517
687.953582	12480.636635
688.291068	12399.234603
688.628504	12610.335441
688.965889	12623.896145
689.303224	12603.068618
689.640510	12508.264678
689.977745	12221.531409
690.314930	11989.918116
690.652065	11909.410889
690.989150	11626.400513
691.326185	11401.746533
691.663170	11201.519463
692.000105	10956.368152
692.336990	10862.973215
692.673825	10613.297468
693.010610	10494.936217
693.347345	10292.349888
693.684030	10090.113919
694.020665	10036.614674
694.357251	9840.652421
694.693786	9804.499786
695.030272	9634.786821
695.366707	9505.398046
695.703093	9445.373027
696.039429	9432.399618
696.375716	9375.502635
696.711952	9245.254343
697.048139	9273.673848
697.384276	9226.959996
697.720363	9243.631092
698.056400	9185.259571
698.392388	9138.076892
698.728326	9102.640101
699.064214	9035.968321
699.400053	9087.136032
699.735842	8902.319770
700.071581	8860.563893
700.407270	8788.581257
700.742910	8709.853558
701.078501	8625.467163
701.414042	8506.639605
701.749533	8428.834437
702.084974	8301.285683
702.420366	8404.543637
702.755709	8290.704301
703.091002	8170.162750
703.426246	8187.126233
703.761440	8138.514387
704.096584	8097.912933
704.431679	8031.873818
704.766725	8017.572065
705.101721	7964.942418
705.436668	8009.811208
705.771565	7906.588542
706.106413	7979.813822
706.441212	8034.275928
706.775961	7987.612487
707.110661	8009.107967
707.445311	8166.626381
707.779913	8059.915236
708.114465	8188.799896
708.448967	8234.172801
708.783421	8356.352727
709.117825	8541.302579
709.452180	8575.426149
709.786485	8667.510386
710.120742	8936.859236
710.454949	8935.467877
710.789107	9043.651039
711.123216	9243.694106
711.457275	9406.591431
711.791286	9573.241895
712.125247	9563.356192
712.459159	9553.904028
712.793023	9811.141506
713.126837	9390.623576
713.460602	9531.178507
713.794318	9366.665492
714.127985	9385.083348
714.461602	9090.783307
714.795171	9034.861787
715.128691	8797.516702
715.462162	8540.506077
715.795584	8489.605546
716.128957	8353.446501
716.462281	8176.736415
716.795556	8223.984629
717.128782	8032.042697
717.461960	7756.115141
717.795088	7828.571645
718.128167	7737.021771
718.461198	7567.956594
718.794180	7508.110536
719.127113	7504.289342
719.459997	7366.882611
719.792833	7127.016950
720.125619	7189.892741
720.458357	7051.750002
720.791046	7037.309617
721.123686	7043.119547
721.456278	6887.632718
721.788821	6904.399596
722.121315	6793.564787
722.453761	6858.792277
722.786158	6806.223125
723.118506	6823.519323
723.450805	6791.649149
723.783056	6857.012750
724.115259	6757.467605
724.447412	6752.338231
724.779518	6797.902700
725.111574	6804.055428
725.443582	6883.874538
725.775542	6863.210848
726.107453	7045.153652
726.439315	6966.630119
726.771129	7015.675505
727.102895	7174.285329
727.434612	7296.641694
727.766281	7320.360323
728.097901	7407.345433
728.429473	7388.980509
728.760996	7364.856068
729.092471	7340.434198
729.423897	7302.875081
729.755276	7311.992008
730.086606	7245.529435
730.417887	7339.274732
730.749120	7513.638162
731.080305	7704.183695
731.411442	7841.119077
731.742530	7837.829724
732.073570	7944.251003
732.404562	8024.884258
732.735506	7871.734004
733.066401	8010.816918
733.397249	7950.428937
733.728048	7718.858493
734.058798	7386.888430
734.389501	7177.103334
734.720156	6989.239694
735.050762	6763.471619
735.381320	6652.021790
735.711831	6616.700946
736.042293	6505.551065
736.372707	6525.753489
736.703073	6391.585700
737.033391	6427.287152
737.363661	6434.564057
737.693883	6458.043231
738.024056	6536.344953
738.354182	6592.952070
738.684260	6627.436083
739.014290	6729.829479
739.344272	6841.019689
739.674207	6869.146807
740.004093	6936.136180
740.333931	6948.451719
740.663722	6960.686599
740.993464	7036.646705
741.323159	7037.435646
741.652806	6785.551873
741.982405	6775.923269
742.311956	6845.304670
742.641460	6701.800664
742.970915	6504.074007
743.300323	6496.373645
743.629683	6439.098575
743.958996	6309.722403
744.288260	6220.597323
744.617477	6167.418192
744.946647	6180.535274
745.275768	6018.005953
745.604842	5971.599612
745.933869	5950.346107
746.262847	5904.290125
746.591778	5895.389968
746.920662	5855.968145
747.249498	5840.441391
747.578286	5892.110698
747.907027	5966.359332
748.235720	6022.147261
748.564365	5991.746583
748.892963	6009.917422
749.221514	6173.018913
749.550017	6028.864599
749.878473	5892.138424
750.206881	5936.251041
750.535242	5882.656014
750.863555	5819.787784
751.191821	5838.729920
751.520039	5839.622204
751.848210	5755.790336
752.176334	5764.158651
752.504411	5817.478936
752.832440	5743.915898
753.160421	5669.205998
753.488356	5720.265325
753.816243	5758.290748
754.144082	5611.487307
754.471875	5576.204271
754.799620	5620.717660
755.127318	5631.669567
755.454969	5581.139561
755.782572	5549.526485
756.110129	5588.177012
756.437638	5589.535603
756.765100	5525.104615
757.092515	5514.898799
757.419882	5561.022837
757.747203	5547.688985
758.074477	5610.103510
758.401703	5602.919866
758.728882	5549.566814
759.056014	5589.444862
759.383099	5734.854424
759.710138	5743.731896
760.037129	5717.648966
760.364073	5727.973249
760.690970	5814.683616
761.017820	5797.778106
761.344623	5746.963276
761.671379	5845.152350
761.998088	5953.436334
762.324751	6183.063412
762.651366	6743.380101
762.977935	7997.563725
763.304456	9595.264175
763.630931	10522.947388
763.957359	10188.184526
764.283740	9265.696222
764.610074	8462.690826
764.936362	7492.460274
765.262602	6899.945736
765.588796	6352.478949
765.914943	6005.655126
766.241044	5858.158527
766.567097	5675.555331
766.893104	5411.270320
767.219064	5229.932455
767.544978	5167.071787
767.870845	5098.595274
768.196665	4984.854240
768.522438	4918.371503
768.848165	4886.919744
769.173846	4824.684179
769.499479	4782.648518
769.825066	4725.975867
770.150607	4669.162063
770.476101	4638.930263
770.801548	4640.561076
771.126949	4569.642124
771.452303	4521.670504
771.777611	4474.374399
772.102872	4490.092716
772.428087	4452.531079
772.753256	4415.788629
773.078378	4376.480232
773.403453	4306.403153
773.728482	4290.180719
774.053465	4244.603648
774.378401	4226.359712
774.703291	4235.605188
775.028135	4168.552801
775.352932	4118.171509
775.677683	4101.926391
776.002388	4122.481696
776.327046	4137.554746
776.651658	4058.511974
776.976224	3999.011235
777.300743	4003.414683
777.625216	4023.969988
777.949643	4026.331768
778.274024	3978.516424
778.598359	3927.913322
778.922647	3950.379224
779.246889	3947.369655
779.571086	3943.629119
779.895236	3933.640072
780.219339	3911.879932
780.543397	3902.342069
780.867409	3954.974236
781.191374	3972.656083
781.515294	3911.068306
781.839167	3904.857605
782.162995	3920.575922
782.486776	3905.109662
782.810511	3915.451589
783.134201	3919.613062
783.457844	3876.722925
783.781441	3817.423832
784.104993	3822.664112
784.428498	3839.982996
784.751958	3841.465095
785.075372	3819.931806
785.398739	3784.973925
785.722061	3792.921304
786.045337	3832.887572
786.368568	3871.472563
786.691752	3785.036939
787.014891	3824.489009
787.337983	3945.196918
787.661030	4098.715176
787.984031	4256.200822
788.306987	4435.494500
788.629897	4514.227240
788.952760	4467.195796
789.275579	4398.986463
789.598351	4344.315150
789.921078	4212.153740
790.243759	4017.971015
790.566395	3988.172754
790.888984	3982.841734
791.211529	3880.370200
791.534027	3820.352743
791.856480	3817.388544
792.178888	3755.442846
792.501249	3701.310936
792.823566	3710.453068
793.145836	3746.187287
793.468062	3697.976212
793.790241	3645.550733
794.112375	3673.866894
794.434464	3735.668920
794.756507	3761.358640
795.078505	3748.402874
795.400457	3770.959517
795.722364	3904.272831
796.044226	4004.473325
796.366042	4079.750355
796.687812	4067.878438
797.009538	4075.556115
797.331218	4030.296636
797.652852	4003.094570
797.974442	3982.193946
798.295986	3984.959019
798.617484	3909.939088
798.938938	3819.326868
799.260346	3857.468238
799.581709	3855.918083
799.903026	3787.880150
800.224299	3746.696444
800.545526	3743.099581
800.866708	3704.045762
801.187845	3642.647028
801.508936	3677.264632
801.829983	3684.506249
802.150984	3601.508692
802.471940	3587.837083
802.792851	3600.823096
803.113717	3599.323352
803.434538	3605.191255
803.755314	3551.694531
804.076045	3522.347454
804.396731	3539.943601
804.717372	3563.642065
805.037967	3554.270560
805.358518	3543.757234
805.679024	3565.330852
805.999485	3577.517841
806.319901	3582.803491
806.640272	3596.848146
806.960598	3614.290538
807.280879	3588.275664
807.601115	3599.078856
807.921306	3612.939509
808.241453	3654.060201
808.561554	3633.232674
808.881611	3571.067685
809.201623	3599.119186
809.521590	3614.403964
809.841513	3585.515632
810.161390	3616.158286
810.481223	3600.233281
810.801011	3545.390568
811.120755	3528.467414
811.440453	3565.890420
811.760107	3572.302768
812.079716	3536.634084
812.399281	3497.343331
812.718801	3517.828059
813.038276	3495.871314
813.357707	3491.183041
813.677093	3509.540402
813.996434	3461.667085
814.315731	3464.112044
814.634983	3467.787046
814.954191	3478.638129
815.273354	3512.386134
815.592473	3510.689785
815.911547	3510.034435
816.230577	3544.543654
816.549562	3597.251438
816.868502	3640.086122
817.187399	3666.743744
817.506250	3664.812982
817.825058	3632.536994
818.143821	3714.952298
818.462539	3818.490036
818.781213	3863.739433
819.099843	3915.882608
819.418429	4141.915344
819.736970	4382.128845
820.055466	4613.996716
820.373919	4968.107527
820.692327	5371.777921
821.010691	5766.979177
821.329011	7038.252313
821.647286	9615.171692
821.965517	13964.119662
822.283704	17943.064584
822.601847	20235.330170
822.919945	18531.528555
823.237999	16060.894343
823.556010	13637.052121
823.873976	11619.320212
824.191897	9572.805835
824.509775	8228.246925
824.827609	7113.594877
825.145398	6561.555764
825.463144	6448.681809
825.780845	6566.319654
826.098502	6720.735238
826.416116	7511.974581
826.733685	8788.059498
827.051210	9904.536443
827.368692	10034.575527
827.686129	8852.195578
828.003522	7359.343566
828.320872	6353.366192
828.638177	5672.046688
828.955439	5129.195078
829.272656	4642.832116
829.589830	4356.655895
829.906960	4183.686344
830.224046	4006.436855
830.541088	3880.970097
830.858086	3834.246163
831.175041	3768.360803
831.491952	3740.833582
831.808819	3751.906476
832.125642	3814.295796
832.442421	3954.863330
832.759157	4212.461251
833.075849	4724.957553
833.392497	5552.954470
833.709101	6310.518905
834.025662	6671.825963
834.342179	6359.912131
834.658653	5711.201330
834.975083	5086.549437
835.291469	4523.182850
835.607811	4111.819655
835.924110	3977.830827
836.240366	3785.841003
836.556578	3582.891711
836.872746	3476.031853
837.188871	3441.545319
837.504952	3377.994013
837.820990	3296.166004
838.136984	3246.238416
838.452935	3269.725152
838.768842	3267.683485
839.084706	3287.850621
839.400526	3430.875717
839.716303	3747.240888
840.032037	4239.597782
840.347727	4525.862223
840.663373	4280.877270
840.978977	3914.405550
841.294537	3612.203500
841.610054	3384.585322
841.925527	3272.354114
842.240957	3207.933209
842.556344	3158.177020
842.871687	3099.077053
843.186987	3055.158521
843.502244	3014.050432
843.817458	2985.761997
844.132629	2949.422840
844.447756	2956.767801
844.762840	2948.578446
845.077881	2915.044691
845.392879	2897.720766
845.707833	2894.519633
846.022745	2890.590054
846.337613	2893.143398
846.652438	2881.485730
846.967221	2880.306100
847.281960	2863.478728
847.596656	2860.431351
847.911309	2860.277596
848.225919	2854.008921
848.540485	2847.949454
848.855009	2853.146883
849.169490	2841.789164
849.483928	2832.266424
849.798323	2830.655776
850.112675	2826.738799
850.426984	2836.687516
850.741251	2837.000068
851.055474	2827.278202
851.369654	2824.150167
851.683792	2826.292657
851.997887	2835.923781
852.311938	2832.997392
852.625947	2826.234684
852.939914	2827.502534
853.253837	2834.282886
853.567718	2817.311841
853.881555	2814.667756
854.195350	2832.178204
854.509103	2828.029334
854.822812	2820.732264
855.136479	2819.313179
855.450103	2820.177737
855.763685	2814.443425
856.077224	2806.359935
856.390720	2818.473827
856.704173	2833.151147
857.017584	2824.888696
857.330953	2818.796461
857.644278	2827.797441
857.957561	2837.862105
858.270802	2840.372600
858.584000	2838.643484
858.897155	2827.366423
859.210268	2827.512616
859.523339	2826.290136
859.836367	2825.836432
860.149352	2819.124136
860.462295	2812.076603
860.775195	2823.943479
861.088054	2822.358036
861.400869	2807.761375
861.713642	2803.667958
862.026373	2818.055412
862.339062	2820.971719
862.651708	2823.673777
862.964312	2831.416990
863.276873	2823.459528
863.589392	2829.851712
863.901869	2842.527693
864.214303	2863.743389
864.526696	2881.221069
864.839045	2875.471633
865.151353	2872.832589
865.463619	2873.752600
865.775842	2874.642363
866.088023	2889.785990
866.400162	2898.333266
866.712258	2871.842003
867.024313	2860.204499
867.336325	2867.400746
867.648296	2887.968654
867.960224	2879.605379
868.272110	2869.208000
868.583954	2873.805532
868.895755	2887.726678
869.207515	2875.249822
869.519233	2874.569267
869.830909	2885.785834
870.142542	2898.096332
870.454134	2898.923081
870.765684	2901.380643
871.077191	2898.996178
871.388657	2906.628485
871.700081	2919.922007
872.011463	2929.873245
872.322803	2931.771239
872.634101	2932.356013
872.945357	2945.747838
873.256571	2972.465954
873.567744	2965.128554
873.878874	2956.344344
874.189963	2980.073055
874.501010	2981.928200
874.812015	2971.036787
875.122979	2975.649443
875.433900	2969.196766
875.744780	2975.183136
876.055618	2980.393168
876.366415	2974.973928
876.677169	2986.434991
876.987882	2985.245279
877.298554	2979.387458
877.609183	2996.857577
877.919771	3016.089579
878.230317	3044.430946
878.540822	3094.713935
878.851285	3131.791621
879.161707	3166.779749
879.472087	3259.849532
879.782425	3466.781335
880.092722	3871.991802
880.402977	4374.461250
880.713191	4965.344975
881.023363	6053.835954
881.333494	7284.752133
881.643583	7858.939556
881.953631	7581.489572
882.263637	6998.974162
882.573602	6453.874197
882.883526	5893.466768
883.193408	5330.102702
883.503248	4877.548239
883.813048	4583.585956
884.122806	4306.992968
884.432522	4001.912419
884.742197	3777.752472
885.051831	3587.801795
885.361424	3456.741878
885.670975	3387.819222
885.980485	3309.819969
886.289954	3235.309195
886.599382	3192.114068
886.908768	3155.898419
887.218113	3111.085082
887.527417	3061.422155
887.836680	3011.749145
888.145901	3005.125069
888.455082	2998.647186
888.764221	2949.989969
889.073319	2921.202460
889.382376	2917.628282
889.691392	2919.571647
890.000366	2919.692635
890.309300	2908.914648
890.618193	2918.049219
890.927044	2935.542023
891.235855	2938.470933
891.544625	2921.893098
891.853353	2930.211002
892.162041	2946.897222
892.470687	2983.047336
892.779293	3037.413659
893.087858	3080.306317
893.396381	3142.970380
893.704864	3255.441043
894.013306	3477.060248
894.321707	3765.560442
894.630068	3972.315805
894.938387	3976.411742
895.246665	3926.521963
895.554903	3817.307886
895.863100	3626.885861
896.171256	3465.362251
896.479371	3335.771829
896.787446	3219.555589
897.095480	3120.002883
897.403473	3056.154149
897.711425	3016.238293
898.019336	3011.998682
898.327207	2986.961792
898.635038	2951.517439
898.942827	2938.430604
899.250576	2928.255035
899.558284	2896.619274
899.865952	2875.837117
900.173579	2858.684591
900.481165	2850.800226
900.788711	2842.333608
901.096216	2818.466266
901.403681	2805.142496
901.711105	2810.539051
902.018489	2810.667601
902.325832	2809.135090
902.633135	2819.847542
902.940397	2845.575070
903.247619	2920.622728
903.554800	3098.278030
903.861941	3413.430804
904.169041	3817.736384
904.476101	4117.944657
904.783121	4097.744754
905.090100	3867.893344
905.397039	3605.879373
905.703938	3363.903988
906.010796	3186.021834
906.317614	3077.332036
906.624391	2991.705518
906.931129	2919.208684
907.237826	2863.138450
907.544483	2816.926193
907.851099	2786.825463
908.157675	2768.510952
908.464211	2747.398599
908.770707	2733.636249
909.077163	2725.908160
909.383578	2709.748742
909.689954	2699.832792
909.996289	2695.981351
910.302584	2696.944211
910.608839	2697.748275
910.915054	2694.088397
911.221229	2686.871986
911.527363	2688.873324
911.833458	2693.506144
912.139513	2697.435723
912.445527	2701.559387
912.751502	2708.511138
913.057436	2717.592777
913.363331	2730.228429
913.669186	2750.433374
913.975000	2780.917231
914.280775	2835.948987
914.586510	2901.453740
914.892205	2974.295893
915.197859	3091.885847
915.503475	3270.443517
915.809050	3474.166626
916.114585	3611.853140
916.420081	3638.515803
916.725536	3585.714757
917.030952	3476.994713
917.336328	3359.155221
917.641665	3229.889954
917.946961	3135.280100
918.252218	3069.818196
918.557435	2998.667351
918.862612	2940.764658
919.167750	2892.747668
919.472848	2857.893130
919.777906	2829.340034
920.082925	2807.453865
920.387904	2775.215686
920.692843	2763.043820
920.997743	2752.401944
921.302603	2739.395767
921.607423	2730.203223
921.912204	2719.367263
922.216946	2710.686396
922.521647	2699.593337
922.826310	2693.884231
923.130932	2687.169414
923.435516	2676.855213
923.740059	2671.027639
924.044564	2660.408448
924.349028	2658.795279
924.653454	2651.223466
924.957840	2645.360604
925.262186	2640.894142
925.566493	2638.552526
925.870761	2632.818213
926.174989	2629.838892
926.479178	2623.683643
926.783328	2620.298508
927.087438	2618.629886
927.391509	2619.998559
927.695541	2618.639968
927.999533	2611.617641
928.303486	2608.073710
928.607400	2607.007506
928.911275	2607.869543
929.215110	2606.941971
929.518906	2606.125304
929.822663	2608.555140
930.126381	2605.401898
930.430060	2605.540530
930.733699	2606.455499
931.037299	2608.461879
931.340861	2610.780809
931.644383	2610.884153
931.947866	2607.693103
932.251309	2607.383072
932.554714	2605.802670
932.858080	2604.517176
933.161407	2602.528441
933.464694	2600.809407
933.767943	2599.211361
934.071153	2601.053903
934.374323	2598.714808
934.677455	2596.582400
934.980548	2598.455188
935.283602	2599.100456
935.586617	2600.663214
935.889593	2599.503748
936.192530	2598.613985
936.495428	2599.138265
936.798287	2597.315887
937.101108	2600.751434
937.403890	2609.243257
937.706632	2611.887343
938.009336	2617.878754
938.312002	2625.178345
938.614628	2632.936681
938.917216	2641.604945
939.219765	2642.209883
939.522275	2639.769965
939.824747	2635.873153
940.127179	2637.821559
940.429573	2634.232257
940.731929	2629.317132
941.034246	2627.638428
941.336524	2626.035341
941.638763	2622.239352
941.940964	2617.339351
942.243126	2616.401696
942.545250	2616.812550
942.847335	2614.773403
943.149381	2611.360542
943.451389	2607.017588
943.753359	2603.670262
944.055290	2604.292844
944.357182	2601.404263
944.659036	2601.621033
944.960851	2600.610282
945.262628	2600.869901
945.564367	2599.448296
945.866067	2601.878132
946.167729	2602.266301
946.469352	2600.680858
946.770937	2601.046341
947.072484	2597.235229
947.373992	2599.397884
947.675462	2596.375712
947.976893	2594.928901
948.278286	2592.292378
948.579641	2594.061823
948.880958	2588.027562
949.182236	2592.017635
949.483476	2589.791965
949.784678	2593.734148
950.085841	2591.999991
950.386967	2591.427820
950.688054	2591.838674
950.989103	2594.911257
951.290114	2593.847574
951.591087	2598.051896
951.892021	2599.511310
952.192917	2601.865529
952.493776	2604.383585
952.794596	2604.512135
953.095378	2601.822679
953.396122	2603.796291
953.696828	2601.512648
953.997496	2597.210023
954.298126	2598.782863
954.598718	2598.959304
954.899272	2595.284302
955.199788	2591.657192
955.500266	2589.948241
955.800706	2586.306008
956.101108	2584.957499
956.401472	2584.997828
956.701798	2584.067735
957.002087	2578.124215
957.302337	2577.572208
957.602550	2577.206725
957.902724	2575.041549
958.202861	2572.447876
958.502960	2571.505180
958.803022	2574.383679
959.103045	2572.944429
959.403031	2571.119532
959.702979	2569.866805
960.002889	2571.217834
960.302762	2570.610375
960.602596	2570.862433
960.902393	2570.522155
961.202153	2571.580797
961.501875	2568.528378
961.801559	2568.193142
962.101205	2566.146433
962.400814	2568.946794
962.700385	2569.092988
962.999918	2564.681978
963.299414	2562.489076
963.598873	2567.421845
963.898293	2562.534447
964.197677	2566.305230
964.497022	2563.782132
964.796331	2565.833882
965.095601	2564.858418
965.394835	2567.104252
965.694030	2566.630384
965.993189	2567.915878
966.292309	2566.925292
966.591393	2566.484191
966.890439	2566.456464
967.189447	2566.973183
967.488419	2569.017370
967.787353	2568.344376
968.086249	2564.465208
968.385108	2566.053172
968.683930	2567.862946
968.982714	2566.763975
969.281462	2566.464026
969.580172	2564.008984
969.878844	2566.133830
970.177480	2567.210117
970.476078	2565.140723
970.774639	2568.306568
971.073162	2565.387740
971.371649	2565.107956
971.670098	2565.836402
971.968510	2565.523851
972.266885	2566.547205
972.565223	2568.470405
972.863524	2566.136351
973.161788	2568.276321
973.460014	2567.043759
973.758204	2563.610733
974.056356	2564.739951
974.354471	2564.835733
974.652550	2564.916392
974.950591	2565.972513
975.248595	2566.993347
975.546563	2568.825807
975.844493	2562.431103
976.142386	2567.562997
976.440243	2564.329097
976.738062	2567.157185
977.035845	2564.901268
977.333590	2564.964283
977.631299	2561.493448
977.928971	2559.981102
978.226606	2561.087635
978.524204	2562.025290
978.821765	2558.499003
979.119290	2563.368757
979.416777	2561.831206
979.714228	2562.766340
980.011642	2563.865311
980.309020	2564.707184
980.606360	2566.287586
980.903664	2564.319015
981.200931	2564.127451
981.498162	2566.610219
981.795356	2565.130641
982.092513	2569.095508
982.389633	2567.462174
982.686717	2571.684141
982.983764	2575.182702
983.280775	2579.147569
983.577749	2582.058835
983.874686	2582.608321
984.171587	2574.544996
984.468451	2575.273442
984.765279	2572.838565
985.062070	2571.394274
985.358824	2570.131465
985.655543	2566.257339
985.952224	2568.208265
986.248869	2566.514437
986.545478	2565.491083
986.842050	2564.195507
987.138586	2565.470919
987.435086	2562.826833
987.731549	2562.312636
988.027975	2564.056875
988.324366	2564.571073
988.620719	2561.770712
988.917037	2563.910682
989.213318	2563.169632
989.509563	2563.761968
989.805772	2560.039075
990.101944	2560.623849
990.398080	2562.670558
990.694180	2560.079405
990.990244	2560.891030
991.286271	2560.981771
991.582262	2558.733417
991.878217	2560.891030
992.174136	2558.438509
992.470019	2562.025290
992.765865	2560.097049
993.061676	2557.735268
993.357450	2560.008828
993.653188	2555.149156
993.948890	2559.799621
994.244556	2561.216185
994.540186	2563.237687
994.835780	2559.066133
995.131337	2563.177194
995.426859	2564.697102
995.722345	2562.358006
996.017795	2561.697615
996.313208	2566.421176
996.608586	2565.342369
996.903928	2565.183573
997.199234	2567.323543
997.494504	2568.362020
997.789738	2566.532082
998.084936	2566.854715
998.380099	2563.784653
998.675225	2563.499827
998.970316	2564.324056
999.265371	2563.414128
999.560390	2562.143757
999.855373	2563.179714
1000.150320	2563.111659
1000.445232	2563.615774
1000.740108	2560.601164
1001.034948	2560.344065
1001.329752	2561.402707
1001.624521	2560.306257
1001.919254	2559.890361
1002.213951	2563.285578
1002.508613	2559.366081
1002.803239	2560.326421
1003.097829	2559.635783
1003.392384	2560.313818
1003.686903	2556.797613
1003.981386	2562.363047
1004.275834	2560.303736
1004.570246	2560.603685
1004.864623	2557.493293
1005.158964	2562.123593
1005.453270	2559.943293
1005.747540	2558.655279
1006.041775	2557.558828
1006.335974	2559.489590
1006.630138	2556.389280
1006.924266	2560.608726
1007.218359	2558.110834
1007.512416	2557.306770
1007.806438	2556.318704
1008.100425	2558.514126
1008.394376	2553.984650
1008.688292	2558.105793
1008.982172	2556.785011
1009.276017	2559.628221
1009.569827	2558.088149
1009.863602	2560.114693
1010.157341	2560.573438
1010.451045	2558.294836
1010.744714	2558.496482
1011.038347	2561.778273
1011.331945	2559.308108
1011.625508	2561.052347
1011.919036	2557.306770
1012.212528	2558.640155
1012.505986	2558.952707
1012.799408	2558.451112
1013.092795	2558.998077
1013.386147	2560.467573
1013.679464	2559.839950
1013.972745	2557.962120
1014.265992	2559.509754
1014.559204	2557.926832
1014.852380	2556.611091
1015.145521	2558.181410
1015.438628	2557.286605
1015.731699	2558.635114
1016.024736	2557.899106
1016.317737	2558.539332
1016.610703	2557.823488
1016.903635	2559.005639
1017.196531	2558.632593
1017.489393	2556.646379
1017.782219	2558.239383
1018.075011	2558.199054
1018.367768	2558.027655
1018.660490	2560.349106
1018.953177	2560.349106
1019.245829	2560.349106
