Dividing Wavelength (nm)	Counts (n)	Blue Motor Position (mm): 46.700000	Red Motor Position (mm): 0.000000	
326.493990	2270.704571
326.888308	2270.704571
327.282561	2270.704571
327.676750	2233.135372
328.070874	2228.472305
328.464933	2228.535319
328.858929	2231.257542
329.252859	2238.587380
329.646726	2248.649523
330.040528	2257.960534
330.434265	2272.468975
330.827938	2291.146450
331.221547	2308.432566
331.615091	2324.433189
332.008571	2344.638133
332.401986	2365.321988
332.795338	2382.219935
333.188625	2404.617782
333.581847	2424.744588
333.975006	2441.957608
334.368100	2460.430917
334.761129	2477.346508
335.154095	2497.780825
335.546996	2520.947448
335.939833	2562.922615
336.332606	2577.715881
336.725315	2590.422110
337.117960	2604.370982
337.510540	2613.775255
337.903056	2624.417131
338.295508	2637.032618
338.687896	2642.552682
339.080220	2651.193219
339.472480	2655.997439
339.864676	2659.712769
340.256807	2665.726866
340.648875	2669.003616
341.040879	2673.172650
341.432818	2674.997548
341.824694	2676.424194
342.216506	2680.111798
342.608253	2678.400327
342.999937	2680.898218
343.391557	2681.437622
343.783113	2679.743794
344.174605	2680.242868
344.566033	2678.110460
344.957397	2677.560974
345.348697	2677.475275
345.739934	2674.049811
346.131106	2670.142917
346.522215	2673.175171
346.913260	2671.342711
347.304241	2667.876918
347.695159	2666.672082
348.086012	2667.219047
348.476802	2664.214520
348.867528	2661.693943
349.258191	2656.320073
349.648789	2657.393838
350.039324	2652.987870
350.429796	2655.342089
350.820203	2655.142963
351.210548	2653.587767
351.600828	2652.198929
351.991045	2652.105668
352.381198	2650.253044
352.771288	2648.077786
353.161314	2649.479227
353.551276	2650.527787
353.941175	2649.060811
354.331010	2649.532159
354.720782	2647.591315
355.110490	2649.509474
355.500135	2648.768424
355.889717	2648.539052
356.279235	2650.195071
356.668689	2648.864206
357.058080	2648.256747
357.447408	2651.911584
357.836672	2652.140956
358.225873	2648.632313
358.615010	2650.311017
359.004084	2651.722540
359.393095	2651.972077
359.782043	2653.834784
360.170927	2654.195226
360.559748	2655.596667
360.948505	2655.763025
361.337199	2657.991215
361.725830	2654.338899
362.114398	2656.125988
362.502903	2657.842501
362.891344	2658.767553
363.279722	2660.068171
363.668037	2659.778304
364.056289	2660.436175
364.444478	2659.758140
364.832603	2659.753098
365.220665	2663.740651
365.608665	2660.332831
365.996601	2662.719818
366.384474	2663.927174
366.772284	2665.164777
367.160031	2666.949346
367.547715	2666.140240
367.935336	2663.904489
368.322893	2664.249808
368.710388	2662.281237
369.097820	2666.866167
369.485189	2665.452123
369.872495	2669.608554
370.259738	2671.067968
370.646918	2672.698782
371.034035	2672.010664
371.421090	2671.975376
371.808081	2674.316992
372.195010	2677.825635
372.581875	2680.709175
372.968678	2686.806451
373.355418	2688.906091
373.742096	2695.835157
374.128710	2708.692620
374.515262	2717.829711
374.901751	2729.850343
375.288177	2741.538258
375.674540	2759.739344
376.060841	2778.336160
376.447079	2800.088739
376.833254	2821.485917
377.219367	2839.533247
377.605417	2874.357538
377.991404	2894.219684
378.377329	2931.302412
378.763191	2951.754373
379.148991	2996.832371
379.534727	3033.854605
379.920402	3071.529668
380.306013	3097.224429
380.691563	3160.155673
381.077049	3188.602904
381.462474	3233.196951
381.847835	3291.218112
382.233134	3332.563135
382.618371	3363.107486
383.003545	3433.234977
383.388657	3459.937969
383.773706	3524.681508
384.158693	3559.500758
384.543618	3594.403186
384.928480	3650.206239
385.313280	3711.466340
385.698017	3735.910895
386.082692	3829.197447
386.467305	3835.425793
386.851856	3870.305536
387.236344	3950.475006
387.620770	3981.760407
388.005133	4033.039023
388.389435	4074.711722
388.773674	4091.846604
389.157851	4168.545239
389.541965	4236.315991
389.926018	4200.982543
390.310008	4300.525167
390.693936	4353.495091
391.077802	4390.900453
391.461606	4386.955750
391.845348	4456.289259
392.229027	4515.124566
392.612645	4514.454092
392.996200	4617.578456
393.379694	4675.004760
393.763125	4780.314464
394.146494	4809.273372
394.529801	4864.698338
394.913047	4951.413746
395.296230	4894.337802
395.679351	5003.332589
396.062410	5056.161361
396.445408	5027.991393
396.828343	5089.672431
397.211217	5141.676974
397.594028	5026.842010
397.976778	5151.650897
398.359466	5191.551630
398.742092	5216.210434
399.124656	5133.616169
399.507158	5252.295013
399.889598	5314.908665
400.271977	5440.211585
400.654294	5436.430719
401.036549	5475.497141
401.418742	5400.696500
401.800874	5601.538590
402.182944	5665.289022
402.564952	5769.242655
402.946898	5830.270863
403.328783	5665.629299
403.710606	5683.986661
404.092367	6010.504716
404.474067	6034.979518
404.855705	5932.583601
405.237282	5866.794023
405.618797	6117.755264
406.000250	6094.104691
406.381642	6298.021885
406.762972	6322.506769
407.144240	6377.621704
407.525447	6365.023861
407.906593	6375.665736
408.287677	6547.942128
408.668700	6455.361338
409.049661	6574.690490
409.430560	6593.690599
409.811399	6459.217820
410.192176	6726.073820
410.572891	6742.419761
410.953545	6934.134842
411.334138	6664.334808
411.714669	6841.518763
412.095139	6630.231403
412.475547	6878.535956
412.855894	6949.069260
413.236180	7132.635316
413.616405	6794.938502
413.996568	7008.479258
414.376670	7062.134779
414.756711	6957.636701
415.136691	7054.237812
415.516609	7258.296157
415.896466	7238.270174
416.276262	7439.815505
416.655997	7433.040194
417.035670	7610.362780
417.415283	7954.441695
417.794834	8014.270109
418.174324	7872.931278
418.553753	7795.340359
418.933121	8091.666944
419.312428	8199.623253
419.691674	7969.479457
420.070859	8453.208415
420.449983	8132.739745
420.829045	8498.334304
421.208047	8264.727235
421.586988	8578.292045
421.965867	8597.894572
422.344686	8693.852935
422.723444	8764.171990
423.102141	8104.108512
423.480777	8868.614616
423.859352	8394.095845
424.237866	9005.706274
424.616319	8871.437662
424.994712	9303.310791
425.373044	8842.138476
425.751314	9324.707969
426.129524	9210.425011
426.507673	9291.461559
426.885762	9447.482750
427.263789	9369.382674
427.641756	9299.214854
428.019662	9386.454542
428.397508	9659.702724
428.775292	9316.543820
429.153016	9709.158964
429.530679	9539.105721
429.908282	9550.274398
430.285824	9281.563254
430.663305	9969.564807
431.040726	9411.035208
431.418086	9390.757167
431.795385	9727.284433
432.172624	9828.097427
432.549802	9727.559176
432.926920	9803.955342
433.303977	9680.227782
433.680974	9883.708916
434.057910	9980.950253
434.434786	10057.911028
434.811601	9874.959993
435.188355	10446.523496
435.565050	10190.672335
435.941683	10104.569428
436.318257	10576.930584
436.694770	10754.480023
437.071222	10800.382249
437.447614	10628.481423
437.823946	10561.517256
438.200218	10640.905347
438.576429	10487.026647
438.952580	10741.912426
439.328670	10760.960426
439.704700	10555.614065
440.080670	10549.010154
440.456580	11070.739330
440.832429	10864.142763
441.208218	10463.665940
441.583947	10748.428117
441.959616	10939.596233
442.335224	10756.365414
442.710773	10858.584891
443.086261	11087.627195
443.461689	10352.949598
443.837057	11048.124714
444.212365	11272.277099
444.587612	10908.746892
444.962800	11121.954932
445.337927	10866.083607
445.712995	10545.211644
446.088002	11578.358316
446.462949	11278.079467
446.837837	11239.575134
447.212664	11161.918679
447.587431	11759.323137
447.962139	12519.692974
448.336786	14813.569209
448.711374	15293.171983
449.085901	13107.146193
449.460369	12759.062082
449.834776	12203.040457
450.209124	13137.239361
450.583412	13562.765678
450.957640	14481.352129
451.331808	13528.185883
451.705917	12600.694234
452.079965	11836.999756
452.453954	12756.072678
452.827883	12410.151222
453.201752	12709.371429
453.575562	12259.554312
453.949311	12664.122032
454.323001	12652.426555
454.696632	12890.036300
455.070202	13165.845389
455.443713	13348.410775
455.817164	13854.406510
456.190556	13821.928877
456.563888	14183.094782
456.937160	14326.263552
457.310373	13690.621943
457.683526	13795.092294
458.056619	13316.550683
458.429653	13528.337118
458.802628	12878.426523
459.175542	13300.144248
459.548398	14249.123815
459.921194	14613.611841
460.293930	14693.098235
460.666607	15521.929462
461.039224	16594.452587
461.411782	17318.284141
461.784280	17083.820076
462.156719	17203.040844
462.529099	16858.137700
462.901419	15820.859803
463.273680	15580.903400
463.645882	15490.107178
464.018024	15208.725094
464.390106	15440.537512
464.762130	16151.544372
465.134094	16955.336188
465.505999	19024.382002
465.877845	22305.321201
466.249631	25094.757982
466.621358	24694.051786
466.993026	23270.185444
467.364634	22682.144930
467.736184	21207.592307
468.107674	20413.910525
468.479105	20550.835825
468.850477	20000.566156
469.221790	19611.802454
469.593043	18921.396270
469.964238	18349.063992
470.335373	17980.601016
470.706449	18490.765785
471.077467	18077.376046
471.448425	19959.813468
471.819324	24106.159986
472.190164	25914.563023
472.560945	22222.071586
472.931667	19943.729667
473.302330	19335.479167
473.672934	18994.248505
474.043479	19196.144196
474.413965	19018.176342
474.784393	18601.388865
475.154761	19378.999449
475.525070	19276.825343
475.895321	19014.645013
476.265513	19617.597260
476.635645	20210.000893
477.005719	19965.830086
477.375734	20146.517642
477.745691	20629.992022
478.115588	21184.642454
478.485427	21746.040470
478.855207	22847.078881
479.224928	24639.602283
479.594591	26866.516872
479.964194	26758.583247
480.333739	26988.918608
480.703226	26574.926451
481.072653	26288.145291
481.442022	26931.764526
481.811333	27864.425878
482.180584	27715.338794
482.549777	26773.903314
482.918912	26459.254655
483.287988	26591.595026
483.657005	26202.085233
484.025964	25999.768606
484.394864	25862.374478
484.763706	25505.725446
485.132489	24995.099412
485.501213	25162.135524
485.869879	25071.919034
486.238487	24934.300576
486.607036	25046.362905
486.975527	24815.082328
487.343959	25104.658808
487.712333	25000.705175
488.080648	24666.524566
488.448905	25182.819378
488.817104	24950.737258
489.185244	25649.186602
489.553326	25591.641831
489.921350	26664.716963
490.289315	29026.134576
490.657222	30727.241695
491.025070	31227.180483
491.392861	30975.097585
491.760593	30109.375194
492.128267	29181.923874
492.495883	28117.637995
492.863440	27248.525428
493.230939	26384.852266
493.598380	26230.335859
493.965763	25850.895771
494.333088	25340.637740
494.700354	25326.502345
495.067563	25154.667054
495.434713	24916.565796
495.801805	25096.421563
496.168839	24857.410377
496.535815	24737.383024
496.902733	24955.460819
497.269593	24657.246322
497.636395	24819.505941
498.003139	24739.570885
498.369825	24477.216636
498.736453	24698.412384
499.103023	24570.994700
499.469535	24564.335336
499.835989	24786.035200
500.202385	24811.208202
500.568723	24351.155022
500.935003	24529.322002
501.301226	24231.457865
501.667390	25080.526805
502.033497	25272.705672
502.399546	25016.776373
502.765537	24541.612335
503.131470	24914.007411
503.497345	25058.537292
503.863163	24315.004908
504.228923	24847.302863
504.594625	25101.886173
504.960269	24676.175855
505.325856	25138.454703
505.691385	24524.278328
506.056856	25143.810929
506.422270	25135.707275
506.787625	24641.361646
507.152924	25089.358906
507.518164	25131.712160
507.883347	24948.415806
508.248472	24619.243584
508.613540	25392.498610
508.978550	25186.312898
509.343503	25214.230808
509.708398	25408.647947
510.073236	25565.974797
510.438016	25790.117099
510.802738	25442.501815
511.167403	25699.782143
511.532010	25455.513033
511.896561	26187.334817
512.261053	26162.267679
512.625488	25990.964230
512.989866	25873.911159
513.354186	25704.878750
513.718449	25835.971435
514.082655	26214.950258
514.446803	25929.905775
514.810894	26423.613697
515.174927	25914.905822
515.538904	25951.257582
515.902822	26457.888503
516.266684	26200.996344
516.630488	26110.684073
516.994235	26040.806118
517.357925	26392.547587
517.721558	26545.634826
518.085133	26675.056369
518.448651	26554.333337
518.812112	26331.632804
519.175516	26541.407819
519.538863	26686.217484
519.902152	26482.141494
520.265385	26736.369403
520.628560	26548.440228
520.991678	26514.331782
521.354739	26583.234272
521.717743	26682.194643
522.080690	26448.000279
522.443580	26787.280015
522.806413	26738.365700
523.169189	26865.165842
523.531908	26917.515704
523.894569	26532.308536
524.257174	26643.032439
524.619722	26771.687727
524.982213	26472.921223
525.344647	26510.326585
525.707025	26675.502511
526.069345	26616.820960
526.431608	26613.466072
526.793815	26769.414166
527.155964	26272.847909
527.518057	26439.750431
527.880093	26357.859407
528.242072	26576.937871
528.603995	26289.413141
528.965860	26087.560300
529.327669	26120.859642
529.689421	26119.571627
530.051117	25972.211138
530.412755	26137.092157
530.774337	25902.469295
531.135862	25806.024460
531.497331	25991.284344
531.858743	25593.766678
532.220098	26040.851489
532.581396	25745.976756
532.942638	25626.793797
533.303824	25757.198365
533.664953	25736.224644
534.026025	25412.159110
534.387040	25657.620453
534.747999	25697.236360
535.108902	25859.052358
535.469748	25363.277562
535.830537	25507.613358
536.191270	25658.129609
536.551947	25480.169317
536.912567	25102.690237
537.273131	25556.799897
537.633638	25217.454625
537.994089	25436.787667
538.354483	24919.179635
538.714821	25435.056031
539.075103	25490.760781
539.435328	25247.941003
539.795497	24853.143040
540.155609	25180.472721
540.515665	25497.747820
540.875665	24712.449477
541.235609	25070.452059
541.595496	24982.458718
541.955328	25347.861714
542.315102	25269.791885
542.674821	24778.813747
543.034483	24678.283057
543.394090	24829.704195
543.753640	24656.565766
544.113134	25281.651199
544.472571	24866.713826
544.831953	25166.874208
545.191278	24828.269987
545.550548	24712.099117
545.909761	24903.516770
546.268918	25144.478882
546.628019	25125.665296
546.987064	24809.073273
547.346053	24543.046543
547.704986	24633.041222
548.063863	24797.052642
548.422684	24834.878939
548.781449	24319.806607
549.140158	24737.745987
549.498811	24308.375791
549.857408	24093.211783
550.215949	24456.111845
550.574434	24164.869264
550.932864	24369.766962
551.291237	24553.736310
551.649555	24378.732654
552.007817	24458.153512
552.366022	24295.314161
552.724173	24311.627335
553.082267	24291.984479
553.440305	24778.115547
553.798288	23999.595035
554.156215	24490.986548
554.514086	24642.692511
554.871902	24029.332802
555.229661	24293.988338
555.587365	24143.736747
555.945014	24062.937133
556.302606	24258.087760
556.660143	24259.164047
557.017625	24479.966585
557.375050	24004.764738
557.732421	24383.224322
558.089735	24214.673343
558.446994	24267.005562
558.804197	24301.565192
559.161345	24186.153016
559.518437	23995.395754
559.875474	24156.412728
560.232455	24337.952240
560.589381	24142.078207
560.946251	24162.449510
561.303065	24451.168994
561.659825	24539.157293
562.016528	24151.686647
562.373177	23888.674527
562.729770	24247.914712
563.086307	24100.743267
563.442789	24264.810139
563.799216	24122.470640
564.155587	24102.369039
564.511904	24085.216513
564.868164	24045.129257
565.224370	24000.136959
565.580520	23959.810249
565.936615	24054.306678
566.292654	23772.468369
566.648638	23996.298121
567.004567	23837.370704
567.360441	23773.257310
567.716260	23493.987469
568.072023	23811.996057
568.427732	23587.458023
568.783385	23335.135670
569.138982	23605.649027
569.494525	23629.856647
569.850013	23393.923086
570.205445	23504.084900
570.560823	23325.524710
570.916145	23095.000307
571.271412	23283.229430
571.626625	23027.279967
571.981782	23127.193115
572.336884	22937.675977
572.691931	23084.688627
573.046923	22819.254232
573.401860	22696.204708
573.756743	22734.774576
574.111570	22607.230863
574.466342	22530.590202
574.821059	22623.523873
575.175722	22319.726298
575.530330	22274.812138
575.884882	22283.591307
576.239380	22197.720293
576.593823	22093.864962
576.948211	22080.407601
577.302544	21931.970826
577.656823	21785.999176
578.011047	21913.477353
578.365216	21780.539606
578.719330	21653.220224
579.073389	21533.079446
579.427394	21685.203825
579.781344	21438.066299
580.135239	21329.346254
580.489080	21259.911922
580.842866	21056.148483
581.196597	21276.895569
581.550273	21223.824822
581.903895	21102.338056
582.257463	21410.024881
582.610975	20958.796241
582.964434	21288.104575
583.317837	20938.124990
583.671186	21033.848939
584.024481	21023.527177
584.377721	20788.498502
584.730906	20884.623224
585.084037	20847.429591
585.437113	20793.648041
585.790135	20999.473311
586.143103	20440.573187
586.496016	20464.564038
586.848874	20699.938032
587.201679	20610.996955
587.554428	20328.248718
587.907124	20664.632311
588.259765	20402.693957
588.612352	20483.478448
588.964884	20055.421472
589.317362	20223.155784
589.669786	20275.714854
590.022155	20270.139338
590.374470	20526.328255
590.726731	20269.491549
591.078937	20073.337733
591.431090	20152.657768
591.783188	19911.526776
592.135232	19882.109123
592.487222	19976.088834
592.839157	19984.313476
593.191038	19865.763182
593.542866	19754.237735
593.894639	19453.792528
594.246358	19665.765485
594.598022	19554.751716
594.949633	19321.021138
595.301190	19308.892122
595.652692	19474.468820
596.004141	19686.116623
596.355535	19019.504686
596.706876	19045.542245
597.058162	18932.801881
597.409395	19186.936528
597.760573	19219.273010
598.111698	18991.057454
598.462768	18953.621846
598.813785	18928.816848
599.164748	18715.863387
599.515657	18773.022509
599.866511	18583.712059
600.217312	18924.050438
600.568060	18435.592877
600.918753	18746.828674
601.269392	18644.626842
601.619978	18456.233881
601.970510	18629.755438
602.320988	18581.993026
602.671412	18770.038146
603.021783	18708.815853
603.372100	18425.223223
603.722363	18575.457170
604.072572	18524.768368
604.422728	18671.420574
604.772830	18418.102593
605.122878	18373.765645
605.472872	18349.495010
605.822813	18338.291046
606.172701	18338.326334
606.522534	18504.719699
606.872314	18536.037867
607.222041	18379.734372
607.571714	18578.040761
607.921333	18420.519827
608.270899	18492.257967
608.620411	18637.624679
608.969870	18443.053784
609.319276	18436.883412
609.668627	18458.883007
610.017926	18602.061859
610.367171	18715.376915
610.716362	18762.030273
611.065500	18572.800482
611.414585	18726.709429
611.763616	18713.801555
612.112594	18647.830495
612.461518	18609.500082
612.810389	18804.078538
613.159207	18664.083175
613.507971	18573.990194
613.856682	18819.176793
614.205340	18745.321369
614.553945	18907.308766
614.902496	18648.014497
615.250994	18850.928501
615.599439	18809.094486
615.947830	18790.754768
616.296169	18874.994969
616.644454	18834.411160
616.992686	18807.216656
617.340864	19016.863121
617.688990	18761.465664
618.037063	18947.675805
618.385082	18805.487540
618.733048	19067.864474
619.080961	18967.900914
619.428821	18998.379730
619.776628	18866.908959
620.124382	18795.475809
620.472083	18860.569708
620.819731	18858.049131
621.167326	18552.741730
621.514868	18593.892669
621.862357	18389.912461
622.209793	18375.976191
622.557176	18214.515595
622.904506	18037.087145
623.251783	17986.350452
623.599007	17719.701140
623.946179	17662.594949
624.293297	17588.883197
624.640363	17314.924212
624.987376	17353.320160
625.334336	17148.346845
625.681243	16997.780182
626.028097	17020.825817
626.374899	16924.063390
626.721647	16799.856921
627.068343	16641.375647
627.414987	16568.135243
627.761577	16529.018410
628.108115	16552.467337
628.454600	16295.008048
628.801032	16388.113119
629.147412	16329.829818
629.493739	16342.256263
629.840014	16149.308620
630.186236	16250.114053
630.532405	16009.293092
630.878521	16199.248810
631.224585	16121.201667
631.570597	15937.693584
631.916556	15961.097141
632.262462	15941.900427
632.608316	15863.386977
632.954117	15808.665252
633.299866	15796.879034
633.645562	15710.387957
633.991206	15475.139992
634.336797	15355.488206
634.682336	15310.294262
635.027823	15174.379713
635.373257	15044.741401
635.718639	14967.732734
636.063968	14908.756276
636.409245	14657.709335
636.754470	14692.135374
637.099642	14536.220047
637.444762	14316.453466
637.789829	14358.799158
638.134845	14194.230691
638.479808	14216.842787
638.824719	14128.670485
639.169577	14000.337832
639.514383	14030.022666
639.859137	13867.889076
640.203839	13962.670330
640.548489	13814.699862
640.893086	13797.499445
641.237632	13678.934027
641.582125	13838.927648
641.926566	13641.828614
642.270955	13665.446420
642.615292	13621.348927
642.959576	13624.913023
643.303809	13650.396055
643.647990	13581.019696
643.992118	13650.670798
644.336195	13417.880396
644.680219	13659.923836
645.024192	13554.866190
645.368112	13809.167196
645.711981	13838.322709
646.055797	14020.353733
646.399562	14006.936702
646.743274	14278.110450
647.086935	14537.618968
647.430544	14513.197098
647.774101	14557.415579
648.117606	14692.145457
648.461059	14668.517568
648.804460	14644.708199
649.147810	14366.229819
649.491108	14285.767963
649.834354	14303.878308
650.177548	13970.612668
650.520690	13789.892344
650.863781	13710.504253
651.206820	13758.609464
651.549807	13594.366151
651.892742	13369.676883
652.235626	13312.815188
652.578458	13313.508347
652.921238	13014.920804
653.263967	13216.889592
653.606644	13046.644786
653.949269	13030.172815
654.291843	12821.547184
654.634365	12986.554232
654.976836	12840.108712
655.319255	12828.380468
655.661622	12798.562043
656.003938	12719.529354
656.346203	12640.078248
656.688416	12725.142678
657.030577	12672.946572
657.372687	12576.899988
657.714746	12566.116960
658.056753	12761.370931
658.398708	12561.164026
658.740612	12572.045357
659.082465	12678.759022
659.424266	12651.103252
659.766016	12687.540712
660.107715	12599.738935
660.449362	12673.990090
660.790958	12620.621915
661.132503	12556.964745
661.473996	12646.462870
661.815438	12647.186275
662.156829	12682.509640
662.498168	12640.998259
662.839456	12647.672747
663.180693	12664.111949
663.521879	12758.711722
663.863013	12724.336094
664.204097	12699.594111
664.545129	12835.274246
664.886110	12814.973519
665.227040	12909.369125
665.567918	12894.356569
665.908746	12912.393818
666.249522	12913.989343
666.590248	12968.683341
666.930922	13077.655443
667.271545	13053.228532
667.612118	13138.577788
667.952639	13036.827138
668.293109	13067.590780
668.633528	13005.249351
668.973896	12980.726658
669.314213	13045.651678
669.654480	12790.264304
669.994695	12878.479455
670.334859	12907.448446
670.674973	12837.799864
671.015035	12877.372922
671.355047	12829.542454
671.695008	12800.127321
672.034918	12812.800782
672.374777	12852.691433
672.714585	12763.110129
673.054342	12808.699803
673.394049	12753.902461
673.733705	12851.557173
674.073310	12745.302253
674.412864	12758.754572
674.752368	12609.904422
675.091820	12660.769664
675.431223	12628.206331
675.770574	12499.435097
676.109875	12414.713466
676.449125	12366.542720
676.788324	12327.138541
677.127473	12160.442707
677.466571	12149.808393
677.805619	12033.093078
678.144616	11967.681587
678.483562	11946.130654
678.822458	11817.437558
679.161303	11792.201542
679.500098	11770.897626
679.838842	11731.687531
680.177535	11774.960796
680.516179	11839.338851
680.854771	11782.772064
681.193314	11992.320226
681.531805	12171.261023
681.870247	12619.759878
682.208638	13020.554294
682.546978	13308.613386
682.885268	13336.203621
683.223508	13042.894167
683.561697	12891.614181
683.899836	12801.866519
684.237925	12588.159405
684.575963	12502.353925
684.913951	12416.513158
685.251889	12378.870862
685.589776	12477.553969
685.927614	12395.531875
686.265401	12373.814585
686.603137	12432.803646
686.940824	12572.110892
687.278460	12713.704300
687.616046	12742.297725
687.953582	12889.517061
688.291068	12843.778672
688.628504	13069.821490
688.965889	13074.466914
689.303224	13023.800797
689.640510	12912.280392
689.977745	12579.717993
690.314930	12365.224458
690.652065	12277.228597
690.989150	11976.032258
691.326185	11753.440110
691.663170	11548.610468
692.000105	11321.536734
692.336990	11198.220028
692.673825	10925.213821
693.010610	10816.362707
693.347345	10609.269586
693.684030	10421.234548
694.020665	10353.693168
694.357251	10156.621862
694.693786	10082.831972
695.030272	9939.136403
695.366707	9827.764711
695.703093	9760.926573
696.039429	9743.148944
696.375716	9657.040995
696.711952	9529.189772
697.048139	9583.203215
697.384276	9538.609168
697.720363	9564.298888
698.056400	9487.328030
698.392388	9435.066388
698.728326	9398.465091
699.064214	9344.444086
699.400053	9376.120176
699.735842	9194.109317
700.071581	9156.058687
700.407270	9084.834745
700.742910	9000.130758
701.078501	8915.053725
701.414042	8777.155482
701.749533	8718.083241
702.084974	8577.165347
702.420366	8701.452475
702.755709	8575.443793
703.091002	8441.066796
703.426246	8472.735325
703.761440	8426.419724
704.096584	8381.598825
704.431679	8318.433167
704.766725	8306.576373
705.101721	8260.013756
705.436668	8310.243813
705.771565	8199.167029
706.106413	8279.671735
706.441212	8314.790934
706.775961	8277.756097
707.110661	8335.041249
707.445311	8458.857028
707.779913	8358.830454
708.114465	8484.080442
708.448967	8512.671346
708.783421	8682.517901
709.117825	8850.103499
709.452180	8884.564827
709.786485	8973.561357
710.120742	9263.160522
710.454949	9269.666131
710.789107	9377.347697
711.123216	9600.496893
711.457275	9774.255384
711.791286	9913.996168
712.125247	9922.608980
712.459159	9912.060365
712.793023	10129.097162
713.126837	9712.385302
713.460602	9865.757367
713.794318	9692.142549
714.127985	9714.921003
714.461602	9371.477274
714.795171	9337.593158
715.128691	9075.657325
715.462162	8838.476077
715.795584	8780.585987
716.128957	8609.645502
716.462281	8447.829504
716.795556	8490.646544
717.128782	8280.299359
717.461960	8033.416411
717.795088	8103.193542
718.128167	7998.214034
718.461198	7842.787699
718.794180	7792.555122
719.127113	7782.354347
719.459997	7605.082172
719.792833	7391.259111
720.125619	7463.972714
720.458357	7315.785476
720.791046	7308.327089
721.123686	7291.542567
721.456278	7133.525079
721.788821	7150.917060
722.121315	7055.553553
722.453761	7127.379913
722.786158	7058.341311
723.118506	7067.561581
723.450805	7029.952053
723.783056	7092.427072
724.115259	7012.529825
724.447412	7016.638366
724.779518	7064.405819
725.111574	7065.887918
725.443582	7144.209805
725.775542	7114.260310
726.107453	7312.639796
726.439315	7221.238636
726.771129	7303.361552
727.102895	7479.202040
727.434612	7584.468894
727.766281	7628.072354
728.097901	7693.738424
728.429473	7706.459776
728.760996	7696.276645
729.092471	7663.703229
729.423897	7608.338757
729.755276	7590.480470
730.086606	7517.807196
730.417887	7620.636652
730.749120	7847.072680
731.080305	8033.832306
731.411442	8132.497769
731.742530	8103.982483
732.073570	8218.822488
732.404562	8311.559554
732.735506	8171.458327
733.066401	8301.215106
733.397249	8215.475162
733.728048	7973.159499
734.058798	7638.646174
734.389501	7408.245279
734.720156	7240.659681
735.050762	7022.362596
735.381320	6936.103412
735.711831	6865.466765
736.042293	6757.528099
736.372707	6773.843793
736.703073	6644.139946
737.033391	6687.340114
737.363661	6695.574839
737.693883	6732.140848
738.024056	6816.469270
738.354182	6850.860021
738.684260	6882.856225
739.014290	7014.510999
739.344272	7122.595858
739.674207	7146.082593
740.004093	7232.432518
740.333931	7240.538693
740.663722	7247.893737
740.993464	7326.213103
741.323159	7295.588093
741.652806	7050.673716
741.982405	7094.037721
742.311956	7129.882846
742.641460	6942.225894
742.970915	6755.977944
743.300323	6742.071921
743.629683	6704.512805
743.958996	6564.474592
744.288260	6472.024872
744.617477	6423.115597
744.946647	6411.231077
745.275768	6259.540237
745.604842	6210.487289
745.933869	6193.082706
746.262847	6151.009236
746.591778	6139.235621
746.920662	6089.429021
747.249498	6094.944043
747.578286	6147.107383
747.907027	6217.381067
748.235720	6276.821312
748.564365	6258.390854
748.892963	6297.167409
749.221514	6426.820845
749.550017	6239.967957
749.878473	6131.094158
750.206881	6200.624272
750.535242	6146.946066
750.863555	6073.584674
751.191821	6079.132464
751.520039	6082.174801
751.848210	5985.462785
752.176334	6021.907806
752.504411	6058.569598
752.832440	5984.068906
753.160421	5915.937711
753.488356	5963.891687
753.816243	5989.374720
754.144082	5843.526578
754.471875	5820.659904
754.799620	5861.871336
755.127318	5876.072267
755.454969	5832.521739
755.782572	5806.905115
756.110129	5842.727555
756.437638	5817.184028
756.765100	5760.932313
757.092515	5772.194251
757.419882	5829.595349
757.747203	5799.300535
758.074477	5858.355132
758.401703	5839.284447
758.728882	5799.456811
759.056014	5875.013624
759.383099	5982.914481
759.710138	5997.896791
760.037129	5981.981868
760.364073	5984.580583
760.690970	6067.905815
761.017820	6040.887751
761.344623	6006.207133
761.671379	6114.090346
761.998088	6242.619604
762.324751	6510.488875
762.651366	7158.619943
762.977935	8537.337711
763.304456	10204.578358
763.630931	11049.430373
763.957359	10578.526109
764.283740	9606.228685
764.610074	8726.469201
764.936362	7723.350162
765.262602	7137.000955
765.588796	6607.193330
765.914943	6280.753412
766.241044	6109.069356
766.567097	5890.051386
766.893104	5631.024299
767.219064	5460.981138
767.544978	5400.933434
767.870845	5313.318181
768.196665	5211.267583
768.522438	5137.747395
768.848165	5104.049802
769.173846	5032.518350
769.499479	4986.069158
769.825066	4942.259011
770.150607	4878.506058
770.476101	4856.932441
770.801548	4847.596224
771.126949	4763.855097
771.452303	4707.747054
771.777611	4678.163043
772.102872	4696.180127
772.428087	4654.835103
772.753256	4610.326756
773.078378	4557.298859
773.403453	4494.783510
773.728482	4479.833968
774.053465	4434.758491
774.378401	4423.625103
774.703291	4415.637395
775.028135	4341.489583
775.352932	4295.032830
775.677683	4284.222076
776.002388	4299.015342
776.327046	4308.684275
776.651658	4231.418510
776.976224	4174.715611
777.300743	4178.935057
777.625216	4200.014642
777.949643	4187.131973
778.274024	4151.284328
778.598359	4114.309985
778.922647	4140.390395
779.246889	4126.262561
779.571086	4117.427939
779.895236	4101.636524
780.219339	4092.829629
780.543397	4090.790482
780.867409	4143.820900
781.191374	4153.189884
781.515294	4084.224379
781.839167	4081.340839
782.162995	4108.462247
782.486776	4094.699897
782.810511	4105.745065
783.134201	4090.818208
783.457844	4042.612175
783.781441	3992.480420
784.104993	4003.245804
784.428498	4020.390768
784.751958	4009.988347
785.075372	3985.667301
785.398739	3952.017599
785.722061	3967.236842
786.045337	4011.730066
786.368568	4038.223850
786.691752	3949.943164
787.014891	4012.387937
787.337983	4144.851816
787.661030	4310.897341
787.984031	4471.891630
788.306987	4636.094614
788.629897	4722.399168
788.952760	4677.192621
789.275579	4607.269296
789.598351	4533.131567
789.921078	4382.769072
790.243759	4186.436294
790.566395	4174.965148
790.888984	4165.429806
791.211529	4059.179927
791.534027	3996.278930
791.856480	3980.737052
792.178888	3921.952157
792.501249	3877.958008
792.823566	3888.320099
793.145836	3911.355652
793.468062	3857.125439
793.790241	3818.878205
794.112375	3850.450952
794.434464	3920.185233
794.756507	3939.321453
795.078505	3909.649221
795.400457	3957.943475
795.722364	4105.568624
796.044226	4203.500600
796.366042	4283.206283
796.687812	4250.506839
797.009538	4252.994648
797.331218	4216.141293
797.652852	4189.932334
797.974442	4168.222605
798.295986	4167.655475
798.617484	4081.466868
798.938938	3996.682222
799.260346	4043.486815
799.581709	4031.214126
799.903026	3952.100778
800.224299	3917.823452
800.545526	3912.683996
800.866708	3875.996999
801.187845	3818.636230
801.508936	3851.617979
801.829983	3836.650793
802.150984	3767.889455
802.471940	3761.043568
802.792851	3765.726800
803.113717	3767.468518
803.434538	3766.798045
803.755314	3706.432748
804.076045	3689.111343
804.396731	3708.315619
804.717372	3733.297057
805.037967	3715.153944
805.358518	3704.491904
805.679024	3737.597161
805.999485	3752.755911
806.319901	3755.876385
806.640272	3766.087242
806.960598	3777.742390
807.280879	3754.941251
807.601115	3771.945063
807.921306	3787.360911
808.241453	3823.823577
808.561554	3794.988177
808.881611	3727.721541
809.201623	3773.220475
809.521590	3780.870426
809.841513	3753.391096
810.161390	3780.903193
810.481223	3756.483844
810.801011	3706.447872
811.120755	3706.052141
811.440453	3734.325452
811.760107	3733.004670
812.079716	3684.448276
812.399281	3663.172086
812.718801	3685.950540
813.038276	3661.954648
813.357707	3655.900222
813.677093	3668.359434
813.996434	3615.760034
814.315731	3632.279896
814.634983	3633.532622
814.954191	3652.910818
815.273354	3674.537368
815.592473	3669.304650
815.911547	3684.163451
816.230577	3728.225656
816.549562	3776.461937
816.868502	3819.662105
817.187399	3841.908717
817.506250	3840.212368
817.825058	3823.049760
818.143821	3913.992175
818.462539	4018.885984
818.781213	4056.177920
819.099843	4123.983959
819.418429	4398.898243
819.736970	4637.236435
820.055466	4896.639089
820.373919	5264.030819
820.692327	5680.077246
821.010691	6186.309916
821.329011	7693.544339
821.647286	10625.751639
821.965517	15406.943263
822.283704	19403.438962
822.601847	21352.487671
822.919945	19400.938550
823.237999	16717.645784
823.556010	14197.590620
823.873976	12021.117817
824.191897	9897.635103
824.509775	8567.995488
824.827609	7447.694828
825.145398	6925.239726
825.463144	6809.015924
825.780845	6912.515853
826.098502	7150.274313
826.416116	8115.269626
826.733685	9497.528805
827.051210	10586.591956
827.368692	10511.667807
827.686129	9160.872989
828.003522	7656.506982
828.320872	6629.833152
828.638177	5909.926135
828.955439	5332.880378
829.272656	4828.054191
829.589830	4562.090476
829.906960	4382.038104
830.224046	4189.503836
830.541088	4067.553283
830.858086	4019.241385
831.175041	3941.153912
831.491952	3933.307356
831.808819	3940.601906
832.125642	4023.914535
832.442421	4184.717260
832.759157	4482.972087
833.075849	5073.344134
833.392497	5982.644780
833.709101	6768.656446
834.025662	7065.802218
834.342179	6635.817001
834.658653	5953.988341
834.975083	5287.131907
835.291469	4700.175241
835.607811	4305.929284
835.924110	4160.441584
836.240366	3953.282928
836.556578	3750.620982
836.872746	3642.631905
837.188871	3596.250769
837.504952	3528.474976
837.820990	3446.278963
838.136984	3407.651121
838.452935	3430.641303
838.768842	3425.380859
839.084706	3450.478244
839.400526	3626.336375
839.716303	3996.941841
840.032037	4554.705185
840.347727	4775.273310
840.663373	4453.214155
840.978977	4062.920463
841.294537	3753.754059
841.610054	3528.719472
841.925527	3424.793565
842.240957	3355.013913
842.556344	3298.482414
842.871687	3240.551995
843.186987	3185.111905
843.502244	3149.239055
843.817458	3115.990124
844.132629	3088.712441
844.447756	3094.101434
844.762840	3075.779361
845.077881	3043.762993
845.392879	3028.115251
845.707833	3024.664581
846.022745	3021.891947
846.337613	3022.380939
846.652438	3009.518435
846.967221	3008.679083
847.281960	2991.342554
847.596656	2989.941114
847.911309	2991.702997
848.225919	2984.020278
848.540485	2979.667242
848.855009	2979.077427
849.169490	2965.857001
849.483928	2962.552525
849.798323	2959.487503
850.112675	2956.757718
850.426984	2969.819348
850.741251	2966.371199
851.055474	2952.752522
851.369654	2949.697583
851.683792	2955.605815
851.997887	2962.713842
852.311938	2965.975468
852.625947	2952.414764
852.939914	2955.091617
853.253837	2961.488841
853.567718	2944.222889
853.881555	2945.500822
854.195350	2961.047740
854.509103	2953.957358
854.822812	2947.781944
855.136479	2944.122066
855.450103	2947.008127
855.763685	2941.697271
856.077224	2937.319029
856.390720	2952.623972
856.704173	2957.846608
857.017584	2950.123560
857.330953	2950.685649
857.644278	2960.415076
857.957561	2970.527630
858.270802	2972.130717
858.584000	2969.726087
858.897155	2954.968109
859.210268	2957.660085
859.523339	2954.660598
859.836367	2955.830146
860.149352	2947.134156
860.462295	2945.878908
860.775195	2948.396965
861.088054	2949.052315
861.400869	2933.568411
861.713642	2933.097063
862.026373	2944.621141
862.339062	2949.223714
862.651708	2953.274281
862.964312	2955.036164
863.276873	2951.096503
863.589392	2960.142853
863.901869	2975.319247
864.214303	2997.896054
864.526696	3011.426511
864.839045	3007.186901
865.151353	3007.990965
865.463619	3008.847961
865.775842	3007.978362
866.088023	3029.746064
866.400162	3033.295037
866.712258	3000.469563
867.024313	2994.294150
867.336325	3001.855881
867.648296	3023.747091
867.960224	3017.299456
868.272110	2999.809172
868.583954	3007.572549
868.895755	3019.353726
869.207515	3004.988958
869.519233	3017.455731
869.830909	3028.437885
870.142542	3033.325284
870.454134	3033.295037
870.765684	3037.237219
871.077191	3034.741848
871.388657	3045.880277
871.700081	3058.591547
872.011463	3070.382806
872.322803	3068.497414
872.634101	3068.237795
872.945357	3090.572627
873.256571	3116.867285
873.567744	3105.832199
873.878874	3102.333639
874.189963	3121.676546
874.501010	3123.622431
874.812015	3115.642285
875.122979	3111.571553
875.433900	3109.804629
875.744780	3118.878706
876.055618	3128.330869
876.366415	3123.093110
876.677169	3134.271869
876.987882	3127.824233
877.298554	3126.493368
877.609183	3150.617810
877.919771	3173.234947
878.230317	3202.965152
878.540822	3255.960282
878.851285	3293.748771
879.161707	3342.403467
879.472087	3460.563072
879.782425	3712.779561
880.092722	4177.185777
880.402977	4725.282708
880.713191	5391.740890
881.023363	6627.836855
881.333494	7946.416178
881.643583	8459.802245
881.953631	8122.002087
882.263637	7427.096673
882.573602	6799.553678
882.883526	6208.581733
883.193408	5636.534280
883.503248	5185.464437
883.813048	4866.077094
884.122806	4531.152914
884.432522	4208.105694
884.742197	3969.389415
885.051831	3776.905558
885.361424	3647.670538
885.670975	3572.776636
885.980485	3480.185763
886.289954	3401.692478
886.599382	3356.632124
886.908768	3318.911690
887.218113	3274.632715
887.527417	3213.417984
887.836680	3164.140705
888.145901	3158.814726
888.455082	3145.281749
888.764221	3089.740836
889.073319	3064.159501
889.382376	3060.176990
889.691392	3064.714028
890.000366	3065.263514
890.309300	3050.071997
890.618193	3067.244687
890.927044	3079.482088
891.235855	3076.913620
891.544625	3066.052454
891.853353	3080.064342
892.162041	3100.556632
892.470687	3140.442241
892.779293	3191.037782
893.087858	3241.300606
893.396381	3316.968325
893.704864	3453.515539
894.013306	3711.310064
894.321707	4024.368239
894.630068	4216.287486
894.938387	4204.975137
895.246665	4164.739168
895.554903	4032.340824
895.863100	3824.504133
896.171256	3652.557937
896.479371	3507.521420
896.787446	3381.011144
897.095480	3273.828651
897.403473	3208.144937
897.711425	3178.424815
898.019336	3165.388391
898.327207	3130.513689
898.635038	3096.198554
898.942827	3082.836976
899.250576	3071.451530
899.558284	3040.206459
899.865952	3022.973274
900.173579	2996.008142
900.481165	2988.249807
900.788711	2974.469813
901.096216	2948.868313
901.403681	2942.506377
901.711105	2948.943930
902.018489	2943.731377
902.325832	2945.778085
902.633135	2954.670681
902.940397	2993.517812
903.247619	3087.610949
903.554800	3293.302629
903.861941	3672.185669
904.169041	4123.515132
904.476101	4415.125718
904.783121	4333.194365
905.090100	4069.781473
905.397039	3784.742032
905.703938	3528.311139
906.010796	3341.160823
906.317614	3227.714697
906.624391	3128.444295
906.931129	3054.740105
907.237826	2992.355826
907.544483	2945.105091
907.851099	2916.161307
908.157675	2891.676422
908.464211	2876.005996
908.770707	2858.682070
909.077163	2841.451407
909.383578	2827.537822
909.689954	2821.639672
909.996289	2817.369815
910.302584	2819.005669
910.608839	2819.484579
910.915054	2812.905873
911.221229	2805.457568
911.527363	2807.078299
911.833458	2817.294197
912.139513	2823.966164
912.445527	2826.753922
912.751502	2834.134172
913.057436	2842.721777
913.363331	2856.254755
913.669186	2880.568240
913.975000	2921.628438
914.280775	2984.385762
914.586510	3056.217163
914.892205	3140.595996
915.197859	3279.608334
915.503475	3488.120540
915.809050	3720.008575
916.114585	3862.721120
916.420081	3869.675392
916.725536	3805.849343
917.030952	3679.389478
917.336328	3542.633057
917.641665	3408.109866
917.946961	3307.937098
918.252218	3230.840212
918.557435	3146.489105
918.862612	3087.951227
919.167750	3035.545912
919.472848	2994.095024
919.777906	2969.766416
920.082925	2938.256684
920.387904	2908.649987
920.692843	2891.240363
920.997743	2878.887015
921.302603	2865.906044
921.607423	2856.731144
921.912204	2840.138186
922.216946	2827.570589
922.521647	2819.807212
922.826310	2812.356387
923.130932	2804.988741
923.435516	2795.183697
923.740059	2790.984415
924.044564	2777.748866
924.349028	2773.761313
924.653454	2768.657145
924.957840	2761.062647
925.262186	2753.574013
925.566493	2751.159300
925.870761	2747.201994
926.174989	2742.150758
926.479178	2737.896024
926.783328	2733.726990
927.087438	2731.536609
927.391509	2733.076681
927.695541	2726.129971
927.999533	2722.364229
928.303486	2717.703682
928.607400	2719.957078
928.911275	2722.926318
929.215110	2718.202757
929.518906	2717.751573
929.822663	2718.046481
930.126381	2717.386090
930.430060	2715.747715
930.733699	2719.831049
931.037299	2720.930021
931.340861	2721.744167
931.644383	2721.340875
931.947866	2720.592264
932.251309	2720.569578
932.554714	2717.829711
932.858080	2714.878116
933.161407	2715.629248
933.464694	2710.250337
933.767943	2711.190512
934.071153	2710.527600
934.374323	2712.181098
934.677455	2711.235882
934.980548	2708.463247
935.283602	2709.652960
935.586617	2706.920654
935.889593	2708.007023
936.192530	2709.582384
936.495428	2713.169165
936.798287	2712.705378
937.101108	2713.721171
937.403890	2721.103941
937.706632	2726.094683
938.009336	2732.428893
938.312002	2740.696385
938.614628	2749.299114
938.917216	2755.101482
939.219765	2755.895464
939.522275	2755.865217
939.824747	2751.250041
940.127179	2750.672829
940.429573	2746.498753
940.731929	2742.543968
941.034246	2742.251581
941.336524	2738.304358
941.638763	2734.102556
941.940964	2732.307905
942.243126	2731.166084
942.545250	2728.910167
942.847335	2728.030486
943.149381	2723.652244
943.451389	2718.316183
943.753359	2716.461038
944.055290	2714.878116
944.357182	2712.932230
944.659036	2712.871737
944.960851	2711.729915
945.262628	2713.219576
945.564367	2712.440718
945.866067	2709.715974
946.167729	2712.783516
946.469352	2714.429453
946.770937	2711.253526
947.072484	2711.550954
947.373992	2707.835624
947.675462	2708.992569
947.976893	2704.495859
948.278286	2701.728266
948.579641	2702.202134
948.880958	2699.401773
949.182236	2703.782536
949.483476	2700.765406
949.784678	2702.544933
950.085841	2705.418391
950.386967	2702.376054
950.688054	2703.406970
950.989103	2704.468133
951.290114	2704.321940
951.591087	2705.418391
951.892021	2709.675645
952.192917	2715.707386
952.493776	2714.371480
952.794596	2715.465410
953.095378	2717.935576
953.396122	2714.051367
953.696828	2713.791747
953.997496	2712.609597
954.298126	2706.290510
954.598718	2704.052238
954.899272	2703.810262
955.199788	2700.354552
955.500266	2699.555529
955.800706	2695.719211
956.101108	2694.658048
956.401472	2692.124868
956.701798	2690.713345
957.002087	2688.162521
957.302337	2685.165555
957.602550	2686.009948
957.902724	2684.943744
958.202861	2682.171110
958.502960	2682.282015
958.803022	2682.990297
959.103045	2681.243537
959.403031	2679.325378
959.702979	2679.559792
960.002889	2677.213135
960.302762	2677.518125
960.602596	2677.021571
960.902393	2679.844617
961.202153	2677.603824
961.501875	2676.462003
961.801559	2676.764472
962.101205	2674.770696
962.400814	2676.882939
962.700385	2675.758762
962.999918	2672.451765
963.299414	2670.742814
963.598873	2671.738442
963.898293	2672.509738
964.197677	2674.775737
964.497022	2673.991837
964.796331	2674.937054
965.095601	2673.240706
965.394835	2671.995541
965.694030	2675.909997
965.993189	2673.573422
966.292309	2672.242557
966.591393	2674.102743
966.890439	2675.005109
967.189447	2673.417146
967.488419	2674.584173
967.787353	2672.381189
968.086249	2674.881601
968.385108	2675.083247
968.683930	2669.996723
968.982714	2673.467557
969.281462	2672.560150
969.580172	2674.180881
969.878844	2673.243226
970.177480	2673.255829
970.476078	2673.951508
970.774639	2676.051149
971.073162	2673.979235
971.371649	2672.479491
971.670098	2673.180212
971.968510	2675.481498
972.266885	2676.827487
972.565223	2674.881601
972.863524	2672.875222
973.161788	2676.875377
973.460014	2676.197342
973.758204	2674.856395
974.056356	2672.303051
974.354471	2675.161385
974.652550	2675.781447
974.950591	2672.804646
975.248595	2673.737259
975.546563	2675.695747
975.844493	2673.260870
976.142386	2673.434790
976.440243	2674.163237
976.738062	2673.616272
977.035845	2672.378668
977.333590	2673.878412
977.631299	2672.938236
977.928971	2669.079233
978.226606	2669.611075
978.524204	2668.721311
978.821765	2669.797597
979.119290	2669.848009
979.416777	2671.292300
979.714228	2671.582166
980.011642	2672.234995
980.309020	2671.549398
980.606360	2669.931188
980.903664	2671.375479
981.200931	2672.545026
981.498162	2670.463030
981.795356	2669.540499
982.092513	2674.382527
982.389633	2675.897394
982.686717	2681.203208
982.983764	2683.713703
983.280775	2690.345341
983.577749	2688.812830
983.874686	2689.695032
984.171587	2685.268899
984.468451	2685.410051
984.765279	2683.358301
985.062070	2680.898218
985.358824	2677.218176
985.655543	2677.881088
985.952224	2676.489729
986.248869	2676.202383
986.545478	2673.462516
986.842050	2670.057217
987.138586	2670.175684
987.435086	2670.195849
987.731549	2670.205931
988.027975	2668.431445
988.324366	2668.665858
988.620719	2667.559325
988.917037	2671.504028
989.213318	2668.416321
989.509563	2666.941784
989.805772	2667.753410
990.101944	2669.651404
990.398080	2669.384223
990.694180	2667.627381
990.990244	2670.158040
991.286271	2667.627381
991.582262	2666.488080
991.878217	2669.195180
992.174136	2668.698626
992.470019	2668.612926
992.765865	2663.995229
993.061676	2666.102432
993.357450	2664.713594
993.653188	2661.646052
993.948890	2668.731393
994.244556	2669.933709
994.540186	2669.865653
994.835780	2669.767351
995.131337	2669.104439
995.426859	2668.486897
995.722345	2669.817762
996.017795	2672.187104
996.313208	2672.976045
996.608586	2672.265242
996.903928	2673.517969
997.199234	2672.673576
997.494504	2674.102743
997.789738	2671.531754
998.084936	2670.631908
998.380099	2669.527896
998.675225	2670.503359
998.970316	2669.888338
999.265371	2671.284738
999.560390	2666.578821
999.855373	2669.258194
1000.150320	2668.998575
1000.445232	2667.201403
1000.740108	2664.736279
1001.034948	2667.846671
1001.329752	2667.766012
1001.624521	2664.580003
1001.919254	2668.486898
1002.213951	2666.079747
1002.508613	2666.697288
1002.803239	2664.847184
1003.097829	2666.178049
1003.392384	2666.760302
1003.686903	2666.840961
1003.981386	2666.465395
1004.275834	2668.726352
1004.570246	2668.156702
1004.864623	2667.030004
1005.158964	2666.009170
1005.453270	2666.440189
1005.747540	2666.979592
1006.041775	2667.045127
1006.335974	2667.576969
1006.630138	2664.247287
1006.924266	2666.006650
1007.218359	2667.466064
1007.512416	2661.429282
1007.806438	2663.276865
1008.100425	2665.061433
1008.394376	2659.213695
1008.688292	2665.931032
1008.982172	2666.084788
1009.276017	2662.182935
1009.569827	2665.436999
1009.863602	2666.067144
1010.157341	2665.270641
1010.451045	2664.511948
1010.744714	2664.733758
1011.038347	2664.637977
1011.331945	2667.113183
1011.625508	2666.861125
1011.919036	2664.897596
1012.212528	2664.199396
1012.505986	2664.645538
1012.799408	2663.970024
1013.092795	2665.353820
1013.386147	2665.192503
1013.679464	2664.234684
1013.972745	2663.881803
1014.265992	2664.257369
1014.559204	2663.513799
1014.852380	2664.141423
1015.145521	2665.033707
1015.438628	2664.280055
1015.731699	2663.261742
1016.024736	2663.125630
1016.317737	2664.247287
1016.610703	2663.980106
1016.903635	2664.549756
1017.196531	2665.124448
1017.489393	2663.022287
1017.782219	2664.174190
1018.075011	2666.437668
1018.367768	2665.547905
1018.660490	2664.653100
1018.953177	2664.653100
1019.245829	2664.653100
