Dividing Wavelength (nm)	Counts (n)	Blue Motor Position (mm): 6.200000	Red Motor Position (mm): 0.000000	
326.493990	2158.546460
326.888308	2158.546460
327.282561	2158.546460
327.676750	2118.638165
328.070874	2114.978288
328.464933	2113.990221
328.858929	2119.732096
329.252859	2120.939452
329.646726	2131.639301
330.040528	2141.401495
330.434265	2156.761891
330.827938	2173.634633
331.221547	2192.488548
331.615091	2211.055118
332.008571	2228.676471
332.401986	2247.502660
332.795338	2264.418252
333.188625	2284.040943
333.581847	2302.181536
333.975006	2322.131902
334.368100	2336.990703
334.761129	2354.728003
335.154095	2373.934799
335.546996	2390.263096
335.939833	2407.561816
336.332606	2418.496078
336.725315	2430.889755
337.117960	2448.974894
337.510540	2457.829681
337.903056	2468.978193
338.295508	2476.497074
338.687896	2488.573158
339.080220	2494.236894
339.472480	2501.261742
339.864676	2507.217865
340.256807	2513.075686
340.648875	2517.590039
341.040879	2517.501819
341.432818	2520.100534
341.824694	2526.946421
342.216506	2527.016997
342.608253	2526.008766
342.999937	2524.647655
343.391557	2525.156811
343.783113	2525.053468
344.174605	2526.104548
344.566033	2527.006915
344.957397	2525.025741
345.348697	2520.813857
345.739934	2519.629186
346.131106	2518.668846
346.522215	2517.811850
346.913260	2517.070801
347.304241	2511.147445
347.695159	2511.591066
348.086012	2506.832217
348.476802	2509.534276
348.867528	2505.196363
349.258191	2498.874756
349.648789	2499.086484
350.039324	2495.771926
350.429796	2498.753768
350.820203	2498.519354
351.210548	2498.335352
351.600828	2498.209323
351.991045	2495.154384
352.381198	2491.733961
352.771288	2493.531133
353.161314	2490.854280
353.551276	2492.807727
353.941175	2491.416369
354.331010	2491.975937
354.720782	2492.885865
355.110490	2492.908550
355.500135	2490.367809
355.889717	2490.017448
356.279235	2490.839157
356.668689	2491.227325
357.058080	2492.346462
357.447408	2492.343941
357.836672	2493.795793
358.225873	2492.177583
358.615010	2491.083653
359.004084	2493.606750
359.393095	2494.456184
359.782043	2493.100114
360.170927	2495.144302
360.559748	2495.101452
360.948505	2495.398880
361.337199	2495.068685
361.725830	2496.419714
362.114398	2497.619508
362.502903	2500.051865
362.891344	2499.194869
363.279722	2496.976761
363.668037	2499.474653
364.056289	2501.642349
364.444478	2501.481032
364.832603	2502.118738
365.220665	2498.821824
365.608665	2502.574963
365.996601	2504.972031
366.384474	2501.075219
366.772284	2504.059582
367.160031	2503.905827
367.547715	2502.123779
367.935336	2506.728873
368.322893	2504.576301
368.710388	2499.988851
369.097820	2504.672083
369.485189	2501.672596
369.872495	2504.601507
370.259738	2503.726866
370.646918	2505.380365
371.034035	2504.961949
371.421090	2506.302896
371.808081	2505.002278
372.195010	2507.099398
372.581875	2505.743328
372.968678	2509.993021
373.355418	2506.408760
373.742096	2507.326250
374.128710	2508.871364
374.515262	2508.331960
374.901751	2508.337002
375.288177	2506.559995
375.674540	2508.389934
376.060841	2508.684841
376.447079	2509.438494
376.833254	2511.487723
377.219367	2511.288597
377.605417	2512.919410
377.991404	2511.467558
378.377329	2510.171982
378.763191	2511.984276
379.148991	2510.396313
379.534727	2510.824811
379.920402	2513.922600
380.306013	2511.694410
380.691563	2510.534945
381.077049	2513.080727
381.462474	2510.479492
381.847835	2513.922600
382.233134	2512.778258
382.618371	2511.626354
383.003545	2514.192302
383.388657	2511.167609
383.773706	2513.123577
384.158693	2512.185922
384.543618	2514.956037
384.928480	2512.712723
385.313280	2514.449401
385.698017	2512.382527
386.082692	2515.997035
386.467305	2513.897394
386.851856	2515.997035
387.236344	2513.305059
387.620770	2514.091479
388.005133	2512.921931
388.389435	2511.999400
388.773674	2512.589215
389.157851	2516.198681
389.541965	2516.191119
389.926018	2517.249762
390.310008	2516.024761
390.693936	2519.578775
391.077802	2516.067611
391.461606	2517.393434
391.845348	2518.290760
392.229027	2519.079700
392.612645	2519.205729
392.996200	2518.689011
393.379694	2519.334279
393.763125	2518.419309
394.146494	2520.075328
394.529801	2520.987777
394.913047	2521.315452
395.296230	2521.151615
395.679351	2519.306552
396.062410	2519.077180
396.445408	2521.136491
396.828343	2522.174969
397.211217	2519.200688
397.594028	2517.738753
397.976778	2516.617097
398.359466	2520.312263
398.742092	2520.473579
399.124656	2522.008611
399.507158	2522.726975
399.889598	2520.589526
400.271977	2519.954341
400.654294	2520.549197
401.036549	2522.938704
401.418742	2524.236801
401.800874	2522.792510
402.182944	2522.018693
402.564952	2522.739578
402.946898	2523.757891
403.328783	2523.997346
403.710606	2523.488189
404.092367	2523.039527
404.474067	2523.505833
404.855705	2524.922398
405.237282	2521.570030
405.618797	2522.913498
406.000250	2522.457273
406.381642	2525.055988
406.762972	2522.227901
407.144240	2520.463497
407.525447	2522.162366
407.906593	2516.095337
408.287677	2523.914167
408.668700	2523.730165
409.049661	2524.035155
409.430560	2528.365506
409.811399	2524.430885
410.192176	2526.772501
410.572891	2525.993643
410.953545	2526.893489
411.334138	2526.084384
411.714669	2524.844260
412.095139	2526.074301
412.475547	2524.592202
412.855894	2525.217305
413.236180	2526.507841
413.616405	2529.164529
413.996568	2527.687471
414.376670	2530.099663
414.756711	2530.576052
415.136691	2526.827954
415.516609	2530.213089
415.896466	2528.778880
416.276262	2528.191586
416.655997	2527.566483
417.035670	2526.540608
417.415283	2529.797193
417.794834	2525.754188
418.174324	2530.976823
418.553753	2528.738551
418.933121	2531.196114
419.312428	2529.315763
419.691674	2529.714014
420.070859	2530.921371
420.449983	2528.862059
420.829045	2527.810979
421.208047	2531.843902
421.586988	2529.504807
421.965867	2531.334745
422.344686	2529.782070
422.723444	2529.608150
423.102141	2529.177132
423.480777	2532.975641
423.859352	2532.985723
424.237866	2532.007739
424.616319	2532.174098
424.994712	2532.393388
425.373044	2532.726104
425.751314	2527.793335
426.129524	2526.321318
426.507673	2530.371885
426.885762	2526.470032
427.263789	2530.908768
427.641756	2530.122348
428.019662	2533.394057
428.397508	2531.392719
428.775292	2531.682585
429.153016	2532.315250
429.530679	2534.233409
429.908282	2530.898686
430.285824	2531.375075
430.663305	2531.470857
431.040726	2533.489839
431.418086	2534.147709
431.795385	2531.947246
432.172624	2531.808614
432.549802	2534.200641
432.926920	2534.127545
433.303977	2531.574200
433.680974	2533.121834
434.057910	2530.785260
434.434786	2532.849612
434.811601	2536.305323
435.188355	2533.998995
435.565050	2531.143182
435.941683	2533.762061
436.318257	2535.138296
436.694770	2538.483102
437.071222	2533.918337
437.447614	2533.850281
437.823946	2537.109387
438.200218	2533.414221
438.576429	2536.222144
438.952580	2534.571166
439.328670	2535.725590
439.704700	2538.296579
440.080670	2538.021836
440.456580	2535.274407
440.832429	2535.985210
441.208218	2535.652494
441.583947	2538.092412
441.959616	2535.851619
442.335224	2537.742052
442.710773	2535.554191
443.086261	2537.961342
443.461689	2536.045704
443.837057	2537.023687
444.212365	2535.450847
444.587612	2533.709129
444.962800	2534.994623
445.337927	2534.485467
445.712995	2531.049920
446.088002	2536.701054
446.462949	2539.390509
446.837837	2534.528316
447.212664	2537.426980
447.587431	2536.726259
447.962139	2537.719367
448.336786	2539.226672
448.711374	2537.174922
449.085901	2538.299099
449.460369	2538.059645
449.834776	2538.266332
450.209124	2538.858667
450.583412	2536.998482
450.957640	2539.332536
451.331808	2537.255581
451.705917	2537.900848
452.079965	2540.018133
452.453954	2539.597197
452.827883	2538.031918
453.201752	2536.292720
453.575562	2538.218441
453.949311	2539.589635
454.323001	2540.350849
454.696632	2540.267670
455.070202	2540.413863
455.443713	2537.202648
455.817164	2538.430169
456.190556	2537.651311
456.563888	2539.420756
456.937160	2539.597197
457.310373	2540.060983
457.683526	2539.357742
458.056619	2539.594676
458.429653	2538.619213
458.802628	2540.350849
459.175542	2537.638708
459.548398	2539.435880
459.921194	2538.336908
460.293930	2539.335057
460.666607	2539.272042
461.039224	2539.511497
461.411782	2540.570139
461.784280	2538.556198
462.156719	2541.749769
462.529099	2538.251208
462.901419	2539.982845
463.273680	2535.667617
463.645882	2536.383461
464.018024	2538.460416
464.390106	2535.675179
464.762130	2542.999975
465.134094	2540.900335
465.505999	2541.830428
465.877845	2543.975439
466.249631	2540.764224
466.621358	2541.366642
466.993026	2540.378575
467.364634	2547.582384
467.736184	2541.089378
468.107674	2543.496529
468.479105	2542.034594
468.850477	2542.584080
469.221790	2542.778165
469.593043	2540.585263
469.964238	2539.738349
470.335373	2543.302445
470.706449	2540.857485
471.077467	2540.867567
471.448425	2542.866385
471.819324	2543.325130
472.190164	2544.295552
472.560945	2542.755479
472.931667	2543.380582
473.302330	2542.495860
473.672934	2542.581560
474.043479	2544.212373
474.413965	2540.605427
474.784393	2540.998637
475.154761	2542.997455
475.525070	2541.409491
475.895321	2545.323947
476.265513	2542.377393
476.635645	2541.278421
477.005719	2544.535007
477.375734	2542.790767
477.745691	2543.375541
478.115588	2540.940664
478.485427	2542.808412
478.855207	2542.616848
479.224928	2544.109029
479.594591	2544.358566
479.964194	2542.074924
480.333739	2542.707588
480.703226	2543.584749
481.072653	2541.548123
481.442022	2541.285983
481.811333	2539.745911
482.180584	2538.654501
482.549777	2541.961498
482.918912	2537.348842
483.287988	2542.400078
483.657005	2541.908566
484.025964	2542.848741
484.394864	2542.823535
484.763706	2545.591128
485.132489	2542.992414
485.501213	2543.332692
485.869879	2543.136087
486.238487	2543.700696
486.607036	2540.759183
486.975527	2545.825542
487.343959	2542.483257
487.712333	2544.121632
488.080648	2541.359080
488.448905	2544.295552
488.817104	2545.059287
489.185244	2544.519883
489.553326	2544.855120
489.921350	2545.301262
490.289315	2546.120450
490.657222	2544.492157
491.025070	2547.020296
491.392861	2546.115408
491.760593	2543.975439
492.128267	2545.722198
492.495883	2543.730943
492.863440	2545.200439
493.230939	2544.847558
493.598380	2547.879812
493.965763	2544.492157
494.333088	2545.961653
494.700354	2545.961653
495.067563	2544.938299
495.434713	2545.770089
495.801805	2546.886705
496.168839	2543.942671
496.535815	2547.514329
496.902733	2546.170861
497.269593	2543.554502
497.636395	2545.152548
498.003139	2546.881664
498.369825	2545.891077
498.736453	2545.989380
499.103023	2548.071376
499.469535	2546.453166
499.835989	2545.029040
500.202385	2541.570808
500.568723	2541.901004
500.935003	2543.952753
501.301226	2540.083668
501.667390	2548.106664
502.033497	2549.374514
502.399546	2545.263453
502.765537	2548.583053
503.131470	2547.443753
503.497345	2546.191026
503.863163	2546.798485
504.228923	2546.072559
504.594625	2547.552137
504.960269	2544.527445
505.325856	2545.651622
505.691385	2545.240768
506.056856	2547.773948
506.422270	2548.542724
506.787625	2547.410985
507.152924	2546.811088
507.518164	2544.736653
507.883347	2545.659184
508.248472	2544.494677
508.613540	2547.940306
508.978550	2547.292518
509.343503	2548.434339
509.708398	2545.197918
510.073236	2548.159596
510.438016	2546.511139
510.802738	2547.247147
511.167403	2546.049873
511.532010	2546.785882
511.896561	2546.382590
512.261053	2545.626417
512.625488	2545.041643
512.989866	2548.330996
513.354186	2548.204967
513.718449	2546.682538
514.082655	2545.192877
514.446803	2544.313196
514.810894	2548.245296
515.174927	2550.521377
515.538904	2545.071890
515.902822	2546.138094
516.266684	2546.692621
516.630488	2548.386448
516.994235	2546.478372
517.357925	2546.707744
517.721558	2548.706562
518.085133	2547.955430
518.448651	2546.758156
518.812112	2542.876467
519.175516	2543.516694
519.538863	2540.602907
519.902152	2546.480892
520.265385	2547.652960
520.628560	2551.398538
520.991678	2547.378217
521.354739	2547.529452
521.717743	2548.547765
522.080690	2547.373176
522.443580	2544.603062
522.806413	2548.646068
523.169189	2547.592467
523.531908	2547.095913
523.894569	2547.733619
524.257174	2547.892415
524.619722	2548.653629
524.982213	2545.467620
525.344647	2547.768907
525.707025	2548.396531
526.069345	2548.832590
526.431608	2548.827549
526.793815	2547.418547
527.155964	2550.201264
527.518057	2547.375697
527.880093	2547.098433
528.242072	2548.754452
528.603995	2548.008362
528.965860	2546.982487
529.327669	2547.957950
529.689421	2549.989535
530.051117	2549.094730
530.412755	2548.779658
530.774337	2548.966181
531.135862	2545.734801
531.497331	2548.457024
531.858743	2547.158927
532.220098	2545.981818
532.581396	2547.869730
532.942638	2549.399720
533.303824	2547.080789
533.664953	2550.017262
534.026025	2548.976263
534.387040	2548.333516
534.747999	2549.059442
535.108902	2546.954761
535.469748	2552.028682
535.830537	2548.996428
536.191270	2547.506767
536.551947	2547.287477
536.912567	2544.159441
537.273131	2547.365615
537.633638	2541.608617
537.994089	2546.851417
538.354483	2547.950388
538.714821	2549.210677
539.075103	2547.307641
539.435328	2548.262940
539.795497	2549.414844
540.155609	2549.629093
540.515665	2550.458363
540.875665	2547.630275
541.235609	2551.640513
541.595496	2549.089689
541.955328	2545.389482
542.315102	2549.092210
542.674821	2548.832590
543.034483	2551.060780
543.394090	2548.610780
543.753640	2550.357539
544.113134	2549.576161
544.472571	2549.475338
544.831953	2551.239741
545.191278	2550.082797
545.550548	2549.177909
545.909761	2550.450801
546.268918	2549.800492
546.628019	2547.889895
546.987064	2550.105482
547.346053	2551.070863
547.704986	2550.312169
548.063863	2551.774104
548.422684	2550.760832
548.781449	2548.832590
549.140158	2548.872920
549.498811	2552.580688
549.857408	2549.384597
550.215949	2550.206305
550.574434	2550.344937
550.932864	2552.875596
551.291237	2549.924000
551.649555	2551.426264
552.007817	2554.002294
552.366022	2552.338713
552.724173	2550.889381
553.082267	2552.832746
553.440305	2552.799978
553.798288	2552.479865
554.156215	2553.490617
554.514086	2551.517005
554.871902	2549.243444
555.229661	2548.973743
555.587365	2546.551468
555.945014	2554.942469
556.302606	2555.459187
556.660143	2551.985832
557.017625	2553.997253
557.375050	2554.009855
557.732421	2553.604043
558.089735	2554.108158
558.446994	2554.803837
558.804197	2552.832746
559.161345	2554.463559
559.518437	2555.106306
559.875474	2553.513302
560.232455	2553.147818
560.589381	2552.530277
560.946251	2553.021789
561.303065	2554.632438
561.659825	2553.094886
562.016528	2555.459187
562.373177	2556.220401
562.729770	2554.937428
563.086307	2554.670247
563.442789	2555.784342
563.799216	2554.355174
564.155587	2556.008673
564.511904	2557.291647
564.868164	2556.109496
565.224370	2554.294681
565.580520	2558.209137
565.936615	2556.348951
566.292654	2553.916594
566.648638	2555.945658
567.004567	2557.268961
567.360441	2556.313663
567.716260	2556.888354
568.072023	2554.448436
568.427732	2556.923642
568.783385	2555.252500
569.138982	2554.914742
569.494525	2553.510781
569.850013	2554.960113
570.205445	2555.935576
570.560823	2554.899619
570.916145	2554.430792
571.271412	2556.089331
571.626625	2554.985319
571.981782	2553.241079
572.336884	2553.107489
572.691931	2549.765204
573.046923	2552.452139
573.401860	2550.954916
573.756743	2554.143446
574.111570	2555.965823
574.466342	2556.928683
574.821059	2553.301573
575.175722	2557.546225
575.530330	2557.684857
575.884882	2552.812581
576.239380	2557.876420
576.593823	2556.951369
576.948211	2553.301573
577.302544	2558.839281
577.656823	2556.520350
578.011047	2554.224104
578.365216	2553.311656
578.719330	2558.582182
579.073389	2556.885834
579.427394	2554.841646
579.781344	2555.522202
580.135239	2554.697973
580.489080	2553.699824
580.842866	2554.713096
581.196597	2555.229815
581.550273	2555.549928
581.903895	2553.737633
582.257463	2555.461708
582.610975	2555.703683
582.964434	2555.010524
583.317837	2553.616645
583.671186	2554.629917
584.024481	2553.467931
584.377721	2554.405586
584.730906	2554.085473
585.084037	2555.643189
585.437113	2553.861141
585.790135	2555.018086
586.143103	2554.440874
586.496016	2556.706873
586.848874	2555.607901
587.201679	2553.588919
587.554428	2554.755946
587.907124	2554.982798
588.259765	2554.874413
588.612352	2553.528425
588.964884	2553.462890
589.317362	2553.672098
589.669786	2553.513302
590.022155	2553.455328
590.374470	2548.789741
590.726731	2552.348795
591.078937	2550.102961
591.431090	2551.348126
591.783188	2553.662016
592.135232	2553.951882
592.487222	2554.640000
592.839157	2553.871224
593.191038	2552.603373
593.542866	2554.019938
593.894639	2553.911553
594.246358	2552.973898
594.598022	2551.348126
594.949633	2554.181255
595.301190	2552.069011
595.652692	2553.026830
596.004141	2552.658826
596.355535	2553.346944
596.706876	2551.774104
597.058162	2554.072870
597.409395	2555.149156
597.760573	2553.508261
598.111698	2553.856100
598.462768	2556.661502
598.813785	2552.714279
599.164748	2551.859803
599.515657	2553.034392
599.866511	2552.983981
600.217312	2552.270657
600.568060	2551.169165
600.918753	2555.086142
601.269392	2552.336192
601.619978	2553.747715
601.970510	2553.190668
602.320988	2549.558517
602.671412	2553.180586
603.021783	2551.764021
603.372100	2551.151521
603.722363	2550.042467
604.072572	2554.032541
604.422728	2553.412479
604.772830	2552.348795
605.122878	2552.167314
605.472872	2551.690925
605.822813	2553.576316
606.172701	2550.687735
606.522534	2549.460214
606.872314	2552.694114
607.222041	2551.693445
607.571714	2549.803012
607.921333	2547.882333
608.270899	2551.827036
608.620411	2550.496171
608.969870	2553.077242
609.319276	2556.921122
609.668627	2559.565207
610.017926	2564.581155
610.367171	2566.670713
610.716362	2564.122410
611.065500	2561.521175
611.414585	2561.624518
611.763616	2559.711400
612.112594	2556.104455
612.461518	2558.619991
612.810389	2554.261913
613.159207	2558.635114
613.507971	2555.600339
613.856682	2554.944989
614.205340	2553.856100
614.553945	2554.408107
614.902496	2553.215874
615.250994	2555.285267
615.599439	2552.494989
615.947830	2553.583878
616.296169	2554.269475
616.644454	2553.709907
616.992686	2552.399207
617.340864	2554.357695
617.688990	2550.113043
618.037063	2555.154197
618.385082	2552.603373
618.733048	2553.354505
619.080961	2553.127653
619.428821	2555.728889
619.776628	2553.780483
620.124382	2553.329300
620.472083	2551.983312
620.819731	2555.728889
621.167326	2554.287119
621.514868	2552.590771
621.862357	2553.641851
622.209793	2551.476676
622.557176	2554.927345
622.904506	2553.165462
623.251783	2552.399207
623.599007	2552.013558
623.946179	2553.341902
624.293297	2552.200081
624.640363	2551.559855
624.987376	2551.577499
625.334336	2548.835111
625.681243	2552.968857
626.028097	2546.438042
626.374899	2552.880637
626.721647	2550.375183
627.068343	2551.927859
627.414987	2555.640669
627.761577	2550.723023
628.108115	2552.865513
628.454600	2552.258054
628.801032	2553.440205
629.147412	2553.301573
629.493739	2553.102448
629.840014	2551.864844
630.186236	2555.454146
630.532405	2553.780483
630.878521	2553.440205
631.224585	2553.692263
631.570597	2552.245452
631.916556	2553.135215
632.262462	2551.892571
632.608316	2552.830225
632.954117	2550.957437
633.299866	2552.011038
633.645562	2552.978939
633.991206	2550.488609
634.336797	2551.481717
634.682336	2554.589588
635.027823	2549.046839
635.373257	2553.732592
635.718639	2555.108827
636.063968	2554.251831
636.409245	2551.000287
636.754470	2553.367108
637.099642	2553.563713
637.444762	2554.072870
637.789829	2553.878785
638.134845	2551.421223
638.479808	2554.128323
638.824719	2554.682849
639.169577	2552.792417
639.514383	2552.076573
639.859137	2555.128992
640.203839	2549.830739
640.548489	2551.111192
640.893086	2553.599001
641.237632	2553.593960
641.582125	2552.689073
641.926566	2552.799978
642.270955	2551.582540
642.615292	2547.506767
642.959576	2550.307128
643.303809	2546.518701
643.647990	2552.429454
643.992118	2556.177552
644.336195	2552.656306
644.680219	2553.034392
645.024192	2553.604042
645.368112	2552.137067
645.711981	2550.153373
646.055797	2549.160265
646.399562	2551.809392
646.743274	2555.355843
647.086935	2552.880637
647.430544	2551.945503
647.774101	2553.846018
648.117606	2554.934907
648.461059	2554.153528
648.804460	2555.398693
649.147810	2555.416337
649.491108	2552.500030
649.834354	2554.670247
650.177548	2554.987839
650.520690	2552.605894
650.863781	2555.857438
651.206820	2555.590257
651.549807	2554.576985
651.892742	2552.978939
652.235626	2552.104299
652.578458	2555.670916
652.921238	2552.613456
653.263967	2555.993549
653.606644	2555.771739
653.949269	2553.515822
654.291843	2552.391645
654.634365	2554.080432
654.976836	2552.280740
655.319255	2555.106306
655.661622	2552.676470
656.003938	2554.655123
656.346203	2553.687222
656.688416	2554.541697
657.030577	2554.367777
657.372687	2553.750236
657.714746	2555.275185
658.056753	2556.132181
658.398708	2553.619166
658.740612	2555.373488
659.082465	2553.611604
659.424266	2551.151521
659.766016	2549.737478
660.107715	2552.225287
660.449362	2550.251675
660.790958	2555.489434
661.132503	2555.376008
661.473996	2555.663354
661.815438	2555.857438
662.156829	2557.435319
662.498168	2553.737633
662.839456	2551.441387
663.180693	2553.029351
663.521879	2554.231666
663.863013	2556.270813
664.204097	2556.429609
664.545129	2556.147305
664.886110	2553.432643
665.227040	2554.450956
665.567918	2556.217881
665.908746	2555.577654
666.249522	2556.038920
666.590248	2554.413148
666.930922	2557.571431
667.271545	2553.924156
667.612118	2556.369115
667.952639	2554.198899
668.293109	2556.868190
668.633528	2557.584033
668.973896	2556.361554
669.314213	2553.823333
669.654480	2555.504557
669.994695	2556.061605
670.334859	2556.590926
670.674973	2557.458005
671.015035	2559.308108
671.355047	2554.912222
671.695008	2558.367933
672.034918	2556.681667
672.374777	2557.170659
672.714585	2556.013714
673.054342	2556.313663
673.394049	2560.031514
673.733705	2559.419013
674.073310	2562.161401
674.412864	2561.261555
674.752368	2559.315670
675.091820	2558.425906
675.431223	2556.520350
675.770574	2560.744837
676.109875	2556.797613
676.449125	2556.580844
676.788324	2556.500185
677.127473	2558.635114
677.466571	2555.035730
677.805619	2558.773746
678.144616	2555.403734
678.483562	2559.812223
678.822458	2560.049158
679.161303	2561.745506
679.500098	2558.360371
679.838842	2558.985474
680.177535	2560.507903
680.516179	2561.269117
680.854771	2560.293654
681.193314	2560.611246
681.531805	2563.174673
681.870247	2561.838767
682.208638	2564.835733
682.546978	2567.736917
682.885268	2565.405384
683.223508	2565.632236
683.561697	2565.055023
683.899836	2564.525702
684.237925	2567.131979
684.575963	2563.973696
684.913951	2567.527709
685.251889	2564.117369
685.589776	2568.654407
685.927614	2567.951166
686.265401	2569.466033
686.603137	2567.862946
686.940824	2569.773543
687.278460	2572.954512
687.616046	2569.846640
687.953582	2571.210272
688.291068	2571.353945
688.628504	2576.425346
688.965889	2577.405850
689.303224	2578.855182
689.640510	2578.741756
689.977745	2574.623133
690.314930	2573.204049
690.652065	2576.306879
690.989150	2576.745459
691.326185	2573.728329
691.663170	2572.226065
692.000105	2573.819069
692.336990	2573.188925
692.673825	2572.127762
693.010610	2575.240675
693.347345	2570.489387
693.684030	2567.116855
694.020665	2569.990313
694.357251	2567.502504
694.693786	2573.130952
695.030272	2570.708678
695.366707	2571.860581
695.703093	2571.479974
696.039429	2572.868812
696.375716	2574.860068
696.711952	2573.040211
697.048139	2571.908472
697.384276	2571.704305
697.720363	2575.303689
698.056400	2575.535582
698.392388	2575.853175
698.728326	2573.735890
699.064214	2572.836044
699.400053	2578.522466
699.735842	2575.626323
700.071581	2573.577094
700.407270	2573.564491
700.742910	2575.674214
701.078501	2576.437949
701.414042	2574.197156
701.749533	2574.494584
702.084974	2572.349573
702.420366	2574.807136
702.755709	2574.313102
703.091002	2572.846127
703.426246	2576.022054
703.761440	2574.658422
704.096584	2576.606827
704.431679	2573.556929
704.766725	2577.108422
705.101721	2575.681776
705.436668	2571.691702
705.771565	2576.301838
706.106413	2577.920048
706.441212	2577.811663
706.775961	2580.614545
707.110661	2577.915007
707.445311	2581.393403
707.779913	2581.562282
708.114465	2583.150245
708.448967	2584.395410
708.783421	2583.286356
709.117825	2588.360278
709.452180	2590.457398
709.786485	2585.305338
710.120742	2589.383632
710.454949	2588.529156
710.789107	2593.154415
711.123216	2594.462594
711.457275	2603.312340
711.791286	2604.955756
712.125247	2605.722012
712.459159	2612.252826
712.793023	2612.275512
713.126837	2607.461210
713.460602	2613.011520
713.794318	2607.642691
714.127985	2609.021447
714.461602	2607.345263
714.795171	2606.505911
715.128691	2604.134048
715.462162	2600.527102
715.795584	2600.612802
716.128957	2602.067175
716.462281	2594.321442
716.795556	2601.817638
717.128782	2598.218254
717.461960	2593.537543
717.795088	2593.953438
718.128167	2596.229519
718.461198	2594.185331
718.794180	2593.650969
719.127113	2593.915629
719.459997	2594.976792
719.792833	2590.671647
720.125619	2592.937645
720.458357	2591.853797
720.791046	2590.575865
721.123686	2592.630135
721.456278	2592.773808
721.788821	2591.203488
722.121315	2588.307346
722.453761	2593.761874
722.786158	2596.836978
723.118506	2594.107193
723.450805	2594.187852
723.783056	2595.543922
724.115259	2593.653489
724.447412	2599.740682
724.779518	2596.998295
725.111574	2596.592482
725.443582	2598.319077
725.775542	2599.503748
726.107453	2605.132197
726.439315	2605.001127
726.771129	2606.906683
727.102895	2606.775613
727.434612	2610.909359
727.766281	2607.362907
728.097901	2612.804833
728.429473	2618.566872
728.760996	2613.437498
729.092471	2614.062601
729.423897	2614.475975
729.755276	2615.905142
730.086606	2616.532766
730.417887	2616.270626
730.749120	2619.910339
731.080305	2625.470732
731.411442	2630.574900
731.742530	2626.695732
732.073570	2633.526496
732.404562	2636.382309
732.735506	2630.080867
733.066401	2638.146713
733.397249	2639.210397
733.728048	2633.400467
734.058798	2625.274127
734.389501	2627.489714
734.720156	2623.144239
735.050762	2616.900770
735.381320	2616.550410
735.711831	2616.555451
736.042293	2613.898763
736.372707	2617.193157
736.703073	2615.464041
737.033391	2614.269288
737.363661	2614.947323
737.693883	2611.917590
738.024056	2619.063425
738.354182	2621.551235
738.684260	2620.575771
739.014290	2624.338993
739.344272	2628.155146
739.674207	2628.719755
740.004093	2628.954169
740.333931	2631.026083
740.663722	2630.670682
740.993464	2634.605302
741.323159	2640.876498
741.652806	2630.549694
741.982405	2629.523819
742.311956	2639.669142
742.641460	2632.878707
742.970915	2625.730351
743.300323	2627.835033
743.629683	2626.599950
743.958996	2622.047788
744.288260	2619.169289
744.617477	2621.241204
744.946647	2627.068777
745.275768	2623.159363
745.604842	2621.364712
745.933869	2620.530401
746.262847	2619.754063
746.591778	2620.694238
746.920662	2620.122067
747.249498	2622.360340
747.578286	2619.290277
747.907027	2626.909981
748.235720	2625.115330
748.564365	2627.741772
748.892963	2630.307719
749.221514	2637.995478
749.550017	2632.190590
749.878473	2626.380660
750.206881	2633.410549
750.535242	2631.515075
750.863555	2628.117337
751.191821	2628.636576
751.520039	2629.707822
751.848210	2627.146915
752.176334	2627.484673
752.504411	2632.760240
752.832440	2631.036166
753.160421	2626.118520
753.488356	2629.276803
753.816243	2637.662762
754.144082	2632.127575
754.471875	2627.837553
754.799620	2631.187400
755.127318	2632.735034
755.454969	2632.977010
755.782572	2631.444499
756.110129	2634.113790
756.437638	2639.482619
756.765100	2635.487504
757.092515	2636.977165
757.419882	2634.892648
757.747203	2633.559263
758.074477	2642.661066
758.401703	2641.171405
758.728882	2635.956332
759.056014	2639.066724
759.383099	2644.581746
759.710138	2642.938330
760.037129	2642.509832
760.364073	2641.831797
760.690970	2645.163999
761.017820	2653.560041
761.344623	2651.304125
761.671379	2653.590288
761.998088	2655.899136
762.324751	2664.196876
762.651366	2684.427026
762.977935	2722.681822
763.304456	2767.762340
763.630931	2805.601241
763.957359	2792.748819
764.283740	2769.509100
764.610074	2751.302973
764.936362	2720.652757
765.262602	2701.017463
765.588796	2679.290090
765.914943	2666.314160
766.241044	2666.034376
766.567097	2661.368788
766.893104	2648.934782
767.219064	2639.467495
767.544978	2642.192239
767.870845	2640.024543
768.196665	2634.073461
768.522438	2634.310395
768.848165	2630.905096
769.173846	2629.309570
769.499479	2628.505506
769.825066	2627.388891
770.150607	2625.793366
770.476101	2622.130967
770.801548	2623.739095
771.126949	2622.312449
771.452303	2619.990997
771.777611	2621.707510
772.102872	2624.265896
772.428087	2621.331944
772.753256	2619.323045
773.078378	2618.571913
773.403453	2616.996552
773.728482	2617.740122
774.053465	2614.531428
774.378401	2614.297014
774.703291	2615.743825
775.028135	2610.528752
775.352932	2614.891870
775.677683	2610.105295
776.002388	2609.976745
776.327046	2609.699482
776.651658	2609.515480
776.976224	2603.229161
777.300743	2606.299224
777.625216	2611.199225
777.949643	2612.673763
778.274024	2607.216714
778.598359	2607.519183
778.922647	2607.249481
779.246889	2606.384923
779.571086	2605.782505
779.895236	2608.913062
780.219339	2603.466095
780.543397	2604.865015
780.867409	2611.176540
781.191374	2608.608072
781.515294	2607.241919
781.839167	2607.884667
782.162995	2608.802157
782.486776	2608.040942
782.810511	2610.634616
783.134201	2616.079062
783.457844	2610.722836
783.781441	2605.565736
784.104993	2603.924840
784.428498	2609.938937
784.751958	2606.518514
785.075372	2609.681838
785.398739	2606.982300
785.722061	2605.132197
786.045337	2605.807711
786.368568	2614.014710
786.691752	2605.301075
787.014891	2606.856271
787.337983	2615.390945
787.661030	2618.521501
787.984031	2625.906792
788.306987	2637.198976
788.629897	2641.184008
788.952760	2639.442290
789.275579	2632.911475
789.598351	2635.795015
789.921078	2630.849643
790.243759	2620.222891
790.566395	2620.048971
790.888984	2620.626183
791.211529	2614.634772
791.534027	2613.301386
791.856480	2613.233331
792.178888	2609.376848
792.501249	2599.387802
792.823566	2604.612958
793.145836	2606.062289
793.468062	2607.511621
793.790241	2606.274018
794.112375	2605.938781
794.434464	2609.770058
794.756507	2612.262909
795.078505	2609.296190
795.400457	2608.837445
795.722364	2617.162910
796.044226	2622.136008
796.366042	2625.632049
796.687812	2626.884775
797.009538	2629.654889
797.331218	2624.263375
797.652852	2625.132974
797.974442	2625.286730
798.295986	2625.672378
798.617484	2624.775052
798.938938	2620.101903
799.260346	2620.497633
799.581709	2621.591564
799.903026	2619.630555
800.224299	2616.089144
800.545526	2615.176696
800.866708	2611.889863
801.187845	2607.665376
801.508936	2615.602673
801.829983	2612.431787
802.150984	2605.535489
802.471940	2608.671087
802.792851	2607.844337
803.113717	2606.866353
803.434538	2608.164451
803.755314	2607.539347
804.076045	2602.684716
804.396731	2603.713112
804.717372	2606.117742
805.037967	2605.895931
805.358518	2607.211672
805.679024	2608.787033
805.999485	2608.381220
806.319901	2607.781323
806.640272	2610.750562
806.960598	2609.202928
807.280879	2610.095212
807.601115	2608.214862
807.921306	2611.224431
808.241453	2610.228803
808.561554	2612.479678
808.881611	2607.922475
809.201623	2605.573297
809.521590	2614.029833
809.841513	2611.191663
810.161390	2613.117384
810.481223	2617.747684
810.801011	2611.219390
811.120755	2607.872064
811.440453	2610.591766
811.760107	2612.275512
812.079716	2611.912548
812.399281	2606.256374
812.718801	2612.802312
813.038276	2607.834255
813.357707	2608.151848
813.677093	2608.739142
813.996434	2610.158227
814.315731	2610.178392
814.634983	2609.134873
814.954191	2611.403392
815.273354	2613.845831
815.592473	2613.157713
815.911547	2612.981273
816.230577	2617.863631
816.549562	2617.243569
816.868502	2623.761781
817.187399	2627.663634
817.506250	2627.613222
817.825058	2624.603653
818.143821	2628.772687
818.462539	2642.540079
818.781213	2646.537714
819.099843	2648.186171
819.418429	2664.794252
819.736970	2682.324865
820.055466	2692.581092
820.373919	2720.196533
820.692327	2754.335227
821.010691	2781.849845
821.329011	2860.774149
821.647286	2997.180211
821.965517	3169.544822
822.283704	3314.324240
822.601847	3429.375974
822.919945	3418.678645
823.237999	3341.236440
823.556010	3246.606421
823.873976	3173.817200
824.191897	3051.465876
824.509775	2955.441977
824.827609	2878.418188
825.145398	2840.559122
825.463144	2835.558298
825.780845	2843.493074
826.098502	2851.659743
826.416116	2897.451064
826.733685	2961.864407
827.051210	3019.562934
827.368692	3045.199722
827.686129	3007.217148
828.003522	2905.635377
828.320872	2839.666838
828.638177	2795.987761
828.955439	2758.680702
829.272656	2720.567058
829.589830	2697.070240
829.906960	2687.318128
830.224046	2664.025476
830.541088	2657.960968
830.858086	2654.532984
831.175041	2651.717499
831.491952	2651.019299
831.808819	2651.704896
832.125642	2658.276040
832.442421	2668.131496
832.759157	2684.858045
833.075849	2723.629559
833.392497	2779.845986
833.709101	2820.162614
834.025662	2841.907631
834.342179	2838.706498
834.658653	2804.845068
834.975083	2764.818306
835.291469	2725.091493
835.607811	2681.868640
835.924110	2677.019050
836.240366	2659.191010
836.556578	2638.797022
836.872746	2628.578603
837.188871	2623.366050
837.504952	2620.437140
837.820990	2613.432456
838.136984	2611.496653
838.452935	2612.789709
838.768842	2611.201746
839.084706	2614.438167
839.400526	2630.249746
839.716303	2647.571150
840.032037	2680.058866
840.347727	2700.130220
840.663373	2692.485310
840.978977	2668.068482
841.294537	2645.526962
841.610054	2625.879065
841.925527	2615.380862
842.240957	2610.407764
842.556344	2606.233689
842.871687	2599.912082
843.186987	2593.691298
843.502244	2590.159970
843.817458	2587.256265
844.132629	2582.157138
844.447756	2585.229721
844.762840	2582.545307
845.077881	2583.261151
845.392879	2578.600604
845.707833	2577.811663
846.022745	2577.105902
846.337613	2579.979359
846.652438	2576.979873
846.967221	2580.470872
847.281960	2577.476427
847.596656	2577.851993
847.911309	2577.080696
848.225919	2574.968452
848.540485	2573.889646
848.855009	2577.655387
849.169490	2572.704974
849.483928	2573.135993
849.798323	2573.572053
850.112675	2571.275807
850.426984	2572.024419
850.741251	2575.331416
851.055474	2573.947619
851.369654	2573.322516
851.683792	2569.246743
851.997887	2574.487022
852.311938	2575.555747
852.625947	2571.235478
852.939914	2570.933009
853.253837	2575.512897
853.567718	2573.241857
853.881555	2572.578946
854.195350	2574.318144
854.509103	2571.658935
854.822812	2570.401167
855.136479	2571.525344
855.450103	2571.427042
855.763685	2570.822103
856.077224	2564.888665
856.390720	2568.929150
856.704173	2568.856053
857.017584	2573.284707
857.330953	2569.604665
857.644278	2573.826631
857.957561	2575.742270
858.270802	2576.531210
858.584000	2574.920562
858.897155	2572.294120
859.210268	2571.240519
859.523339	2576.238823
859.836367	2569.637432
860.149352	2572.851168
860.462295	2571.623647
860.775195	2574.726477
861.088054	2575.298648
861.400869	2573.932495
861.713642	2570.166753
862.026373	2575.762434
862.339062	2571.749676
862.651708	2575.694379
862.964312	2573.123390
863.276873	2577.751169
863.589392	2575.530541
863.901869	2574.706312
864.214303	2575.822928
864.526696	2581.438773
864.839045	2581.506829
865.151353	2577.168916
865.463619	2577.935172
865.775842	2580.838876
866.088023	2579.712178
866.400162	2583.336768
866.712258	2579.608835
867.024313	2580.090265
867.336325	2580.579257
867.648296	2583.079669
867.960224	2581.043043
868.272110	2576.760583
868.583954	2582.560430
868.895755	2584.075297
869.207515	2579.291242
869.519233	2580.498598
869.830909	2584.733168
870.142542	2584.924731
870.454134	2585.116295
870.765684	2585.285174
871.077191	2587.344485
871.388657	2585.002869
871.700081	2584.493713
872.011463	2587.679722
872.322803	2587.231059
872.634101	2590.374219
872.945357	2591.115268
873.256571	2593.373705
873.567744	2591.853797
873.878874	2592.983016
874.189963	2598.200610
874.501010	2594.719693
874.812015	2594.596185
875.122979	2595.274220
875.433900	2597.096597
875.744780	2596.932760
876.055618	2596.501741
876.366415	2597.988882
876.677169	2601.479881
876.987882	2600.416197
877.298554	2603.065323
877.609183	2605.033894
877.919771	2606.165633
878.230317	2609.298710
878.540822	2619.287757
878.851285	2624.840587
879.161707	2631.991464
879.472087	2641.652836
879.782425	2664.645538
880.092722	2713.045656
880.402977	2759.615836
880.713191	2787.841256
881.023363	2838.212465
881.333494	2905.829462
881.643583	2918.344126
881.953631	2909.892632
882.263637	2903.571025
882.573602	2898.968451
882.883526	2880.684186
883.193408	2838.220027
883.503248	2801.056641
883.813048	2780.960081
884.122806	2755.091400
884.432522	2724.395814
884.742197	2704.148020
885.051831	2680.121881
885.361424	2664.978254
885.670975	2655.878972
885.980485	2643.608803
886.289954	2635.139665
886.599382	2627.852677
886.908768	2624.921246
887.218113	2616.252982
887.527417	2607.405757
887.836680	2600.060796
888.145901	2602.989706
888.455082	2608.083792
888.764221	2597.641042
889.073319	2593.088880
889.382376	2596.353027
889.691392	2593.925712
890.000366	2593.716504
890.309300	2590.409507
890.618193	2592.675505
890.927044	2595.987543
891.235855	2594.137440
891.544625	2591.450505
891.853353	2593.640886
892.162041	2594.336566
892.470687	2600.948039
892.779293	2606.699995
893.087858	2612.930862
893.396381	2621.175669
893.704864	2631.053810
894.013306	2655.223622
894.321707	2680.724298
894.630068	2704.032073
894.938387	2701.589634
895.246665	2703.840509
895.554903	2701.009902
895.863100	2684.999197
896.171256	2666.049500
896.479371	2648.541572
896.787446	2639.913637
897.095480	2623.219857
897.403473	2618.244238
897.711425	2609.434821
898.019336	2606.873915
898.327207	2604.325612
898.635038	2597.946032
898.942827	2598.051896
899.250576	2597.777153
899.558284	2591.644589
899.865952	2585.756522
900.173579	2584.138311
900.481165	2584.695359
900.788711	2584.491192
901.096216	2579.071952
901.403681	2577.272260
901.711105	2582.510019
902.018489	2580.821232
902.325832	2577.191601
902.633135	2576.589183
902.940397	2582.257961
903.247619	2589.756677
903.554800	2613.422374
903.861941	2641.917496
904.169041	2678.259174
904.476101	2706.761858
904.783121	2708.780840
905.090100	2695.656196
905.397039	2676.449400
905.703938	2650.573157
906.010796	2628.845784
906.317614	2617.462859
906.624391	2605.701847
906.931129	2595.455702
907.237826	2590.228025
907.544483	2581.942889
907.851099	2575.081878
908.157675	2572.357135
908.464211	2569.929819
908.770707	2569.849161
909.077163	2565.564180
909.383578	2565.823799
909.689954	2565.987637
909.996289	2561.009497
910.302584	2560.964127
910.608839	2565.657441
910.915054	2561.884138
911.221229	2563.555280
911.527363	2561.921946
911.833458	2560.039075
912.139513	2564.470250
912.445527	2561.322049
912.751502	2564.293809
913.057436	2567.726835
913.363331	2568.145251
913.669186	2572.044583
913.975000	2574.418967
914.280775	2580.536407
914.586510	2590.888416
914.892205	2599.697833
915.197859	2613.147631
915.503475	2629.470887
915.809050	2644.672487
916.114585	2656.630104
916.420081	2659.425423
916.725536	2661.358706
917.030952	2655.982315
917.336328	2642.434214
917.641665	2628.167749
917.946961	2618.889505
918.252218	2610.480861
918.557435	2600.937957
918.862612	2598.011567
919.167750	2589.111410
919.472848	2585.915318
919.777906	2581.912642
920.082925	2577.453741
920.387904	2575.764955
920.692843	2572.911662
920.997743	2571.129614
921.302603	2574.043401
921.607423	2566.922771
921.912204	2565.463357
922.216946	2562.950342
922.521647	2562.531926
922.826310	2562.476473
923.130932	2559.449260
923.435516	2559.565207
923.740059	2558.398180
924.044564	2558.322563
924.349028	2556.404403
924.653454	2555.330638
924.957840	2553.029351
925.262186	2554.309804
925.566493	2553.039433
925.870761	2554.191337
926.174989	2549.946685
926.479178	2550.276881
926.783328	2550.962478
927.087438	2548.956099
927.391509	2550.211346
927.695541	2550.594474
927.999533	2548.799823
928.303486	2547.325285
928.607400	2547.078269
928.911275	2547.347971
929.215110	2549.498023
929.518906	2548.855276
929.822663	2549.087169
930.126381	2546.793444
930.430060	2547.295038
930.733699	2546.112888
931.037299	2547.093392
931.340861	2548.265461
931.644383	2546.377548
931.947866	2548.809905
932.251309	2547.438711
932.554714	2547.867209
932.858080	2546.773279
933.161407	2545.500388
933.464694	2545.175233
933.767943	2542.054759
934.071153	2545.480223
934.374323	2547.955430
934.677455	2546.231355
934.980548	2549.172868
935.283602	2545.765048
935.586617	2545.439894
935.889593	2549.750080
936.192530	2546.677497
936.495428	2547.063145
936.798287	2544.792106
937.101108	2546.501057
937.403890	2549.024154
937.706632	2548.134391
938.009336	2550.634803
938.312002	2552.000956
938.614628	2551.869886
938.917216	2553.288970
939.219765	2553.457849
939.522275	2554.655123
939.824747	2553.891388
940.127179	2553.162942
940.429573	2551.388455
940.731929	2552.512633
941.034246	2548.482230
941.336524	2550.992725
941.638763	2550.418033
941.940964	2553.422561
942.243126	2551.448949
942.545250	2551.229659
942.847335	2548.928372
943.149381	2549.790410
943.451389	2548.462066
943.753359	2547.889895
944.055290	2547.738660
944.357182	2548.883002
944.659036	2547.219421
944.960851	2548.099102
945.262628	2548.817467
945.564367	2546.445604
945.866067	2548.439380
946.167729	2546.138094
946.469352	2546.077600
946.770937	2547.292518
947.072484	2545.928886
947.373992	2548.714123
947.675462	2545.502908
947.976893	2543.763710
948.278286	2541.631302
948.579641	2543.604914
948.880958	2541.303627
949.182236	2547.849565
949.483476	2545.855789
949.784678	2546.629606
950.085841	2545.117260
950.386967	2546.206149
950.688054	2546.221273
950.989103	2544.620706
951.290114	2545.339071
951.591087	2548.381407
951.892021	2548.333516
952.192917	2548.260419
952.493776	2547.287477
952.794596	2547.121119
953.095378	2544.769420
953.396122	2545.084493
953.696828	2545.916283
953.997496	2548.353681
954.298126	2546.750594
954.598718	2545.966694
954.899272	2546.246478
955.199788	2545.775131
955.500266	2544.154400
955.800706	2543.914945
956.101108	2543.436035
956.401472	2547.030378
956.701798	2543.468803
957.002087	2542.271529
957.302337	2541.845551
957.602550	2542.916796
957.902724	2542.606765
958.202861	2544.167002
958.502960	2542.442928
958.803022	2541.580891
959.103045	2546.357384
959.403031	2543.234389
959.702979	2540.940664
960.002889	2540.933102
960.302762	2539.783719
960.602596	2541.815304
960.902393	2540.250026
961.202153	2540.716333
961.501875	2542.384955
961.801559	2540.325643
962.101205	2538.238606
962.400814	2539.786240
962.700385	2541.180119
962.999918	2537.421939
963.299414	2537.250539
963.598873	2536.506969
963.898293	2536.993441
964.197677	2543.032743
964.497022	2542.009389
964.796331	2540.239944
965.095601	2540.802032
965.394835	2538.909079
965.694030	2541.091899
965.993189	2541.412012
966.292309	2538.614172
966.591393	2543.735984
966.890439	2542.437887
967.189447	2540.834800
967.488419	2541.621220
967.787353	2542.193391
968.086249	2539.168698
968.385108	2541.210366
968.683930	2541.565767
968.982714	2540.860006
969.281462	2537.739531
969.580172	2543.645243
969.878844	2540.822197
970.177480	2542.576518
970.476078	2541.800181
970.774639	2540.549975
971.073162	2539.019984
971.371649	2540.106353
971.670098	2539.650129
971.968510	2541.598535
972.266885	2538.750283
972.565223	2540.252547
972.863524	2539.125849
973.161788	2538.898997
973.460014	2541.283462
973.758204	2542.382434
974.056356	2543.007537
974.354471	2538.641898
974.652550	2538.767927
974.950591	2539.342618
975.248595	2539.025026
975.546563	2543.793957
975.844493	2540.512166
976.142386	2540.587783
976.440243	2538.954449
976.738062	2540.744059
977.035845	2540.640715
977.333590	2542.092568
977.631299	2538.909079
977.928971	2540.877650
978.226606	2538.510828
978.524204	2538.278935
978.821765	2537.273225
979.119290	2540.476878
979.416777	2540.139121
979.714228	2539.014943
980.011642	2542.049718
980.309020	2540.660880
980.606360	2541.689275
980.903664	2538.099974
981.200931	2538.876312
981.498162	2542.072403
981.795356	2540.933102
982.092513	2540.398740
982.389633	2539.561908
982.686717	2542.032074
982.983764	2542.238761
983.280775	2542.647095
983.577749	2541.293545
983.874686	2541.485109
984.171587	2543.201622
984.468451	2542.889070
984.765279	2542.543751
985.062070	2542.153062
985.358824	2539.380427
985.655543	2541.285983
985.952224	2541.840510
986.248869	2540.819676
986.545478	2540.197094
986.842050	2539.831610
987.138586	2540.991076
987.435086	2540.270191
987.731549	2539.758513
988.027975	2539.163657
988.324366	2537.358924
988.620719	2541.195242
988.917037	2538.780530
989.213318	2538.407484
989.509563	2538.190715
989.805772	2539.319933
990.101944	2540.683565
990.398080	2540.572660
990.694180	2539.128369
990.990244	2537.553009
991.286271	2536.501928
991.582262	2538.346990
991.878217	2539.551826
992.174136	2541.747249
992.470019	2539.521579
992.765865	2535.667617
993.061676	2535.322298
993.357450	2538.077289
993.653188	2532.847092
993.948890	2539.579553
994.244556	2536.222144
994.540186	2538.601569
994.835780	2540.668442
995.131337	2540.267670
995.426859	2539.319933
995.722345	2540.796991
996.017795	2537.994110
996.313208	2541.643905
996.608586	2537.936136
996.903928	2539.836651
997.199234	2539.854295
997.494504	2540.580222
997.789738	2539.624923
998.084936	2540.081147
998.380099	2538.117618
998.675225	2538.838503
998.970316	2538.155427
999.265371	2543.118442
999.560390	2538.762886
999.855373	2541.590973
1000.150320	2541.167516
1000.445232	2541.555685
1000.740108	2538.624254
1001.034948	2538.979655
1001.329752	2541.038967
1001.624521	2541.616179
1001.919254	2536.796836
1002.213951	2540.461754
1002.508613	2539.874460
1002.803239	2539.007382
1003.097829	2538.999820
1003.392384	2539.146013
1003.686903	2539.042670
1003.981386	2539.710622
1004.275834	2536.149047
1004.570246	2539.461085
1004.864623	2538.117618
1005.158964	2537.777340
1005.453270	2536.880015
1005.747540	2540.665921
1006.041775	2537.631147
1006.335974	2538.394881
1006.630138	2537.817669
1006.924266	2543.645243
1007.218359	2538.137783
1007.512416	2536.264994
1007.806438	2535.637370
1008.100425	2533.883049
1008.394376	2533.653676
1008.688292	2536.595189
1008.982172	2536.464119
1009.276017	2538.843544
1009.569827	2536.350693
1009.863602	2538.556198
1010.157341	2540.121477
1010.451045	2534.213244
1010.744714	2537.739531
1011.038347	2538.467978
1011.331945	2540.227341
1011.625508	2537.747093
1011.919036	2536.915303
1012.212528	2539.846734
1012.505986	2537.570653
1012.799408	2537.749614
1013.092795	2539.561908
1013.386147	2541.880839
1013.679464	2539.652649
1013.972745	2540.307999
1014.265992	2539.816487
1014.559204	2539.274563
1014.852380	2537.595858
1015.145521	2536.834644
1015.438628	2537.984027
1015.731699	2539.403112
1016.024736	2540.068544
1016.317737	2540.807073
1016.610703	2537.225334
1016.903635	2540.302958
1017.196531	2540.202135
1017.489393	2538.019315
1017.782219	2538.422608
1018.075011	2538.344470
1018.367768	2539.072917
1018.660490	2537.563091
1018.953177	2537.563091
1019.245829	2537.563091
