Dividing Wavelength (nm)	Counts (n)	Blue Motor Position (mm): 43.100000	Red Motor Position (mm): 0.000000	
326.493990	2258.089083
326.888308	2258.089083
327.282561	2258.089083
327.676750	2218.079966
328.070874	2214.404965
328.464933	2216.970912
328.858929	2222.133054
329.252859	2226.372664
329.646726	2236.021433
330.040528	2244.011661
330.434265	2255.906264
330.827938	2277.852927
331.221547	2294.839095
331.615091	2312.137814
332.008571	2330.003664
332.401986	2349.991839
332.795338	2369.337267
333.188625	2389.549773
333.581847	2409.358987
333.975006	2425.732655
334.368100	2446.550099
334.761129	2466.145064
335.154095	2482.997642
335.546996	2508.682321
335.939833	2547.952909
336.332606	2562.421021
336.725315	2580.324678
337.117960	2588.241811
337.510540	2600.156578
337.903056	2613.107302
338.295508	2619.464197
338.687896	2629.037348
339.080220	2635.396764
339.472480	2640.495891
339.864676	2646.003351
340.256807	2652.168682
340.648875	2658.089518
341.040879	2657.930721
341.432818	2660.163952
341.824694	2663.806186
342.216506	2664.741320
342.608253	2666.241063
342.999937	2665.898265
343.391557	2664.902637
343.783113	2666.278872
344.174605	2662.979437
344.566033	2666.074705
344.957397	2667.304747
345.348697	2662.296361
345.739934	2660.504230
346.131106	2658.661689
346.522215	2659.465753
346.913260	2654.729589
347.304241	2653.814619
347.695159	2650.651295
348.086012	2650.689104
348.476802	2649.829587
348.867528	2646.575522
349.258191	2642.396406
349.648789	2640.798360
350.039324	2637.380458
350.429796	2642.618217
350.820203	2640.969759
351.210548	2638.325674
351.600828	2637.173770
351.991045	2638.383647
352.381198	2635.467340
352.771288	2636.266363
353.161314	2635.240488
353.551276	2638.214769
353.941175	2634.202010
354.331010	2636.382309
354.720782	2633.586989
355.110490	2635.316105
355.500135	2634.570014
355.889717	2633.108080
356.279235	2632.462812
356.668689	2632.210754
357.058080	2635.255611
357.447408	2633.511372
357.836672	2633.145888
358.225873	2633.057668
358.615010	2637.325005
359.004084	2635.787453
359.393095	2638.494553
359.782043	2638.996148
360.170927	2638.837351
360.559748	2639.326343
360.948505	2643.581077
361.337199	2640.853813
361.725830	2644.712816
362.114398	2641.196611
362.502903	2640.054790
362.891344	2645.635347
363.279722	2644.382620
363.668037	2642.270377
364.056289	2644.939668
364.444478	2645.350522
364.832603	2647.684576
365.220665	2649.433857
365.608665	2647.387148
365.996601	2649.116264
366.384474	2650.016110
366.772284	2649.358239
367.160031	2651.956954
367.547715	2652.680360
367.935336	2650.973929
368.322893	2648.060142
368.710388	2647.558547
369.097820	2650.613487
369.485189	2650.248003
369.872495	2656.501554
370.259738	2654.805206
370.646918	2654.364105
371.034035	2656.660351
371.421090	2656.204126
371.808081	2654.122130
372.195010	2659.226298
372.581875	2657.252686
372.968678	2656.698159
373.355418	2657.771925
373.742096	2659.105310
374.128710	2658.845691
374.515262	2660.448778
374.901751	2661.091525
375.288177	2660.675630
375.674540	2661.877945
376.060841	2661.877945
376.447079	2662.583706
376.833254	2664.320384
377.219367	2663.327277
377.605417	2664.217040
377.991404	2666.165446
378.377329	2666.457833
378.763191	2667.786177
379.148991	2672.363545
379.534727	2675.957888
379.920402	2682.556758
380.306013	2689.742923
380.691563	2699.633667
381.077049	2709.695810
381.462474	2723.599312
381.847835	2742.838876
382.233134	2765.564397
382.618371	2785.620628
383.003545	2819.275371
383.388657	2851.856348
383.773706	2887.855228
384.158693	2922.722368
384.543618	2958.254941
384.928480	3006.042559
385.313280	3059.327555
385.698017	3100.418000
386.082692	3165.032990
386.467305	3201.793083
386.851856	3254.644540
387.236344	3327.907629
387.620770	3373.870349
388.005133	3442.556071
388.389435	3507.145854
388.773674	3549.317627
389.157851	3631.624546
389.541965	3718.927248
389.926018	3730.443764
390.310008	3837.469981
390.693936	3914.236671
391.077802	3977.591372
391.461606	4009.459026
391.845348	4090.213270
392.229027	4173.712422
392.612645	4207.863718
392.996200	4321.766069
393.379694	4398.721803
393.763125	4518.426522
394.146494	4573.332249
394.529801	4652.014578
394.913047	4748.345987
395.296230	4723.422522
395.679351	4841.821582
396.062410	4913.136265
396.445408	4902.756529
396.828343	4978.351152
397.211217	5046.326070
397.594028	4942.932005
397.976778	5068.176951
398.359466	5127.733143
398.742092	5152.865815
399.124656	5074.279268
399.507158	5193.986507
399.889598	5267.007621
400.271977	5397.523094
400.654294	5392.658380
401.036549	5432.256644
401.418742	5355.920972
401.800874	5564.357560
402.182944	5622.557681
402.564952	5732.585905
402.946898	5792.124452
403.328783	5635.699969
403.710606	5648.945601
404.092367	5974.520960
404.474067	5992.843034
404.855705	5900.383231
405.237282	5835.175906
405.618797	6082.295788
406.000250	6065.055042
406.381642	6265.370331
406.762972	6289.169619
407.144240	6347.800758
407.525447	6331.913562
407.906593	6356.463981
408.287677	6510.146077
408.668700	6424.764054
409.049661	6539.707403
409.430560	6566.183543
409.811399	6425.406801
410.192176	6696.585590
410.572891	6707.988680
410.953545	6904.339102
411.334138	6637.513349
411.714669	6804.917466
412.095139	6602.643688
412.475547	6844.724937
412.855894	6914.519712
413.236180	7096.170129
413.616405	6768.301045
413.996568	6986.668706
414.376670	7022.768409
414.756711	6923.377019
415.136691	7015.980495
415.516609	7223.618060
415.896466	7211.138684
416.276262	7409.039260
416.655997	7389.903040
417.035670	7579.079900
417.415283	7923.446161
417.794834	7973.865261
418.174324	7835.291503
418.553753	7753.322342
418.933121	8068.555774
419.312428	8162.835433
419.691674	7942.751259
420.070859	8417.716172
420.449983	8103.128007
420.829045	8465.014798
421.208047	8237.888132
421.586988	8538.199749
421.965867	8559.112975
422.344686	8663.147267
422.723444	8714.655257
423.102141	8064.565701
423.480777	8826.185744
423.859352	8354.663940
424.237866	8963.274882
424.616319	8834.314605
424.994712	9260.521478
425.373044	8812.897263
425.751314	9280.060990
426.129524	9155.526846
426.507673	9261.723793
426.885762	9413.926310
427.263789	9325.895161
427.641756	9254.494778
428.019662	9351.695786
428.397508	9607.451165
428.775292	9282.261453
429.153016	9666.135237
429.530679	9497.019648
429.908282	9520.501343
430.285824	9248.208459
430.663305	9932.401421
431.040726	9380.805929
431.418086	9361.619297
431.795385	9690.985604
432.172624	9786.218042
432.549802	9698.779228
432.926920	9773.312688
433.303977	9643.371906
433.680974	9855.228917
434.057910	9941.102453
434.434786	10013.105253
434.811601	9838.419190
435.188355	10407.530171
435.565050	10148.979472
435.941683	10069.588861
436.318257	10554.958715
436.694770	10706.571417
437.071222	10765.429409
437.447614	10602.864800
437.823946	10512.857519
438.200218	10622.109405
438.576429	10460.575712
438.952580	10698.944151
439.328670	10741.151212
439.704700	10531.666064
440.080670	10523.408654
440.456580	11064.967209
440.832429	10836.819709
441.208218	10430.469942
441.583947	10742.310677
441.959616	10905.848229
442.335224	10719.756555
442.710773	10846.123158
443.086261	11058.529655
443.461689	10332.061577
443.837057	11004.188537
444.212365	11256.394944
444.587612	10897.800027
444.962800	11114.524272
445.337927	10866.151663
445.712995	10515.080668
446.088002	11565.997407
446.462949	11245.896741
446.837837	11210.233098
447.212664	11166.848928
447.587431	11721.958104
447.962139	12467.166672
448.336786	14746.834414
448.711374	15259.605460
449.085901	13087.644490
449.460369	12724.089077
449.834776	12168.218687
450.209124	13082.116865
450.583412	13506.723171
450.957640	14437.637763
451.331808	13510.085620
451.705917	12556.924416
452.079965	11829.037253
452.453954	12733.712640
452.827883	12379.758105
453.201752	12678.733816
453.575562	12211.320552
453.949311	12629.587607
454.323001	12593.465219
454.696632	12831.213597
455.070202	13110.843880
455.443713	13317.004387
455.817164	13808.426146
456.190556	13776.271146
456.563888	14142.700017
456.937160	14299.169870
457.310373	13654.285306
457.683526	13749.527825
458.056619	13274.275567
458.429653	13471.241009
458.802628	12855.683357
459.175542	13257.057506
459.548398	14206.218555
459.921194	14558.665785
460.293930	14635.054389
460.666607	15489.106509
461.039224	16551.343160
461.411782	17263.038136
461.784280	17063.526911
462.156719	17155.918658
462.529099	16838.026017
462.901419	15782.806653
463.273680	15554.608742
463.645882	15442.453151
464.018024	15165.842519
464.390106	15394.922632
464.762130	16111.744462
465.134094	16902.078918
465.505999	18941.455021
465.877845	22206.360830
466.249631	25020.146384
466.621358	24653.924202
466.993026	23229.044587
467.364634	22651.282986
467.736184	21181.479130
468.107674	20386.017820
468.479105	20516.727378
468.850477	19973.212855
469.221790	19573.903059
469.593043	18877.744919
469.964238	18312.437488
470.335373	17954.301316
470.706449	18446.501934
471.077467	18018.490328
471.448425	19892.834178
471.819324	23998.775848
472.190164	25876.351077
472.560945	22249.407243
472.931667	19928.369271
473.302330	19305.459096
473.672934	18908.642151
474.043479	19162.723866
474.413965	18975.437439
474.784393	18573.561696
475.154761	19319.017280
475.525070	19261.618702
475.895321	18964.934195
476.265513	19566.858047
476.635645	20160.159005
477.005719	19918.216388
477.375734	20103.224213
477.745691	20587.374108
478.115588	21130.639093
478.485427	21674.541785
478.855207	22769.613991
479.224928	24553.325456
479.594591	26785.472762
479.964194	26729.248773
480.333739	26943.709540
480.703226	26532.495059
481.072653	26228.904171
481.442022	26835.281882
481.811333	27766.808975
482.180584	27649.201377
482.549777	26689.680756
482.918912	26369.867436
483.287988	26503.526068
483.657005	26128.965817
484.025964	25905.337712
484.394864	25789.386132
484.763706	25454.998836
485.132489	24922.290027
485.501213	25092.365954
485.869879	25002.467058
486.238487	24844.242883
486.607036	24977.334385
486.975527	24716.253028
487.343959	24999.586038
487.712333	24923.149543
488.080648	24579.355454
488.448905	25092.015594
488.817104	24847.461659
489.185244	25542.503184
489.553326	25512.349523
489.921350	26536.727108
490.289315	28871.214877
490.657222	30609.152666
491.025070	31113.948606
491.392861	30867.768899
491.760593	30003.236221
492.128267	29088.302086
492.495883	28042.325677
492.863440	27164.958220
493.230939	26305.600286
493.598380	26146.665308
493.965763	25744.408958
494.333088	25260.874083
494.700354	25238.735856
495.067563	25076.803912
495.434713	24829.704195
495.801805	25013.814695
496.168839	24789.606857
496.535815	24650.077801
496.902733	24864.377251
497.269593	24550.590630
497.636395	24722.078081
498.003139	24660.694471
498.369825	24407.837756
498.736453	24617.093532
499.103023	24484.818696
499.469535	24483.679395
499.835989	24704.371028
500.202385	24733.569391
500.568723	24256.451906
500.935003	24450.460712
501.301226	24131.317865
501.667390	24967.201666
502.033497	25175.933162
502.399546	24913.379787
502.765537	24451.554642
503.131470	24851.935683
503.497345	24998.265256
503.863163	24224.322112
504.228923	24790.678103
504.594625	25014.714541
504.960269	24572.083589
505.325856	25054.322887
505.691385	24447.718324
506.056856	25067.197994
506.422270	25024.950604
506.787625	24564.940274
507.152924	25008.624827
507.518164	25030.808425
507.883347	24851.169428
508.248472	24527.219841
508.613540	25298.075278
508.978550	25095.536840
509.343503	25117.392763
509.708398	25319.580841
510.073236	25500.107080
510.438016	25705.526538
510.802738	25362.319743
511.167403	25620.820030
511.532010	25363.917789
511.896561	26110.215245
512.261053	26066.321919
512.625488	25901.251857
512.989866	25795.425434
513.354186	25637.763348
513.718449	25765.123059
514.082655	26140.285728
514.446803	25855.626894
514.810894	26347.520001
515.174927	25826.526833
515.538904	25868.620468
515.902822	26352.412441
516.266684	26112.420750
516.630488	26006.722877
516.994235	25971.432280
517.357925	26294.708873
517.721558	26468.280841
518.085133	26581.522801
518.448651	26460.565355
518.812112	26218.244652
519.175516	26448.738808
519.538863	26600.434689
519.902152	26382.198098
520.265385	26644.852296
520.628560	26436.942508
520.991678	26426.015807
521.354739	26495.891241
521.717743	26582.924241
522.080690	26361.549532
522.443580	26702.916306
522.806413	26665.483218
523.169189	26769.623374
523.531908	26819.833266
523.894569	26441.782016
524.257174	26541.024691
524.619722	26686.552720
524.982213	26388.227318
525.344647	26411.487202
525.707025	26580.900218
526.069345	26548.732615
526.431608	26516.754056
526.793815	26685.539448
527.155964	26183.415320
527.518057	26354.489396
527.880093	26263.509172
528.242072	26500.703022
528.603995	26213.160648
528.965860	26004.303123
529.327669	26051.024537
529.689421	26027.905806
530.051117	25870.888987
530.412755	26051.019496
530.774337	25831.855333
531.135862	25719.082201
531.497331	25911.442549
531.858743	25495.010474
532.220098	25948.091738
532.581396	25652.453270
532.942638	25547.556941
533.303824	25654.184907
533.664953	25655.687170
534.026025	25316.851056
534.387040	25567.782050
534.747999	25611.083041
535.108902	25780.112930
535.469748	25269.348263
535.830537	25452.468177
536.191270	25581.620018
536.551947	25410.480406
536.912567	25046.635127
537.273131	25464.902183
537.633638	25140.529138
537.994089	25366.995413
538.354483	24862.905234
538.714821	25374.894901
539.075103	25418.301756
539.435328	25186.358268
539.795497	24777.477841
540.155609	25140.143490
540.515665	25448.606653
540.875665	24663.041128
541.235609	24994.794422
541.595496	24923.809934
541.955328	25298.796163
542.315102	25214.361877
542.674821	24728.906324
543.034483	24609.400731
543.394090	24785.868842
543.753640	24593.642084
544.113134	25222.296654
544.472571	24802.875174
544.831953	25114.196671
545.191278	24763.241623
545.550548	24645.054291
545.909761	24843.920249
546.268918	25073.083541
546.628019	25046.037751
546.987064	24742.948458
547.346053	24485.037986
547.704986	24587.743934
548.063863	24750.293419
548.422684	24775.574806
548.781449	24270.214256
549.140158	24688.231774
549.498811	24257.223203
549.857408	24020.624208
550.215949	24413.420834
550.574434	24117.613488
550.932864	24323.499252
551.291237	24497.199770
551.649555	24345.118240
552.007817	24400.689400
552.366022	24245.830195
552.724173	24277.309680
553.082267	24254.964766
553.440305	24728.409770
553.798288	23967.480365
554.156215	24471.976356
554.514086	24590.128400
554.871902	23972.024965
555.229661	24247.607202
555.587365	24096.813687
555.945014	24005.510829
556.302606	24210.655544
556.660143	24203.383679
557.017625	24427.233595
557.375050	23945.642086
557.732421	24334.246992
558.089735	24170.807743
558.446994	24209.622107
558.804197	24251.254476
559.161345	24153.912316
559.518437	23950.650473
559.875474	24119.098108
560.232455	24308.179186
560.589381	24116.290185
560.946251	24116.648107
561.303065	24414.938221
561.659825	24501.308310
562.016528	24106.081848
562.373177	23855.367624
562.729770	24212.488003
563.086307	24063.441249
563.442789	24228.120621
563.799216	24079.744340
564.155587	24058.528644
564.511904	24049.832654
564.868164	24000.797350
565.224370	23956.777995
565.580520	23910.046499
565.936615	24019.240412
566.292654	23717.388722
566.648638	23961.965342
567.004567	23797.464931
567.360441	23753.042283
567.716260	23465.449497
568.072023	23786.485297
568.427732	23567.159817
568.783385	23336.075845
569.138982	23587.470626
569.494525	23614.806283
569.850013	23366.907542
570.205445	23465.726761
570.560823	23281.865797
570.916145	23048.450292
571.271412	23243.142174
571.626625	22985.014933
571.981782	23098.312345
572.336884	22894.841293
572.691931	23047.991547
573.046923	22777.248818
573.401860	22649.626967
573.756743	22685.835055
574.111570	22583.597934
574.466342	22494.656857
574.821059	22575.612747
575.175722	22278.998816
575.530330	22243.509093
575.884882	22265.334768
576.239380	22184.938447
576.593823	22073.864184
576.948211	22034.943955
577.302544	21895.372049
577.656823	21757.302407
578.011047	21873.309440
578.365216	21734.181155
578.719330	21605.102411
579.073389	21507.077174
579.427394	21649.797281
579.781344	21399.975340
580.135239	21304.074950
580.489080	21238.086246
580.842866	21026.004904
581.196597	21237.456102
581.550273	21197.189886
581.903895	21077.391906
582.257463	21382.674100
582.610975	20918.890467
582.964434	21245.017833
583.317837	20920.906929
583.671186	21001.487252
584.024481	21003.017242
584.377721	20753.331413
584.730906	20846.320537
585.084037	20827.217084
585.437113	20759.766446
585.790135	20972.021708
586.143103	20404.523896
586.496016	20439.259967
586.848874	20675.216214
587.201679	20592.846280
587.554428	20286.240783
587.907124	20626.238883
588.259765	20378.995493
588.612352	20452.921494
588.964884	20023.316883
589.317362	20195.736948
589.669786	20259.043758
590.022155	20265.002402
590.374470	20499.844554
590.726731	20256.250959
591.078937	20049.735050
591.431090	20126.027873
591.783188	19905.666435
592.135232	19855.403611
592.487222	19956.491348
592.839157	19962.702050
593.191038	19854.597026
593.542866	19743.406816
593.894639	19438.394323
594.246358	19661.029321
594.598022	19547.767197
594.949633	19303.677048
595.301190	19282.947824
595.652692	19452.832188
596.004141	19683.018834
596.355535	19004.666049
596.706876	19028.883752
597.058162	18922.533050
597.409395	19155.078957
597.760573	19208.426967
598.111698	18981.174272
598.462768	18931.972611
598.813785	18908.586698
599.164748	18696.606179
599.515657	18755.297813
599.866511	18552.207368
600.217312	18902.524711
600.568060	18419.841792
600.918753	18731.536334
601.269392	18625.556157
601.619978	18428.177339
601.970510	18610.662067
602.320988	18555.350528
602.671412	18763.953474
603.021783	18693.591569
603.372100	18398.986538
603.722363	18550.836174
604.072572	18504.054267
604.422728	18649.932656
604.772830	18400.602228
605.122878	18366.385396
605.472872	18343.702724
605.822813	18321.783787
606.172701	18318.156677
606.522534	18487.930136
606.872314	18518.663530
607.222041	18346.440071
607.571714	18571.948527
607.921333	18394.331033
608.270899	18465.537331
608.620411	18626.670252
608.969870	18428.696578
609.319276	18416.683509
609.668627	18453.272203
610.017926	18569.632116
610.367171	18690.284572
610.716362	18748.260362
611.065500	18555.224499
611.414585	18710.885247
611.763616	18694.120890
612.112594	18623.854767
612.461518	18601.164534
612.810389	18788.652607
613.159207	18640.634248
613.507971	18554.334735
613.856682	18812.502306
614.205340	18729.464420
614.553945	18890.194048
614.902496	18624.762175
615.250994	18841.814095
615.599439	18796.962949
615.947830	18782.734292
616.296169	18860.670531
616.644454	18808.096337
616.992686	18783.112379
617.340864	19007.647892
617.688990	18748.106607
618.037063	18915.001566
618.385082	18774.910422
618.733048	19059.554132
619.080961	18949.034396
619.428821	18967.767324
619.776628	18846.600670
620.124382	18783.888717
620.472083	18832.692127
620.819731	18836.818311
621.167326	18532.700623
621.514868	18562.844203
621.862357	18352.058437
622.209793	18350.432665
622.557176	18189.942491
622.904506	18021.794804
623.251783	17951.402653
623.599007	17693.111574
623.946179	17633.691493
624.293297	17570.087255
624.640363	17300.816543
624.987376	17328.817632
625.334336	17134.473590
625.681243	16978.522975
626.028097	16986.674521
626.374899	16917.784633
626.721647	16773.642921
627.068343	16617.757841
627.414987	16550.763427
627.761577	16517.121287
628.108115	16541.752364
628.454600	16271.470901
628.801032	16380.445524
629.147412	16314.388764
629.493739	16321.549723
629.840014	16122.456914
630.186236	16227.693521
630.532405	16001.496948
630.878521	16191.482913
631.224585	16096.837770
631.570597	15913.148206
631.916556	15940.766168
632.262462	15914.400933
632.608316	15834.037379
632.954117	15779.368586
633.299866	15763.156235
633.645562	15689.875502
633.991206	15450.259378
634.336797	15317.392206
634.682336	15294.069308
635.027823	15156.471014
635.373257	15033.555080
635.718639	14942.428663
636.063968	14887.149890
636.409245	14638.825172
636.754470	14674.372869
637.099642	14518.492830
637.444762	14296.493018
637.789829	14329.260518
638.134845	14164.583665
638.479808	14192.640207
638.824719	14111.654071
639.169577	13987.858456
639.514383	14024.197613
639.859137	13855.220657
640.203839	13949.719606
640.548489	13794.900730
640.893086	13776.611424
641.237632	13652.906550
641.582125	13809.799861
641.926566	13625.210451
642.270955	13641.760559
642.615292	13604.193880
642.959576	13615.596970
643.303809	13639.577739
643.647990	13571.948140
643.992118	13639.166885
644.336195	13400.155699
644.680219	13631.978200
645.024192	13535.147717
645.368112	13773.470785
645.711981	13820.877796
646.055797	14012.174461
646.399562	13993.446575
646.743274	14246.741870
647.086935	14527.438357
647.430544	14486.819260
647.774101	14532.076219
648.117606	14660.865097
648.461059	14645.955884
648.804460	14613.745432
649.147810	14349.500750
649.491108	14262.129992
649.834354	14272.484522
650.177548	13949.964102
650.520690	13764.598355
650.863781	13690.160677
651.206820	13729.010329
651.549807	13568.832707
651.892742	13361.500131
652.235626	13292.917754
652.578458	13301.921255
652.921238	12999.625944
653.263967	13198.559957
653.606644	13018.071526
653.949269	13004.936799
654.291843	12797.082464
654.634365	12967.760810
654.976836	12816.614415
655.319255	12813.080566
655.661622	12778.243672
656.003938	12696.082947
656.346203	12615.429527
656.688416	12700.393134
657.030577	12654.821103
657.372687	12560.977503
657.714746	12546.973178
658.056753	12740.089700
658.398708	12544.487889
658.740612	12546.736244
659.082465	12657.608861
659.424266	12626.656176
659.766016	12661.687154
660.107715	12573.270357
660.449362	12642.392138
660.790958	12591.267276
661.132503	12532.079089
661.473996	12607.378804
661.815438	12622.434210
662.156829	12646.661995
662.498168	12620.760547
662.839456	12626.373872
663.180693	12639.957261
663.521879	12736.018968
663.863013	12698.356507
664.204097	12673.107888
664.545129	12805.559165
664.886110	12783.224332
665.227040	12871.620965
665.567918	12877.272099
665.908746	12891.359603
666.249522	12885.053120
666.590248	12944.158128
666.930922	13052.179973
667.271545	13034.873691
667.612118	13108.829939
667.952639	13007.490144
668.293109	13041.238148
668.633528	12983.290085
668.973896	12958.354017
669.314213	13026.828010
669.654480	12772.743774
669.994695	12857.949356
670.334859	12872.261192
670.674973	12817.713387
671.015035	12844.318076
671.355047	12797.790747
671.695008	12775.150925
672.034918	12785.775156
672.374777	12823.732524
672.714585	12733.967218
673.054342	12774.649330
673.394049	12726.037483
673.733705	12816.233808
674.073310	12724.562946
674.412864	12733.049728
674.752368	12587.380547
675.091820	12625.481588
675.431223	12609.332251
675.770574	12475.376191
676.109875	12395.990620
676.449125	12353.528982
676.788324	12307.379739
677.127473	12134.513532
677.466571	12123.264197
677.805619	12016.442147
678.144616	11949.362034
678.483562	11925.701378
678.822458	11791.936881
679.161303	11770.322934
679.500098	11748.318298
679.838842	11703.084024
680.177535	11738.228428
680.516179	11811.499079
680.854771	11750.347362
681.193314	11959.709002
681.531805	12126.810649
681.870247	12574.013927
682.208638	12978.959733
682.546978	13275.704734
682.885268	13300.865133
683.223508	13007.492664
683.561697	12856.351310
683.899836	12754.804828
684.237925	12556.264025
684.575963	12467.012916
684.913951	12386.079712
685.251889	12342.889626
685.589776	12446.185389
685.927614	12358.988551
686.265401	12333.689521
686.603137	12385.961245
686.940824	12533.372145
687.278460	12675.878002
687.616046	12704.138711
687.953582	12859.534799
688.291068	12802.174030
688.628504	13035.720605
688.965889	13037.621120
689.303224	12999.646108
689.640510	12879.941390
689.977745	12564.839027
690.314930	12343.308042
690.652065	12255.675144
690.989150	11954.975358
691.326185	11733.671225
691.663170	11531.704958
692.000105	11291.055397
692.336990	11166.120481
692.673825	10897.792465
693.010610	10796.435026
693.347345	10583.771430
693.684030	10399.174458
694.020665	10335.285395
694.357251	10135.164190
694.693786	10064.577954
695.030272	9910.374099
695.366707	9798.556266
695.703093	9731.584537
696.039429	9721.114060
696.375716	9630.920256
696.711952	9506.733952
697.048139	9556.936282
697.384276	9510.048511
697.720363	9529.393938
698.056400	9464.746182
698.392388	9406.359538
698.728326	9375.094302
699.064214	9311.555598
699.400053	9351.526907
699.735842	9166.120831
700.071581	9131.321746
700.407270	9054.176968
700.742910	8981.047470
701.078501	8884.698417
701.414042	8750.560875
701.749533	8690.435033
702.084974	8555.558962
702.420366	8672.753186
702.755709	8547.861120
703.091002	8421.660875
703.426246	8446.589380
703.761440	8399.487359
704.096584	8353.484310
704.431679	8291.132799
704.766725	8267.819983
705.101721	8227.621822
705.436668	8280.309441
705.771565	8168.945312
706.106413	8255.075946
706.441212	8286.497458
706.775961	8246.354750
707.110661	8300.458933
707.445311	8427.198582
707.779913	8327.650917
708.114465	8454.042726
708.448967	8487.654620
708.783421	8649.195874
709.117825	8821.202564
709.452180	8856.790589
709.786485	8950.666956
710.120742	9234.562056
710.454949	9232.822858
710.789107	9338.598868
711.123216	9569.009846
711.457275	9741.566022
711.791286	9880.401919
712.125247	9888.130008
712.459159	9869.576041
712.793023	10097.753788
713.126837	9680.041259
713.460602	9838.099077
713.794318	9665.164814
714.127985	9692.689514
714.461602	9352.285601
714.795171	9307.333632
715.128691	9054.907936
715.462162	8809.134042
715.795584	8753.709076
716.128957	8585.316893
716.462281	8422.031399
716.795556	8470.008061
717.128782	8263.232533
717.461960	8009.198708
717.795088	8075.946106
718.128167	7985.535532
718.461198	7819.951272
718.794180	7765.615195
719.127113	7754.363340
719.459997	7583.276661
719.792833	7357.095211
720.125619	7431.263187
720.458357	7288.348996
720.791046	7279.335413
721.123686	7268.237313
721.456278	7101.937209
721.788821	7121.857329
722.121315	7025.840992
722.453761	7097.899245
722.786158	7031.166971
723.118506	7044.604167
723.450805	7007.171079
723.783056	7067.135604
724.115259	6990.472257
724.447412	6986.716597
724.779518	7038.375821
725.111574	7039.774741
725.443582	7117.065712
725.775542	7091.933039
726.107453	7292.707074
726.439315	7198.041766
726.771129	7271.619927
727.102895	7450.331352
727.434612	7557.362609
727.766281	7593.364010
728.097901	7666.067530
728.429473	7676.220414
728.760996	7659.503948
729.092471	7634.648539
729.423897	7563.038949
729.755276	7567.422232
730.086606	7483.204716
730.417887	7590.903927
730.749120	7814.239645
731.080305	8001.505907
731.411442	8103.105322
731.742530	8086.265347
732.073570	8198.791463
732.404562	8291.251266
732.735506	8150.608115
733.066401	8281.068135
733.397249	8207.111888
733.728048	7959.019063
734.058798	7627.447251
734.389501	7391.594347
734.720156	7219.635549
735.050762	6999.805953
735.381320	6910.912767
735.711831	6846.958168
736.042293	6737.905408
736.372707	6754.916781
736.703073	6621.336287
737.033391	6661.582338
737.363661	6669.302866
737.693883	6705.967178
738.024056	6789.655373
738.354182	6826.957390
738.684260	6860.652463
739.014290	6986.797255
739.344272	7094.254491
739.674207	7124.829089
740.004093	7198.003957
740.333931	7202.351953
740.663722	7216.752009
740.993464	7299.792415
741.323159	7272.454238
741.652806	7027.378544
741.982405	7056.695374
742.311956	7098.809173
742.641460	6921.158912
742.970915	6732.208904
743.300323	6719.472429
743.629683	6676.884761
743.958996	6542.071704
744.288260	6451.628363
744.617477	6399.901083
744.946647	6390.917747
745.275768	6234.896556
745.604842	6183.628022
745.933869	6170.788203
746.262847	6132.157841
746.591778	6116.452126
746.920662	6072.946968
747.249498	6072.798254
747.578286	6118.730728
747.907027	6196.114960
748.235720	6252.888434
748.564365	6230.160392
748.892963	6269.725888
749.221514	6410.510192
749.550017	6223.881635
749.878473	6113.424913
750.206881	6175.340365
750.535242	6120.485049
750.863555	6053.110028
751.191821	6061.407767
751.520039	6057.200924
751.848210	5963.218693
752.176334	5999.381410
752.504411	6040.202154
752.832440	5963.627027
753.160421	5894.522890
753.488356	5942.789417
753.816243	5969.605835
754.144082	5820.281817
754.471875	5796.227952
754.799620	5836.511812
755.127318	5849.182752
755.454969	5808.175486
755.782572	5771.067553
756.110129	5823.248536
756.437638	5796.621162
756.765100	5737.909363
757.092515	5743.436988
757.419882	5797.049660
757.747203	5773.701556
758.074477	5835.122974
758.401703	5811.973996
758.728882	5778.052071
759.056014	5847.463719
759.383099	5961.547551
759.710138	5971.196319
760.037129	5960.483867
760.364073	5962.951512
760.690970	6044.618204
761.017820	6021.960738
761.344623	5983.380788
761.671379	6096.398416
761.998088	6216.375357
762.324751	6478.200285
762.651366	7117.151412
762.977935	8480.733115
763.304456	10143.212393
763.630931	10995.855510
763.957359	10544.382374
764.283740	9584.952495
764.610074	8715.872695
764.936362	7714.039150
765.262602	7124.912268
765.588796	6582.836995
765.914943	6259.973776
766.241044	6089.532365
766.567097	5872.805599
766.893104	5615.958811
767.219064	5445.754333
767.544978	5374.669023
767.870845	5291.374038
768.196665	5190.664387
768.522438	5115.503304
768.848165	5086.491463
769.173846	5013.233416
769.499479	4970.779338
769.825066	4917.847223
770.150607	4857.093757
770.476101	4834.847146
770.801548	4828.296166
771.126949	4744.555039
771.452303	4696.018810
771.777611	4656.070186
772.102872	4675.002239
772.428087	4634.047906
772.753256	4590.356225
773.078378	4547.816448
773.403453	4476.179132
773.728482	4459.964260
774.053465	4418.583949
774.378401	4405.734048
774.703291	4398.941093
775.028135	4323.948888
775.352932	4280.723515
775.677683	4266.540228
776.002388	4285.505049
776.327046	4292.388745
776.651658	4217.658680
776.976224	4159.821522
777.300743	4163.675484
777.625216	4188.253630
777.949643	4175.411290
778.274024	4134.764467
778.598359	4093.089248
778.922647	4117.231334
779.246889	4111.232361
779.571086	4103.963017
779.895236	4084.829317
780.219339	4074.933532
780.543397	4072.672575
780.867409	4122.431284
781.191374	4134.434271
781.515294	4067.883479
781.839167	4061.849218
782.162995	4088.403496
782.486776	4070.272986
782.810511	4084.589863
783.134201	4075.409922
783.457844	4025.578116
783.781441	3971.766319
784.104993	3981.712516
784.428498	3999.543077
784.751958	3992.876151
785.075372	3971.342862
785.398739	3937.564611
785.722061	3951.793267
786.045337	3993.667612
786.368568	4020.617620
786.691752	3934.998663
787.014891	3991.840194
787.337983	4123.797437
787.661030	4286.820790
787.984031	4450.194504
788.306987	4616.189618
788.629897	4703.588102
788.952760	4653.894928
789.275579	4586.431687
789.598351	4516.243702
789.921078	4367.146536
790.243759	4165.664219
790.566395	4156.900173
790.888984	4149.819873
791.211529	4042.675189
791.534027	3982.241837
791.856480	3967.940083
792.178888	3905.724683
792.501249	3862.433774
792.823566	3873.131103
793.145836	3896.300246
793.468062	3841.248325
793.790241	3803.462357
794.112375	3832.711131
794.434464	3897.132036
794.756507	3921.316972
795.078505	3893.406624
795.400457	3939.003860
795.722364	4082.643977
796.044226	4186.645502
796.366042	4258.786934
796.687812	4231.342892
797.009538	4236.522678
797.331218	4199.187893
797.652852	4171.030528
797.974442	4152.683248
798.295986	4149.066220
798.617484	4062.562541
798.938938	3983.872650
799.260346	4026.019217
799.581709	4014.346425
799.903026	3934.101338
800.224299	3904.824837
800.545526	3896.048188
800.866708	3857.279195
801.187845	3800.888848
801.508936	3833.810103
801.829983	3823.657219
802.150984	3748.743152
802.471940	3744.690065
802.792851	3749.741301
803.113717	3749.388420
803.434538	3751.694748
803.755314	3689.817105
804.076045	3669.773477
804.396731	3692.057898
804.717372	3713.802915
805.037967	3697.076367
805.358518	3686.799974
805.679024	3720.595870
805.999485	3732.402252
806.319901	3739.384250
806.640272	3747.278697
806.960598	3760.206736
807.280879	3736.810741
807.601115	3752.052670
807.921306	3768.696039
808.241453	3808.347235
808.561554	3776.227523
808.881611	3714.133111
809.201623	3757.897888
809.521590	3764.358126
809.841513	3738.607913
810.161390	3765.268055
810.481223	3741.829210
810.801011	3687.649409
811.120755	3684.564223
811.440453	3716.378945
811.760107	3720.336250
812.079716	3671.875638
812.399281	3646.075013
812.718801	3672.210875
813.038276	3644.418994
813.357707	3637.676451
813.677093	3656.676560
813.996434	3597.571551
814.315731	3614.393882
814.634983	3614.083851
814.954191	3634.828199
815.273354	3658.045233
815.592473	3654.334944
815.911547	3667.603261
816.230577	3708.073644
816.549562	3760.547014
816.868502	3800.238539
817.187399	3823.473217
817.506250	3821.355932
817.825058	3800.261224
818.143821	3896.580030
818.462539	3998.207171
818.781213	4041.205693
819.099843	4104.941001
819.418429	4365.820712
819.736970	4614.452941
820.055466	4865.235221
820.373919	5238.827571
820.692327	5659.176622
821.010691	6153.464278
821.329011	7628.458002
821.647286	10517.323981
821.965517	15259.081180
822.283704	19280.149983
822.601847	21289.097682
822.919945	19366.331029
823.237999	16705.184052
823.556010	14181.647971
823.873976	12026.653004
824.191897	9899.124764
824.509775	8566.793173
824.827609	7435.956501
825.145398	6901.344657
825.463144	6781.463498
825.780845	6896.134624
826.098502	7119.465301
826.416116	8066.181391
826.733685	9430.962889
827.051210	10527.519715
827.368692	10478.023146
827.686129	9153.999376
828.003522	7639.402347
828.320872	6611.284226
828.638177	5896.655298
828.955439	5323.405529
829.272656	4817.878622
829.589830	4545.888207
829.906960	4371.421434
830.224046	4177.508410
830.541088	4051.386303
830.858086	4004.062471
831.175041	3926.753856
831.491952	3914.342536
831.808819	3923.681273
832.125642	4005.365609
832.442421	4162.243797
832.759157	4457.085762
833.075849	5037.473804
833.392497	5932.041677
833.709101	6726.255301
834.025662	7030.824173
834.342179	6614.349248
834.658653	5934.106030
834.975083	5277.715032
835.291469	4691.542265
835.607811	4289.500164
835.924110	4146.157475
836.240366	3943.805559
836.556578	3735.026173
836.872746	3629.003146
837.188871	3584.429263
837.504952	3516.870240
837.820990	3433.590378
838.136984	3391.837022
838.452935	3415.195208
838.768842	3410.330495
839.084706	3431.558793
839.400526	3606.272583
839.716303	3967.206595
840.032037	4513.639946
840.347727	4754.917131
840.663373	4446.166622
840.978977	4054.148855
841.294537	3742.358531
841.610054	3517.013913
841.925527	3415.364087
842.240957	3341.165864
842.556344	3284.306690
842.871687	3223.843090
843.186987	3169.370902
843.502244	3136.512662
843.817458	3098.688884
844.132629	3071.300296
844.447756	3080.790268
844.762840	3062.256466
845.077881	3031.044162
845.392879	3013.460617
845.707833	3008.878208
846.022745	3007.262518
846.337613	3012.555730
846.652438	2998.518637
846.967221	2993.696773
847.281960	2980.635144
847.596656	2974.976448
847.911309	2976.710605
848.225919	2970.174749
848.540485	2968.465798
848.855009	2964.334573
849.169490	2954.834518
849.483928	2945.271449
849.798323	2945.619289
850.112675	2943.527210
850.426984	2954.153963
850.741251	2950.484003
851.055474	2937.198042
851.369654	2934.054882
851.683792	2940.797425
851.997887	2949.747994
852.311938	2951.071297
852.625947	2937.634101
852.939914	2941.672066
853.253837	2944.555606
853.567718	2927.619849
853.881555	2931.309974
854.195350	2945.546192
854.509103	2939.365738
854.822812	2935.713422
855.136479	2926.404931
855.450103	2934.241405
855.763685	2925.749581
856.077224	2921.066349
856.390720	2938.044955
856.704173	2942.105605
857.017584	2936.290634
857.330953	2936.341045
857.644278	2944.905966
857.957561	2954.002728
858.270802	2957.922225
858.584000	2955.938531
858.897155	2940.789864
859.210268	2940.472271
859.523339	2938.047476
859.836367	2940.273145
860.149352	2935.476488
860.462295	2927.340065
860.775195	2936.545212
861.088054	2932.855088
861.400869	2918.132398
861.713642	2916.940165
862.026373	2933.921292
862.339062	2936.000768
862.651708	2940.396654
862.964312	2944.250616
863.276873	2935.617640
863.589392	2945.463013
863.901869	2961.062864
864.214303	2983.773262
864.526696	2997.220540
864.839045	2994.105107
865.151353	2992.882627
865.463619	2990.052019
865.775842	2994.026969
866.088023	3013.321985
866.400162	3015.719054
866.712258	2983.856441
867.024313	2977.759165
867.336325	2987.644868
867.648296	3010.312416
867.960224	3002.027280
868.272110	2987.087821
868.583954	2989.933552
868.895755	3008.079185
869.207515	2992.058398
869.519233	3002.339832
869.830909	3011.061028
870.142542	3018.955475
870.454134	3020.714837
870.765684	3020.442615
871.077191	3018.453880
871.388657	3031.880993
871.700081	3044.839279
872.011463	3050.618962
872.322803	3055.327400
872.634101	3053.192471
872.945357	3075.912951
873.256571	3099.147629
873.567744	3090.098758
873.878874	3089.307297
874.189963	3110.578446
874.501010	3107.891511
874.812015	3099.644183
875.122979	3100.604523
875.433900	3099.319029
875.744780	3102.681478
876.055618	3109.464351
876.366415	3109.202211
876.677169	3115.627161
876.987882	3111.110288
877.298554	3107.992334
877.609183	3134.826396
877.919771	3160.684994
878.230317	3184.169210
878.540822	3241.792119
878.851285	3278.244702
879.161707	3325.165242
879.472087	3438.107252
879.782425	3687.324254
880.092722	4146.981703
880.402977	4687.658056
880.713191	5348.996947
881.023363	6579.847591
881.333494	7884.624235
881.643583	8407.563288
881.953631	8080.568844
882.263637	7401.238075
882.573602	6779.386542
882.883526	6193.881729
883.193408	5621.942660
883.503248	5167.959030
883.813048	4850.383982
884.122806	4521.834342
884.432522	4195.744784
884.742197	3959.090338
885.051831	3762.702107
885.361424	3631.932056
885.670975	3558.419430
885.980485	3463.413845
886.289954	3384.280332
886.599382	3336.109587
886.908768	3299.447795
887.218113	3256.842483
887.527417	3195.645396
887.836680	3148.482882
888.145901	3141.095071
888.455082	3126.884058
888.764221	3076.762386
889.073319	3050.422357
889.382376	3044.070503
889.691392	3050.724826
890.000366	3049.686348
890.309300	3036.647404
890.618193	3049.772048
890.927044	3066.168401
891.235855	3062.463153
891.544625	3051.821277
891.853353	3065.500448
892.162041	3082.534507
892.470687	3125.268368
892.779293	3178.659228
893.087858	3225.597412
893.396381	3301.134061
893.704864	3433.749175
894.013306	3687.949358
894.321707	4002.083818
894.630068	4199.999518
894.938387	4190.789330
895.246665	4146.258298
895.554903	4014.996734
895.863100	3810.081392
896.171256	3638.142758
896.479371	3491.679594
896.787446	3364.410624
897.095480	3259.199223
897.403473	3195.370653
897.711425	3162.676250
898.019336	3148.926503
898.327207	3116.872326
898.635038	3081.453179
898.942827	3068.210068
899.250576	3053.938562
899.558284	3022.509488
899.865952	3005.021725
900.173579	2983.606904
900.481165	2972.705409
900.788711	2960.319294
901.096216	2935.879780
901.403681	2923.965013
901.711105	2935.111004
902.018489	2929.684202
902.325832	2929.966506
902.633135	2940.636108
902.940397	2976.813949
903.247619	3068.278124
903.554800	3276.167747
903.861941	3645.228099
904.169041	4094.384825
904.476101	4386.703692
904.783121	4315.542764
905.090100	4053.105336
905.397039	3771.488838
905.703938	3514.523583
906.010796	3327.922753
906.317614	3212.538303
906.624391	3116.378293
906.931129	3041.738969
907.237826	2982.248313
907.544483	2933.389450
907.851099	2902.406518
908.157675	2880.185112
908.464211	2860.247349
908.770707	2845.469206
909.077163	2831.729541
909.383578	2817.198415
909.689954	2806.198618
909.996289	2803.983031
910.302584	2806.488484
910.608839	2810.002168
910.915054	2799.433389
911.221229	2791.216308
911.527363	2794.621608
911.833458	2804.789615
912.139513	2808.474699
912.445527	2811.643064
912.751502	2820.039106
913.057436	2827.994046
913.363331	2842.822600
913.669186	2866.805890
913.975000	2904.571694
914.280775	2967.399594
914.586510	3043.132848
914.892205	3124.124026
915.197859	3261.429933
915.503475	3472.122438
915.809050	3692.609904
916.114585	3840.792101
916.420081	3850.917258
916.725536	3785.336888
917.030952	3660.490192
917.336328	3526.758463
917.641665	3391.690828
917.946961	3286.522277
918.252218	3213.665001
918.557435	3131.491672
918.862612	3070.851633
919.167750	3019.487316
919.472848	2981.439208
919.777906	2953.359981
920.082925	2926.077256
920.387904	2894.267575
920.692843	2877.992210
920.997743	2864.948225
921.302603	2851.269054
921.607423	2840.906962
921.912204	2827.290805
922.216946	2814.750935
922.521647	2807.186684
922.826310	2797.858029
923.130932	2791.163376
923.435516	2780.448404
923.740059	2776.052518
924.044564	2765.367792
924.349028	2761.092894
924.653454	2753.332037
924.957840	2745.122518
925.262186	2741.692013
925.566493	2737.659090
925.870761	2733.064078
926.174989	2728.648027
926.479178	2723.395145
926.783328	2717.965822
927.087438	2719.127808
927.391509	2719.473127
927.695541	2714.494988
927.999533	2707.954091
928.303486	2706.739173
928.607400	2706.081302
928.911275	2707.497867
929.215110	2702.895293
929.518906	2704.521065
929.822663	2703.409491
930.126381	2701.342618
930.430060	2703.780016
930.733699	2705.012578
931.037299	2706.361086
931.340861	2707.452496
931.644383	2706.993751
931.947866	2705.413349
932.251309	2706.630788
932.554714	2703.157433
932.858080	2701.335056
933.161407	2701.995447
933.464694	2700.147864
933.767943	2695.452029
934.071153	2698.832123
934.374323	2697.266845
934.677455	2696.984540
934.980548	2696.412369
935.283602	2695.817513
935.586617	2692.865917
935.889593	2694.892461
936.192530	2696.142667
936.495428	2696.104859
936.798287	2696.992102
937.101108	2703.984182
937.403890	2705.758668
937.706632	2711.498022
938.009336	2718.243086
938.312002	2725.530074
938.614628	2733.928636
938.917216	2741.813001
939.219765	2741.863412
939.522275	2742.186046
939.824747	2736.320664
940.127179	2737.613720
940.429573	2734.715056
940.731929	2729.762122
941.034246	2726.813047
941.336524	2723.619477
941.638763	2722.555793
941.940964	2718.449773
942.243126	2715.553630
942.545250	2718.429609
942.847335	2713.353167
943.149381	2707.162630
943.451389	2707.994420
943.753359	2702.670962
944.055290	2703.238092
944.357182	2699.515199
944.659036	2697.896989
944.960851	2699.840354
945.262628	2696.298943
945.564367	2697.060157
945.866067	2699.719366
946.167729	2699.719366
946.469352	2696.535877
946.770937	2697.581917
947.072484	2696.800538
947.373992	2694.637883
947.675462	2692.220650
947.976893	2690.115968
948.278286	2688.157480
948.579641	2689.374918
948.880958	2686.390555
949.182236	2689.145546
949.483476	2687.751667
949.784678	2689.165711
950.085841	2688.482634
950.386967	2690.806606
950.688054	2691.605629
950.989103	2690.998170
951.290114	2689.717717
951.591087	2693.236442
951.892021	2697.410518
952.192917	2698.373378
952.493776	2699.835313
952.794596	2700.599047
953.095378	2699.905889
953.396122	2700.904037
953.696828	2698.025538
953.997496	2696.616536
954.298126	2694.211906
954.598718	2691.829960
954.899272	2690.466328
955.199788	2687.577747
955.500266	2687.459280
955.800706	2682.947447
956.101108	2681.677077
956.401472	2681.019206
956.701798	2677.782785
957.002087	2675.547033
957.302337	2673.097033
957.602550	2673.374296
957.902724	2670.062258
958.202861	2668.537309
958.502960	2669.532937
958.803022	2667.082936
959.103045	2670.712567
959.403031	2667.594613
959.702979	2663.372647
960.002889	2665.747030
960.302762	2665.724345
960.602596	2662.417348
960.902393	2663.153357
961.202153	2666.573780
961.501875	2663.458347
961.801559	2660.569765
962.101205	2664.451454
962.400814	2661.504899
962.700385	2664.388439
962.999918	2660.370640
963.299414	2658.943993
963.598873	2659.455670
963.898293	2658.167656
964.197677	2661.152019
964.497022	2659.465753
964.796331	2662.523213
965.095601	2660.196720
965.394835	2660.121103
965.694030	2659.861483
965.993189	2659.599343
966.292309	2658.175217
966.591393	2661.391473
966.890439	2656.430978
967.189447	2659.997594
967.488419	2659.700166
967.787353	2657.562717
968.086249	2659.382574
968.385108	2659.710249
968.683930	2658.472645
968.982714	2657.461894
969.281462	2657.834939
969.580172	2658.570948
969.878844	2657.172028
970.177480	2658.318890
970.476078	2660.327790
970.774639	2658.941473
971.073162	2658.689415
971.371649	2660.680671
971.670098	2663.072698
971.968510	2660.680671
972.266885	2661.204951
972.565223	2660.572286
972.863524	2661.048675
973.161788	2660.168994
973.460014	2658.278561
973.758204	2660.521874
974.056356	2661.358706
974.354471	2660.048006
974.652550	2659.445588
974.950591	2662.072029
975.248595	2660.723521
975.546563	2657.983653
975.844493	2660.862152
976.142386	2659.861483
976.440243	2660.269817
976.738062	2657.454332
977.035845	2659.906854
977.333590	2660.131185
977.631299	2658.913746
977.928971	2656.758653
978.226606	2655.001811
978.524204	2655.957110
978.821765	2654.328817
979.119290	2656.259579
979.416777	2658.029024
979.714228	2656.710762
980.011642	2658.049188
980.309020	2657.799651
980.606360	2659.173366
980.903664	2658.185300
981.200931	2658.974240
981.498162	2658.283602
981.795356	2660.509272
982.092513	2663.085301
982.389633	2663.927174
982.686717	2665.348779
982.983764	2669.278359
983.280775	2674.165757
983.577749	2675.466375
983.874686	2677.349246
984.171587	2673.356652
984.468451	2667.917247
984.765279	2667.418173
985.062070	2666.223419
985.358824	2665.237874
985.655543	2662.250990
985.952224	2661.557832
986.248869	2660.874755
986.545478	2659.405259
986.842050	2660.320228
987.138586	2656.110865
987.435086	2656.925011
987.731549	2655.432830
988.027975	2654.689259
988.324366	2653.290339
988.620719	2653.358395
988.917037	2654.003663
989.213318	2655.715134
989.509563	2652.874444
989.805772	2655.185813
990.101944	2653.996101
990.398080	2655.402583
990.694180	2655.455515
990.990244	2656.589774
991.286271	2654.328817
991.582262	2652.670277
991.878217	2655.631955
992.174136	2655.548776
992.470019	2654.764877
992.765865	2654.477531
993.061676	2650.076604
993.357450	2651.437715
993.653188	2648.032416
993.948890	2656.728406
994.244556	2655.309321
994.540186	2655.735299
994.835780	2655.442912
995.131337	2656.191523
995.426859	2659.112872
995.722345	2654.590957
996.017795	2656.370484
996.313208	2659.362409
996.608586	2659.062460
996.903928	2659.972389
997.199234	2659.513644
997.494504	2660.557162
997.789738	2657.232522
998.084936	2659.508602
998.380099	2656.592295
998.675225	2658.744868
998.970316	2654.734630
999.265371	2656.486431
999.560390	2657.270330
999.855373	2654.283447
1000.150320	2654.850576
1000.445232	2654.230514
1000.740108	2654.283447
1001.034948	2653.910401
1001.329752	2654.137253
1001.624521	2653.023158
1001.919254	2651.309166
1002.213951	2651.203302
1002.508613	2654.008704
1002.803239	2652.254382
1003.097829	2651.435195
1003.392384	2653.403765
1003.686903	2652.453508
1003.981386	2652.264464
1004.275834	2653.897798
1004.570246	2653.426450
1004.864623	2650.595842
1005.158964	2654.429640
1005.453270	2653.305463
1005.747540	2653.481903
1006.041775	2651.241110
1006.335974	2652.047695
1006.630138	2652.425781
1006.924266	2654.984167
1007.218359	2651.969557
1007.512416	2650.394196
1007.806438	2650.555513
1008.100425	2650.391676
1008.394376	2647.170378
1008.688292	2652.604742
1008.982172	2652.158600
1009.276017	2651.190699
1009.569827	2651.692293
1009.863602	2650.305976
1010.157341	2651.689773
1010.451045	2652.435864
1010.744714	2649.131387
1011.038347	2652.357726
1011.331945	2650.900832
1011.625508	2651.316727
1011.919036	2650.512663
1012.212528	2651.760349
1012.505986	2651.286481
1012.799408	2652.294711
1013.092795	2651.538538
1013.386147	2652.123312
1013.679464	2650.711789
1013.972745	2653.441574
1014.265992	2650.016110
1014.559204	2650.033754
1014.852380	2650.469814
1015.145521	2651.825884
1015.438628	2651.639361
1015.731699	2651.488127
1016.024736	2652.040133
1016.317737	2649.446459
1016.610703	2651.082314
1016.903635	2652.082983
1017.196531	2648.476037
1017.489393	2652.708086
1017.782219	2651.830925
1018.075011	2650.066521
1018.367768	2649.690955
1018.660490	2649.038126
1018.953177	2649.038126
1019.245829	2649.038126
