Dividing Wavelength (nm)	Counts (n)	Blue Motor Position (mm): 47.300000	Red Motor Position (mm): 0.000000	
326.493990	2275.919645
326.888308	2275.919645
327.282561	2275.919645
327.676750	2232.956411
328.070874	2232.036400
328.464933	2233.536144
328.858929	2237.896742
329.252859	2242.456465
329.646726	2251.129771
330.040528	2263.659558
330.434265	2274.568615
330.827938	2295.212140
331.221547	2309.796198
331.615091	2329.610454
332.008571	2349.943948
332.401986	2368.792822
332.795338	2388.135729
333.188625	2407.778585
333.581847	2426.763571
333.975006	2446.091354
334.368100	2466.487863
334.761129	2482.100316
335.154095	2501.811228
335.546996	2526.810310
335.939833	2567.492421
336.332606	2583.735019
336.725315	2591.231215
337.117960	2607.551950
337.510540	2621.606687
337.903056	2628.598768
338.295508	2637.713174
338.687896	2645.978146
339.080220	2653.219763
339.472480	2660.143788
339.864676	2662.813079
340.256807	2671.546878
340.648875	2673.757424
341.040879	2674.024605
341.432818	2678.433094
341.824694	2680.651202
342.216506	2682.995338
342.608253	2683.171779
342.999937	2684.631193
343.391557	2685.468024
343.783113	2682.090451
344.174605	2681.984587
344.566033	2681.682118
344.957397	2681.752694
345.348697	2680.270595
345.739934	2676.613237
346.131106	2675.448731
346.522215	2676.240192
346.913260	2672.749193
347.304241	2673.255829
347.695159	2669.774912
348.086012	2671.143586
348.476802	2665.678975
348.867528	2662.014056
349.258191	2658.379384
349.648789	2659.687563
350.039324	2653.325627
350.429796	2658.888541
350.820203	2658.233191
351.210548	2655.750422
351.600828	2655.208498
351.991045	2655.173210
352.381198	2653.681029
352.771288	2654.883344
353.161314	2654.454846
353.551276	2652.145997
353.941175	2653.270175
354.331010	2654.220432
354.720782	2651.387304
355.110490	2655.314362
355.500135	2652.007366
355.889717	2655.725217
356.279235	2653.005514
356.668689	2654.961482
357.058080	2652.100627
357.447408	2653.635658
357.836672	2652.559372
358.225873	2654.018786
358.615010	2652.738333
359.004084	2657.998777
359.393095	2655.954589
359.782043	2659.410300
360.170927	2657.514826
360.559748	2655.820998
360.948505	2660.405928
361.337199	2659.412821
361.725830	2659.251504
362.114398	2661.535146
362.502903	2660.090856
362.891344	2662.603871
363.279722	2662.699653
363.668037	2662.119920
364.056289	2665.000940
364.444478	2663.097904
364.832603	2663.912050
365.220665	2665.767195
365.608665	2666.891372
365.996601	2667.143430
366.384474	2666.243584
366.772284	2669.928667
367.160031	2665.399191
367.547715	2670.752896
367.935336	2667.536640
368.322893	2666.057061
368.710388	2665.585713
369.097820	2670.553771
369.485189	2666.546053
369.872495	2672.479491
370.259738	2673.094512
370.646918	2673.848165
371.034035	2676.073834
371.421090	2679.156500
371.808081	2681.339319
372.195010	2687.658406
372.581875	2688.233097
372.968678	2695.167204
373.355418	2707.202959
373.742096	2716.269474
374.128710	2728.874879
374.515262	2739.005078
374.901751	2755.915629
375.288177	2769.627567
375.674540	2785.650875
376.060841	2807.466468
376.447079	2830.958245
376.833254	2858.316587
377.219367	2874.420553
377.605417	2909.953126
377.991404	2933.563370
378.377329	2970.220120
378.763191	2991.899602
379.148991	3036.430634
379.534727	3074.453537
379.920402	3111.594238
380.306013	3135.678351
380.691563	3201.465408
381.077049	3224.148080
381.462474	3271.199690
381.847835	3324.918225
382.233134	3375.130638
382.618371	3399.771798
383.003545	3467.141778
383.388657	3492.236642
383.773706	3558.127043
384.158693	3589.286415
384.543618	3618.973770
384.928480	3677.572142
385.313280	3731.913260
385.698017	3758.258330
386.082692	3853.210983
386.467305	3853.768031
386.851856	3891.531314
387.236344	3966.967141
387.620770	3998.020648
388.005133	4049.364800
388.389435	4092.491871
388.773674	4102.922019
389.157851	4178.456147
389.541965	4246.602465
389.926018	4214.334039
390.310008	4312.833144
390.693936	4368.164849
391.077802	4402.850508
391.461606	4397.516967
391.845348	4465.625476
392.229027	4525.859703
392.612645	4525.955485
392.996200	4627.847286
393.379694	4688.278118
393.763125	4792.536741
394.146494	4822.037574
394.529801	4876.701325
394.913047	4958.947750
395.296230	4909.105862
395.679351	5017.730125
396.062410	5068.527312
396.445408	5042.615781
396.828343	5104.193475
397.211217	5158.063245
397.594028	5039.593609
397.976778	5159.084079
398.359466	5202.836253
398.742092	5223.396599
399.124656	5150.340197
399.507158	5268.164566
399.889598	5328.688659
400.271977	5450.868584
400.654294	5448.831958
401.036549	5494.802240
401.418742	5414.801649
401.800874	5614.043172
402.182944	5684.163102
402.564952	5782.667248
402.946898	5844.779304
403.328783	5677.571793
403.710606	5697.328075
404.092367	6022.139699
404.474067	6047.504265
404.855705	5943.177586
405.237282	5876.309201
405.618797	6139.802751
406.000250	6111.554645
406.381642	6319.356048
406.762972	6343.004101
407.144240	6395.321195
407.525447	6380.843001
407.906593	6392.268777
408.287677	6562.884108
408.668700	6477.575182
409.049661	6585.528971
409.430560	6616.557273
409.811399	6476.226673
410.192176	6738.270891
410.572891	6762.813749
410.953545	6950.649662
411.334138	6681.547828
411.714669	6846.988415
412.095139	6649.420555
412.475547	6891.406022
412.855894	6967.653474
413.236180	7150.657441
413.616405	6807.841335
413.996568	7024.222782
414.376670	7084.295691
414.756711	6975.580688
415.136691	7072.191881
415.516609	7279.088397
415.896466	7255.480673
416.276262	7461.958773
416.655997	7452.302443
417.035670	7620.659337
417.415283	7967.717574
417.794834	8031.440279
418.174324	7897.821976
418.553753	7816.762742
418.933121	8108.562371
419.312428	8218.825008
419.691674	7991.549628
420.070859	8476.375038
420.449983	8151.969226
420.829045	8520.311214
421.208047	8281.708362
421.586988	8600.853729
421.965867	8625.295764
422.344686	8708.288279
422.723444	8789.786093
423.102141	8126.944938
423.480777	8889.976505
423.859352	8413.441273
424.237866	9037.977220
424.616319	8894.793328
424.994712	9334.407149
425.373044	8867.094708
425.751314	9355.433802
426.129524	9234.557015
426.507673	9310.386051
426.885762	9469.946132
427.263789	9390.815140
427.641756	9329.781890
428.019662	9413.790198
428.397508	9686.819091
428.775292	9336.695833
429.153016	9730.183096
429.530679	9563.051202
429.908282	9575.954035
430.285824	9305.246594
430.663305	9989.300924
431.040726	9436.989588
431.418086	9417.941589
431.795385	9753.306869
432.172624	9852.650367
432.549802	9759.482282
432.926920	9832.057254
433.303977	9699.258138
433.680974	9902.885465
434.057910	10007.108800
434.434786	10089.345143
434.811601	9895.464887
435.188355	10461.047060
435.565050	10212.845851
435.941683	10122.805802
436.318257	10601.649882
436.694770	10786.750969
437.071222	10829.752011
437.447614	10650.158385
437.823946	10580.693806
438.200218	10664.258492
438.576429	10517.926399
438.952580	10767.198854
439.328670	10782.045052
439.704700	10593.647050
440.080670	10580.673641
440.456580	11090.127607
440.832429	10889.288038
441.208218	10486.646039
441.583947	10774.080029
441.959616	10964.083638
442.335224	10779.194279
442.710773	10881.343180
443.086261	11112.588468
443.461689	10382.470595
443.837057	11066.388814
444.212365	11297.558485
444.587612	10933.057857
444.962800	11137.784155
445.337927	10878.885617
445.712995	10570.495551
446.088002	11601.963519
446.462949	11302.929835
446.837837	11260.155644
447.212664	11177.082470
447.587431	11783.354317
447.962139	12549.355123
448.336786	14848.635475
448.711374	15326.163814
449.085901	13127.741828
449.460369	12788.610805
449.834776	12232.508522
450.209124	13176.507429
450.583412	13602.192542
450.957640	14515.747922
451.331808	13553.290829
451.705917	12637.446766
452.079965	11864.743746
452.453954	12792.588276
452.827883	12453.401801
453.201752	12729.374727
453.575562	12287.152109
453.949311	12700.241899
454.323001	12682.020648
454.696632	12928.041559
455.070202	13196.737580
455.443713	13390.028021
455.817164	13881.565727
456.190556	13848.699924
456.563888	14213.492940
456.937160	14347.035626
457.310373	13716.919122
457.683526	13829.576307
458.056619	13345.764170
458.429653	13565.581163
458.802628	12913.248293
459.175542	13331.270852
459.548398	14284.374084
459.921194	14647.299352
460.293930	14723.423296
460.666607	15554.800306
461.039224	16620.354035
461.411782	17347.419490
461.784280	17114.157740
462.156719	17233.083600
462.529099	16906.197541
462.901419	15871.349479
463.273680	15622.508043
463.645882	15530.048240
464.018024	15251.779068
464.390106	15475.550847
464.762130	16187.480237
465.134094	16994.904204
465.505999	19072.484692
465.877845	22343.807890
466.249631	25140.846731
466.621358	24741.557099
466.993026	23314.703874
467.364634	22721.060117
467.736184	21250.661405
468.107674	20467.659307
468.479105	20595.661765
468.850477	20051.219670
469.221790	19650.011879
469.593043	18956.669223
469.964238	18388.901710
470.335373	18026.145320
470.706449	18542.856028
471.077467	18124.629302
471.448425	20009.597383
471.819324	24159.044211
472.190164	25956.601205
472.560945	22265.911981
472.931667	19985.251131
473.302330	19380.579850
473.672934	19042.096617
474.043479	19244.861907
474.413965	19047.291526
474.784393	18634.249626
475.154761	19423.404452
475.525070	19328.971038
475.895321	19051.732782
476.265513	19673.604479
476.635645	20255.157028
477.005719	19999.719242
477.375734	20193.105466
477.745691	20681.946154
478.115588	21229.148281
478.485427	21798.145836
478.855207	22894.062435
479.224928	24686.439644
479.594591	26926.955265
479.964194	26798.380636
480.333739	27045.331640
480.703226	26630.621118
481.072653	26348.901277
481.442022	26996.969330
481.811333	27911.459844
482.180584	27767.663451
482.549777	26838.989651
482.918912	26523.690684
483.287988	26667.295513
483.657005	26267.884893
484.025964	26060.325466
484.394864	25920.738437
484.763706	25570.290024
485.132489	25068.823766
485.501213	25236.001030
485.869879	25139.175588
486.238487	25003.112326
486.607036	25110.957730
486.975527	24872.909404
487.343959	25163.814228
487.712333	25065.988117
488.080648	24734.078548
488.448905	25247.636013
488.817104	25006.139538
489.185244	25713.736057
489.553326	25653.365719
489.921350	26724.938586
490.289315	29086.056252
490.657222	30758.378382
491.025070	31291.031738
491.392861	31023.306140
491.760593	30162.818987
492.128267	29253.384751
492.495883	28178.096553
492.863440	27320.316500
493.230939	26460.560314
493.598380	26289.498841
493.965763	25902.426445
494.333088	25398.956328
494.700354	25379.157197
495.067563	25211.276691
495.434713	24966.198477
495.801805	25156.807024
496.168839	24920.865901
496.535815	24797.765965
496.902733	25022.145202
497.269593	24725.508586
497.636395	24866.129052
498.003139	24803.991790
498.369825	24543.780031
498.736453	24765.926037
499.103023	24633.968794
499.469535	24631.118022
499.835989	24849.594068
500.202385	24862.201993
500.568723	24414.613067
500.935003	24588.346352
501.301226	24288.571618
501.667390	25135.082172
502.033497	25318.343237
502.399546	25065.108436
502.765537	24585.298974
503.131470	24987.570448
503.497345	25133.156451
503.863163	24370.646643
504.228923	24908.976339
504.594625	25166.299517
504.960269	24735.235493
505.325856	25193.879669
505.691385	24591.862557
506.056856	25207.117739
506.422270	25195.081985
506.787625	24703.796337
507.152924	25150.185468
507.518164	25191.038979
507.883347	25014.039027
508.248472	24682.678943
508.613540	25448.755367
508.978550	25241.092596
509.343503	25269.502018
509.708398	25455.898682
510.073236	25625.135258
510.438016	25856.241914
510.802738	25500.187739
511.167403	25762.103408
511.532010	25511.789954
511.896561	26246.782623
512.261053	26221.171041
512.625488	26046.490019
512.989866	25933.553050
513.354186	25770.663287
513.718449	25902.131538
514.082655	26283.920804
514.446803	25995.448337
514.810894	26488.652144
515.174927	25974.189791
515.538904	26015.176892
515.902822	26506.361717
516.266684	26257.802586
516.630488	26166.650963
516.994235	26100.226199
517.357925	26450.619159
517.721558	26607.174712
518.085133	26739.073982
518.448651	26615.532945
518.812112	26383.798664
519.175516	26618.522349
519.538863	26751.432370
519.902152	26560.014718
520.265385	26801.324670
520.628560	26615.477492
520.991678	26588.217453
521.354739	26641.207542
521.717743	26741.758396
522.080690	26510.321544
522.443580	26832.136202
522.806413	26807.885732
523.169189	26935.547912
523.531908	26971.062841
523.894569	26610.325433
524.257174	26697.781891
524.619722	26811.228017
524.982213	26552.926855
525.344647	26568.365389
525.707025	26740.545999
526.069345	26678.438983
526.431608	26652.058625
526.793815	26829.058578
527.155964	26332.696488
527.518057	26515.692893
527.880093	26414.625320
528.242072	26638.707129
528.603995	26354.244900
528.965860	26141.304041
529.327669	26187.176020
529.689421	26184.947830
530.051117	26028.329263
530.412755	26200.308226
530.774337	25970.141744
531.135862	25879.045574
531.497331	26050.240638
531.858743	25657.716235
532.220098	26090.950476
532.581396	25793.209847
532.942638	25684.986357
533.303824	25817.609032
533.664953	25800.973224
534.026025	25462.915968
534.387040	25719.397273
534.747999	25752.326090
535.108902	25919.737768
535.469748	25433.909169
535.830537	25574.852268
536.191270	25712.085079
536.551947	25540.708533
536.912567	25153.149667
537.273131	25620.086542
537.633638	25270.477482
537.994089	25505.604459
538.354483	24979.335723
538.714821	25488.363713
539.075103	25539.644850
539.435328	25297.722397
539.795497	24912.737040
540.155609	25231.080864
540.515665	25552.829988
540.875665	24764.675831
541.235609	25119.893175
541.595496	25047.356012
541.955328	25407.417905
542.315102	25329.277500
542.674821	24836.630740
543.034483	24725.082609
543.394090	24890.654266
543.753640	24714.523912
544.113134	25322.897920
544.472571	24906.750670
544.831953	25217.620983
545.191278	24886.056733
545.550548	24774.170844
545.909761	24961.200173
546.268918	25209.363573
546.628019	25182.708473
546.987064	24862.474216
547.346053	24585.755199
547.704986	24678.628376
548.063863	24844.051319
548.422684	24880.786207
548.781449	24377.076635
549.140158	24789.233812
549.498811	24359.024263
549.857408	24134.977742
550.215949	24519.562328
550.574434	24219.890938
550.932864	24394.466095
551.291237	24616.813747
551.649555	24432.173926
552.007817	24501.711602
552.366022	24342.602705
552.724173	24358.134500
553.082267	24341.488610
553.440305	24821.731610
553.798288	24056.146699
554.156215	24545.002511
554.514086	24686.633728
554.871902	24086.542336
555.229661	24344.893909
555.587365	24185.611092
555.945014	24098.678914
556.302606	24297.814573
556.660143	24302.661643
557.017625	24525.173132
557.375050	24056.741555
557.732421	24424.962556
558.089735	24257.815538
558.446994	24294.552947
558.804197	24351.303736
559.161345	24228.881836
559.518437	24040.466190
559.875474	24198.203894
560.232455	24387.360589
560.589381	24185.263252
560.946251	24196.333626
561.303065	24491.677186
561.659825	24590.624953
562.016528	24200.283370
562.373177	23930.947123
562.729770	24279.908395
563.086307	24127.728563
563.442789	24306.591222
563.799216	24150.617922
564.155587	24141.803465
564.511904	24127.839468
564.868164	24098.956178
565.224370	24047.790987
565.580520	24009.037116
565.936615	24104.221663
566.292654	23806.400376
566.648638	24036.163565
567.004567	23881.944587
567.360441	23820.225740
567.716260	23528.234548
568.072023	23839.651827
568.427732	23623.411532
568.783385	23380.266600
569.138982	23647.629235
569.494525	23662.261184
569.850013	23435.061422
570.205445	23534.503222
570.560823	23360.661553
570.916145	23131.513384
571.271412	23323.888856
571.626625	23069.923087
571.981782	23170.690711
572.336884	22971.895330
572.691931	23121.267239
573.046923	22859.505325
573.401860	22740.692891
573.756743	22776.601030
574.111570	22660.888905
574.466342	22575.542170
574.821059	22655.890601
575.175722	22369.815202
575.530330	22318.400474
575.884882	22329.949758
576.239380	22242.510944
576.593823	22134.612608
576.948211	22114.417746
577.302544	21973.459523
577.656823	21828.899395
578.011047	21953.793981
578.365216	21807.756796
578.719330	21685.138290
579.073389	21561.811502
579.427394	21725.502809
579.781344	21470.972431
580.135239	21360.997139
580.489080	21302.171915
580.842866	21093.206005
581.196597	21307.404632
581.550273	21259.687591
581.903895	21143.708285
582.257463	21455.879216
582.610975	20987.704738
582.964434	21328.126295
583.317837	20970.214454
583.671186	21062.192827
584.024481	21058.729554
584.377721	20826.551652
584.730906	20919.908780
585.084037	20878.291535
585.437113	20816.827266
585.790135	21025.344513
586.143103	20473.839762
586.496016	20512.744866
586.848874	20738.391954
587.201679	20636.691716
587.554428	20357.200064
587.907124	20682.387255
588.259765	20430.269069
588.612352	20511.308138
588.964884	20085.116388
589.317362	20252.949003
589.669786	20312.008641
590.022155	20301.061775
590.374470	20554.455373
590.726731	20299.851898
591.078937	20097.724314
591.431090	20173.437404
591.783188	19954.679053
592.135232	19907.924872
592.487222	20013.242138
592.839157	20011.762559
593.191038	19879.275995
593.542866	19782.974833
593.894639	19485.672785
594.246358	19696.680361
594.598022	19591.194217
594.949633	19341.594087
595.301190	19333.298868
595.652692	19499.246091
596.004141	19708.358194
596.355535	19049.996105
596.706876	19071.673066
597.058162	18973.569692
597.409395	19217.939624
597.760573	19256.696015
598.111698	19029.271921
598.462768	18978.323500
598.813785	18948.429457
599.164748	18738.672087
599.515657	18802.752714
599.866511	18609.071583
600.217312	18953.379871
600.568060	18459.649263
600.918753	18771.583260
601.269392	18673.217746
601.619978	18470.606211
601.970510	18654.971289
602.320988	18599.942054
602.671412	18801.207601
603.021783	18741.553107
603.372100	18437.256458
603.722363	18594.174974
604.072572	18540.400986
604.422728	18697.042239
604.772830	18437.203525
605.122878	18403.233710
605.472872	18383.442140
605.822813	18364.754583
606.172701	18350.646914
606.522534	18518.824847
606.872314	18565.044666
607.222041	18400.128359
607.571714	18610.379763
607.921333	18434.763607
608.270899	18521.423562
608.620411	18655.949273
608.969870	18460.564232
609.319276	18459.765209
609.668627	18475.521336
610.017926	18611.599722
610.367171	18728.357886
610.716362	18785.224622
611.065500	18590.951156
611.414585	18744.817254
611.763616	18720.471001
612.112594	18656.760899
612.461518	18633.939595
612.810389	18826.801539
613.159207	18681.860804
613.507971	18594.237988
613.856682	18840.740329
614.205340	18757.576414
614.553945	18925.086395
614.902496	18657.529675
615.250994	18869.429536
615.599439	18824.492690
615.947830	18812.618252
616.296169	18883.731289
616.644454	18838.706223
616.992686	18811.539445
617.340864	19032.044556
617.688990	18783.714797
618.037063	18955.706363
618.385082	18809.714548
618.733048	19089.523792
619.080961	18987.067381
619.428821	19022.612557
619.776628	18877.540752
620.124382	18810.417789
620.472083	18869.036326
620.819731	18877.255927
621.167326	18572.021623
621.514868	18607.226521
621.862357	18407.180934
622.209793	18382.141523
622.557176	18220.262511
622.904506	18058.209579
623.251783	17995.464858
623.599007	17733.118171
623.946179	17682.799893
624.293297	17609.887165
624.640363	17333.342068
624.987376	17365.910442
625.334336	17167.409968
625.681243	17009.745361
626.028097	17035.717386
626.374899	16939.227181
626.721647	16813.387378
627.068343	16650.588355
627.414987	16577.196717
627.761577	16544.797221
628.108115	16571.918629
628.454600	16304.308977
628.801032	16402.684574
629.147412	16343.261973
629.493739	16347.728435
629.840014	16161.490568
630.186236	16255.850886
630.532405	16023.078127
630.878521	16211.181222
631.224585	16121.042870
631.570597	15949.137003
631.916556	15974.952752
632.262462	15951.150944
632.608316	15865.350506
632.954117	15820.355687
633.299866	15796.480783
633.645562	15713.843668
633.991206	15478.530168
634.336797	15354.628689
634.682336	15324.764894
635.027823	15185.195508
635.373257	15056.270519
635.718639	14974.739938
636.063968	14911.319702
636.409245	14663.836857
636.754470	14699.777763
637.099642	14557.324838
637.444762	14342.838865
637.789829	14369.856929
638.134845	14200.118759
638.479808	14230.950456
638.824719	14138.331857
639.169577	14007.529038
639.514383	14044.826015
639.859137	13876.869892
640.203839	13970.103512
640.548489	13830.481194
640.893086	13811.544100
641.237632	13688.159339
641.582125	13855.550852
641.926566	13657.892251
642.270955	13681.895705
642.615292	13628.265390
642.959576	13643.325837
643.303809	13662.971214
643.647990	13591.081839
643.992118	13667.399867
644.336195	13427.433382
644.680219	13666.321060
645.024192	13568.948653
645.368112	13811.518894
645.711981	13842.423688
646.055797	14036.513152
646.399562	14012.456766
646.743274	14270.536116
647.086935	14543.023085
647.430544	14506.774668
647.774101	14552.646647
648.117606	14689.574468
648.461059	14675.678527
648.804460	14650.306400
649.147810	14375.934040
649.491108	14295.671309
649.834354	14303.792608
650.177548	13979.437208
650.520690	13790.144402
650.863781	13713.959964
651.206820	13765.813273
651.549807	13588.059668
651.892742	13366.947098
652.235626	13308.767142
652.578458	13317.581599
652.921238	13025.640818
653.263967	13222.800345
653.606644	13055.819686
653.949269	13036.885112
654.291843	12828.352742
654.634365	12990.272083
654.976836	12836.957991
655.319255	12836.050584
655.661622	12796.439717
656.003938	12724.331053
656.346203	12647.304742
656.688416	12734.882188
657.030577	12671.217456
657.372687	12583.103128
657.714746	12576.489134
658.056753	12769.187240
658.398708	12563.712329
658.740612	12571.634503
659.082465	12693.751413
659.424266	12652.660968
659.766016	12687.429807
660.107715	12603.020727
660.449362	12683.134743
660.790958	12617.055299
661.132503	12566.497567
661.473996	12643.831388
661.815438	12652.275320
662.156829	12678.287674
662.498168	12645.316007
662.839456	12656.678768
663.180693	12661.145230
663.521879	12767.939554
663.863013	12733.848751
664.204097	12699.221065
664.545129	12840.237262
664.886110	12814.988643
665.227040	12911.085638
665.567918	12907.380390
665.908746	12916.643510
666.249522	12918.576793
666.590248	12976.968478
666.930922	13085.900251
667.271545	13053.715004
667.612118	13141.042912
667.952639	13040.734033
668.293109	13061.685068
668.633528	13010.708920
668.973896	12987.063388
669.314213	13052.502606
669.654480	12802.985656
669.994695	12880.710166
670.334859	12906.656984
670.674973	12844.575175
671.015035	12869.231458
671.355047	12826.923575
671.695008	12806.708548
672.034918	12820.634735
672.374777	12859.209644
672.714585	12766.429728
673.054342	12806.421202
673.394049	12763.279007
673.733705	12852.567924
674.073310	12747.953900
674.412864	12758.197524
674.752368	12604.719595
675.091820	12666.065397
675.431223	12633.219759
675.770574	12489.519148
676.109875	12415.404104
676.449125	12375.349616
676.788324	12333.891167
677.127473	12160.914055
677.466571	12160.266267
677.805619	12033.914787
678.144616	11980.201292
678.483562	11965.541617
678.822458	11821.357055
679.161303	11795.874023
679.500098	11781.408432
679.838842	11741.747154
680.177535	11782.683843
680.516179	11849.058196
680.854771	11785.519492
681.193314	11999.413130
681.531805	12167.591063
681.870247	12616.999846
682.208638	13025.091332
682.546978	13310.385352
682.885268	13341.396010
683.223508	13045.961709
683.561697	12884.261658
683.899836	12802.499184
684.237925	12593.742483
684.575963	12511.344823
684.913951	12424.450454
685.251889	12384.252294
685.589776	12482.196872
685.927614	12396.494736
686.265401	12371.669574
686.603137	12431.034201
686.940824	12572.753639
687.278460	12713.669012
687.616046	12735.590470
687.953582	12895.803380
688.291068	12838.281294
688.628504	13073.093199
688.965889	13073.867016
689.303224	13022.966486
689.640510	12907.047674
689.977745	12592.756937
690.314930	12380.395811
690.652065	12279.242538
690.989150	11981.774132
691.326185	11754.783578
691.663170	11549.381764
692.000105	11321.072948
692.336990	11199.288753
692.673825	10927.799933
693.010610	10825.973667
693.347345	10624.526638
693.684030	10428.004817
694.020665	10363.452842
694.357251	10168.566876
694.693786	10090.083672
695.030272	9944.280900
695.366707	9821.511160
695.703093	9770.678685
696.039429	9753.077496
696.375716	9664.441409
696.711952	9534.215802
697.048139	9588.864430
697.384276	9542.574035
697.720363	9564.959279
698.056400	9493.193413
698.392388	9442.791957
698.728326	9414.037215
699.064214	9347.118418
699.400053	9381.524293
699.735842	9196.955048
700.071581	9168.081839
700.407270	9092.761960
700.742910	9008.088219
701.078501	8912.205473
701.414042	8780.752345
701.749533	8723.250424
702.084974	8581.145338
702.420366	8707.312816
702.755709	8577.954288
703.091002	8442.760624
703.426246	8484.234197
703.761440	8435.375334
704.096584	8383.955564
704.431679	8323.401224
704.766725	8308.600397
705.101721	8266.037935
705.436668	8316.008372
705.771565	8199.041000
706.106413	8288.095503
706.441212	8318.924680
706.775961	8280.516129
707.110661	8337.609717
707.445311	8455.940721
707.779913	8358.782563
708.114465	8480.909556
708.448967	8518.866924
708.783421	8688.703397
709.117825	8849.480916
709.452180	8884.965598
709.786485	8976.026481
710.120742	9265.257642
710.454949	9273.136965
710.789107	9381.705775
711.123216	9604.018139
711.457275	9780.544223
711.791286	9914.245705
712.125247	9927.987891
712.459159	9918.888608
712.793023	10126.445515
713.126837	9713.290190
713.460602	9869.765084
713.794318	9696.561121
714.127985	9721.920645
714.461602	9383.724757
714.795171	9340.196914
715.128691	9088.290456
715.462162	8847.804733
715.795584	8782.151266
716.128957	8614.361501
716.462281	8451.774207
716.795556	8494.621494
717.128782	8288.778580
717.461960	8036.398254
717.795088	8099.543747
718.128167	8007.562854
718.461198	7851.274482
718.794180	7800.878067
719.127113	7792.971017
719.459997	7609.273891
719.792833	7394.445120
720.125619	7474.208777
720.458357	7319.180693
720.791046	7315.679612
721.123686	7295.819986
721.456278	7139.655122
721.788821	7157.699933
722.121315	7058.038842
722.453761	7132.479040
722.786158	7066.916313
723.118506	7075.884526
723.450805	7040.248610
723.783056	7097.629543
724.115259	7022.289499
724.447412	7018.722883
724.779518	7075.486275
725.111574	7078.624393
725.443582	7146.974878
725.775542	7119.644262
726.107453	7318.663975
726.439315	7223.620581
726.771129	7311.361863
727.102895	7487.182186
727.434612	7589.169770
727.766281	7634.545195
728.097901	7705.678397
728.429473	7717.177269
728.760996	7707.122687
729.092471	7673.266298
729.423897	7617.001980
729.755276	7603.766431
730.086606	7512.546752
730.417887	7626.998588
730.749120	7852.597784
731.080305	8040.264819
731.411442	8132.028942
731.742530	8116.509750
732.073570	8228.042758
732.404562	8315.988208
732.735506	8182.407713
733.066401	8304.668297
733.397249	8220.544042
733.728048	7976.965570
734.058798	7647.690004
734.389501	7417.324397
734.720156	7246.784683
735.050762	7027.842330
735.381320	6943.597087
735.711831	6874.699638
736.042293	6768.001096
736.372707	6784.518437
736.703073	6650.196893
737.033391	6697.356887
737.363661	6700.789913
737.693883	6742.351705
738.024056	6831.086095
738.354182	6857.894952
738.684260	6892.762092
739.014290	7019.375712
739.344272	7125.958307
739.674207	7158.516599
740.004093	7237.977787
740.333931	7245.201760
740.663722	7252.208964
740.993464	7329.021025
741.323159	7299.832745
741.652806	7061.822227
741.982405	7104.457786
742.311956	7136.335522
742.641460	6948.514733
742.970915	6764.621003
743.300323	6747.907057
743.629683	6713.052519
743.958996	6572.338792
744.288260	6483.158260
744.617477	6434.811074
744.946647	6417.799700
745.275768	6261.932264
745.604842	6216.037600
745.933869	6197.803746
746.262847	6159.727911
746.591778	6143.674357
746.920662	6104.499550
747.249498	6103.614828
747.578286	6152.249360
747.907027	6223.196038
748.235720	6286.732221
748.564365	6260.210710
748.892963	6308.507485
749.221514	6435.284942
749.550017	6243.557259
749.878473	6137.466176
750.206881	6205.425971
750.535242	6154.898486
750.863555	6081.355613
751.191821	6092.907417
751.520039	6083.737558
751.848210	5996.286142
752.176334	6038.407503
752.504411	6068.258695
752.832440	5989.543599
753.160421	5928.044042
753.488356	5972.764118
753.816243	5995.855123
754.144082	5851.915058
754.471875	5827.155430
754.799620	5866.788982
755.127318	5881.148709
755.454969	5842.019273
755.782572	5808.190610
756.110129	5848.247618
756.437638	5818.625798
756.765100	5766.457417
757.092515	5781.230519
757.419882	5837.013407
757.747203	5804.359333
758.074477	5863.706316
758.401703	5845.737123
758.728882	5805.947296
759.056014	5882.330859
759.383099	5990.040152
759.710138	5999.888046
760.037129	5988.621067
760.364073	5989.886397
760.690970	6070.078552
761.017820	6050.034924
761.344623	6011.391959
761.671379	6120.575790
761.998088	6254.219299
762.324751	6521.075298
762.651366	7166.612692
762.977935	8545.965646
763.304456	10218.552437
763.630931	11058.756507
763.957359	10584.363766
764.283740	9618.093040
764.610074	8737.022856
764.936362	7735.723674
765.262602	7144.103941
765.588796	6616.693384
765.914943	6292.736235
766.241044	6115.592609
766.567097	5898.104630
766.893104	5640.050485
767.219064	5469.367098
767.544978	5408.303601
767.870845	5325.079192
768.196665	5218.221854
768.522438	5147.002953
768.848165	5106.043578
769.173846	5040.546387
769.499479	4992.363039
769.825066	4947.753868
770.150607	4889.936875
770.476101	4868.345613
770.801548	4852.367676
771.126949	4770.164101
771.452303	4717.917582
771.777611	4682.248898
772.102872	4702.746230
772.428087	4665.111496
772.753256	4619.058035
773.078378	4568.477617
773.403453	4501.019417
773.728482	4485.863188
774.053465	4442.942804
774.378401	4431.542235
774.703291	4424.028395
775.028135	4347.480995
775.352932	4302.357627
775.677683	4290.513436
776.002388	4304.719407
776.327046	4312.586128
776.651658	4240.858070
776.976224	4181.811035
777.300743	4181.158206
777.625216	4207.099983
777.949643	4194.111451
778.274024	4157.081655
778.598359	4123.159731
778.922647	4148.007578
779.246889	4135.003922
779.571086	4122.756438
779.895236	4108.938636
780.219339	4100.083849
780.543397	4096.302984
780.867409	4149.719050
781.191374	4158.790606
781.515294	4093.447170
781.839167	4089.656222
782.162995	4113.886528
782.486776	4104.910754
782.810511	4112.200262
783.134201	4098.228704
783.457844	4050.360428
783.781441	3995.401769
784.104993	4003.018952
784.428498	4026.062067
784.751958	4017.171992
785.075372	3997.075432
785.398739	3960.219556
785.722061	3972.373778
786.045337	4021.925800
786.368568	4042.251732
786.691752	3954.729740
787.014891	4019.997558
787.337983	4150.034122
787.661030	4319.111901
787.984031	4475.604440
788.306987	4636.649141
788.629897	4729.245055
788.952760	4679.413249
789.275579	4613.031335
789.598351	4538.621384
789.921078	4387.321233
790.243759	4188.598949
790.566395	4182.705840
790.888984	4172.895755
791.211529	4064.402562
791.534027	4008.347452
791.856480	3987.247702
792.178888	3925.002055
792.501249	3887.359760
792.823566	3895.503744
793.145836	3916.379162
793.468062	3862.534597
793.790241	3825.368691
794.112375	3852.507742
794.434464	3923.245213
794.756507	3946.878142
795.078505	3920.195315
795.400457	3961.668888
795.722364	4106.463429
796.044226	4216.123649
796.366042	4287.546717
796.687812	4255.981532
797.009538	4261.390690
797.331218	4221.429463
797.652852	4198.681257
797.974442	4174.231660
798.295986	4172.661341
798.617484	4083.828648
798.938938	4005.360568
799.260346	4053.291859
799.581709	4041.114952
799.903026	3961.041264
800.224299	3924.545831
800.545526	3916.913524
800.866708	3879.276269
801.187845	3825.071263
801.508936	3855.610573
801.829983	3845.107329
802.150984	3771.347686
802.471940	3769.784928
802.792851	3771.173766
803.113717	3775.771299
803.434538	3771.506482
803.755314	3712.726629
804.076045	3693.539997
804.396731	3714.601938
804.717372	3738.648242
805.037967	3721.276426
805.358518	3710.243860
805.679024	3740.500866
805.999485	3757.633227
806.319901	3759.475769
806.640272	3771.866925
806.960598	3782.788585
807.280879	3757.681118
807.601115	3774.914303
807.921306	3792.810399
808.241453	3829.751974
808.561554	3798.658137
808.881611	3733.801172
809.201623	3777.074437
809.521590	3787.988535
809.841513	3762.475255
810.161390	3788.732105
810.481223	3763.370060
810.801011	3710.450548
811.120755	3711.045404
811.440453	3741.645208
811.760107	3737.355186
812.079716	3691.505892
812.399281	3670.128879
812.718801	3691.210984
813.038276	3665.725431
813.357707	3662.851973
813.677093	3676.558870
813.996434	3622.880664
814.315731	3637.535298
814.634983	3641.721977
814.954191	3659.933145
815.273354	3682.036084
815.592473	3672.152902
815.911547	3690.500181
816.230577	3736.742686
816.549562	3784.230355
816.868502	3821.124039
817.187399	3842.496011
817.506250	3846.962473
817.825058	3826.482786
818.143821	3923.799740
818.462539	4017.691231
818.781213	4065.927511
819.099843	4133.841936
819.418429	4405.260179
819.736970	4646.912930
820.055466	4903.525305
820.373919	5275.287716
820.692327	5691.545871
821.010691	6195.638571
821.329011	7711.674849
821.647286	10643.990533
821.965517	15414.850313
822.283704	19406.282173
822.601847	21350.191426
822.919945	19402.022398
823.237999	16740.396511
823.556010	14210.894225
823.873976	12037.264633
824.191897	9924.242313
824.509775	8588.870907
824.827609	7460.887528
825.145398	6943.145904
825.463144	6818.785680
825.780845	6926.187463
826.098502	7169.339957
826.416116	8138.736197
826.733685	9507.790074
827.051210	10590.027502
827.368692	10513.734680
827.686129	9168.926233
828.003522	7663.335225
828.320872	6639.141642
828.638177	5916.111631
828.955439	5340.981512
829.272656	4842.066078
829.589830	4572.371909
829.906960	4395.172831
830.224046	4199.203016
830.541088	4078.389243
830.858086	4030.100031
831.175041	3946.956280
831.491952	3937.869601
831.808819	3949.186991
832.125642	4030.583982
832.442421	4190.822098
832.759157	4493.190505
833.075849	5079.791770
833.392497	5985.871118
833.709101	6778.141377
834.025662	7075.715647
834.342179	6639.058463
834.658653	5958.701819
834.975083	5293.266991
835.291469	4709.579514
835.607811	4312.863391
835.924110	4166.836288
836.240366	3963.582006
836.556578	3759.011983
836.872746	3647.141217
837.188871	3604.641770
837.504952	3536.510575
837.820990	3450.929427
838.136984	3414.436514
838.452935	3438.906275
838.768842	3432.105759
839.084706	3459.058288
839.400526	3628.504071
839.716303	4001.584744
840.032037	4559.141401
840.347727	4781.720946
840.663373	4458.998879
840.978977	4070.993871
841.294537	3760.952827
841.610054	3535.940925
841.925527	3431.601643
842.240957	3356.901826
842.556344	3303.853764
842.871687	3241.063672
843.186987	3192.701362
843.502244	3155.772390
843.817458	3118.263685
844.132629	3091.790065
844.447756	3097.758792
844.762840	3080.260947
845.077881	3048.746173
845.392879	3033.688247
845.707833	3028.891589
846.022745	3026.923018
846.337613	3024.157945
846.652438	3013.223683
846.967221	3010.821573
847.281960	3000.472084
847.596656	2995.327587
847.911309	2993.792555
848.225919	2986.777790
848.540485	2984.491626
848.855009	2981.759321
849.169490	2969.796663
849.483928	2962.557566
849.798323	2962.809624
850.112675	2959.379118
850.426984	2974.812611
850.741251	2967.472691
851.055474	2954.794189
851.369654	2950.904939
851.683792	2959.316104
851.997887	2966.192238
852.311938	2969.786581
852.625947	2956.853500
852.939914	2960.316773
853.253837	2963.394398
853.567718	2949.463169
853.881555	2950.194136
854.195350	2966.943370
854.509103	2960.135292
854.822812	2952.815536
855.136479	2947.918055
855.450103	2949.702624
855.763685	2943.938064
856.077224	2943.214659
856.390720	2956.384673
856.704173	2962.242494
857.017584	2956.467852
857.330953	2954.358129
857.644278	2965.373050
857.957561	2973.683392
858.270802	2974.797488
858.584000	2973.539720
858.897155	2960.397432
859.210268	2959.805096
859.523339	2959.583285
859.836367	2957.990281
860.149352	2952.180351
860.462295	2946.927468
860.775195	2952.830660
861.088054	2952.266050
861.400869	2935.907506
861.713642	2934.279213
862.026373	2950.168930
862.339062	2951.885443
862.651708	2958.910291
862.964312	2959.590847
863.276873	2955.343675
863.589392	2970.777167
863.901869	2982.144969
864.214303	3002.496107
864.526696	3016.137470
864.839045	3008.500122
865.151353	3010.680421
865.463619	3007.990965
865.775842	3012.328878
866.088023	3035.374513
866.400162	3034.394008
866.712258	3005.185563
867.024313	2999.826816
867.336325	3008.396778
867.648296	3030.446785
867.960224	3020.099817
868.272110	3004.149606
868.583954	3011.303003
868.895755	3022.272554
869.207515	3010.645133
869.519233	3019.852800
869.830909	3030.842515
870.142542	3037.426262
870.454134	3038.752086
870.765684	3040.082950
871.077191	3040.024977
871.388657	3053.452090
871.700081	3065.455078
872.011463	3076.220462
872.322803	3072.326170
872.634101	3073.407498
872.945357	3095.089501
873.256571	3116.902573
873.567744	3110.119701
873.878874	3107.989813
874.189963	3128.313225
874.501010	3127.773822
874.812015	3115.939713
875.122979	3115.596914
875.433900	3116.579939
875.744780	3124.854993
876.055618	3130.044861
876.366415	3126.866414
876.677169	3135.275058
876.987882	3128.154429
877.298554	3132.003350
877.609183	3154.698624
877.919771	3175.148065
878.230317	3204.837940
878.540822	3258.914398
878.851285	3296.813792
879.161707	3350.572657
879.472087	3464.449802
879.782425	3717.669480
880.092722	4182.516797
880.402977	4729.214808
880.713191	5395.516715
881.023363	6635.128884
881.333494	7949.687887
881.643583	8460.150084
881.953631	8114.480686
882.263637	7433.214114
882.573602	6803.105171
882.883526	6209.199275
883.193408	5644.537112
883.503248	5191.995252
883.813048	4876.298033
884.122806	4544.453999
884.432522	4219.838979
884.742197	3970.659786
885.051831	3784.479892
885.361424	3658.788803
885.670975	3577.921134
885.980485	3482.141731
886.289954	3403.547622
886.599382	3360.846528
886.908768	3325.288750
887.218113	3280.394754
887.527417	3219.719427
887.836680	3168.481139
888.145901	3164.486024
888.455082	3149.783499
888.764221	3092.904160
889.073319	3067.902558
889.382376	3065.548339
889.691392	3070.518917
890.000366	3073.672158
890.309300	3055.587019
890.618193	3071.146540
890.927044	3082.642892
891.235855	3081.939651
891.544625	3073.364648
891.853353	3082.504260
892.162041	3102.240377
892.470687	3148.440032
892.779293	3198.642362
893.087858	3248.597676
893.396381	3323.206753
893.704864	3459.086014
894.013306	3716.552864
894.321707	4033.084394
894.630068	4221.303434
894.938387	4207.853636
895.246665	4169.069519
895.554903	4036.799724
895.863100	3827.410358
896.171256	3654.687824
896.479371	3512.643232
896.787446	3381.840414
897.095480	3279.578087
897.403473	3212.215669
897.711425	3181.192408
898.019336	3170.313598
898.327207	3134.649955
898.635038	3096.788369
898.942827	3086.794282
899.250576	3075.847416
899.558284	3042.936243
899.865952	3023.767256
900.173579	2999.471415
900.481165	2992.461691
900.788711	2979.352170
901.096216	2954.254786
901.403681	2946.504012
901.711105	2950.380659
902.018489	2948.147428
902.325832	2950.176492
902.633135	2961.388018
902.940397	2997.628873
903.247619	3088.621700
903.554800	3302.593475
903.861941	3673.960156
904.169041	4131.714569
904.476101	4421.122170
904.783121	4343.687526
905.090100	4075.125096
905.397039	3786.793782
905.703938	3533.402704
906.010796	3347.353880
906.317614	3233.716190
906.624391	3135.080974
906.931129	3061.817885
907.237826	2996.136692
907.544483	2949.627006
907.851099	2922.777821
908.157675	2899.689336
908.464211	2875.912734
908.770707	2861.800024
909.077163	2848.940041
909.383578	2832.868842
909.689954	2823.482214
909.996289	2822.627738
910.302584	2823.600681
910.608839	2824.840805
910.915054	2814.055256
911.221229	2810.874288
911.527363	2811.733805
911.833458	2820.654126
912.139513	2829.473625
912.445527	2827.583192
912.751502	2838.149451
913.057436	2847.205884
913.363331	2863.370343
913.669186	2884.633930
913.975000	2924.595157
914.280775	2990.054540
914.586510	3060.045920
914.892205	3144.752428
915.197859	3280.311575
915.503475	3496.614884
915.809050	3721.823391
916.114585	3866.375957
916.420081	3871.580948
916.725536	3802.862459
917.030952	3680.755631
917.336328	3548.737894
917.641665	3413.287131
917.946961	3309.978766
918.252218	3234.137127
918.557435	3151.386586
918.862612	3090.940631
919.167750	3040.592107
919.472848	2998.228771
919.777906	2973.411170
920.082925	2945.031995
920.387904	2909.370872
920.692843	2896.679768
920.997743	2882.693086
921.302603	2871.284955
921.607423	2857.759539
921.912204	2843.974504
922.216946	2832.145437
922.521647	2824.281237
922.826310	2815.040802
923.130932	2807.211890
923.435516	2797.842905
923.740059	2790.364353
924.044564	2782.351439
924.349028	2778.421860
924.653454	2772.826179
924.957840	2763.648759
925.262186	2760.563572
925.566493	2755.741709
925.870761	2749.223497
926.174989	2744.472209
926.479178	2742.770820
926.783328	2736.852505
927.087438	2738.014491
927.391509	2733.525344
927.695541	2730.112483
927.999533	2728.156515
928.303486	2724.287429
928.607400	2724.836915
928.911275	2724.335320
929.215110	2721.043447
929.518906	2720.118395
929.822663	2722.691904
930.126381	2720.935062
930.430060	2719.203426
930.733699	2721.524877
931.037299	2722.835577
931.340861	2723.861452
931.644383	2724.904971
931.947866	2723.904302
932.251309	2724.516802
932.554714	2721.303066
932.858080	2718.326265
933.161407	2716.077910
933.464694	2713.728733
933.767943	2710.809905
934.071153	2716.093034
934.374323	2713.068342
934.677455	2714.532797
934.980548	2714.900801
935.283602	2710.550285
935.586617	2711.586242
935.889593	2712.894422
936.192530	2713.854762
936.495428	2712.065152
936.798287	2712.813763
937.101108	2719.841132
937.403890	2722.911194
937.706632	2727.551577
938.009336	2734.861250
938.312002	2741.906262
938.614628	2752.449835
938.917216	2757.717841
939.219765	2759.046185
939.522275	2761.496186
939.824747	2753.780700
940.127179	2754.312542
940.429573	2750.962695
940.731929	2745.104874
941.034246	2741.843248
941.336524	2741.497929
941.638763	2735.599779
941.940964	2736.391240
942.243126	2733.376630
942.545250	2736.106415
942.847335	2729.535271
943.149381	2729.305898
943.451389	2720.892212
943.753359	2718.343909
944.055290	2719.634444
944.357182	2718.238045
944.659036	2715.571274
944.960851	2715.745194
945.262628	2714.711758
945.564367	2714.222766
945.866067	2713.028012
946.167729	2716.584546
946.469352	2717.297870
946.770937	2715.654453
947.072484	2713.322920
947.373992	2712.554144
947.675462	2712.042467
947.976893	2708.574153
948.278286	2704.904193
948.579641	2705.594831
948.880958	2703.172557
949.182236	2706.270346
949.483476	2706.262784
949.784678	2703.875797
950.085841	2703.222968
950.386967	2706.338401
950.688054	2708.896787
950.989103	2707.873432
951.290114	2709.660522
951.591087	2711.245964
951.892021	2710.368804
952.192917	2715.722509
952.493776	2722.001266
952.794596	2718.595967
953.095378	2717.832232
953.396122	2716.607232
953.696828	2717.373487
953.997496	2712.533979
954.298126	2711.276211
954.598718	2711.591283
954.899272	2707.636498
955.199788	2702.618030
955.500266	2703.280941
955.800706	2700.097453
956.101108	2697.781042
956.401472	2696.424972
956.701798	2692.931453
957.002087	2692.833150
957.302337	2689.183355
957.602550	2691.272913
957.902724	2688.795186
958.202861	2687.444157
958.502960	2685.488189
958.803022	2684.517767
959.103045	2684.663960
959.403031	2684.928621
959.702979	2682.314782
960.002889	2683.935513
960.302762	2681.629186
960.602596	2680.920903
960.902393	2680.005934
961.202153	2680.628517
961.501875	2680.126922
961.801559	2681.735050
962.101205	2678.851510
962.400814	2678.947292
962.700385	2678.458300
962.999918	2674.851354
963.299414	2675.186591
963.598873	2675.700789
963.898293	2673.336487
964.197677	2677.442507
964.497022	2678.440656
964.796331	2678.148269
965.095601	2679.143897
965.394835	2676.240192
965.694030	2677.515604
965.993189	2675.022753
966.292309	2677.931499
966.591393	2678.024761
966.890439	2677.631551
967.189447	2677.787826
967.488419	2677.828156
967.787353	2677.697086
968.086249	2677.818073
968.385108	2678.067610
968.683930	2675.826817
968.982714	2678.244051
969.281462	2675.315140
969.580172	2677.021571
969.878844	2676.575429
970.177480	2679.151458
970.476078	2676.416632
970.774639	2676.835048
971.073162	2676.320851
971.371649	2677.132476
971.670098	2678.594411
971.968510	2677.031653
972.266885	2677.203052
972.565223	2676.724143
972.863524	2677.671880
973.161788	2675.708350
973.460014	2676.053669
973.758204	2677.349246
974.056356	2678.198680
974.354471	2675.431087
974.652550	2676.676252
974.950591	2675.857064
975.248595	2677.901252
975.546563	2676.235151
975.844493	2678.470903
976.142386	2679.060718
976.440243	2676.958557
976.738062	2675.471416
977.035845	2675.668021
977.333590	2677.122394
977.631299	2676.416632
977.928971	2674.811025
978.226606	2673.097033
978.524204	2672.875222
978.821765	2671.443534
979.119290	2673.843123
979.416777	2674.967301
979.714228	2674.052331
980.011642	2673.606189
980.309020	2673.979235
980.606360	2673.752383
980.903664	2676.068793
981.200931	2674.369924
981.498162	2674.475788
981.795356	2676.454441
982.092513	2678.352436
982.389633	2679.668177
982.686717	2685.730164
982.983764	2685.223528
983.280775	2689.788293
983.577749	2690.277285
983.874686	2692.926411
984.171587	2690.184024
984.468451	2686.577078
984.765279	2684.744619
985.062070	2683.272602
985.358824	2678.864113
985.655543	2678.939730
985.952224	2677.775223
986.248869	2678.518794
986.545478	2675.899914
986.842050	2674.932013
987.138586	2675.741118
987.435086	2674.581652
987.731549	2672.156857
988.027975	2674.611899
988.324366	2670.231137
988.620719	2672.234995
988.917037	2672.098884
989.213318	2670.964625
989.509563	2671.120900
989.805772	2672.010664
990.101944	2672.224913
990.398080	2671.211641
990.694180	2671.632577
990.990244	2670.324398
991.286271	2670.768020
991.582262	2671.020077
991.878217	2671.080571
992.174136	2670.644511
992.470019	2670.110149
992.765865	2670.422701
993.061676	2668.484377
993.357450	2668.847340
993.653188	2668.222237
993.948890	2670.972186
994.244556	2672.913031
994.540186	2670.132834
994.835780	2671.640139
995.131337	2673.402022
995.426859	2672.529903
995.722345	2674.138031
996.017795	2676.197342
996.313208	2676.245233
996.608586	2676.565347
996.903928	2674.795902
997.199234	2676.630882
997.494504	2677.709688
997.789738	2677.145079
998.084936	2674.727846
998.380099	2675.234482
998.675225	2675.398319
998.970316	2672.136693
999.265371	2672.731549
999.560390	2672.222392
999.855373	2670.810869
1000.150320	2673.346570
1000.445232	2670.609223
1000.740108	2669.490087
1001.034948	2672.255160
1001.329752	2671.793894
1001.624521	2672.078720
1001.919254	2668.491939
1002.213951	2670.634429
1002.508613	2671.637619
1002.803239	2668.333142
1003.097829	2666.288954
1003.392384	2671.075530
1003.686903	2670.059737
1003.981386	2670.490756
1004.275834	2668.801970
1004.570246	2668.920437
1004.864623	2671.171312
1005.158964	2669.248112
1005.453270	2669.427073
1005.747540	2671.264573
1006.041775	2669.593431
1006.335974	2666.432627
1006.630138	2668.151661
1006.924266	2671.448575
1007.218359	2668.282731
1007.512416	2668.542350
1007.806438	2664.461536
1008.100425	2665.341217
1008.394376	2662.266114
1008.688292	2668.786846
1008.982172	2667.917247
1009.276017	2669.505211
1009.569827	2669.961435
1009.863602	2668.512103
1010.157341	2668.431445
1010.451045	2666.944304
1010.744714	2669.003616
1011.038347	2670.384892
1011.331945	2668.554953
1011.625508	2669.172494
1011.919036	2668.870025
1012.212528	2669.081754
1012.505986	2667.150992
1012.799408	2668.504542
1013.092795	2667.982782
1013.386147	2669.139727
1013.679464	2668.867505
1013.972745	2671.632577
1014.265992	2668.998575
1014.559204	2667.302226
1014.852380	2666.442710
1015.145521	2666.805673
1015.438628	2670.289110
1015.731699	2669.734583
1016.024736	2666.866167
1016.317737	2667.027483
1016.610703	2666.800632
1016.903635	2668.754079
1017.196531	2666.016732
1017.489393	2665.885662
1017.782219	2668.456651
1018.075011	2667.458502
1018.367768	2667.957576
1018.660490	2666.309119
1018.953177	2666.309119
1019.245829	2666.309119
