Dividing Wavelength (nm)	Counts (n)	Blue Motor Position (mm): 35.100000	Red Motor Position (mm): 0.000000	
326.493990	2227.254866
326.888308	2227.254866
327.282561	2227.254866
327.676750	2188.858918
328.070874	2184.909174
328.464933	2186.865141
328.858929	2191.203054
329.252859	2193.688343
329.646726	2204.269725
330.040528	2216.134081
330.434265	2229.261245
330.827938	2246.943092
331.221547	2264.201483
331.615091	2281.923659
332.008571	2299.237502
332.401986	2317.438588
332.795338	2335.798470
333.188625	2355.360668
333.581847	2374.643081
333.975006	2397.252656
334.368100	2414.029616
334.761129	2431.900506
335.154095	2448.052363
335.546996	2477.091930
335.939833	2512.644668
336.332606	2527.833664
336.725315	2542.054759
337.117960	2554.244269
337.510540	2567.121897
337.903056	2576.642116
338.295508	2586.497571
338.687896	2595.773294
339.080220	2603.788729
339.472480	2610.516149
339.864676	2614.816253
340.256807	2621.241204
340.648875	2622.123406
341.040879	2626.771349
341.432818	2627.146915
341.824694	2630.393418
342.216506	2635.689151
342.608253	2634.938019
342.999937	2634.002885
343.391557	2635.923564
343.783113	2633.231588
344.174605	2631.444499
344.566033	2629.314612
344.957397	2631.744448
345.348697	2629.291926
345.739934	2627.681278
346.131106	2626.932666
346.522215	2622.655247
346.913260	2621.097531
347.304241	2622.148611
347.695159	2618.410596
348.086012	2618.105606
348.476802	2615.156531
348.867528	2611.463886
349.258191	2607.488936
349.648789	2607.972887
350.039324	2606.299224
350.429796	2607.161261
350.820203	2605.873246
351.210548	2606.944491
351.600828	2601.371496
351.991045	2603.471136
352.381198	2600.910230
352.771288	2601.898296
353.161314	2602.026846
353.551276	2601.482401
353.941175	2597.399067
354.331010	2600.358224
354.720782	2597.305805
355.110490	2597.739344
355.500135	2599.183635
355.889717	2600.590117
356.279235	2598.316557
356.668689	2604.383585
357.058080	2598.583738
357.447408	2601.099273
357.836672	2603.186311
358.225873	2600.040631
358.615010	2603.304778
359.004084	2600.751434
359.393095	2601.051382
359.782043	2603.640015
360.170927	2602.800663
360.559748	2604.922989
360.948505	2601.769747
361.337199	2606.455499
361.725830	2605.613627
362.114398	2606.369800
362.502903	2606.934409
362.891344	2606.422732
363.279722	2606.420211
363.668037	2606.117742
364.056289	2607.158740
364.444478	2610.105295
364.832603	2610.705192
365.220665	2612.222579
365.608665	2612.552775
365.996601	2609.099585
366.384474	2607.826693
366.772284	2612.265429
367.160031	2611.466406
367.547715	2614.302055
367.935336	2612.005810
368.322893	2609.389451
368.710388	2607.569594
369.097820	2611.841972
369.485189	2611.816767
369.872495	2613.898763
370.259738	2614.438167
370.646918	2615.373301
371.034035	2616.152159
371.421090	2615.494288
371.808081	2616.489916
372.195010	2616.394134
372.581875	2618.561830
372.968678	2617.508229
373.355418	2618.430760
373.742096	2618.826491
374.128710	2617.147787
374.515262	2619.134001
374.901751	2618.642489
375.288177	2618.445884
375.674540	2618.876902
376.060841	2621.089969
376.447079	2619.456635
376.833254	2620.941255
377.219367	2621.760442
377.605417	2620.510236
377.991404	2621.160545
378.377329	2623.282871
378.763191	2624.117182
379.148991	2624.659106
379.534727	2624.974178
379.920402	2623.217336
380.306013	2626.352934
380.691563	2624.354116
381.077049	2624.286061
381.462474	2625.463170
381.847835	2625.432923
382.233134	2626.357975
382.618371	2624.951493
383.003545	2627.033489
383.388657	2628.913840
383.773706	2628.465177
384.158693	2628.785290
384.543618	2631.343676
384.928480	2629.155815
385.313280	2630.355610
385.698017	2634.698564
386.082692	2631.079015
386.467305	2632.805611
386.851856	2633.629839
387.236344	2632.704787
387.620770	2632.268728
388.005133	2633.486166
388.389435	2633.828965
388.773674	2630.932822
389.157851	2636.125210
389.541965	2636.341980
389.926018	2636.969604
390.310008	2637.607310
390.693936	2637.536733
391.077802	2640.745428
391.461606	2639.858185
391.845348	2641.252064
392.229027	2642.008237
392.612645	2645.595018
392.996200	2644.433032
393.379694	2645.189205
393.763125	2643.286169
394.146494	2645.206849
394.529801	2644.808598
394.913047	2649.474186
395.296230	2646.736839
395.679351	2646.971253
396.062410	2651.231028
396.445408	2648.619710
396.828343	2652.241779
397.211217	2651.021820
397.594028	2649.819505
397.976778	2653.459218
398.359466	2653.287819
398.742092	2654.021307
399.124656	2652.640030
399.507158	2655.105155
399.889598	2654.462407
400.271977	2657.393838
400.654294	2656.529281
401.036549	2659.001967
401.418742	2662.001453
401.800874	2662.591268
402.182944	2666.296516
402.564952	2667.594613
402.946898	2671.294820
403.328783	2677.455110
403.710606	2681.230934
404.092367	2691.996318
404.474067	2697.730631
404.855705	2708.155737
405.237282	2720.990515
405.618797	2740.459451
406.000250	2760.051895
406.381642	2790.472738
406.762972	2814.040132
407.144240	2845.275122
407.525447	2881.158055
407.906593	2920.156421
408.287677	2978.154896
408.668700	3017.972450
409.049661	3085.929724
409.430560	3143.519866
409.811399	3189.089376
410.192176	3287.162503
410.572891	3360.070191
410.953545	3470.005153
411.334138	3489.731188
411.714669	3602.204372
412.095139	3627.972230
412.475547	3770.140330
412.855894	3869.801421
413.236180	4007.571114
413.616405	3996.135257
413.996568	4153.789782
414.376670	4251.409205
414.756711	4303.708656
415.136691	4424.303138
415.516609	4599.253862
415.896466	4690.042522
416.276262	4871.579513
416.655997	4956.235610
417.035670	5149.384899
417.415283	5419.184932
417.794834	5539.663468
418.174324	5573.136729
418.553753	5630.242920
418.933121	5925.193270
419.312428	6080.218833
419.691674	6043.118461
420.070859	6445.198371
420.449983	6342.373956
420.829045	6681.923394
421.208047	6622.047089
421.586988	6932.730880
421.965867	7025.619181
422.344686	7203.239196
422.723444	7317.368398
423.102141	6912.286481
423.480777	7574.994045
423.859352	7262.119873
424.237866	7864.240329
424.616319	7821.486303
424.994712	8228.183911
425.373044	7947.976415
425.751314	8396.767657
426.129524	8338.133997
426.507673	8525.470835
426.885762	8717.349753
427.263789	8687.080145
427.641756	8658.325404
428.019662	8802.086508
428.397508	9060.874141
428.775292	8816.675608
429.153016	9210.460299
429.530679	9081.159744
429.908282	9164.129575
430.285824	8919.197553
430.663305	9602.644424
431.040726	9091.683153
431.418086	9104.553219
431.795385	9437.100494
432.172624	9528.236994
432.549802	9470.535947
432.926920	9567.822654
433.303977	9452.196229
433.680974	9674.435496
434.057910	9754.940203
434.434786	9830.736471
434.811601	9693.135657
435.188355	10261.500547
435.565050	9995.390638
435.941683	9931.143653
436.318257	10435.425396
436.694770	10546.076202
437.071222	10628.549479
437.447614	10485.615123
437.823946	10367.556342
438.200218	10533.538852
438.576429	10335.353451
438.952580	10580.053579
439.328670	10642.848712
439.704700	10423.480382
440.080670	10413.594679
440.456580	10977.324228
440.832429	10729.823739
441.208218	10331.663326
441.583947	10669.440798
441.959616	10808.279217
442.335224	10606.234812
442.710773	10764.274985
443.086261	10959.571805
443.461689	10256.897973
443.837057	10887.223686
444.212365	11181.269148
444.587612	10817.318005
444.962800	11058.108719
445.337927	10830.669501
445.712995	10404.195448
446.088002	11497.498209
446.462949	11151.223872
446.837837	11120.215734
447.212664	11121.665066
447.587431	11627.701130
447.962139	12329.782626
448.336786	14583.957254
448.711374	15154.147042
449.085901	13011.633972
449.460369	12623.838171
449.834776	12066.082389
450.209124	12936.014144
450.583412	13337.698323
450.957640	14287.991112
451.331808	13459.908496
451.705917	12431.218203
452.079965	11746.775705
452.453954	12645.449598
452.827883	12273.359512
453.201752	12559.626474
453.575562	12078.632342
453.949311	12496.037360
454.323001	12448.602623
454.696632	12677.057632
455.070202	12963.553967
455.443713	13216.438409
455.817164	13665.491791
456.190556	13670.164940
456.563888	14030.466288
456.937160	14201.411815
457.310373	13542.076783
457.683526	13615.246610
458.056619	13167.645081
458.429653	13305.558447
458.802628	12756.027307
459.175542	13121.599182
459.548398	14067.407863
459.921194	14398.190735
460.293930	14460.726248
460.666607	15342.807183
461.039224	16388.347532
461.411782	17081.218840
461.784280	16967.571068
462.156719	17011.529930
462.529099	16702.983588
462.901419	15631.877027
463.273680	15427.090235
463.645882	15279.628923
464.018024	15028.708011
464.390106	15239.370268
464.762130	15968.159797
465.134094	16727.319758
465.505999	18708.732674
465.877845	21969.156898
466.249631	24789.755571
466.621358	24492.443441
466.993026	23046.673285
467.364634	22498.276405
467.736184	21034.789115
468.107674	20231.599716
468.479105	20362.636949
468.850477	19819.480348
469.221790	19411.214942
469.593043	18739.995390
469.964238	18170.581940
470.335373	17825.530082
470.706449	18267.954347
471.077467	17821.028332
471.448425	19646.949378
471.819324	23677.820706
472.190164	25708.049635
472.560945	22173.074091
472.931667	19783.635224
473.302330	19145.077307
473.672934	18671.012241
474.043479	18996.078444
474.413965	18813.039189
474.784393	18438.549513
475.154761	19127.554257
475.525070	19129.719432
475.895321	18799.407909
476.265513	19366.245329
476.635645	19954.888261
477.005719	19739.326002
477.375734	19928.923798
477.745691	20408.687889
478.115588	20927.999832
478.485427	21442.058893
478.855207	22503.309998
479.224928	24261.505663
479.594591	26486.958316
479.964194	26534.438424
480.333739	26738.441317
480.703226	26299.878576
481.072653	25976.667518
481.442022	26557.731075
481.811333	27457.060318
482.180584	27383.681283
482.549777	26430.751971
482.918912	26076.880615
483.287988	26200.275459
483.657005	25878.738063
484.025964	25606.866116
484.394864	25546.886468
484.763706	25225.543157
485.132489	24651.363295
485.501213	24822.752444
485.869879	24749.549849
486.238487	24552.702873
486.607036	24709.480237
486.975527	24403.446911
487.343959	24727.663679
487.712333	24662.549616
488.080648	24328.356404
488.448905	24815.331865
488.817104	24554.313522
489.185244	25243.136784
489.553326	25215.286929
489.921350	26202.163371
490.289315	28473.251069
490.657222	30265.572826
491.025070	30773.227100
491.392861	30545.369467
491.760593	29705.425016
492.128267	28797.729978
492.495883	27750.513445
492.863440	26872.876287
493.230939	26005.727249
493.598380	25846.043660
493.965763	25462.532840
494.333088	25003.437480
494.700354	24943.702328
495.067563	24804.117819
495.434713	24553.073398
495.801805	24713.457708
496.168839	24527.807135
496.535815	24355.021587
496.902733	24576.736574
497.269593	24243.218877
497.636395	24435.304483
498.003139	24396.999275
498.369825	24140.225583
498.736453	24341.612118
499.103023	24227.697164
499.469535	24228.407967
499.835989	24445.674136
500.202385	24474.575071
500.568723	23986.732531
500.935003	24220.299271
501.301226	23847.758002
501.667390	24687.147926
502.033497	24913.518419
502.399546	24646.813654
502.765537	24206.667991
503.131470	24590.934984
503.497345	24719.002977
503.863163	23944.643938
504.228923	24551.553490
504.594625	24749.136474
504.960269	24274.688280
505.325856	24772.855103
505.691385	24172.022661
506.056856	24782.266937
506.422270	24747.833336
506.787625	24319.178983
507.152924	24733.584515
507.518164	24759.932105
507.883347	24578.632048
508.248472	24262.627319
508.613540	25038.501226
508.978550	24826.629091
509.343503	24825.504914
509.708398	25060.526027
510.073236	25229.019032
510.438016	25441.007113
510.802738	25122.698577
511.167403	25367.262594
511.532010	25077.325672
511.896561	25846.696490
512.261053	25803.161085
512.625488	25648.939586
512.989866	25536.010178
513.354186	25378.262392
513.718449	25492.966286
514.082655	25867.012340
514.446803	25614.165707
514.810894	26085.621976
515.174927	25563.862553
515.538904	25594.850526
515.902822	26091.212616
516.266684	25830.174108
516.630488	25748.837611
516.994235	25719.238476
517.357925	26025.569231
517.721558	26207.552364
518.085133	26305.033156
518.448651	26208.351387
518.812112	25947.353208
519.175516	26170.278073
519.538863	26298.436806
519.902152	26093.639931
520.265385	26376.415895
520.628560	26168.566601
520.991678	26172.002147
521.354739	26237.637970
521.717743	26315.584291
522.080690	26098.885252
522.443580	26434.684071
522.806413	26416.460300
523.169189	26517.926124
523.531908	26563.092342
523.894569	26175.309144
524.257174	26256.312925
524.619722	26424.473214
524.982213	26117.388807
525.344647	26171.306468
525.707025	26326.548801
526.069345	26296.879090
526.431608	26258.931804
526.793815	26442.843179
527.155964	25915.830873
527.518057	26085.894198
527.880093	26004.840006
528.242072	26224.208337
528.603995	25939.952795
528.965860	25743.945171
529.327669	25781.015296
529.689421	25777.594873
530.051117	25614.284174
530.412755	25790.449816
530.774337	25574.648102
531.135862	25458.830113
531.497331	25655.732541
531.858743	25221.540481
532.220098	25694.304929
532.581396	25377.554110
532.942638	25302.052749
533.303824	25400.758541
533.664953	25406.291207
534.026025	25071.109929
534.387040	25317.319883
534.747999	25373.604366
535.108902	25537.262905
535.469748	25022.921540
535.830537	25209.910539
536.191270	25338.099519
536.551947	25198.711615
536.912567	24837.069321
537.273131	25205.164292
537.633638	24900.555092
537.994089	25122.214626
538.354483	24653.720035
538.714821	25160.469422
539.075103	25200.218920
539.435328	24970.556554
539.795497	24545.453694
540.155609	24917.856332
540.515665	25241.402627
540.875665	24462.244409
541.235609	24773.742346
541.595496	24717.228491
541.955328	25081.819861
542.315102	24998.746686
542.674821	24534.615213
543.034483	24421.055661
543.394090	24604.838487
543.753640	24393.606579
544.113134	25012.947617
544.472571	24614.477173
544.831953	24907.249744
545.191278	24537.599577
545.550548	24443.932418
545.909761	24647.705938
546.268918	24865.413208
546.628019	24846.403017
546.987064	24536.805595
547.346053	24290.608244
547.704986	24416.233798
548.063863	24579.458797
548.422684	24588.500107
548.781449	24110.129895
549.140158	24519.136351
549.498811	24088.614250
549.857408	23840.798689
550.215949	24254.773202
550.574434	23946.909936
550.932864	24168.541745
551.291237	24320.141844
551.649555	24180.859804
552.007817	24243.312138
552.366022	24092.188428
552.724173	24137.004286
553.082267	24092.901752
553.440305	24560.292331
553.798288	23815.161901
554.156215	24335.693803
554.514086	24433.459420
554.871902	23803.436177
555.229661	24095.876032
555.587365	23951.915802
555.945014	23835.351722
556.302606	24058.644591
556.660143	24014.267313
557.017625	24256.096505
557.375050	23789.799856
557.732421	24182.402397
558.089735	23999.713502
558.446994	24055.526637
558.804197	24084.089815
559.161345	24019.999105
559.518437	23784.667962
559.875474	23986.057017
560.232455	24160.745600
560.589381	23980.529391
560.946251	23968.909532
561.303065	24278.532160
561.659825	24377.976481
562.016528	23968.796106
562.373177	23705.761301
562.729770	24067.063318
563.086307	23926.596607
563.442789	24100.765952
563.799216	23929.288583
564.155587	23940.371560
564.511904	23921.694085
564.868164	23856.232182
565.224370	23829.292255
565.580520	23757.201235
565.936615	23879.734041
566.292654	23562.093458
566.648638	23852.824362
567.004567	23677.916488
567.360441	23636.894098
567.716260	23365.674980
568.072023	23678.624770
568.427732	23447.669348
568.783385	23220.000758
569.138982	23462.215597
569.494525	23496.482840
569.850013	23244.157967
570.205445	23349.515562
570.560823	23153.409636
570.916145	22905.465525
571.271412	23093.757662
571.626625	22842.612419
571.981782	22950.374644
572.336884	22757.573195
572.691931	22899.612745
573.046923	22635.418475
573.401860	22512.850381
573.756743	22530.585160
574.111570	22425.283018
574.466342	22343.878466
574.821059	22437.107045
575.175722	22153.476606
575.530330	22140.830871
575.884882	22155.339312
576.239380	22059.161658
576.593823	21960.591977
576.948211	21936.780087
577.302544	21771.074840
577.656823	21638.099283
578.011047	21748.198083
578.365216	21622.307869
578.719330	21491.434474
579.073389	21382.719471
579.427394	21533.661699
579.781344	21303.495218
580.135239	21188.720747
580.489080	21147.287504
580.842866	20932.514185
581.196597	21118.235334
581.550273	21095.378743
581.903895	20977.254426
582.257463	21298.917850
582.610975	20820.459418
582.964434	21152.618524
583.317837	20824.149542
583.671186	20908.293962
584.024481	20900.240718
584.377721	20664.791107
584.730906	20742.664332
585.084037	20747.992831
585.437113	20665.353196
585.790135	20857.716065
586.143103	20328.047072
586.496016	20339.253557
586.848874	20586.222204
587.201679	20503.559884
587.554428	20190.733603
587.907124	20517.203767
588.259765	20285.270361
588.612352	20369.807990
588.964884	19936.165416
589.317362	20113.261150
589.669786	20152.269599
590.022155	20191.981288
590.374470	20403.777805
590.726731	20174.251550
591.078937	19959.609302
591.431090	20047.320338
591.783188	19796.280958
592.135232	19766.669221
592.487222	19869.544047
592.839157	19886.656244
593.191038	19769.446896
593.542866	19655.451284
593.894639	19360.286686
594.246358	19589.840667
594.598022	19490.388784
594.949633	19237.007789
595.301190	19207.580053
595.652692	19369.731287
596.004141	19608.341702
596.355535	18934.919165
596.706876	18951.577658
597.058162	18837.763528
597.409395	19074.241534
597.760573	19140.875506
598.111698	18919.586496
598.462768	18858.575931
598.813785	18821.354572
599.164748	18639.890678
599.515657	18687.159057
599.866511	18480.456625
600.217312	18827.146858
600.568060	18352.766719
600.918753	18658.237957
601.269392	18562.445952
601.619978	18350.220936
601.970510	18560.071568
602.320988	18498.009923
602.671412	18702.108598
603.021783	18618.342265
603.372100	18339.568978
603.722363	18488.247729
604.072572	18421.202903
604.422728	18580.452953
604.772830	18328.735539
605.122878	18281.270555
605.472872	18267.001569
605.822813	18258.469416
606.172701	18227.259632
606.522534	18425.364376
606.872314	18444.203168
607.222041	18276.504144
607.571714	18496.890787
607.921333	18325.529365
608.270899	18401.555006
608.620411	18577.634948
608.969870	18347.047530
609.319276	18343.019648
609.668627	18378.600112
610.017926	18510.643055
610.367171	18627.764182
610.716362	18674.309155
611.065500	18483.156163
611.414585	18628.767372
611.763616	18610.437736
612.112594	18549.144867
612.461518	18520.276700
612.810389	18703.099185
613.159207	18570.610100
613.507971	18484.774374
613.856682	18751.821937
614.205340	18682.672430
614.553945	18833.440738
614.902496	18578.065967
615.250994	18798.162744
615.599439	18754.917205
615.947830	18730.573473
616.296169	18795.881622
616.644454	18751.310260
616.992686	18716.727944
617.340864	18938.470658
617.688990	18682.974899
618.037063	18856.022587
618.385082	18714.421617
618.733048	18990.008894
619.080961	18864.285038
619.428821	18896.301406
619.776628	18784.337379
620.124382	18705.070276
620.472083	18756.979037
620.819731	18777.541904
621.167326	18464.166137
621.514868	18503.202312
621.862357	18288.436555
622.209793	18288.791956
622.557176	18123.550495
622.904506	17953.618240
623.251783	17865.266978
623.599007	17616.435624
623.946179	17561.915545
624.293297	17506.362029
624.640363	17252.570180
624.987376	17277.667565
625.334336	17064.121767
625.681243	16911.536123
626.028097	16933.124864
626.374899	16857.797423
626.721647	16708.541460
627.068343	16549.906431
627.414987	16486.697923
627.761577	16460.904860
628.108115	16488.726988
628.454600	16210.999740
628.801032	16311.507745
629.147412	16250.124135
629.493739	16265.482010
629.840014	16067.248718
630.186236	16167.391239
630.532405	15928.942141
630.878521	16130.520239
631.224585	16023.983015
631.570597	15841.750344
631.916556	15874.069182
632.262462	15862.948396
632.608316	15765.681853
632.954117	15718.685697
633.299866	15703.027873
633.645562	15628.403672
633.991206	15382.965015
634.336797	15250.854017
634.682336	15224.708072
635.027823	15107.143323
635.373257	14989.946579
635.718639	14897.874945
636.063968	14829.453884
636.409245	14580.007510
636.754470	14615.081338
637.099642	14464.292864
637.444762	14231.373913
637.789829	14276.121715
638.134845	14114.441829
638.479808	14141.006189
638.824719	14083.418568
639.169577	13942.823308
639.514383	13985.332837
639.859137	13807.780878
640.203839	13889.636614
640.548489	13728.886821
640.893086	13720.105131
641.237632	13593.821706
641.582125	13744.907608
641.926566	13563.589907
642.270955	13581.448194
642.615292	13542.500240
642.959576	13547.241445
643.303809	13582.224532
643.647990	13514.942772
643.992118	13583.265530
644.336195	13346.853059
644.680219	13557.709401
645.024192	13485.169717
645.368112	13721.095717
645.711981	13775.431794
646.055797	13956.752016
646.399562	13935.463223
646.743274	14193.986195
647.086935	14467.221775
647.430544	14434.403863
647.774101	14459.942349
648.117606	14607.885091
648.461059	14589.689046
648.804460	14576.178753
649.147810	14293.319611
649.491108	14205.621178
649.834354	14217.084762
650.177548	13904.692020
650.520690	13715.825191
650.863781	13643.192247
651.206820	13692.930791
651.549807	13510.095703
651.892742	13315.310559
652.235626	13249.319335
652.578458	13253.747988
652.921238	12943.341461
653.263967	13142.252789
653.606644	12963.450624
653.949269	12953.418727
654.291843	12747.875762
654.634365	12902.457703
654.976836	12756.198707
655.319255	12759.084767
655.661622	12712.474259
656.003938	12637.293011
656.346203	12565.108729
656.688416	12645.222746
657.030577	12598.022422
657.372687	12505.945748
657.714746	12496.838903
658.056753	12685.274713
658.398708	12493.569715
658.740612	12501.736384
659.082465	12602.279677
659.424266	12562.661249
659.766016	12587.065475
660.107715	12499.611538
660.449362	12581.936101
660.790958	12535.007999
661.132503	12472.079276
661.473996	12544.785317
661.815438	12563.903893
662.156829	12585.250659
662.498168	12563.966908
662.839456	12560.884242
663.180693	12578.926532
663.521879	12671.948423
663.863013	12647.294660
664.204097	12620.299281
664.545129	12747.480031
664.886110	12714.415103
665.227040	12802.279894
665.567918	12814.446719
665.908746	12839.097961
666.249522	12826.467350
666.590248	12869.226417
666.930922	12987.597751
667.271545	12975.262047
667.612118	13050.241649
667.952639	12945.146194
668.293109	12970.059576
668.633528	12918.705342
668.973896	12898.747414
669.314213	12978.768170
669.654480	12714.296636
669.994695	12792.895786
670.334859	12805.302066
670.674973	12760.942433
671.015035	12793.142803
671.355047	12730.254408
671.695008	12701.035881
672.034918	12710.432592
672.374777	12750.991195
672.714585	12664.709326
673.054342	12700.199049
673.394049	12646.208292
673.733705	12756.579314
674.073310	12659.131289
674.412864	12677.223991
674.752368	12535.756611
675.091820	12565.290211
675.431223	12547.094166
675.770574	12400.996486
676.109875	12335.116167
676.449125	12292.188222
676.788324	12238.235272
677.127473	12069.928790
677.466571	12062.147769
677.805619	11954.597272
678.144616	11880.210006
678.483562	11842.124088
678.822458	11716.609440
679.161303	11695.474403
679.500098	11680.066116
679.838842	11638.176648
680.177535	11661.807057
680.516179	11732.116029
680.854771	11677.996722
681.193314	11892.167623
681.531805	12050.532950
681.870247	12477.392652
682.208638	12888.471022
682.546978	13197.685317
682.885268	13240.462028
683.223508	12932.455089
683.561697	12769.101540
683.899836	12674.660564
684.237925	12479.167138
684.575963	12393.059189
684.913951	12305.716158
685.251889	12265.528079
685.589776	12364.947195
685.927614	12278.287240
686.265401	12251.828744
686.603137	12299.838173
686.940824	12460.250208
687.278460	12581.694125
687.616046	12620.863891
687.953582	12783.781380
688.291068	12721.311402
688.628504	12948.385135
688.965889	12960.612454
689.303224	12921.656938
689.640510	12818.298160
689.977745	12506.061694
690.314930	12280.275975
690.652065	12194.107532
690.989150	11888.699309
691.326185	11670.656802
691.663170	11467.775566
692.000105	11219.090405
692.336990	11108.663930
692.673825	10850.710608
693.010610	10739.873279
693.347345	10531.953410
693.684030	10338.345376
694.020665	10267.996074
694.357251	10075.439120
694.693786	10007.771712
695.030272	9850.772537
695.366707	9727.390297
695.703093	9665.714300
696.039429	9661.857817
696.375716	9582.257998
696.711952	9450.872926
697.048139	9495.240121
697.384276	9446.250188
697.720363	9463.133012
698.056400	9402.523220
698.392388	9347.188994
698.728326	9309.476123
699.064214	9252.248944
699.400053	9291.776631
699.735842	9104.853167
700.071581	9060.896826
700.407270	8993.277309
700.742910	8914.209332
701.078501	8821.719282
701.414042	8701.127320
701.749533	8629.197617
702.084974	8490.517995
702.420366	8604.183411
702.755709	8488.251996
703.091002	8353.842232
703.426246	8386.849187
703.761440	8334.532092
704.096584	8296.103376
704.431679	8220.294505
704.766725	8206.895118
705.101721	8157.327973
705.436668	8206.685910
705.771565	8098.122141
706.106413	8185.702107
706.441212	8226.540494
706.775961	8187.584978
707.110661	8219.109834
707.445311	8359.614353
707.779913	8258.723221
708.114465	8388.926142
708.448967	8421.912932
708.783421	8567.929953
709.117825	8755.990198
709.452180	8791.023696
709.786485	8872.282055
710.120742	9165.442795
710.454949	9160.825098
710.789107	9264.128423
711.123216	9482.254109
711.457275	9653.187033
711.791286	9800.799579
712.125247	9805.709663
712.459159	9787.080079
712.793023	10031.969251
713.126837	9612.492318
713.460602	9759.958671
713.794318	9589.189585
714.127985	9618.992886
714.461602	9288.169686
714.795171	9238.995751
715.128691	8989.710693
715.462162	8744.990400
715.795584	8684.320113
716.128957	8538.507259
716.462281	8374.059779
716.795556	8419.944362
717.128782	8219.639155
717.461960	7947.212680
717.795088	8015.608535
718.128167	7925.613857
718.461198	7754.222188
718.794180	7698.988786
719.127113	7686.781632
719.459997	7530.647015
719.792833	7302.600338
720.125619	7367.048969
720.458357	7224.507824
720.791046	7207.680452
721.123686	7209.601132
721.456278	7052.203706
721.788821	7069.509987
722.121315	6966.637681
722.453761	7036.865995
722.786158	6973.740667
723.118506	6988.155846
723.450805	6951.337779
723.783056	7018.659868
724.115259	6933.086282
724.447412	6923.223264
724.779518	6975.149669
725.111574	6975.056408
725.443582	7059.127731
725.775542	7039.074021
726.107453	7230.592497
726.439315	7138.775441
726.771129	7201.696603
727.102895	7373.451235
727.434612	7481.921742
727.766281	7519.430447
728.097901	7598.410205
728.429473	7593.573218
728.760996	7563.961480
729.092471	7547.613018
729.423897	7490.085891
729.755276	7500.074937
730.086606	7417.909171
730.417887	7527.236674
730.749120	7732.968683
731.080305	7917.573216
731.411442	8039.475878
731.742530	8033.749127
732.073570	8142.809450
732.404562	8221.927839
732.735506	8081.453566
733.066401	8215.737302
733.397249	8145.652660
733.728048	7900.650063
734.058798	7566.560195
734.389501	7340.557706
734.720156	7159.219840
735.050762	6930.376662
735.381320	6840.046746
735.711831	6781.592047
736.042293	6670.996693
736.372707	6693.102153
736.703073	6557.585855
737.033391	6594.005671
737.363661	6606.018741
737.693883	6640.366643
738.024056	6725.985599
738.354182	6762.365086
738.684260	6797.343132
739.014290	6916.200937
739.344272	7023.695981
739.674207	7055.399797
740.004093	7125.615509
740.333931	7141.406923
740.663722	7145.742316
740.993464	7223.693677
741.323159	7211.983077
741.652806	6959.643080
741.982405	6983.351627
742.311956	7032.817949
742.641460	6858.872935
742.970915	6672.788823
743.300323	6665.406054
743.629683	6613.948476
743.958996	6478.399411
744.288260	6391.031173
744.617477	6336.490930
744.946647	6338.827505
745.275768	6173.031516
745.604842	6126.998220
745.933869	6111.189162
746.262847	6073.297329
746.591778	6057.629422
746.920662	6016.798597
747.249498	6006.670919
747.578286	6058.186470
747.907027	6132.266226
748.235720	6194.103539
748.564365	6161.933416
748.892963	6194.927768
749.221514	6346.974009
749.550017	6171.433471
749.878473	6051.489297
750.206881	6107.446105
750.535242	6049.513165
750.863555	5981.268545
751.191821	5996.883519
751.520039	5999.971225
751.848210	5905.573099
752.176334	5933.627120
752.504411	5975.733358
752.832440	5903.380197
753.160421	5831.737839
753.488356	5878.156784
753.816243	5912.277834
754.144082	5759.881232
754.471875	5741.488583
754.799620	5779.398059
755.127318	5790.954905
755.454969	5744.649386
755.782572	5708.658068
756.110129	5755.102218
756.437638	5736.165124
756.765100	5678.464077
757.092515	5675.983829
757.419882	5731.799485
757.747203	5709.333583
758.074477	5774.220794
758.401703	5754.920737
758.728882	5708.403490
759.056014	5767.889105
759.383099	5892.856788
759.710138	5904.718623
760.037129	5894.807715
760.364073	5894.659001
760.690970	5981.737372
761.017820	5964.209280
761.344623	5921.112456
761.671379	6018.792373
761.998088	6144.571682
762.324751	6395.016205
762.651366	7008.287694
762.977935	8345.073145
763.304456	9984.635337
763.630931	10871.243228
763.957359	10449.361666
764.283740	9504.165484
764.610074	8653.337182
764.936362	7656.602764
765.262602	7055.417442
765.588796	6522.771647
765.914943	6188.190266
766.241044	6019.702302
766.567097	5814.900385
766.893104	5554.461775
767.219064	5384.474067
767.544978	5316.761289
767.870845	5237.310183
768.196665	5133.583402
768.522438	5061.759563
768.848165	5022.473851
769.173846	4956.654025
769.499479	4915.997120
769.825066	4861.857648
770.150607	4799.705262
770.476101	4775.853043
770.801548	4777.803969
771.126949	4698.597360
771.452303	4637.768277
771.777611	4603.228812
772.102872	4620.434270
772.428087	4582.013116
772.753256	4543.781005
773.078378	4496.517667
773.403453	4427.882357
773.728482	4411.420469
774.053465	4371.093759
774.378401	4355.125904
774.703291	4351.607179
775.028135	4276.614974
775.352932	4229.903643
775.677683	4217.983835
776.002388	4237.752719
776.327046	4248.886108
776.651658	4172.888193
776.976224	4111.111373
777.300743	4120.485399
777.625216	4139.195641
777.949643	4135.538284
778.274024	4086.699586
778.598359	4046.556877
778.922647	4070.343562
779.246889	4061.556831
779.571086	4056.873599
779.895236	4035.229405
780.219339	4026.853528
780.543397	4021.053680
780.867409	4071.775250
781.191374	4085.653546
781.515294	4020.005120
781.839167	4018.696941
782.162995	4037.835681
782.486776	4020.587373
782.810511	4034.962224
783.134201	4025.689021
783.457844	3978.581959
783.781441	3929.143363
784.104993	3934.134106
784.428498	3951.596662
784.751958	3948.077937
785.075372	3925.886778
785.398739	3891.579205
785.722061	3900.282757
786.045337	3944.191207
786.368568	3976.772185
786.691752	3892.680697
787.014891	3945.522072
787.337983	4072.047472
787.661030	4235.201896
787.984031	4396.417996
788.306987	4561.941762
788.629897	4649.975431
788.952760	4599.594140
789.275579	4535.831105
789.598351	4469.126557
789.921078	4321.773631
790.243759	4122.648054
790.566395	4106.899489
790.888984	4099.652830
791.211529	3994.910256
791.534027	3933.204013
791.856480	3922.219338
792.178888	3859.991335
792.501249	3813.711023
792.823566	3820.272084
793.145836	3852.777444
793.468062	3798.617808
793.790241	3751.193153
794.112375	3785.467958
794.434464	3847.098584
794.756507	3871.671689
795.078505	3851.426415
795.400457	3888.922517
795.722364	4028.101213
796.044226	4134.625835
796.366042	4202.157132
796.687812	4182.915048
797.009538	4188.707334
797.331218	4144.609840
797.652852	4121.607055
797.974442	4101.747430
798.295986	4102.097790
798.617484	4017.247609
798.938938	3930.678395
799.260346	3974.407884
799.581709	3967.451091
799.903026	3891.503588
800.224299	3856.885985
800.545526	3849.677135
800.866708	3811.087102
801.187845	3752.201384
801.508936	3785.306641
801.829983	3782.039973
802.150984	3705.268242
802.471940	3693.383721
802.792851	3708.799570
803.113717	3704.806976
803.434538	3706.047100
803.755314	3648.197339
804.076045	3625.975933
804.396731	3642.316833
804.717372	3668.717356
805.037967	3656.101868
805.358518	3643.211638
805.679024	3672.750279
805.999485	3684.596990
806.319901	3689.844831
806.640272	3698.679453
806.960598	3717.130077
807.280879	3689.638144
807.601115	3703.002243
807.921306	3721.934296
808.241453	3761.860235
808.561554	3734.204465
808.881611	3669.576872
809.201623	3708.005588
809.521590	3714.717884
809.841513	3690.933721
810.161390	3720.913463
810.481223	3699.864125
810.801011	3648.517452
811.120755	3638.147799
811.440453	3671.195083
811.760107	3673.713139
812.079716	3630.235708
812.399281	3603.046244
812.718801	3625.945686
813.038276	3596.442333
813.357707	3593.891509
813.677093	3609.524127
813.996434	3556.329872
814.315731	3568.138775
814.634983	3573.474836
814.954191	3586.896908
815.273354	3614.313223
815.592473	3605.778550
815.911547	3619.916466
816.230577	3660.674195
816.549562	3708.093808
816.868502	3754.038884
817.187399	3774.677368
817.506250	3773.170063
817.825058	3751.293976
818.143821	3843.693285
818.462539	3942.565435
818.781213	3990.300121
819.099843	4052.601221
819.418429	4304.316115
819.736970	4543.463412
820.055466	4796.252072
820.373919	5163.951313
820.692327	5574.868366
821.010691	6034.745105
821.329011	7457.532640
821.647286	10257.543241
821.965517	14894.686415
822.283704	18927.090253
822.601847	21034.784073
822.919945	19157.135747
823.237999	16552.948767
823.556010	14038.630437
823.873976	11924.337746
824.191897	9826.390997
824.509775	8472.934450
824.827609	7343.693304
825.145398	6808.368136
825.463144	6688.625608
825.780845	6804.942672
826.098502	7009.500092
826.416116	7913.908297
826.733685	9256.533925
827.051210	10362.510147
827.368692	10370.245797
827.686129	9074.142458
828.003522	7558.995943
828.320872	6542.583381
828.638177	5838.369477
828.955439	5272.197489
829.272656	4774.063433
829.589830	4493.966843
829.906960	4314.796674
830.224046	4126.633086
830.541088	4004.576669
830.858086	3956.829380
831.175041	3879.404819
831.491952	3862.804299
831.808819	3874.051113
832.125642	3949.224800
832.442421	4101.606278
832.759157	4383.593300
833.075849	4946.712870
833.392497	5830.543086
833.709101	6605.794409
834.025662	6930.999244
834.342179	6549.341048
834.658653	5876.803234
834.975083	5225.471034
835.291469	4643.845388
835.607811	4240.006115
835.924110	4095.362808
836.240366	3896.340575
836.556578	3693.106458
836.872746	3583.665528
837.188871	3538.683313
837.504952	3475.366420
837.820990	3390.266702
838.136984	3347.331195
838.452935	3372.405894
838.768842	3365.164277
839.084706	3388.794685
839.400526	3554.686456
839.716303	3899.788724
840.032037	4436.144808
840.347727	4689.021688
840.663373	4397.665681
840.978977	4013.945653
841.294537	3703.796225
841.610054	3476.349445
841.925527	3372.128631
842.240957	3300.614822
842.556344	3243.175915
842.871687	3184.630475
843.186987	3133.694657
843.502244	3097.915067
843.817458	3065.419790
844.132629	3034.852753
844.447756	3042.595966
844.762840	3023.900847
845.077881	2994.752895
845.392879	2977.108857
845.707833	2974.479895
846.022745	2972.597024
846.337613	2972.423104
846.652438	2961.072946
846.967221	2955.573047
847.281960	2946.927468
847.596656	2939.590069
847.911309	2941.137703
848.225919	2932.411466
848.540485	2927.614808
848.855009	2927.072884
849.169490	2918.984353
849.483928	2911.982190
849.798323	2908.395409
850.112675	2902.552712
850.426984	2915.758014
850.741251	2911.566295
851.055474	2906.326015
851.369654	2897.420817
851.683792	2904.299472
851.997887	2909.827097
852.311938	2916.068045
852.625947	2904.397774
852.939914	2904.420459
853.253837	2910.109401
853.567718	2894.033162
853.881555	2894.111300
854.195350	2908.929771
854.509103	2904.700243
854.822812	2897.652710
855.136479	2894.053326
855.450103	2898.424007
855.763685	2889.841442
856.077224	2887.711555
856.390720	2900.271590
856.704173	2909.874988
857.017584	2902.703946
857.330953	2900.755540
857.644278	2906.794843
857.957561	2918.114754
858.270802	2920.413520
858.584000	2917.071235
858.897155	2906.389030
859.210268	2905.489184
859.523339	2901.907444
859.836367	2902.981210
860.149352	2896.526012
860.462295	2894.166752
860.775195	2899.833009
861.088054	2902.187228
861.400869	2882.017572
861.713642	2883.114023
862.026373	2896.218502
862.339062	2900.165725
862.651708	2906.923392
862.964312	2907.873650
863.276873	2899.835530
863.589392	2910.807601
863.901869	2924.801844
864.214303	2945.909155
864.526696	2960.735189
864.839045	2957.095476
865.151353	2955.978860
865.463619	2951.739250
865.775842	2956.984570
866.088023	2974.908393
866.400162	2982.659167
866.712258	2948.611214
867.024313	2942.919751
867.336325	2950.025258
867.648296	2971.677013
867.960224	2964.717700
868.272110	2949.846297
868.583954	2956.563634
868.895755	2971.508135
869.207515	2956.374591
869.519233	2959.162349
869.830909	2971.422435
870.142542	2981.971049
870.454134	2980.337716
870.765684	2983.148159
871.077191	2982.696976
871.388657	2991.193840
871.700081	3007.098681
872.011463	3018.448839
872.322803	3017.128056
872.634101	3015.613190
872.945357	3034.225130
873.256571	3056.368398
873.567744	3049.756925
873.878874	3045.449259
874.189963	3065.699574
874.501010	3068.406673
874.812015	3057.500137
875.122979	3060.285374
875.433900	3057.237997
875.744780	3063.786456
876.055618	3069.871128
876.366415	3069.485480
876.677169	3078.224320
876.987882	3072.409349
877.298554	3070.166036
877.609183	3091.916094
877.919771	3115.750670
878.230317	3141.044659
878.540822	3194.473328
878.851285	3235.891448
879.161707	3279.752007
879.472087	3386.783265
879.782425	3618.588122
880.092722	4062.887695
880.402977	4604.166466
880.713191	5246.492645
881.023363	6425.852943
881.333494	7727.068012
881.643583	8258.874455
881.953631	7953.529246
882.263637	7306.802140
882.573602	6709.836263
882.883526	6123.734073
883.193408	5544.782759
883.503248	5083.186987
883.813048	4776.793218
884.122806	4466.356443
884.432522	4147.639574
884.742197	3909.250970
885.051831	3714.463306
885.361424	3582.228800
885.670975	3504.897500
885.980485	3419.187802
886.289954	3343.575535
886.599382	3297.995943
886.908768	3258.498502
887.218113	3209.470761
887.527417	3154.733912
887.836680	3107.009309
888.145901	3099.510592
888.455082	3087.197574
888.764221	3034.583052
889.073319	3006.755882
889.382376	3005.609020
889.691392	3010.463651
890.000366	3009.094978
890.309300	2994.571413
890.618193	3009.856192
890.927044	3026.187010
891.235855	3027.817823
891.544625	3012.028929
891.853353	3021.849097
892.162041	3040.118238
892.470687	3083.484764
892.779293	3135.718680
893.087858	3180.020340
893.396381	3256.597987
893.704864	3385.051629
894.013306	3626.505254
894.321707	3938.227522
894.630068	4136.410404
894.938387	4133.728510
895.246665	4085.512394
895.554903	3959.901963
895.863100	3761.277981
896.171256	3587.600149
896.479371	3444.900207
896.787446	3322.236331
897.095480	3217.004765
897.403473	3153.556803
897.711425	3118.934158
898.019336	3109.262705
898.327207	3075.834813
898.635038	3043.226110
898.942827	3027.772453
899.250576	3017.853983
899.558284	2985.658653
899.865952	2963.805252
900.173579	2943.927982
900.481165	2934.110335
900.788711	2921.177255
901.096216	2898.376116
901.403681	2888.923952
901.711105	2895.414438
902.018489	2891.779766
902.325832	2889.309601
902.633135	2900.836199
902.940397	2937.830706
903.247619	3021.765918
903.554800	3223.240672
903.861941	3574.646904
904.169041	4008.196217
904.476101	4309.876507
904.783121	4254.504474
905.090100	4002.814786
905.397039	3721.359605
905.703938	3473.723004
906.010796	3288.155611
906.317614	3177.461954
906.624391	3079.570308
906.931129	3008.270749
907.237826	2945.886470
907.544483	2896.334448
907.851099	2866.183307
908.157675	2844.145903
908.464211	2825.624704
908.770707	2813.425112
909.077163	2797.222843
909.383578	2782.054011
909.689954	2771.318874
909.996289	2772.468257
910.302584	2771.165119
910.608839	2771.628905
910.915054	2764.334356
911.221229	2758.181627
911.527363	2762.292688
911.833458	2769.889707
912.139513	2772.465737
912.445527	2776.473454
912.751502	2784.536780
913.057436	2793.426854
913.363331	2805.155099
913.669186	2832.337000
913.975000	2864.539891
914.280775	2925.487441
914.586510	2998.606857
914.892205	3081.410330
915.197859	3213.480999
915.503475	3408.724887
915.809050	3627.372332
916.114585	3775.819190
916.420081	3792.548259
916.725536	3729.145667
917.030952	3610.640743
917.336328	3476.387254
917.641665	3346.335567
917.946961	3245.462079
918.252218	3175.352232
918.557435	3092.616815
918.862612	3031.853267
919.167750	2983.112871
919.472848	2941.137703
919.777906	2915.258940
920.082925	2890.005280
920.387904	2858.646782
920.692843	2840.163392
920.997743	2828.808193
921.302603	2813.677169
921.607423	2808.693989
921.912204	2791.067594
922.216946	2781.103754
922.521647	2769.201590
922.826310	2764.087339
923.130932	2758.574837
923.435516	2746.297107
923.740059	2738.783267
924.044564	2732.622977
924.349028	2728.312791
924.653454	2722.432285
924.957840	2715.082282
925.262186	2710.948536
925.566493	2708.430480
925.870761	2702.194573
926.174989	2696.273737
926.479178	2690.869621
926.783328	2685.601615
927.087438	2686.246882
927.391509	2685.374763
927.695541	2680.807477
927.999533	2678.533917
928.303486	2675.746159
928.607400	2675.942764
928.911275	2677.445028
929.215110	2673.102074
929.518906	2670.122752
929.822663	2670.263904
930.126381	2672.837413
930.430060	2671.435972
930.733699	2672.678617
931.037299	2674.667352
931.340861	2676.008299
931.644383	2675.978052
931.947866	2673.649039
932.251309	2672.469409
932.554714	2673.200376
932.858080	2670.652073
933.161407	2671.345232
933.464694	2667.019922
933.767943	2663.423058
934.071153	2665.656290
934.374323	2664.814417
934.677455	2665.822648
934.980548	2664.269972
935.283602	2664.083450
935.586617	2662.394663
935.889593	2664.615291
936.192530	2663.113027
936.495428	2663.924653
936.798287	2668.033194
937.101108	2670.044614
937.403890	2675.073165
937.706632	2676.025943
938.009336	2685.573888
938.312002	2694.292564
938.614628	2703.802701
938.917216	2708.496015
939.219765	2708.737990
939.522275	2710.207487
939.824747	2707.044163
940.127179	2702.607947
940.429573	2702.532330
940.731929	2698.723738
941.034246	2694.075794
941.336524	2693.337265
941.638763	2690.867100
941.940964	2687.393745
942.243126	2685.795699
942.545250	2685.500792
942.847335	2681.064576
943.149381	2680.278156
943.451389	2676.015861
943.753359	2671.216682
944.055290	2667.851712
944.357182	2669.091836
944.659036	2667.226609
944.960851	2666.243584
945.262628	2663.750733
945.564367	2668.060920
945.866067	2664.978254
946.167729	2668.048317
946.469352	2666.871208
946.770937	2666.770385
947.072484	2664.675785
947.373992	2666.117555
947.675462	2664.821979
947.976893	2656.899805
948.278286	2657.910557
948.579641	2659.130516
948.880958	2658.462563
949.182236	2658.313849
949.483476	2659.367450
949.784678	2658.868376
950.085841	2654.033909
950.386967	2658.182779
950.688054	2659.218736
950.989103	2659.916936
951.290114	2660.506751
951.591087	2663.297030
951.892021	2665.119407
952.192917	2665.870539
952.493776	2667.425735
952.794596	2669.873215
953.095378	2668.146620
953.396122	2669.429593
953.696828	2666.225940
953.997496	2667.075374
954.298126	2663.491114
954.598718	2660.894920
954.899272	2659.909374
955.199788	2656.965340
955.500266	2654.722027
955.800706	2651.611635
956.101108	2649.474186
956.401472	2648.760862
956.701798	2643.908752
957.002087	2642.925727
957.302337	2643.109729
957.602550	2647.936634
957.902724	2638.958339
958.202861	2637.834162
958.502960	2638.378606
958.803022	2636.538585
959.103045	2638.020684
959.403031	2635.026239
959.702979	2633.597072
960.002889	2635.870632
960.302762	2633.521454
960.602596	2632.966927
960.902393	2633.730662
961.202153	2633.823924
961.501875	2632.452730
961.801559	2628.923922
962.101205	2631.656227
962.400814	2633.982720
962.700385	2630.912657
962.999918	2629.130609
963.299414	2625.538787
963.598873	2628.321504
963.898293	2624.323869
964.197677	2631.537760
964.497022	2630.393418
964.796331	2630.355610
965.095601	2631.628501
965.394835	2628.311422
965.694030	2629.642287
965.993189	2629.516258
966.292309	2630.098511
966.591393	2627.925774
966.890439	2626.297481
967.189447	2628.911319
967.488419	2627.703963
967.787353	2628.286216
968.086249	2628.245887
968.385108	2629.412914
968.683930	2629.727986
968.982714	2629.206227
969.281462	2630.088429
969.580172	2627.177162
969.878844	2627.797224
970.177480	2628.563480
970.476078	2628.470218
970.774639	2627.560290
971.073162	2629.188583
971.371649	2630.063223
971.670098	2629.143212
971.968510	2626.854528
972.266885	2628.863428
972.565223	2628.024076
972.863524	2630.632873
973.161788	2629.216309
973.460014	2630.693367
973.758204	2629.967441
974.056356	2631.361320
974.354471	2627.225053
974.652550	2629.223871
974.950591	2628.770167
975.248595	2631.603295
975.546563	2629.206227
975.844493	2630.337966
976.142386	2630.232102
976.440243	2626.499127
976.738062	2628.480301
977.035845	2626.368057
977.333590	2626.224384
977.631299	2627.610702
977.928971	2625.075001
978.226606	2626.678088
978.524204	2626.224384
978.821765	2622.952675
979.119290	2626.713376
979.416777	2625.193468
979.714228	2626.703294
980.011642	2626.917543
980.309020	2630.095990
980.606360	2626.867131
980.903664	2627.978706
981.200931	2626.388222
981.498162	2629.133130
981.795356	2628.828140
982.092513	2630.834519
982.389633	2632.152781
982.686717	2639.502783
982.983764	2639.457413
983.280775	2644.022178
983.577749	2644.168371
983.874686	2644.727939
984.171587	2639.787609
984.468451	2641.098309
984.765279	2635.852988
985.062070	2635.661424
985.358824	2634.088584
985.655543	2632.021711
985.952224	2633.516413
986.248869	2630.388377
986.545478	2627.739251
986.842050	2625.354785
987.138586	2627.648510
987.435086	2623.938221
987.731549	2624.341513
988.027975	2622.965278
988.324366	2621.785648
988.620719	2624.444857
988.917037	2623.446708
989.213318	2623.151801
989.509563	2621.926801
989.805772	2625.843777
990.101944	2622.592233
990.398080	2624.028962
990.694180	2622.317490
990.990244	2621.394959
991.286271	2620.812706
991.582262	2621.911677
991.878217	2623.287912
992.174136	2624.389404
992.470019	2622.929990
992.765865	2619.827160
993.061676	2621.498302
993.357450	2623.648355
993.653188	2620.212808
993.948890	2625.150618
994.244556	2622.655247
994.540186	2626.284878
994.835780	2623.915536
995.131337	2626.272275
995.426859	2626.433592
995.722345	2625.972327
996.017795	2625.828654
996.313208	2625.324538
996.608586	2629.067595
996.903928	2626.345372
997.199234	2627.668675
997.494504	2625.924436
997.789738	2628.462657
998.084936	2625.596761
998.380099	2626.045423
998.675225	2625.576596
998.970316	2624.772532
999.265371	2622.677932
999.560390	2627.396452
999.855373	2623.116513
1000.150320	2622.340175
1000.445232	2621.669702
1000.740108	2623.406379
1001.034948	2625.742954
1001.329752	2623.416462
1001.624521	2620.454784
1001.919254	2621.589043
1002.213951	2621.883951
1002.508613	2620.290946
1002.803239	2623.164404
1003.097829	2620.996708
1003.392384	2623.766822
1003.686903	2622.493930
1003.981386	2621.009311
1004.275834	2620.739609
1004.570246	2620.311111
1004.864623	2621.551235
1005.158964	2620.343878
1005.453270	2622.541821
1005.747540	2622.246914
1006.041775	2618.546707
1006.335974	2621.513426
1006.630138	2620.522839
1006.924266	2621.405041
1007.218359	2620.006121
1007.512416	2617.558641
1007.806438	2620.459825
1008.100425	2618.957561
1008.394376	2617.336830
1008.688292	2619.630555
1008.982172	2621.478138
1009.276017	2620.585854
1009.569827	2621.193313
1009.863602	2623.217336
1010.157341	2621.702469
1010.451045	2619.945627
1010.744714	2620.243055
1011.038347	2620.921090
1011.331945	2618.866820
1011.625508	2621.548714
1011.919036	2618.292129
1012.212528	2618.960082
1012.505986	2621.377315
1012.799408	2621.405041
1013.092795	2619.277674
1013.386147	2616.394134
1013.679464	2618.914711
1013.972745	2618.153497
1014.265992	2622.118364
1014.559204	2620.532922
1014.852380	2619.368415
1015.145521	2620.540483
1015.438628	2621.082407
1015.731699	2616.996552
1016.024736	2623.335803
1016.317737	2620.900926
1016.610703	2620.555607
1016.903635	2619.960751
1017.196531	2621.576440
1017.489393	2620.916049
1017.782219	2619.398662
1018.075011	2620.225411
1018.367768	2621.271451
1018.660490	2619.527211
1018.953177	2619.527211
1019.245829	2619.527211
