Dividing Wavelength (nm)	Counts (n)	Blue Motor Position (mm): 1.100000	Red Motor Position (mm): 0.000000	
326.493990	2164.547953
326.888308	2164.547953
327.282561	2164.547953
327.676750	2127.288785
328.070874	2121.564555
328.464933	2122.106479
328.858929	2125.768877
329.252859	2131.571245
329.646726	2138.989303
330.040528	2152.330717
330.434265	2164.691626
330.827938	2182.002948
331.221547	2199.528520
331.615091	2218.193392
332.008571	2238.105950
332.401986	2254.053640
332.795338	2273.434356
333.188625	2292.875566
333.581847	2309.229069
333.975006	2327.306646
334.368100	2346.952023
334.761129	2364.270907
335.154095	2383.926366
335.546996	2396.819117
335.939833	2414.679925
336.332606	2426.302305
336.725315	2442.186981
337.117960	2453.569906
337.510540	2465.963583
337.903056	2479.178968
338.295508	2486.332365
338.687896	2496.767553
339.080220	2501.859119
339.472480	2507.936230
339.864676	2513.884791
340.256807	2521.196985
340.648875	2521.887623
341.040879	2528.637728
341.432818	2529.010773
341.824694	2532.335414
342.216506	2530.402132
342.608253	2531.493542
342.999937	2535.649973
343.391557	2536.101156
343.783113	2536.897659
344.174605	2532.176618
344.566033	2531.095291
344.957397	2529.898017
345.348697	2530.434899
345.739934	2527.173273
346.131106	2529.381298
346.522215	2523.480628
346.913260	2522.033817
347.304241	2519.888806
347.695159	2517.552231
348.086012	2517.332941
348.476802	2514.272960
348.867528	2511.155007
349.258191	2506.176867
349.648789	2508.833555
350.039324	2502.534633
350.429796	2507.341374
350.820203	2505.776095
351.210548	2504.588904
351.600828	2501.826351
351.991045	2502.617812
352.381198	2500.916423
352.771288	2500.200579
353.161314	2500.699653
353.551276	2498.206803
353.941175	2499.819972
354.331010	2499.444406
354.720782	2496.986844
355.110490	2500.077071
355.500135	2497.818634
355.889717	2498.053048
356.279235	2499.857781
356.668689	2501.095384
357.058080	2500.135044
357.447408	2500.230826
357.836672	2499.101608
358.225873	2499.822493
358.615010	2500.422390
359.004084	2500.039262
359.393095	2498.368120
359.782043	2503.656290
360.170927	2502.317864
360.559748	2500.747544
360.948505	2504.190652
361.337199	2505.334994
361.725830	2506.045797
362.114398	2506.570077
362.502903	2506.852382
362.891344	2504.934223
363.279722	2506.411281
363.668037	2507.031343
364.056289	2504.946826
364.444478	2506.585201
364.832603	2506.580159
365.220665	2507.621158
365.608665	2506.991013
365.996601	2509.562002
366.384474	2508.460510
366.772284	2510.373628
367.160031	2511.356653
367.547715	2511.386900
367.935336	2508.621827
368.322893	2507.245592
368.710388	2508.291631
369.097820	2506.890190
369.485189	2508.765500
369.872495	2514.656088
370.259738	2513.035357
370.646918	2513.136180
371.034035	2515.127436
371.421090	2511.843124
371.808081	2516.304545
372.195010	2514.419154
372.581875	2511.434791
372.968678	2515.835718
373.355418	2515.588701
373.742096	2514.121726
374.128710	2514.872857
374.515262	2515.306397
374.901751	2516.012158
375.288177	2515.868485
375.674540	2514.693897
376.060841	2516.743126
376.447079	2517.211953
376.833254	2517.191788
377.219367	2517.557272
377.605417	2519.656913
377.991404	2515.376973
378.377329	2520.765966
378.763191	2516.629700
379.148991	2519.215812
379.534727	2519.576254
379.920402	2517.252282
380.306013	2518.850328
380.691563	2522.207736
381.077049	2517.829494
381.462474	2519.271264
381.847835	2520.193795
382.233134	2517.683301
382.618371	2522.452232
383.003545	2523.364681
383.388657	2519.225894
383.773706	2522.858045
384.158693	2521.058353
384.543618	2523.319311
384.928480	2519.949299
385.313280	2522.243024
385.698017	2523.957017
386.082692	2521.988446
386.467305	2524.135978
386.851856	2521.789321
387.236344	2522.358971
387.620770	2520.806296
388.005133	2519.866120
388.389435	2520.811337
388.773674	2517.731192
389.157851	2523.601615
389.541965	2523.473066
389.926018	2526.361647
390.310008	2524.834177
390.693936	2525.638242
391.077802	2524.367871
391.461606	2526.772501
391.845348	2525.360978
392.229027	2528.191586
392.612645	2524.642614
392.996200	2525.602953
393.379694	2525.945752
393.763125	2528.557070
394.146494	2525.676050
394.529801	2527.707635
394.913047	2526.855680
395.296230	2529.121679
395.679351	2525.297964
396.062410	2526.548170
396.445408	2528.478932
396.828343	2528.526823
397.211217	2526.948942
397.594028	2528.728469
397.976778	2526.379291
398.359466	2529.116638
398.742092	2527.798376
399.124656	2529.376257
399.507158	2528.705784
399.889598	2529.507327
400.271977	2528.914992
400.654294	2527.006915
401.036549	2526.946421
401.418742	2527.533715
401.800874	2528.725948
402.182944	2529.986237
402.564952	2530.530681
402.946898	2530.838192
403.328783	2529.214940
403.710606	2530.923891
404.092367	2530.951618
404.474067	2532.317770
404.855705	2530.949097
405.237282	2529.930784
405.618797	2532.269879
406.000250	2533.076464
406.381642	2531.531350
406.762972	2529.373737
407.144240	2526.618746
407.525447	2532.390867
407.906593	2528.100845
408.287677	2530.215609
408.668700	2533.066382
409.049661	2532.554705
409.430560	2531.738038
409.811399	2531.647297
410.192176	2530.795342
410.572891	2532.337935
410.953545	2532.794159
411.334138	2537.384130
411.714669	2533.220137
412.095139	2535.302133
412.475547	2533.005888
412.855894	2534.881197
413.236180	2533.643594
413.616405	2534.684592
413.996568	2533.257946
414.376670	2534.167874
414.756711	2534.906403
415.136691	2535.672658
415.516609	2535.680220
415.896466	2536.791794
416.276262	2535.491177
416.655997	2535.627288
417.035670	2538.125180
417.415283	2534.044366
417.794834	2535.765920
418.174324	2537.245498
418.553753	2534.641742
418.933121	2535.634850
419.312428	2537.658873
419.691674	2534.969417
420.070859	2537.731970
420.449983	2539.957639
420.829045	2537.326157
421.208047	2538.369676
421.586988	2539.622402
421.965867	2539.057793
422.344686	2539.365303
422.723444	2538.135262
423.102141	2537.021167
423.480777	2537.767258
423.859352	2538.226003
424.237866	2539.400592
424.616319	2539.324974
424.994712	2540.214738
425.373044	2538.944367
425.751314	2536.335570
426.129524	2536.126362
426.507673	2533.731814
426.885762	2533.782226
427.263789	2539.118287
427.641756	2538.296579
428.019662	2542.208514
428.397508	2537.610982
428.775292	2540.323123
429.153016	2541.369162
429.530679	2540.572660
429.908282	2542.301776
430.285824	2539.750952
430.663305	2539.997968
431.040726	2538.866229
431.418086	2540.867567
431.795385	2539.153575
432.172624	2541.059131
432.549802	2540.630633
432.926920	2544.134235
433.303977	2541.439738
433.680974	2541.797660
434.057910	2541.195242
434.434786	2540.933102
434.811601	2544.517363
435.188355	2541.908566
435.565050	2539.433359
435.941683	2540.335726
436.318257	2541.525438
436.694770	2545.081972
437.071222	2542.586601
437.447614	2541.031405
437.823946	2542.533669
438.200218	2542.135418
438.576429	2543.509132
438.952580	2539.350180
439.328670	2541.096940
439.704700	2541.142310
440.080670	2544.282949
440.456580	2543.297403
440.832429	2544.028371
441.208218	2543.141128
441.583947	2542.599204
441.959616	2543.103319
442.335224	2544.905532
442.710773	2542.352187
443.086261	2545.094575
443.461689	2542.064841
443.837057	2542.548792
444.212365	2544.832435
444.587612	2542.097609
444.962800	2541.364121
445.337927	2541.711961
445.712995	2539.279604
446.088002	2543.809081
446.462949	2544.857641
446.837837	2542.866385
447.212664	2544.640871
447.587431	2545.833104
447.962139	2545.195398
448.336786	2546.027188
448.711374	2544.756818
449.085901	2545.018957
449.460369	2546.667415
449.834776	2545.971736
450.209124	2545.321427
450.583412	2546.231355
450.957640	2545.414688
451.331808	2543.957795
451.705917	2546.042312
452.079965	2544.910573
452.453954	2546.957281
452.827883	2545.669266
453.201752	2544.981149
453.575562	2547.698331
453.949311	2546.064997
454.323001	2545.576005
454.696632	2545.974256
455.070202	2546.445604
455.443713	2546.927034
455.817164	2546.727909
456.190556	2547.678166
456.563888	2546.291849
456.937160	2547.796633
457.310373	2546.932075
457.683526	2547.461397
458.056619	2548.948537
458.429653	2547.436191
458.802628	2547.700851
459.175542	2545.588608
459.548398	2548.779658
459.921194	2548.028526
460.293930	2546.105326
460.666607	2546.201108
461.039224	2545.167672
461.411782	2547.960471
461.784280	2547.678166
462.156719	2547.917621
462.529099	2549.104813
462.901419	2548.903167
463.273680	2545.865871
463.645882	2544.618186
464.018024	2541.893442
464.390106	2544.661036
464.762130	2551.650595
465.134094	2548.197405
465.505999	2548.273022
465.877845	2546.080120
466.249631	2548.719164
466.621358	2546.100285
466.993026	2552.883158
467.364634	2555.232335
467.736184	2552.681511
468.107674	2546.185985
468.479105	2547.957950
468.850477	2550.019782
469.221790	2549.767724
469.593043	2550.450801
469.964238	2549.230842
470.335373	2549.732436
470.706449	2547.869730
471.077467	2550.344937
471.448425	2551.131357
471.819324	2552.321069
472.190164	2549.006510
472.560945	2549.699669
472.931667	2550.259237
473.302330	2548.663712
473.672934	2551.385935
474.043479	2546.584236
474.413965	2549.228321
474.784393	2548.797302
475.154761	2548.668753
475.525070	2547.668084
475.895321	2548.391489
476.265513	2550.685214
476.635645	2551.343085
477.005719	2552.154711
477.375734	2549.803012
477.745691	2550.922149
478.115588	2551.174206
478.485427	2551.499361
478.855207	2551.867365
479.224928	2552.124464
479.594591	2550.221428
479.964194	2553.556152
480.333739	2551.854762
480.703226	2553.304094
481.072653	2552.114382
481.442022	2550.108002
481.811333	2548.542724
482.180584	2549.316541
482.549777	2549.644216
482.918912	2546.254040
483.287988	2550.342416
483.657005	2552.535318
484.025964	2550.407951
484.394864	2553.132695
484.763706	2553.566234
485.132489	2549.087169
485.501213	2552.996583
485.869879	2551.103630
486.238487	2554.355174
486.607036	2550.125646
486.975527	2549.409803
487.343959	2552.389124
487.712333	2552.651264
488.080648	2554.534135
488.448905	2551.678322
488.817104	2551.637992
489.185244	2551.902653
489.553326	2550.140770
489.921350	2549.828218
490.289315	2552.366439
490.657222	2552.058929
491.025070	2552.074052
491.392861	2552.268137
491.760593	2552.005997
492.128267	2551.267468
492.495883	2552.358877
492.863440	2553.593960
493.230939	2552.729402
493.598380	2554.851728
493.965763	2548.966181
494.333088	2554.881975
494.700354	2554.521532
495.067563	2552.260575
495.434713	2553.228477
495.801805	2553.621687
496.168839	2551.900132
496.535815	2553.974567
496.902733	2553.596481
497.269593	2553.238559
497.636395	2552.991542
498.003139	2552.215205
498.369825	2551.605225
498.736453	2553.770401
499.103023	2552.646223
499.469535	2551.602704
499.835989	2554.657644
500.202385	2552.512633
500.568723	2551.489278
500.935003	2552.053888
501.301226	2549.432488
501.667390	2553.800648
502.033497	2553.253682
502.399546	2554.317366
502.765537	2552.913404
503.131470	2553.896429
503.497345	2555.381049
503.863163	2550.987684
504.228923	2553.296532
504.594625	2552.280740
504.960269	2553.883827
505.325856	2555.575134
505.691385	2551.948023
506.056856	2556.379198
506.422270	2553.989691
506.787625	2552.822664
507.152924	2553.508261
507.518164	2555.076059
507.883347	2555.436502
508.248472	2554.546738
508.613540	2553.412479
508.978550	2552.464742
509.343503	2555.683518
509.708398	2554.818961
510.073236	2555.179403
510.438016	2552.769732
510.802738	2554.241748
511.167403	2555.686039
511.532010	2554.730740
511.896561	2558.199054
512.261053	2555.764177
512.625488	2554.967675
512.989866	2556.023796
513.354186	2555.673436
513.718449	2553.535987
514.082655	2554.937428
514.446803	2555.030689
514.810894	2556.064126
515.174927	2557.274003
515.538904	2556.734599
515.902822	2554.929866
516.266684	2554.544218
516.630488	2555.905329
516.994235	2555.922973
517.357925	2556.079249
517.721558	2556.041440
518.085133	2555.912891
518.448651	2551.726213
518.812112	2550.125646
519.175516	2552.973898
519.538863	2551.141439
519.902152	2554.080432
520.265385	2556.452294
520.628560	2557.185782
520.991678	2556.285936
521.354739	2554.922304
521.717743	2555.890206
522.080690	2554.229146
522.443580	2556.674105
522.806413	2556.961451
523.169189	2554.168652
523.531908	2555.381049
523.894569	2556.086811
524.257174	2555.302911
524.619722	2555.731409
524.982213	2556.374157
525.344647	2556.845504
525.707025	2555.562531
526.069345	2555.421378
526.431608	2556.865669
526.793815	2554.667726
527.155964	2555.623025
527.518057	2553.248641
527.880093	2553.160421
528.242072	2556.303580
528.603995	2555.350802
528.965860	2553.059598
529.327669	2554.052705
529.689421	2553.979608
530.051117	2560.240722
530.412755	2554.118240
530.774337	2554.244269
531.135862	2555.870041
531.497331	2554.818961
531.858743	2556.502706
532.220098	2557.483210
532.581396	2556.290978
532.942638	2555.355843
533.303824	2556.570762
533.664953	2556.109496
534.026025	2555.249979
534.387040	2557.246276
534.747999	2558.287274
535.108902	2551.902653
535.469748	2556.366595
535.830537	2555.799465
536.191270	2552.799978
536.551947	2555.280226
536.912567	2552.532797
537.273131	2554.072870
537.633638	2551.827036
537.994089	2554.829043
538.354483	2556.686708
538.714821	2555.867521
539.075103	2554.735782
539.435328	2554.362736
539.795497	2555.980947
540.155609	2557.402552
540.515665	2557.357182
540.875665	2554.405586
541.235609	2559.303067
541.595496	2557.271482
541.955328	2556.480021
542.315102	2555.088662
542.674821	2555.648230
543.034483	2556.827860
543.394090	2555.882644
543.753640	2556.880792
544.113134	2558.073025
544.472571	2558.015052
544.831953	2558.073025
545.191278	2561.251473
545.550548	2557.150494
545.909761	2555.721327
546.268918	2556.492624
546.628019	2557.662171
546.987064	2559.507234
547.346053	2558.345248
547.704986	2558.443550
548.063863	2556.842984
548.422684	2554.332489
548.781449	2557.258879
549.140158	2557.820968
549.498811	2555.229815
549.857408	2559.305587
550.215949	2555.376008
550.574434	2557.447922
550.932864	2554.826522
551.291237	2556.457336
551.649555	2556.079249
552.007817	2554.498847
552.366022	2559.005639
552.724173	2555.207129
553.082267	2557.374826
553.440305	2557.147974
553.798288	2556.260731
554.156215	2558.078067
554.514086	2551.330482
554.871902	2552.623538
555.229661	2552.817622
555.587365	2551.131357
555.945014	2555.529763
556.302606	2556.621173
556.660143	2555.063457
557.017625	2558.093190
557.375050	2556.051523
557.732421	2554.130843
558.089735	2555.915412
558.446994	2557.674774
558.804197	2556.911039
559.161345	2557.107644
559.518437	2558.393139
559.875474	2556.348951
560.232455	2558.519167
560.589381	2556.353992
560.946251	2558.856925
561.303065	2555.232335
561.659825	2555.653272
562.016528	2555.343241
562.373177	2554.932387
562.729770	2559.224929
563.086307	2557.188303
563.442789	2556.820299
563.799216	2558.932542
564.155587	2556.059084
564.511904	2559.318190
564.868164	2556.860628
565.224370	2557.463046
565.580520	2556.369115
565.936615	2556.903478
566.292654	2558.471277
566.648638	2558.937583
567.004567	2556.401883
567.360441	2558.967830
567.716260	2558.015052
568.072023	2556.379198
568.427732	2556.245607
568.783385	2555.978426
569.138982	2557.836091
569.494525	2558.304918
569.850013	2557.916750
570.205445	2557.823488
570.560823	2557.692418
570.916145	2556.747202
571.271412	2554.844166
571.626625	2557.775597
571.981782	2555.295350
572.336884	2555.156718
572.691931	2552.719320
573.046923	2552.989022
573.401860	2550.168496
573.756743	2557.611760
574.111570	2558.965310
574.466342	2556.810216
574.821059	2557.667212
575.175722	2555.202088
575.530330	2557.538663
575.884882	2559.608057
576.239380	2556.943807
576.593823	2555.708724
576.948211	2557.100083
577.302544	2559.406411
577.656823	2557.394990
578.011047	2558.317521
578.365216	2557.551266
578.719330	2560.240722
579.073389	2561.062430
579.427394	2556.477500
579.781344	2558.511606
580.135239	2559.343396
580.489080	2558.027655
580.842866	2555.948179
581.196597	2561.493448
581.550273	2557.616801
581.903895	2557.692418
582.257463	2556.023796
582.610975	2556.505227
582.964434	2556.492624
583.317837	2555.292829
583.671186	2560.064281
584.024481	2557.238714
584.377721	2555.915412
584.730906	2558.090669
585.084037	2557.813406
585.437113	2558.524209
585.790135	2557.823488
586.143103	2557.427758
586.496016	2555.837274
586.848874	2560.807851
587.201679	2557.815927
587.554428	2558.763663
587.907124	2556.076728
588.259765	2560.409600
588.612352	2558.967830
588.964884	2558.015052
589.317362	2559.986143
589.669786	2560.447409
590.022155	2555.875082
590.374470	2551.557334
590.726731	2555.441543
591.078937	2553.944320
591.431090	2558.264589
591.783188	2558.219219
592.135232	2559.870197
592.487222	2556.835422
592.839157	2558.441030
593.191038	2558.872048
593.542866	2558.128478
593.894639	2558.241904
594.246358	2559.439178
594.598022	2556.787531
594.949633	2559.736606
595.301190	2556.749722
595.652692	2556.628735
596.004141	2556.870710
596.355535	2559.013201
596.706876	2558.302398
597.058162	2557.578992
597.409395	2556.729558
597.760573	2557.919270
598.111698	2559.630742
598.462768	2558.420865
598.813785	2557.397511
599.164748	2558.524209
599.515657	2559.318190
599.866511	2558.347768
600.217312	2557.581513
600.568060	2558.093190
600.918753	2558.617470
601.269392	2558.110834
601.619978	2554.385421
601.970510	2555.892726
602.320988	2556.353992
602.671412	2557.521019
603.021783	2558.917419
603.372100	2556.195196
603.722363	2555.928014
604.072572	2556.797613
604.422728	2558.632593
604.772830	2557.762994
605.122878	2558.370453
605.472872	2558.073025
605.822813	2556.994218
606.172701	2555.635628
606.522534	2556.482541
606.872314	2559.744168
607.222041	2560.916236
607.571714	2554.566903
607.921333	2553.868703
608.270899	2558.385577
608.620411	2555.343241
608.969870	2559.751730
609.319276	2565.874211
609.668627	2566.721125
610.017926	2570.224727
610.367171	2572.843606
610.716362	2572.833524
611.065500	2570.612896
611.414585	2565.846485
611.763616	2565.198696
612.112594	2562.249621
612.461518	2563.174673
612.810389	2563.618295
613.159207	2562.136195
613.507971	2560.339024
613.856682	2561.881617
614.205340	2561.332131
614.553945	2561.019580
614.902496	2561.795918
615.250994	2560.538150
615.599439	2560.454971
615.947830	2557.836091
616.296169	2558.002449
616.644454	2558.708211
616.992686	2558.867007
617.340864	2559.489590
617.688990	2559.119065
618.037063	2559.577810
618.385082	2558.559497
618.733048	2559.287943
619.080961	2555.940617
619.428821	2558.262069
619.776628	2557.210988
620.124382	2560.759960
620.472083	2556.946328
620.819731	2560.923798
621.167326	2558.393139
621.514868	2557.868859
621.862357	2558.317521
622.209793	2557.952038
622.557176	2559.035886
622.904506	2558.972871
623.251783	2555.305432
623.599007	2558.504044
623.946179	2558.264589
624.293297	2558.675443
624.640363	2557.909188
624.987376	2556.918601
625.334336	2554.229146
625.681243	2555.557490
626.028097	2553.775442
626.374899	2556.255689
626.721647	2556.669064
627.068343	2558.607388
627.414987	2559.015721
627.761577	2558.501523
628.108115	2555.360885
628.454600	2561.523695
628.801032	2558.786349
629.147412	2556.913560
629.493739	2558.017573
629.840014	2559.592933
630.186236	2555.872562
630.532405	2557.745350
630.878521	2559.852553
631.224585	2556.905998
631.570597	2558.887172
631.916556	2556.971533
632.262462	2556.374157
632.608316	2559.222408
632.954117	2558.194013
633.299866	2555.716286
633.645562	2558.740978
633.991206	2559.081256
634.336797	2557.944476
634.682336	2555.988508
635.027823	2556.936245
635.373257	2555.388611
635.718639	2556.923642
636.063968	2557.127809
636.409245	2555.867521
636.754470	2556.152346
637.099642	2555.807027
637.444762	2557.019424
637.789829	2560.918757
638.134845	2556.656461
638.479808	2554.082952
638.824719	2560.447409
639.169577	2558.040258
639.514383	2558.277192
639.859137	2558.166287
640.203839	2558.241904
640.548489	2555.005483
640.893086	2557.354661
641.237632	2556.094373
641.582125	2559.151832
641.926566	2556.112017
642.270955	2553.203271
642.615292	2554.904660
642.959576	2553.273847
643.303809	2553.447767
643.647990	2556.238045
643.992118	2556.343910
644.336195	2557.810885
644.680219	2557.568910
645.024192	2556.553117
645.368112	2557.757953
645.711981	2554.400545
646.055797	2559.124106
646.399562	2557.228632
646.743274	2558.191492
647.086935	2556.424568
647.430544	2556.422048
647.774101	2556.908519
648.117606	2555.975905
648.461059	2558.204095
648.804460	2560.376833
649.147810	2557.521019
649.491108	2555.333158
649.834354	2558.458674
650.177548	2558.695608
650.520690	2557.069836
650.863781	2558.902295
651.206820	2555.731409
651.549807	2558.819116
651.892742	2556.497665
652.235626	2556.419527
652.578458	2557.450443
652.921238	2557.692418
653.263967	2558.030176
653.606644	2555.401214
653.949269	2558.345248
654.291843	2556.086811
654.634365	2557.213509
654.976836	2558.274672
655.319255	2557.566389
655.661622	2555.567572
656.003938	2558.347768
656.346203	2557.705021
656.688416	2555.595298
657.030577	2556.543035
657.372687	2557.571431
657.714746	2554.640000
658.056753	2557.037068
658.398708	2558.980433
658.740612	2558.224260
659.082465	2556.510268
659.424266	2553.031872
659.766016	2551.915256
660.107715	2553.488096
660.449362	2552.512633
660.790958	2558.125957
661.132503	2557.047151
661.473996	2556.326266
661.815438	2556.356512
662.156829	2555.751574
662.498168	2555.431461
662.839456	2557.642007
663.180693	2556.890875
663.521879	2560.641493
663.863013	2556.008673
664.204097	2558.090669
664.545129	2557.810885
664.886110	2558.463715
665.227040	2556.311142
665.567918	2557.387428
665.908746	2558.201575
666.249522	2557.553787
666.590248	2557.924311
666.930922	2557.095042
667.271545	2555.832232
667.612118	2557.364743
667.952639	2558.330124
668.293109	2556.938766
668.633528	2557.004301
668.973896	2558.025134
669.314213	2556.933725
669.654480	2556.197716
669.994695	2556.548076
670.334859	2557.896585
670.674973	2556.883313
671.015035	2552.762170
671.355047	2556.167469
671.695008	2554.246790
672.034918	2557.752912
672.374777	2556.192675
672.714585	2557.513457
673.054342	2558.597305
673.394049	2559.560166
673.733705	2557.163097
674.073310	2556.890875
674.412864	2555.973385
674.752368	2557.127809
675.091820	2557.518498
675.431223	2555.149156
675.770574	2558.438509
676.109875	2556.578323
676.449125	2553.397355
676.788324	2554.256872
677.127473	2553.828374
677.466571	2553.672098
677.805619	2554.776111
678.144616	2560.205433
678.483562	2557.629404
678.822458	2555.965823
679.161303	2555.381049
679.500098	2558.536812
679.838842	2556.555638
680.177535	2553.561193
680.516179	2557.263920
680.854771	2556.283416
681.193314	2556.895916
681.531805	2556.290977
681.870247	2554.778631
682.208638	2554.725699
682.546978	2557.727706
682.885268	2555.590257
683.223508	2556.419527
683.561697	2557.611760
683.899836	2556.553118
684.237925	2556.220401
684.575963	2558.856925
684.913951	2556.185113
685.251889	2554.690411
685.589776	2553.183106
685.927614	2555.199568
686.265401	2555.592778
686.603137	2554.902140
686.940824	2556.787531
687.278460	2559.081256
687.616046	2557.200906
687.953582	2558.317521
688.291068	2556.384239
688.628504	2556.144784
688.965889	2555.935576
689.303224	2555.449105
689.640510	2555.822150
689.977745	2554.629917
690.314930	2556.217881
690.652065	2554.090514
690.989150	2557.084959
691.326185	2557.074877
691.663170	2556.971533
692.000105	2557.407593
692.336990	2558.178890
692.673825	2554.571944
693.010610	2555.060936
693.347345	2553.614125
693.684030	2551.272509
694.020665	2554.493806
694.357251	2549.024154
694.693786	2555.885165
695.030272	2554.332489
695.366707	2558.398180
695.703093	2556.585885
696.039429	2555.600339
696.375716	2558.070505
696.711952	2557.319373
697.048139	2555.557490
697.384276	2557.105124
697.720363	2555.570092
698.056400	2554.662685
698.392388	2556.001111
698.728326	2557.130330
699.064214	2552.560524
699.400053	2553.999773
699.735842	2554.549259
700.071581	2553.601522
700.407270	2556.543035
700.742910	2554.970195
701.078501	2556.911039
701.414042	2556.321224
701.749533	2554.345092
702.084974	2556.001111
702.420366	2556.969013
702.755709	2554.748384
703.091002	2555.532284
703.426246	2558.130999
703.761440	2553.092365
704.096584	2555.716286
704.431679	2554.133364
704.766725	2556.643858
705.101721	2554.024979
705.436668	2556.018755
705.771565	2556.485062
706.106413	2556.699311
706.441212	2553.440205
706.775961	2557.553787
707.110661	2556.641338
707.445311	2555.358364
707.779913	2556.144784
708.114465	2557.198385
708.448967	2557.032027
708.783421	2556.580844
709.117825	2558.057902
709.452180	2553.871224
709.786485	2556.840463
710.120742	2553.213353
710.454949	2549.916438
710.789107	2552.585729
711.123216	2551.436346
711.457275	2555.186965
711.791286	2555.552448
712.125247	2557.667212
712.459159	2555.524722
712.793023	2555.769218
713.126837	2557.178221
713.460602	2556.986657
713.794318	2556.265772
714.127985	2554.075390
714.461602	2556.517829
714.795171	2556.301060
715.128691	2553.135215
715.462162	2556.129661
715.795584	2557.251317
716.128957	2558.085628
716.462281	2556.306101
716.795556	2556.782490
717.128782	2553.104968
717.461960	2554.881975
717.795088	2553.977088
718.128167	2554.110678
718.461198	2553.447767
718.794180	2554.622356
719.127113	2553.911553
719.459997	2555.623025
719.792833	2554.418189
720.125619	2556.661502
720.458357	2554.821481
720.791046	2557.271482
721.123686	2553.719989
721.456278	2553.840977
721.788821	2554.413148
722.121315	2555.915412
722.453761	2554.022458
722.786158	2555.184444
723.118506	2552.878116
723.450805	2553.601522
723.783056	2555.013045
724.115259	2555.809547
724.447412	2556.979095
724.779518	2554.022458
725.111574	2554.672767
725.443582	2555.287788
725.775542	2552.121943
726.107453	2556.716955
726.439315	2553.992211
726.771129	2555.197047
727.102895	2548.961140
727.434612	2549.520708
727.766281	2549.613969
728.097901	2553.697304
728.429473	2556.522871
728.760996	2555.106306
729.092471	2552.971378
729.423897	2554.798796
729.755276	2555.033210
730.086606	2553.505740
730.417887	2553.972047
730.749120	2556.381718
731.080305	2553.440205
731.411442	2553.135215
731.742530	2552.633620
732.073570	2555.020607
732.404562	2552.873075
732.735506	2555.388611
733.066401	2554.332489
733.397249	2555.030689
733.728048	2551.973229
734.058798	2554.987839
734.389501	2551.945503
734.720156	2555.139074
735.050762	2555.252500
735.381320	2554.350133
735.711831	2557.004301
736.042293	2555.212171
736.372707	2554.836605
736.703073	2551.801830
737.033391	2552.626059
737.363661	2555.023127
737.693883	2555.950700
738.024056	2556.154866
738.354182	2555.512119
738.684260	2553.324258
739.014290	2557.032027
739.344272	2553.125133
739.674207	2555.088662
740.004093	2554.713096
740.333931	2555.151677
740.663722	2555.370967
740.993464	2555.323076
741.323159	2554.040102
741.652806	2553.838456
741.982405	2556.535473
742.311956	2554.208981
742.641460	2554.317366
742.970915	2554.317366
743.300323	2551.695966
743.629683	2549.999618
743.958996	2550.097920
744.288260	2550.294525
744.617477	2554.418189
744.946647	2553.546069
745.275768	2552.104299
745.604842	2552.255534
745.933869	2553.672098
746.262847	2553.384752
746.591778	2555.696121
746.920662	2553.641851
747.249498	2554.725699
747.578286	2553.167983
747.907027	2554.987839
748.235720	2552.981460
748.564365	2556.664023
748.892963	2553.939279
749.221514	2555.428940
749.550017	2554.249310
749.878473	2555.940617
750.206881	2555.577654
750.535242	2555.801986
750.863555	2554.128322
751.191821	2557.392470
751.520039	2553.420040
751.848210	2552.515153
752.176334	2553.888868
752.504411	2552.079093
752.832440	2556.122099
753.160421	2552.845349
753.488356	2553.425082
753.816243	2555.141594
754.144082	2553.228477
754.471875	2554.609753
754.799620	2555.071018
755.127318	2553.525905
755.454969	2554.261913
755.782572	2554.360216
756.110129	2555.300391
756.437638	2553.301573
756.765100	2554.211502
757.092515	2554.392983
757.419882	2553.397355
757.747203	2555.688560
758.074477	2556.280895
758.401703	2553.288970
758.728882	2551.895091
759.056014	2555.008004
759.383099	2555.164280
759.710138	2550.385266
760.037129	2548.633465
760.364073	2551.252344
760.690970	2549.780327
761.017820	2554.002294
761.344623	2552.275698
761.671379	2553.732592
761.998088	2554.700493
762.324751	2555.209650
762.651366	2554.493806
762.977935	2553.909032
763.304456	2556.233004
763.630931	2554.158569
763.957359	2552.333672
764.283740	2555.602860
764.610074	2553.667057
764.936362	2554.589588
765.262602	2553.669577
765.588796	2554.188816
765.914943	2554.551779
766.241044	2553.669578
766.567097	2553.924156
766.893104	2554.425751
767.219064	2549.954247
767.544978	2553.707386
767.870845	2557.090000
768.196665	2557.619322
768.522438	2549.719833
768.848165	2554.534135
769.173846	2554.007335
769.499479	2553.132695
769.825066	2554.519012
770.150607	2554.503888
770.476101	2552.522715
770.801548	2553.064639
771.126949	2555.590257
771.452303	2553.389793
771.777611	2556.351471
772.102872	2554.420709
772.428087	2552.726882
772.753256	2554.955072
773.078378	2554.319886
773.403453	2551.625390
773.728482	2553.881306
774.053465	2553.767880
774.378401	2555.451625
774.703291	2553.253682
775.028135	2552.520194
775.352932	2555.867521
775.677683	2550.884340
776.002388	2551.509443
776.327046	2548.633465
776.651658	2553.868703
776.976224	2548.409133
777.300743	2555.786862
777.625216	2553.868703
777.949643	2552.101779
778.274024	2552.842828
778.598359	2553.052036
778.922647	2553.379711
779.246889	2551.307797
779.571086	2554.677808
779.895236	2555.975905
780.219339	2553.682180
780.543397	2551.940462
780.867409	2553.369629
781.191374	2553.230997
781.515294	2555.113868
781.839167	2552.086655
782.162995	2554.481203
782.486776	2554.546738
782.810511	2552.986501
783.134201	2555.020607
783.457844	2551.312838
783.781441	2552.769732
784.104993	2553.606563
784.428498	2553.319217
784.751958	2553.228477
785.075372	2553.800647
785.398739	2552.063970
785.722061	2551.695966
786.045337	2555.222253
786.368568	2554.082952
786.691752	2555.368446
787.014891	2553.309135
787.337983	2549.472817
787.661030	2553.162942
787.984031	2551.741336
788.306987	2555.862479
788.629897	2553.034392
788.952760	2553.326779
789.275579	2553.178065
789.598351	2553.866182
789.921078	2553.861141
790.243759	2552.406768
790.566395	2552.615976
790.888984	2553.783003
791.211529	2553.669577
791.534027	2554.065308
791.856480	2554.347613
792.178888	2551.486758
792.501249	2549.992056
792.823566	2550.415513
793.145836	2548.313352
793.468062	2552.066491
793.790241	2553.861141
794.112375	2553.689742
794.434464	2553.447767
794.756507	2555.015566
795.078505	2554.559341
795.400457	2552.303425
795.722364	2552.157231
796.044226	2555.585216
796.366042	2555.015566
796.687812	2550.148332
797.009538	2553.883827
797.331218	2554.443395
797.652852	2551.983312
797.974442	2550.821326
798.295986	2555.489434
798.617484	2552.187478
798.938938	2554.287119
799.260346	2551.776624
799.581709	2553.682180
799.903026	2552.810061
800.224299	2553.014228
800.545526	2551.733774
800.866708	2553.493137
801.187845	2552.701676
801.508936	2553.122612
801.829983	2550.904505
802.150984	2553.412479
802.471940	2556.137222
802.792851	2553.662016
803.113717	2552.247972
803.434538	2551.403579
803.755314	2552.036244
804.076045	2550.221428
804.396731	2552.222766
804.717372	2553.057077
805.037967	2552.742005
805.358518	2551.451470
805.679024	2552.908363
805.999485	2554.874413
806.319901	2553.049516
806.640272	2551.360729
806.960598	2552.331151
807.280879	2555.902809
807.601115	2552.404248
807.921306	2552.036244
808.241453	2547.360573
808.561554	2548.981304
808.881611	2550.186140
809.201623	2549.482899
809.521590	2551.827036
809.841513	2553.662016
810.161390	2553.747715
810.481223	2552.779814
810.801011	2553.815771
811.120755	2549.926521
811.440453	2554.229146
811.760107	2553.699824
812.079716	2552.512633
812.399281	2548.600697
812.718801	2550.024823
813.038276	2553.505740
813.357707	2552.240410
813.677093	2552.734443
813.996434	2554.471121
814.315731	2549.578681
814.634983	2552.220246
814.954191	2551.809392
815.273354	2552.303425
815.592473	2552.426933
815.911547	2553.409958
816.230577	2551.307797
816.549562	2553.992211
816.868502	2553.936759
817.187399	2555.139074
817.506250	2553.137736
817.825058	2552.530277
818.143821	2553.414999
818.462539	2554.168652
818.781213	2553.672098
819.099843	2551.922818
819.418429	2553.241079
819.736970	2554.040102
820.055466	2552.805020
820.373919	2552.986501
820.692327	2548.547765
821.010691	2551.380894
821.329011	2552.008517
821.647286	2555.537325
821.965517	2551.872406
822.283704	2551.189330
822.601847	2550.818805
822.919945	2550.740667
823.237999	2550.171017
823.556010	2553.604043
823.873976	2550.992725
824.191897	2552.502550
824.509775	2546.748073
824.827609	2549.069525
825.145398	2546.967363
825.463144	2552.701676
825.780845	2551.426264
826.098502	2552.401727
826.416116	2551.060780
826.733685	2550.400389
827.051210	2552.926007
827.368692	2551.179248
827.686129	2551.088507
828.003522	2553.306614
828.320872	2553.626728
828.638177	2553.225956
828.955439	2550.816284
829.272656	2551.048177
829.589830	2551.963147
829.906960	2554.435833
830.224046	2551.232180
830.541088	2552.515153
830.858086	2553.344423
831.175041	2550.397869
831.491952	2548.076417
831.808819	2552.842828
832.125642	2552.971378
832.442421	2552.966337
832.759157	2551.910215
833.075849	2550.975081
833.392497	2551.905174
833.709101	2553.649413
834.025662	2553.586398
834.342179	2551.723692
834.658653	2551.194371
834.975083	2549.460214
835.291469	2556.870710
835.607811	2554.135884
835.924110	2554.448436
836.240366	2549.888712
836.556578	2551.728733
836.872746	2553.162942
837.188871	2551.829556
837.504952	2552.827705
837.820990	2552.494989
838.136984	2552.439536
838.452935	2548.527601
838.768842	2551.789227
839.084706	2551.310318
839.400526	2553.515822
839.716303	2550.526418
840.032037	2548.262940
840.347727	2548.961140
840.663373	2550.178578
840.978977	2549.437529
841.294537	2552.053888
841.610054	2551.433826
841.925527	2554.002294
842.240957	2551.453990
842.556344	2549.838301
842.871687	2553.442726
843.186987	2550.788558
843.502244	2550.962478
843.817458	2551.403579
844.132629	2551.287632
844.447756	2552.431974
844.762840	2550.559186
845.077881	2551.408620
845.392879	2550.939793
845.707833	2550.788558
846.022745	2550.506253
846.337613	2550.725544
846.652438	2550.680173
846.967221	2551.804351
847.281960	2551.340564
847.596656	2551.706048
847.911309	2551.685883
848.225919	2551.476676
848.540485	2551.963147
848.855009	2554.032541
849.169490	2551.297715
849.483928	2553.780483
849.798323	2551.811912
850.112675	2548.852755
850.426984	2548.726726
850.741251	2550.433157
851.055474	2551.816953
851.369654	2551.925338
851.683792	2552.041285
851.997887	2551.131357
852.311938	2552.689073
852.625947	2552.847869
852.939914	2551.993394
853.253837	2550.135729
853.567718	2551.229659
853.881555	2552.227807
854.195350	2552.195040
854.509103	2551.305276
854.822812	2551.285112
855.136479	2554.589588
855.450103	2552.573127
855.763685	2546.954761
856.077224	2549.586243
856.390720	2549.601366
856.704173	2548.330996
857.017584	2550.738147
857.330953	2550.886861
857.644278	2551.537169
857.957561	2551.272509
858.270802	2550.397869
858.584000	2550.470965
858.897155	2552.351316
859.210268	2551.098589
859.523339	2550.052550
859.836367	2551.141439
860.149352	2550.332334
860.462295	2552.966337
860.775195	2551.002807
861.088054	2549.545914
861.400869	2551.625390
861.713642	2550.254196
862.026373	2551.655637
862.339062	2550.947354
862.651708	2551.504402
862.964312	2551.204453
863.276873	2551.073383
863.589392	2550.758311
863.901869	2550.206305
864.214303	2551.217056
864.526696	2552.114382
864.839045	2552.452139
865.151353	2551.771583
865.463619	2553.009186
865.775842	2552.653785
866.088023	2552.023641
866.400162	2551.388455
866.712258	2551.580019
867.024313	2551.847200
867.336325	2550.768393
867.648296	2552.777293
867.960224	2549.089689
868.272110	2553.152859
868.583954	2552.802499
868.895755	2551.325441
869.207515	2551.537169
869.519233	2549.997097
869.830909	2552.494989
870.142542	2549.593805
870.454134	2548.792261
870.765684	2552.063970
871.077191	2551.269988
871.388657	2549.659340
871.700081	2549.571119
872.011463	2548.716644
872.322803	2546.001983
872.634101	2555.179403
872.945357	2550.032385
873.256571	2549.939124
873.567744	2551.322920
873.878874	2552.084135
874.189963	2549.866027
874.501010	2551.612787
874.812015	2547.390820
875.122979	2550.622200
875.433900	2553.767880
875.744780	2549.918959
876.055618	2548.900646
876.366415	2550.145811
876.677169	2549.855945
876.987882	2552.041285
877.298554	2552.507592
877.609183	2552.429454
877.919771	2549.137580
878.230317	2551.494320
878.540822	2554.703014
878.851285	2551.481717
879.161707	2551.451470
879.472087	2551.108671
879.782425	2549.860986
880.092722	2549.261088
880.402977	2550.924669
880.713191	2549.407282
881.023363	2550.624721
881.333494	2549.268650
881.643583	2549.830739
881.953631	2549.598846
882.263637	2550.765873
882.573602	2551.295194
882.883526	2551.713610
883.193408	2547.090872
883.503248	2550.871737
883.813048	2549.498023
884.122806	2551.012889
884.432522	2549.848383
884.742197	2550.400389
885.051831	2550.425595
885.361424	2551.781665
885.670975	2549.508105
885.980485	2548.386448
886.289954	2550.813764
886.599382	2551.910215
886.908768	2548.411654
887.218113	2544.756817
887.527417	2548.499874
887.836680	2543.355377
888.145901	2552.545400
888.455082	2549.346788
888.764221	2551.900133
889.073319	2549.326623
889.382376	2550.851572
889.691392	2549.641696
890.000366	2552.174875
890.309300	2550.455842
890.618193	2554.904660
890.927044	2549.860986
891.235855	2548.494833
891.544625	2548.923331
891.853353	2552.454659
892.162041	2550.292004
892.470687	2550.118085
892.779293	2550.155893
893.087858	2553.394835
893.396381	2548.250337
893.704864	2548.419216
894.013306	2551.834597
894.321707	2552.731923
894.630068	2549.699669
894.938387	2549.543393
895.246665	2550.087838
895.554903	2552.724361
895.863100	2550.523897
896.171256	2548.885522
896.479371	2549.442570
896.787446	2550.753270
897.095480	2550.332334
897.403473	2550.405430
897.711425	2549.603887
898.019336	2549.624052
898.327207	2551.975750
898.635038	2548.330996
898.942827	2549.843342
899.250576	2551.580019
899.558284	2551.282591
899.865952	2550.629762
900.173579	2550.574309
900.481165	2549.364432
900.788711	2548.915769
901.096216	2551.156562
901.403681	2549.064483
901.711105	2549.782848
902.018489	2549.571119
902.325832	2549.477858
902.633135	2547.176571
902.940397	2549.414844
903.247619	2544.799667
903.554800	2550.927190
903.861941	2548.676315
904.169041	2549.371994
904.476101	2550.899463
904.783121	2551.622869
905.090100	2548.265461
905.397039	2549.424926
905.703938	2549.767724
906.010796	2549.863506
906.317614	2551.234700
906.624391	2548.015923
906.931129	2549.853424
907.237826	2552.343754
907.544483	2551.625390
907.851099	2549.782848
908.157675	2550.070194
908.464211	2547.889895
908.770707	2550.886861
909.077163	2546.680018
909.383578	2549.518187
909.689954	2551.882488
909.996289	2549.487940
910.302584	2551.181768
910.608839	2548.366284
910.915054	2549.528270
911.221229	2548.376366
911.527363	2548.280584
911.833458	2549.964329
912.139513	2548.668753
912.445527	2548.651109
912.751502	2551.600184
913.057436	2548.767055
913.363331	2550.226469
913.669186	2549.049360
913.975000	2550.617159
914.280775	2548.963660
914.586510	2551.620348
914.892205	2547.264792
915.197859	2548.514998
915.503475	2548.222611
915.809050	2550.120605
916.114585	2550.198743
916.420081	2552.293343
916.725536	2547.673125
917.030952	2549.069525
917.336328	2549.893753
917.641665	2545.707075
917.946961	2543.199101
918.252218	2547.360573
918.557435	2542.936961
918.862612	2550.899463
919.167750	2548.275543
919.472848	2549.853424
919.777906	2546.052394
920.082925	2547.811757
920.387904	2548.394010
920.692843	2551.615307
920.997743	2547.045501
921.302603	2550.586912
921.607423	2550.319731
921.912204	2550.637323
922.216946	2550.758311
922.521647	2548.638506
922.826310	2548.303269
923.130932	2549.147662
923.435516	2547.519370
923.740059	2549.800492
924.044564	2545.742363
924.349028	2551.212015
924.653454	2550.281922
924.957840	2546.858979
925.262186	2549.298897
925.566493	2548.189843
925.870761	2548.724206
926.174989	2549.286294
926.479178	2549.848383
926.783328	2548.585574
927.087438	2550.488609
927.391509	2550.755791
927.695541	2549.109854
927.999533	2548.923331
928.303486	2549.714792
928.607400	2548.845193
928.911275	2549.014072
929.215110	2549.137580
929.518906	2548.328475
929.822663	2549.868548
930.126381	2548.641027
930.430060	2548.772097
930.733699	2547.983156
931.037299	2550.266799
931.340861	2549.404761
931.644383	2547.322765
931.947866	2548.104144
932.251309	2552.240410
932.554714	2549.543393
932.858080	2548.199926
933.161407	2544.834955
933.464694	2545.775131
933.767943	2543.481406
934.071153	2548.469627
934.374323	2547.597508
934.677455	2548.255378
934.980548	2549.581202
935.283602	2551.315359
935.586617	2548.328475
935.889593	2549.419885
936.192530	2546.768238
936.495428	2547.060625
936.798287	2548.315872
937.101108	2548.293187
937.403890	2549.079607
937.706632	2551.607746
938.009336	2546.985008
938.312002	2546.700182
938.614628	2547.103475
938.917216	2549.762683
939.219765	2547.408464
939.522275	2550.717982
939.824747	2548.641027
940.127179	2548.986346
940.429573	2548.469627
940.731929	2547.642878
941.034246	2549.833259
941.336524	2549.099772
941.638763	2547.534493
941.940964	2545.613814
942.243126	2550.463404
942.545250	2548.015923
942.847335	2548.404092
943.149381	2547.161448
943.451389	2548.217570
943.753359	2548.068856
944.055290	2548.603218
944.357182	2547.995759
944.659036	2548.260419
944.960851	2548.746891
945.262628	2549.172868
945.564367	2548.383928
945.866067	2548.537683
946.167729	2547.022816
946.469352	2549.697148
946.770937	2548.157076
947.072484	2549.926521
947.373992	2549.997097
947.675462	2547.431150
947.976893	2546.422919
948.278286	2546.889226
948.579641	2545.530635
948.880958	2542.296734
949.182236	2547.831921
949.483476	2548.421736
949.784678	2548.116747
950.085841	2548.267981
950.386967	2545.049204
950.688054	2547.839483
950.989103	2548.424257
951.290114	2545.923845
951.591087	2549.087169
951.892021	2548.890564
952.192917	2548.527601
952.493776	2549.021634
952.794596	2549.535831
953.095378	2546.546427
953.396122	2547.136242
953.696828	2547.612631
953.997496	2547.998279
954.298126	2549.261088
954.598718	2547.763866
954.899272	2547.630275
955.199788	2548.767055
955.500266	2545.492826
955.800706	2547.254709
956.101108	2550.599515
956.401472	2546.259081
956.701798	2544.086344
957.002087	2547.809236
957.302337	2547.521890
957.602550	2548.842673
957.902724	2548.164637
958.202861	2546.390151
958.502960	2549.475338
958.803022	2549.596325
959.103045	2545.046684
959.403031	2548.293187
959.702979	2548.076417
960.002889	2549.825698
960.302762	2545.346632
960.602596	2547.980635
960.902393	2549.354350
961.202153	2546.105326
961.501875	2550.652447
961.801559	2545.540717
962.101205	2548.139432
962.400814	2548.744370
962.700385	2548.210008
962.999918	2545.152548
963.299414	2545.860830
963.598873	2546.763197
963.898293	2543.173895
964.197677	2549.152704
964.497022	2548.825029
964.796331	2548.416695
965.095601	2548.446942
965.394835	2548.797302
965.694030	2547.741181
965.993189	2546.062476
966.292309	2550.060111
966.591393	2548.802343
966.890439	2544.923176
967.189447	2547.718495
967.488419	2546.591797
967.787353	2548.814946
968.086249	2547.753783
968.385108	2547.736139
968.683930	2547.479041
968.982714	2548.310831
969.281462	2549.182951
969.580172	2550.029864
969.878844	2547.773948
970.177480	2549.447611
970.476078	2549.339226
970.774639	2547.254709
971.073162	2546.664894
971.371649	2549.518187
971.670098	2546.327137
971.968510	2545.820501
972.266885	2547.516849
972.565223	2549.931562
972.863524	2546.793444
973.161788	2547.816798
973.460014	2543.872095
973.758204	2547.070707
974.056356	2549.349309
974.354471	2546.064997
974.652550	2544.824873
974.950591	2546.851417
975.248595	2548.701520
975.546563	2546.924514
975.844493	2546.412837
976.142386	2547.325285
976.440243	2548.729247
976.738062	2547.882333
977.035845	2547.778989
977.333590	2548.333516
977.631299	2546.357384
977.928971	2544.645912
978.226606	2545.213042
978.524204	2546.057435
978.821765	2545.379400
979.119290	2545.490305
979.416777	2549.931562
979.714228	2549.959288
980.011642	2548.323434
980.309020	2547.042981
980.606360	2547.310162
980.903664	2547.380738
981.200931	2548.159596
981.498162	2547.519370
981.795356	2547.789072
982.092513	2547.232024
982.389633	2546.881664
982.686717	2547.289997
982.983764	2547.834442
983.280775	2548.038609
983.577749	2547.083310
983.874686	2547.368135
984.171587	2547.065666
984.468451	2547.685728
984.765279	2550.516336
985.062070	2548.008362
985.358824	2547.373176
985.655543	2547.441232
985.952224	2547.579864
986.248869	2547.186654
986.545478	2546.226314
986.842050	2545.132383
987.138586	2546.238917
987.435086	2547.869730
987.731549	2545.326468
988.027975	2547.080789
988.324366	2546.135573
988.620719	2546.125491
988.917037	2547.660522
989.213318	2547.320244
989.509563	2544.983669
989.805772	2549.001469
990.101944	2546.387631
990.398080	2546.380069
990.694180	2546.468289
990.990244	2546.611962
991.286271	2546.773279
991.582262	2544.088865
991.878217	2546.755635
992.174136	2545.873433
992.470019	2549.724875
992.765865	2543.549461
993.061676	2543.398227
993.357450	2546.178423
993.653188	2541.880839
993.948890	2546.886705
994.244556	2547.473999
994.540186	2548.111705
994.835780	2548.782179
995.131337	2545.548279
995.426859	2547.037940
995.722345	2546.044832
996.017795	2547.484082
996.313208	2549.049360
996.608586	2548.635985
996.903928	2547.325285
997.199234	2546.198588
997.494504	2546.329657
997.789738	2547.325285
998.084936	2547.879812
998.380099	2548.532642
998.675225	2548.935934
998.970316	2548.046170
999.265371	2548.121788
999.560390	2548.323434
999.855373	2548.875440
1000.150320	2548.671273
1000.445232	2545.772610
1000.740108	2547.048022
1001.034948	2546.392672
1001.329752	2548.353681
1001.624521	2549.371994
1001.919254	2546.599359
1002.213951	2548.832590
1002.508613	2546.478372
1002.803239	2545.868392
1003.097829	2547.486602
1003.392384	2546.117929
1003.686903	2544.378731
1003.981386	2545.800336
1004.275834	2546.443083
1004.570246	2545.407126
1004.864623	2548.782179
1005.158964	2548.008362
1005.453270	2548.888043
1005.747540	2547.988197
1006.041775	2546.133053
1006.335974	2547.852086
1006.630138	2545.616334
1006.924266	2547.688248
1007.218359	2547.282436
1007.512416	2544.260264
1007.806438	2542.863864
1008.100425	2544.240099
1008.394376	2539.763555
1008.688292	2545.510470
1008.982172	2549.069525
1009.276017	2545.767569
1009.569827	2547.476520
1009.863602	2547.983156
1010.157341	2546.042312
1010.451045	2549.671943
1010.744714	2548.094061
1011.038347	2550.481048
1011.331945	2546.954761
1011.625508	2547.005172
1011.919036	2546.758156
1012.212528	2548.446942
1012.505986	2549.014072
1012.799408	2546.435522
1013.092795	2547.579864
1013.386147	2545.603731
1013.679464	2546.700182
1013.972745	2544.587939
1014.265992	2546.125491
1014.559204	2547.534493
1014.852380	2543.741025
1015.145521	2544.819832
1015.438628	2546.901828
1015.731699	2544.945861
1016.024736	2549.220759
1016.317737	2545.044163
1016.610703	2545.069369
1016.903635	2547.005172
1017.196531	2545.646581
1017.489393	2546.773279
1017.782219	2546.569112
1018.075011	2547.496685
1018.367768	2545.628937
1018.660490	2548.056253
1018.953177	2548.056253
1019.245829	2548.056253
