Dividing Wavelength (nm)	Counts (n)	Blue Motor Position (mm): 43.600000	Red Motor Position (mm): 0.000000	
326.493990	2261.204517
326.888308	2261.204517
327.282561	2261.204517
327.676750	2220.935780
328.070874	2217.648947
328.464933	2218.717672
328.858929	2223.935266
329.252859	2228.610936
329.646726	2239.114180
330.040528	2248.541138
330.434265	2263.437748
330.827938	2284.517333
331.221547	2297.309260
331.615091	2316.203505
332.008571	2333.131700
332.401986	2355.499299
332.795338	2371.136958
333.188625	2392.944990
333.581847	2412.250089
333.975006	2432.392019
334.368100	2449.421037
334.761129	2469.096660
335.154095	2484.792292
335.546996	2511.013854
335.939833	2551.738816
336.332606	2565.644838
336.725315	2579.225707
337.117960	2593.950917
337.510540	2603.539192
337.903056	2615.060749
338.295508	2625.483335
338.687896	2635.626136
339.080220	2636.974645
339.472480	2644.798516
339.864676	2649.433857
340.256807	2654.046512
340.648875	2658.036586
341.040879	2659.642193
341.432818	2665.868018
341.824694	2666.725014
342.216506	2667.745848
342.608253	2668.781805
342.999937	2669.265756
343.391557	2671.103256
343.783113	2668.517144
344.174605	2669.457320
344.566033	2667.760971
344.957397	2667.766012
345.348697	2665.621002
345.739934	2663.415497
346.131106	2665.883142
346.522215	2658.364261
346.913260	2657.776966
347.304241	2655.291677
347.695159	2654.858138
348.086012	2657.230001
348.476802	2654.081800
348.867528	2649.481747
349.258191	2647.755152
349.648789	2645.189205
350.039324	2640.329533
350.429796	2644.632157
350.820203	2644.228865
351.210548	2643.263484
351.600828	2640.752990
351.991045	2638.822228
352.381198	2639.626292
352.771288	2638.988586
353.161314	2639.165026
353.551276	2638.590335
353.941175	2635.419449
354.331010	2634.673358
354.720782	2639.802732
355.110490	2637.599748
355.500135	2638.396250
355.889717	2635.676548
356.279235	2637.640077
356.668689	2637.050262
357.058080	2639.669142
357.447408	2638.658390
357.836672	2639.061682
358.225873	2637.975314
358.615010	2638.618061
359.004084	2638.360962
359.393095	2639.938843
359.782043	2641.060500
360.170927	2643.301293
360.559748	2641.249543
360.948505	2644.929586
361.337199	2646.489823
361.725830	2645.370687
362.114398	2646.830101
362.502903	2647.966881
362.891344	2644.881695
363.279722	2648.387817
363.668037	2646.250368
364.056289	2648.513846
364.444478	2649.567447
364.832603	2650.638692
365.220665	2652.206491
365.608665	2651.783034
365.996601	2653.275216
366.384474	2652.629948
366.772284	2652.685401
367.160031	2652.922335
367.547715	2654.822850
367.935336	2654.926194
368.322893	2652.032571
368.710388	2651.334372
369.097820	2650.633651
369.485189	2651.382262
369.872495	2657.139260
370.259738	2658.530619
370.646918	2657.262768
371.034035	2659.440547
371.421090	2660.272337
371.808081	2659.818633
372.195010	2660.673109
372.581875	2659.110351
372.968678	2659.682522
373.355418	2663.128151
373.742096	2662.321566
374.128710	2662.140085
374.515262	2663.478511
374.901751	2663.665034
375.288177	2664.794252
375.674540	2663.085301
376.060841	2665.167298
376.447079	2667.806342
376.833254	2670.836075
377.219367	2670.374810
377.605417	2669.923626
377.991404	2674.059893
378.377329	2682.813857
378.763191	2682.415606
379.148991	2690.693180
379.534727	2702.141641
379.920402	2709.678166
380.306013	2726.003942
380.691563	2744.245357
381.077049	2761.102976
381.462474	2786.573406
381.847835	2818.690597
382.233134	2846.684124
382.618371	2877.084802
383.003545	2923.922163
383.388657	2956.780404
383.773706	3004.126921
384.158693	3042.573280
384.543618	3084.228335
384.928480	3138.196407
385.313280	3193.865869
385.698017	3237.751634
386.082692	3317.190136
386.467305	3350.050898
386.851856	3400.986716
387.236344	3484.309427
387.620770	3529.258876
388.005133	3602.771502
388.389435	3666.219464
388.773674	3704.847305
389.157851	3790.650264
389.541965	3874.409035
389.926018	3874.857698
390.310008	3986.526817
390.693936	4062.179413
391.077802	4118.786530
391.461606	4141.426352
391.845348	4224.363415
392.229027	4298.077687
392.612645	4325.075586
392.996200	4436.510292
393.379694	4516.127755
393.763125	4627.801916
394.146494	4668.501672
394.529801	4740.426334
394.913047	4833.649872
395.296230	4803.173576
395.679351	4919.883849
396.062410	4979.576152
396.445408	4961.622083
396.828343	5031.454666
397.211217	5093.843986
397.594028	4983.039425
397.976778	5107.384525
398.359466	5152.389426
398.742092	5183.140465
399.124656	5097.571919
399.507158	5216.840578
399.889598	5289.309685
400.271977	5412.974230
400.654294	5409.417696
401.036549	5443.574034
401.418742	5370.159711
401.800874	5578.293830
402.182944	5634.079238
402.564952	5743.953707
402.946898	5804.603829
403.328783	5641.013345
403.710606	5655.753679
404.092367	5983.146374
404.474067	6004.039437
404.855705	5905.116875
405.237282	5836.123643
405.618797	6094.124856
406.000250	6072.626855
406.381642	6274.885509
406.762972	6296.635567
407.144240	6358.530854
407.525447	6343.750191
407.906593	6363.987903
408.287677	6519.121851
408.668700	6430.069869
409.049661	6547.853908
409.430560	6575.061015
409.811399	6429.956443
410.192176	6706.567075
410.572891	6712.613939
410.953545	6912.518374
411.334138	6642.282281
411.714669	6814.175545
412.095139	6610.061746
412.475547	6855.424786
412.855894	6923.654283
413.236180	7100.976869
413.616405	6773.639627
413.996568	6995.674727
414.376670	7035.386417
414.756711	6938.432425
415.136691	7029.674789
415.516609	7229.543937
415.896466	7222.559418
416.276262	7419.431599
416.655997	7407.915083
417.035670	7592.144050
417.415283	7926.433044
417.794834	7984.499575
418.174324	7846.477824
418.553753	7766.147037
418.933121	8072.813028
419.312428	8171.914551
419.691674	7951.079245
420.070859	8428.660517
420.449983	8111.289635
420.829045	8476.884194
421.208047	8244.539934
421.586988	8550.706851
421.965867	8564.005415
422.344686	8674.719236
422.723444	8730.396260
423.102141	8075.809994
423.480777	8830.057351
423.859352	8362.631484
424.237866	8978.161409
424.616319	8844.406995
424.994712	9270.011450
425.373044	8814.908683
425.751314	9288.918297
426.129524	9164.522785
426.507673	9269.393908
426.885762	9419.816898
427.263789	9334.555863
427.641756	9268.186552
428.019662	9356.434471
428.397508	9624.069328
428.775292	9293.336868
429.153016	9676.613275
429.530679	9510.381227
429.908282	9533.200010
430.285824	9254.772042
430.663305	9941.813255
431.040726	9397.519874
431.418086	9374.282676
431.795385	9704.296771
432.172624	9792.383373
432.549802	9708.067554
432.926920	9778.666393
433.303977	9653.600407
433.680974	9861.207726
434.057910	9959.936203
434.434786	10022.073466
434.811601	9848.740952
435.188355	10414.917982
435.565050	10156.579012
435.941683	10080.933978
436.318257	10563.546321
436.694770	10718.445855
437.071222	10775.970462
437.447614	10609.385533
437.823946	10521.679538
438.200218	10635.009718
438.576429	10460.789961
438.952580	10710.284227
439.328670	10746.719166
439.704700	10544.485718
440.080670	10533.589264
440.456580	11056.787937
440.832429	10835.516571
441.208218	10436.562176
441.583947	10746.888045
441.959616	10915.973386
442.335224	10730.055632
442.710773	10847.721204
443.086261	11069.602550
443.461689	10337.770684
443.837057	11008.375216
444.212365	11266.860379
444.587612	10900.512167
444.962800	11120.195570
445.337927	10875.031655
445.712995	10517.979331
446.088002	11573.395300
446.462949	11250.680796
446.837837	11220.229706
447.212664	11173.893940
447.587431	11734.820608
447.962139	12487.848005
448.336786	14772.509011
448.711374	15269.541574
449.085901	13099.836520
449.460369	12737.438053
449.834776	12178.464832
450.209124	13094.170263
450.583412	13520.039379
450.957640	14458.679540
451.331808	13523.449719
451.705917	12561.327864
452.079965	11838.507061
452.453954	12749.201585
452.827883	12392.363510
453.201752	12677.218949
453.575562	12218.854557
453.949311	12630.404274
454.323001	12613.844084
454.696632	12853.089684
455.070202	13122.181435
455.443713	13334.058610
455.817164	13827.181759
456.190556	13793.786635
456.563888	14158.814065
456.937160	14316.282067
457.310373	13660.294361
457.683526	13752.940686
458.056619	13291.367599
458.429653	13489.744565
458.802628	12870.143907
459.175542	13279.654478
459.548398	14222.713210
459.921194	14582.888529
460.293930	14654.752698
460.666607	15503.375495
461.039224	16559.892957
461.411782	17268.895957
461.784280	17085.581959
462.156719	17176.121082
462.529099	16841.932911
462.901419	15800.516226
463.273680	15573.810497
463.645882	15461.289422
464.018024	15189.707341
464.390106	15410.194807
464.762130	16134.260776
465.134094	16924.471723
465.505999	18980.929776
465.877845	22229.174572
466.249631	25037.442583
466.621358	24677.136194
466.993026	23253.063165
467.364634	22670.252848
467.736184	21198.177952
468.107674	20402.671272
468.479105	20525.811537
468.850477	19992.356637
469.221790	19589.313867
469.593043	18899.202590
469.964238	18324.059868
470.335373	17985.120410
470.706449	18463.369634
471.077467	18040.394142
471.448425	19906.599048
471.819324	24024.936916
472.190164	25909.194194
472.560945	22257.520980
472.931667	19945.136149
473.302330	19326.606737
473.672934	18935.375390
474.043479	19180.110806
474.413965	18995.823865
474.784393	18584.218695
475.154761	19346.562144
475.525070	19271.816956
475.895321	18989.983689
476.265513	19579.622248
476.635645	20184.865700
477.005719	19940.624316
477.375734	20123.739189
477.745691	20609.845051
478.115588	21155.759163
478.485427	21703.712421
478.855207	22790.431435
479.224928	24578.518622
479.594591	26805.012274
479.964194	26739.474753
480.333739	26959.014483
480.703226	26552.740333
481.072653	26250.654230
481.442022	26869.561728
481.811333	27783.659032
482.180584	27666.452205
482.549777	26719.559675
482.918912	26388.625569
483.287988	26519.375456
483.657005	26155.235270
484.025964	25943.937827
484.394864	25822.531719
484.763706	25473.192360
485.132489	24937.297542
485.501213	25116.621466
485.869879	25030.694999
486.238487	24871.626430
486.607036	25005.942933
486.975527	24746.419292
487.343959	25044.061618
487.712333	24946.578306
488.080648	24612.501040
488.448905	25126.595389
488.817104	24871.195412
489.185244	25578.880150
489.553326	25525.577510
489.921350	26564.929843
490.289315	28916.426466
490.657222	30631.913476
491.025070	31146.058236
491.392861	30893.488866
491.760593	30028.724294
492.128267	29117.702095
492.495883	28063.624552
492.863440	27186.196602
493.230939	26321.484962
493.598380	26171.908886
493.965763	25778.706448
494.333088	25300.437059
494.700354	25251.381591
495.067563	25104.497491
495.434713	24854.126065
495.801805	25021.772157
496.168839	24804.357273
496.535815	24659.585417
496.902733	24888.395829
497.269593	24577.712038
497.636395	24744.937193
498.003139	24690.157495
498.369825	24427.581435
498.736453	24640.071111
499.103023	24511.370453
499.469535	24509.946327
499.835989	24740.158179
500.202385	24750.091773
500.568723	24282.912922
500.935003	24477.309897
501.301226	24155.994313
501.667390	25005.506874
502.033497	25213.482196
502.399546	24946.117040
502.765537	24478.418951
503.131470	24861.216448
503.497345	25011.485682
503.863163	24247.985288
504.228923	24790.020232
504.594625	25031.766244
504.960269	24597.712816
505.325856	25071.412398
505.691385	24462.148627
506.056856	25079.523615
506.422270	25058.980913
506.787625	24583.695887
507.152924	25011.248748
507.518164	25053.428082
507.883347	24872.548962
508.248472	24550.255393
508.613540	25319.391797
508.978550	25120.127589
509.343503	25137.978314
509.708398	25352.451684
510.073236	25519.674319
510.438016	25727.369858
510.802738	25379.008483
511.167403	25646.295501
511.532010	25386.096345
511.896561	26122.102286
512.261053	26097.730828
512.625488	25926.800424
512.989866	25817.041902
513.354186	25643.769883
513.718449	25784.218949
514.082655	26146.874516
514.446803	25875.778906
514.810894	26362.426693
515.174927	25860.421031
515.538904	25885.520936
515.902822	26383.332358
516.266684	26145.712530
516.630488	26046.116974
516.994235	25980.592056
517.357925	26326.745406
517.721558	26476.573539
518.085133	26600.414525
518.448651	26479.910783
518.812112	26264.265345
519.175516	26473.758055
519.538863	26618.308100
519.902152	26409.846306
520.265385	26659.285119
520.628560	26470.166233
520.991678	26449.462214
521.354739	26516.060897
521.717743	26601.420235
522.080690	26381.885547
522.443580	26721.679480
522.806413	26694.358947
523.169189	26810.514693
523.531908	26847.569695
523.894569	26474.471378
524.257174	26554.154376
524.619722	26708.068365
524.982213	26419.580774
525.344647	26438.427128
525.707025	26610.287624
526.069345	26563.490593
526.431608	26543.751955
526.793815	26719.506743
527.155964	26202.831324
527.518057	26376.035287
527.880093	26287.099251
528.242072	26525.324018
528.603995	26239.717446
528.965860	26034.280345
529.327669	26060.542236
529.689421	26049.912963
530.051117	25897.420580
530.412755	26071.320223
530.774337	25843.308834
531.135862	25743.801498
531.497331	25927.886793
531.858743	25526.595823
532.220098	25963.910878
532.581396	25661.048437
532.942638	25561.319291
533.303824	25687.111203
533.664953	25670.959346
534.026025	25349.694173
534.387040	25591.331800
534.747999	25627.706246
535.108902	25791.203468
535.469748	25298.962521
535.830537	25471.677493
536.191270	25600.773882
536.551947	25432.293479
536.912567	25053.647372
537.273131	25486.876572
537.633638	25160.908003
537.994089	25386.310594
538.354483	24881.471804
538.714821	25392.929629
539.075103	25437.264057
539.435328	25207.284097
539.795497	24801.057838
540.155609	25147.087679
540.515665	25459.253570
540.875665	24679.225753
541.235609	25018.520612
541.595496	24951.926970
541.955328	25311.555324
542.315102	25238.892132
542.674821	24735.162396
543.034483	24621.827175
543.394090	24807.384486
543.753640	24611.810402
544.113134	25246.567289
544.472571	24825.804862
544.831953	25126.993640
545.191278	24765.205152
545.550548	24663.865357
545.909761	24860.644277
546.268918	25094.155564
546.628019	25066.212448
546.987064	24760.476550
547.346053	24508.181923
547.704986	24608.377377
548.063863	24765.230358
548.422684	24784.739623
548.781449	24285.932574
549.140158	24704.373549
549.498811	24281.055257
549.857408	24041.139184
550.215949	24427.725108
550.574434	24132.996569
550.932864	24337.644730
551.291237	24520.883110
551.649555	24349.539332
552.007817	24416.460650
552.366022	24268.739718
552.724173	24292.460868
553.082267	24263.534727
553.440305	24737.105761
553.798288	23986.601461
554.156215	24481.708304
554.514086	24603.041315
554.871902	23992.030784
555.229661	24266.798874
555.587365	24121.964004
555.945014	24016.450133
556.302606	24232.206477
556.660143	24209.755698
557.017625	24446.228663
557.375050	23959.835455
557.732421	24355.719787
558.089735	24185.686709
558.446994	24222.618202
558.804197	24263.199490
559.161345	24178.445091
559.518437	23959.016267
559.875474	24131.073369
560.232455	24319.403315
560.589381	24130.070179
560.946251	24134.617300
561.303065	24432.494039
561.659825	24525.982237
562.016528	24136.038905
562.373177	23867.408420
562.729770	24232.806374
563.086307	24076.485234
563.442789	24242.722323
563.799216	24088.140382
564.155587	24073.415172
564.511904	24077.256531
564.868164	24012.386963
565.224370	23981.628363
565.580520	23915.775770
565.936615	24032.566702
566.292654	23736.502257
566.648638	23983.370082
567.004567	23817.483352
567.360441	23763.545527
567.716260	23495.439321
568.072023	23807.103617
568.427732	23589.522376
568.783385	23343.738399
569.138982	23597.401699
569.494525	23625.690134
569.850013	23384.395305
570.205445	23480.230160
570.560823	23301.606956
570.916145	23075.143202
571.271412	23248.873966
571.626625	23004.539322
571.981782	23112.646866
572.336884	22906.468715
572.691931	23061.217014
573.046923	22789.667701
573.401860	22657.397906
573.756743	22702.982540
574.111570	22576.157191
574.466342	22497.179954
574.821059	22582.057862
575.175722	22293.245117
575.530330	22271.764760
575.884882	22281.466461
576.239380	22197.034696
576.593823	22085.166451
576.948211	22061.798182
577.302544	21912.663207
577.656823	21765.751381
578.011047	21881.042570
578.365216	21753.816449
578.719330	21617.327209
579.073389	21498.048468
579.427394	21669.684633
579.781344	21420.152559
580.135239	21311.356897
580.489080	21251.992269
580.842866	21046.598017
581.196597	21248.501270
581.550273	21202.246163
581.903895	21089.805747
582.257463	21407.189232
582.610975	20935.400246
582.964434	21263.881831
583.317837	20940.842172
583.671186	21029.503465
584.024481	21010.147955
584.377721	20779.691607
584.730906	20856.488544
585.084037	20842.010350
585.437113	20766.960173
585.790135	20976.715022
586.143103	20423.554252
586.496016	20448.076945
586.848874	20684.940599
587.201679	20610.979311
587.554428	20306.075203
587.907124	20635.159205
588.259765	20391.903367
588.612352	20468.521344
588.964884	20034.656959
589.317362	20198.446568
589.669786	20279.231058
590.022155	20261.377812
590.374470	20513.521204
590.726731	20262.328070
591.078937	20066.595189
591.431090	20139.873402
591.783188	19907.786240
592.135232	19874.486898
592.487222	19967.725559
592.839157	19980.174689
593.191038	19854.773466
593.542866	19752.858980
593.894639	19454.215985
594.246358	19672.961732
594.598022	19567.084899
594.949633	19318.866045
595.301190	19302.157141
595.652692	19465.795515
596.004141	19692.518889
596.355535	19013.225928
596.706876	19034.539927
597.058162	18942.586760
597.409395	19177.683490
597.760573	19220.094718
598.111698	18998.357045
598.462768	18952.248132
598.813785	18913.353109
599.164748	18717.090907
599.515657	18767.053783
599.866511	18558.463440
600.217312	18918.711856
600.568060	18434.196477
600.918753	18744.091328
601.269392	18639.789854
601.619978	18430.140869
601.970510	18623.229664
602.320988	18568.129852
602.671412	18774.557541
603.021783	18705.244196
603.372100	18405.310666
603.722363	18565.669769
604.072572	18510.312859
604.422728	18657.945570
604.772830	18414.246111
605.122878	18368.653915
605.472872	18348.711111
605.822813	18335.780551
606.172701	18318.116348
606.522534	18490.047421
606.872314	18525.998409
607.222041	18364.633595
607.571714	18586.661134
607.921333	18414.896420
608.270899	18485.422162
608.620411	18639.744484
608.969870	18433.962063
609.319276	18433.364687
609.668627	18451.812789
610.017926	18587.888655
610.367171	18706.184371
610.716362	18758.849305
611.065500	18570.773938
611.414585	18712.367346
611.763616	18696.278504
612.112594	18624.308471
612.461518	18603.266695
612.810389	18789.466753
613.159207	18655.097318
613.507971	18564.225479
613.856682	18828.301282
614.205340	18748.391432
614.553945	18901.811387
614.902496	18636.689545
615.250994	18851.873717
615.599439	18807.698086
615.947830	18782.998953
616.296169	18863.649853
616.644454	18826.476384
616.992686	18801.071489
617.340864	19017.871352
617.688990	18758.279655
618.037063	18931.894473
618.385082	18789.071023
618.733048	19065.033867
619.080961	18951.126475
619.428821	18977.690835
619.776628	18848.201237
620.124382	18783.797976
620.472083	18852.420683
620.819731	18852.587041
621.167326	18544.270071
621.514868	18586.525023
621.862357	18362.904479
622.209793	18361.193008
622.557176	18199.429942
622.904506	18036.031023
623.251783	17956.040514
623.599007	17696.995783
623.946179	17645.525602
624.293297	17570.477945
624.640363	17305.116647
624.987376	17339.570413
625.334336	17139.282850
625.681243	16983.914489
626.028097	16996.459400
626.374899	16910.137202
626.721647	16780.614837
627.068343	16615.834641
627.414987	16555.791978
627.761577	16515.866039
628.108115	16558.095785
628.454600	16285.029084
628.801032	16387.109929
629.147412	16320.014692
629.493739	16328.660271
629.840014	16142.351828
630.186236	16226.713017
630.532405	16000.047616
630.878521	16207.062599
631.224585	16101.170642
631.570597	15915.676345
631.916556	15949.636078
632.262462	15921.370328
632.608316	15850.322826
632.954117	15791.853003
633.299866	15766.269148
633.645562	15691.513877
633.991206	15450.627382
634.336797	15317.984542
634.682336	15287.165448
635.027823	15160.380429
635.373257	15036.741089
635.718639	14948.404951
636.063968	14892.599378
636.409245	14635.971879
636.754470	14674.967725
637.099642	14522.727399
637.444762	14299.172391
637.789829	14339.224358
638.134845	14169.917206
638.479808	14201.119428
638.824719	14129.252739
639.169577	13990.081604
639.514383	14029.500907
639.859137	13863.871277
640.203839	13954.125575
640.548489	13798.837872
640.893086	13783.477476
641.237632	13661.443744
641.582125	13821.644052
641.926566	13626.763126
642.270955	13654.386129
642.615292	13602.144651
642.959576	13618.730047
643.303809	13641.664777
643.647990	13569.213314
643.992118	13640.840548
644.336195	13404.659970
644.680219	13634.483653
645.024192	13541.799519
645.368112	13777.420529
645.711981	13831.560001
646.055797	14019.774001
646.399562	13986.885513
646.743274	14250.608435
647.086935	14525.573131
647.430544	14487.615763
647.774101	14535.423545
648.117606	14666.919523
648.461059	14640.173681
648.804460	14622.146515
649.147810	14349.014279
649.491108	14263.793573
649.834354	14278.614565
650.177548	13954.460811
650.520690	13766.496349
650.863781	13689.215461
651.206820	13738.346546
651.549807	13567.973190
651.892742	13358.377137
652.235626	13294.115028
652.578458	13303.557109
652.921238	12999.590656
653.263967	13192.021580
653.606644	13017.133871
653.949269	13010.073735
654.291843	12801.523721
654.634365	12961.325777
654.976836	12807.759628
655.319255	12808.856079
655.661622	12770.324020
656.003938	12696.098071
656.346203	12617.932460
656.688416	12703.627034
657.030577	12652.633242
657.372687	12560.939695
657.714746	12550.716235
658.056753	12741.791089
658.398708	12545.896892
658.740612	12549.065257
659.082465	12657.865960
659.424266	12632.292186
659.766016	12655.418480
660.107715	12568.375397
660.449362	12648.817089
660.790958	12594.970004
661.132503	12538.488916
661.473996	12605.120367
661.815438	12628.261784
662.156829	12646.014207
662.498168	12616.684774
662.839456	12626.625929
663.180693	12632.650108
663.521879	12733.430335
663.863013	12706.021582
664.204097	12676.624093
664.545129	12808.916573
664.886110	12785.366823
665.227040	12876.944424
665.567918	12869.365049
665.908746	12898.482753
666.249522	12888.357596
666.590248	12938.005400
666.930922	13059.966035
667.271545	13026.644008
667.612118	13112.872944
667.952639	13013.960465
668.293109	13043.814178
668.633528	12980.333448
668.973896	12966.412302
669.314213	13030.641643
669.654480	12764.587187
669.994695	12859.398688
670.334859	12883.850804
670.674973	12822.946104
671.015035	12850.594313
671.355047	12794.153554
671.695008	12771.455759
672.034918	12779.808951
672.374777	12826.618585
672.714585	12738.587436
673.054342	12777.782407
673.394049	12715.556924
673.733705	12820.924602
674.073310	12719.415928
674.412864	12738.103485
674.752368	12581.734454
675.091820	12629.506949
675.431223	12609.009617
675.770574	12465.482926
676.109875	12388.234805
676.449125	12352.762726
676.788324	12302.063842
677.127473	12124.247222
677.466571	12121.429217
677.805619	12006.886640
678.144616	11948.686519
678.483562	11917.617888
678.822458	11779.886003
679.161303	11758.773651
679.500098	11750.075140
679.838842	11703.814992
680.177535	11744.033317
680.516179	11802.898870
680.854771	11750.168401
681.193314	11958.962911
681.531805	12133.366670
681.870247	12569.665932
682.208638	12979.874703
682.546978	13283.813430
682.885268	13304.562819
683.223508	13002.312879
683.561697	12852.162111
683.899836	12758.061413
684.237925	12546.947972
684.575963	12466.448307
684.913951	12381.633414
685.251889	12335.358142
685.589776	12440.430912
685.927614	12360.861340
686.265401	12330.473264
686.603137	12387.155998
686.940824	12533.735108
687.278460	12674.423630
687.616046	12702.291128
687.953582	12856.154705
688.291068	12803.583032
688.628504	13030.681972
688.965889	13042.327037
689.303224	12995.779543
689.640510	12886.774674
689.977745	12562.983883
690.314930	12343.499606
690.652065	12248.914957
690.989150	11953.692385
691.326185	11733.532593
691.663170	11527.276304
692.000105	11284.486773
692.336990	11169.689618
692.673825	10910.617160
693.010610	10795.303287
693.347345	10581.737324
693.684030	10386.702644
694.020665	10331.985960
694.357251	10135.025559
694.693786	10057.709382
695.030272	9917.323330
695.366707	9793.023599
695.703093	9731.831553
696.039429	9722.696983
696.375716	9628.535791
696.711952	9508.016926
697.048139	9553.936796
697.384276	9515.651753
697.720363	9537.076657
698.056400	9463.059916
698.392388	9409.568232
698.728326	9370.438796
699.064214	9315.555754
699.400053	9356.268113
699.735842	9166.133433
700.071581	9130.613463
700.407270	9052.717554
700.742910	8977.596800
701.078501	8877.071151
701.414042	8747.269002
701.749533	8694.614150
702.084974	8549.890184
702.420366	8679.029422
702.755709	8545.678300
703.091002	8419.707428
703.426246	8447.983259
703.761440	8397.891834
704.096584	8352.352571
704.431679	8286.031151
704.766725	8272.767875
705.101721	8223.974547
705.436668	8276.364738
705.771565	8159.674630
706.106413	8256.000998
706.441212	8283.976881
706.775961	8248.073783
707.110661	8295.448026
707.445311	8426.563397
707.779913	8330.605033
708.114465	8443.622661
708.448967	8485.771749
708.783421	8652.495309
709.117825	8824.300353
709.452180	8859.757308
709.786485	8944.975494
710.120742	9231.003001
710.454949	9233.483249
710.789107	9336.529475
711.123216	9558.430985
711.457275	9736.388757
711.791286	9874.753306
712.125247	9879.539882
712.459159	9867.010094
712.793023	10098.436864
713.126837	9675.824334
713.460602	9837.292492
713.794318	9664.945524
714.127985	9689.715234
714.461602	9346.188325
714.795171	9300.548239
715.128691	9046.443838
715.462162	8805.988362
715.795584	8752.239579
716.128957	8587.391328
716.462281	8421.156759
716.795556	8466.181825
717.128782	8263.320753
717.461960	8008.414809
717.795088	8073.150786
718.128167	7980.769121
718.461198	7821.803896
718.794180	7764.138137
719.127113	7752.311590
719.459997	7579.231135
719.792833	7361.561673
720.125619	7434.197139
720.458357	7284.006042
720.791046	7280.071422
721.123686	7266.064576
721.456278	7105.498784
721.788821	7124.461085
722.121315	7030.854419
722.453761	7090.952535
722.786158	7031.482043
723.118506	7040.951851
723.450805	7004.481623
723.783056	7068.342960
724.115259	6986.719118
724.447412	6987.911350
724.779518	7040.230966
725.111574	7038.022940
725.443582	7116.677543
725.775542	7097.437979
726.107453	7289.760519
726.439315	7196.794081
726.771129	7271.841738
727.102895	7445.451515
727.434612	7554.045530
727.766281	7592.885100
728.097901	7659.756006
728.429473	7673.074734
728.760996	7651.740571
729.092471	7622.733772
729.423897	7563.933753
729.755276	7563.164978
730.086606	7483.602967
730.417887	7591.282013
730.749120	7815.230232
731.080305	7994.559197
731.411442	8101.078778
731.742530	8089.317766
732.073570	8195.108900
732.404562	8285.322869
732.735506	8144.115108
733.066401	8275.991693
733.397249	8202.645425
733.728048	7954.272816
734.058798	7625.264431
734.389501	7392.983185
734.720156	7216.724282
735.050762	6994.976528
735.381320	6902.998155
735.711831	6840.787796
736.042293	6740.108392
736.372707	6751.743375
736.703073	6617.326049
737.033391	6660.354818
737.363661	6668.846641
737.693883	6708.802827
738.024056	6792.165867
738.354182	6820.847512
738.684260	6856.503593
739.014290	6985.985630
739.344272	7091.312977
739.674207	7124.521578
740.004093	7203.798764
740.333931	7209.124743
740.663722	7213.934004
740.993464	7291.734131
741.323159	7263.566684
741.652806	7026.826537
741.982405	7053.126237
742.311956	7098.274811
742.641460	6912.848570
742.970915	6728.405353
743.300323	6719.865639
743.629683	6672.536766
743.958996	6538.474841
744.288260	6450.794052
744.617477	6394.910341
744.946647	6391.941102
745.275768	6230.135187
745.604842	6184.674061
745.933869	6166.515825
746.262847	6128.341687
746.591778	6111.398369
746.920662	6071.353964
747.249498	6071.197688
747.578286	6114.390294
747.907027	6196.916503
748.235720	6251.643269
748.564365	6228.600155
748.892963	6270.812257
749.221514	6404.175982
749.550017	6221.759309
749.878473	6108.252689
750.206881	6175.554614
750.535242	6120.001098
750.863555	6047.756323
751.191821	6058.171347
751.520039	6051.864863
751.848210	5965.545186
752.176334	5996.732284
752.504411	6039.929931
752.832440	5957.247447
753.160421	5892.786212
753.488356	5943.114572
753.816243	5967.367563
754.144082	5818.504810
754.471875	5797.289114
754.799620	5838.324107
755.127318	5851.526889
755.454969	5807.426875
755.782572	5769.184682
756.110129	5821.229554
756.437638	5792.747035
756.765100	5735.668570
757.092515	5747.603502
757.419882	5797.710051
757.747203	5772.763901
758.074477	5832.824208
758.401703	5810.040713
758.728882	5766.994300
759.056014	5845.041444
759.383099	5957.295338
759.710138	5969.938551
760.037129	5952.654955
760.364073	5962.114681
760.690970	6043.894799
761.017820	6018.731879
761.344623	5981.807948
761.671379	6084.869297
761.998088	6215.087342
762.324751	6478.666592
762.651366	7119.374560
762.977935	8480.249165
763.304456	10137.336928
763.630931	10989.382668
763.957359	10532.656651
764.283740	9570.312984
764.610074	8705.313999
764.936362	7705.194446
765.262602	7111.464990
765.588796	6584.704742
765.914943	6252.671665
766.241044	6081.897537
766.567097	5867.154466
766.893104	5610.761381
767.219064	5437.000370
767.544978	5377.555083
767.870845	5290.769099
768.196665	5185.545095
768.522438	5116.829127
768.848165	5079.043158
769.173846	5010.087736
769.499479	4964.414882
769.825066	4918.986524
770.150607	4855.951936
770.476101	4836.031817
770.801548	4826.209128
771.126949	4741.973968
771.452303	4692.134601
771.777611	4656.753262
772.102872	4676.219678
772.428087	4634.574706
772.753256	4590.270526
773.078378	4542.971900
773.403453	4475.085201
773.728482	4462.416782
774.053465	4413.746962
774.378401	4405.512237
774.703291	4398.469745
775.028135	4324.614321
775.352932	4278.354173
775.677683	4267.792955
776.002388	4285.063948
776.327046	4292.401348
776.651658	4219.032395
776.976224	4154.697189
777.300743	4163.688087
777.625216	4182.610058
777.949643	4176.238040
778.274024	4134.499806
778.598359	4098.763067
778.922647	4123.651243
779.246889	4108.694140
779.571086	4101.215588
779.895236	4085.099019
780.219339	4073.171649
780.543397	4073.249787
780.867409	4124.717447
781.191374	4135.964262
781.515294	4070.278027
781.839167	4064.359712
782.162995	4088.219493
782.486776	4070.696443
782.810511	4084.720933
783.134201	4077.575097
783.457844	4026.704814
783.781441	3979.635560
784.104993	3980.638750
784.428498	4001.846884
784.751958	3996.112572
785.075372	3972.540136
785.398739	3937.569652
785.722061	3950.069193
786.045337	3994.007890
786.368568	4020.693238
786.691752	3933.624949
787.014891	3992.460256
787.337983	4125.808857
787.661030	4291.511584
787.984031	4452.256336
788.306987	4618.735401
788.629897	4700.293708
788.952760	4653.196728
789.275579	4589.985700
789.598351	4516.974669
789.921078	4363.960527
790.243759	4166.143129
790.566395	4160.532325
790.888984	4150.344153
791.211529	4040.943553
791.534027	3980.671517
791.856480	3965.585864
792.178888	3904.935742
792.501249	3861.768342
792.823566	3875.792832
793.145836	3897.187489
793.468062	3843.668079
793.790241	3799.855411
794.112375	3830.581244
794.434464	3903.206627
794.756507	3920.974173
795.078505	3897.898292
795.400457	3937.315074
795.722364	4080.975355
796.044226	4188.674566
796.366042	4259.986728
796.687812	4231.642841
797.009538	4232.456987
797.331218	4198.088921
797.652852	4173.150333
797.974442	4151.175943
798.295986	4147.626971
798.617484	4063.485072
798.938938	3978.448368
799.260346	4026.296480
799.581709	4013.083616
799.903026	3936.581586
800.224299	3903.284765
800.545526	3896.925349
800.866708	3855.129142
801.187845	3800.830874
801.508936	3834.657017
801.829983	3822.056653
802.150984	3749.552258
802.471940	3740.904158
802.792851	3750.321033
803.113717	3750.111826
803.434538	3748.271804
803.755314	3692.496478
804.076045	3669.350020
804.396731	3693.318186
804.717372	3718.410530
805.037967	3699.544011
805.358518	3690.890871
805.679024	3720.951271
805.999485	3731.797314
806.319901	3738.272676
806.640272	3748.849017
806.960598	3759.077518
807.280879	3740.831061
807.601115	3750.275663
807.921306	3768.063374
808.241453	3811.351762
808.561554	3778.410343
808.881611	3714.546485
809.201623	3755.745315
809.521590	3767.564300
809.841513	3740.435331
810.161390	3768.393570
810.481223	3742.358531
810.801011	3688.856765
811.120755	3685.741332
811.440453	3718.692834
811.760107	3717.253585
812.079716	3673.637522
812.399281	3648.114160
812.718801	3669.294568
813.038276	3642.929333
813.357707	3639.526554
813.677093	3652.411743
813.996434	3601.251594
814.315731	3615.749952
814.634983	3619.437556
814.954191	3632.723517
815.273354	3658.773680
815.592473	3655.103720
815.911547	3665.251562
816.230577	3711.718398
816.549562	3762.830657
816.868502	3801.274496
817.187399	3822.712003
817.506250	3821.789472
817.825058	3798.380874
818.143821	3897.152201
818.462539	3998.333200
818.781213	4040.237791
819.099843	4108.439562
819.418429	4372.159963
819.736970	4608.640490
820.055466	4866.762691
820.373919	5238.048712
820.692327	5655.841899
821.010691	6147.921529
821.329011	7626.507076
821.647286	10524.991576
821.965517	15253.987094
822.283704	19277.178223
822.601847	21282.294645
822.919945	19345.561475
823.237999	16686.196546
823.556010	14163.295651
823.873976	11995.760814
824.191897	9886.410974
824.509775	8544.269298
824.827609	7417.649551
825.145398	6891.884931
825.463144	6778.514423
825.780845	6881.066615
826.098502	7110.696214
826.416116	8057.850884
826.733685	9427.625645
827.051210	10519.645433
827.368692	10467.557710
827.686129	9138.006316
828.003522	7623.787373
828.320872	6601.879953
828.638177	5888.541561
828.955439	5318.495446
829.272656	4816.303261
829.589830	4544.963155
829.906960	4369.094942
830.224046	4175.355838
830.541088	4053.322106
830.858086	4002.419055
831.175041	3926.363167
831.491952	3914.445879
831.808819	3925.322169
832.125642	4006.446937
832.442421	4163.650278
832.759157	4457.673056
833.075849	5033.808885
833.392497	5934.040495
833.709101	6717.468570
834.025662	7032.278545
834.342179	6607.687363
834.658653	5930.025216
834.975083	5271.174134
835.291469	4690.435732
835.607811	4289.106954
835.924110	4144.814007
836.240366	3940.619550
836.556578	3736.830906
836.872746	3629.474493
837.188871	3583.655446
837.504952	3515.214221
837.820990	3431.798248
838.136984	3390.901888
838.452935	3416.256371
838.768842	3408.603899
839.084706	3434.528033
839.400526	3605.322325
839.716303	3965.361533
840.032037	4514.277652
840.347727	4754.370166
840.663373	4441.299388
840.978977	4050.259605
841.294537	3742.681165
841.610054	3519.199253
841.925527	3412.339394
842.240957	3340.712160
842.556344	3287.752318
842.871687	3222.224880
843.186987	3174.470030
843.502244	3139.093733
843.817458	3104.208948
844.132629	3074.771130
844.447756	3080.006368
844.762840	3063.849470
845.077881	3032.354862
845.392879	3017.075124
845.707833	3011.998682
846.022745	3011.207221
846.337613	3009.929289
846.652438	2998.798421
846.967221	2995.257010
847.281960	2982.696976
847.596656	2980.312510
847.911309	2979.639516
848.225919	2973.983341
848.540485	2967.513020
848.855009	2968.440593
849.169490	2954.688325
849.483928	2947.620627
849.798323	2948.139866
850.112675	2942.546706
850.426984	2958.002883
850.741251	2950.443673
851.055474	2939.965635
851.369654	2937.409770
851.683792	2940.888166
851.997887	2949.992490
852.311938	2953.543983
852.625947	2939.776592
852.939914	2944.921089
853.253837	2947.600463
853.567718	2932.537495
853.881555	2933.281065
854.195350	2946.357818
854.509103	2943.212138
854.822812	2933.558328
855.136479	2931.327618
855.450103	2933.896086
855.763685	2926.417534
856.077224	2926.069694
856.390720	2939.280038
856.704173	2947.103909
857.017584	2937.966818
857.330953	2936.499842
857.644278	2946.065431
857.957561	2957.060188
858.270802	2960.543625
858.584000	2958.176803
858.897155	2942.481171
859.210268	2944.812704
859.523339	2942.024946
859.836367	2942.450924
860.149352	2935.766354
860.462295	2931.325097
860.775195	2938.150820
861.088054	2936.061261
861.400869	2922.828233
861.713642	2923.218922
862.026373	2935.461364
862.339062	2933.729728
862.651708	2939.912703
862.964312	2948.530555
863.276873	2938.009667
863.589392	2948.628858
863.901869	2962.887762
864.214303	2988.055722
864.526696	3000.973679
864.839045	2992.693584
865.151353	2996.993688
865.463619	2993.913543
865.775842	2996.240035
866.088023	3014.733508
866.400162	3018.799199
866.712258	2987.962461
867.024313	2981.048518
867.336325	2991.120744
867.648296	3011.761748
867.960224	3003.335459
868.272110	2989.336175
868.583954	2996.592916
868.895755	3007.915348
869.207515	2996.091321
869.519233	3002.120541
869.830909	3012.308713
870.142542	3022.035620
870.454134	3020.805578
870.765684	3024.495703
871.077191	3023.253058
871.388657	3036.496169
871.700081	3046.457489
872.011463	3056.123902
872.322803	3058.631876
872.634101	3055.884447
872.945357	3075.149217
873.256571	3101.668206
873.567744	3093.378029
873.878874	3086.325455
874.189963	3111.044753
874.501010	3109.197170
874.812015	3103.430090
875.122979	3097.879779
875.433900	3097.617639
875.744780	3107.500821
876.055618	3112.978035
876.366415	3108.826645
876.677169	3115.783437
876.987882	3115.052470
877.298554	3110.984259
877.609183	3135.786736
877.919771	3159.974192
878.230317	3186.324303
878.540822	3238.888414
878.851285	3277.594393
879.161707	3329.435099
879.472087	3439.891821
879.782425	3688.425747
880.092722	4145.910458
880.402977	4690.382800
880.713191	5358.529769
881.023363	6580.006387
881.333494	7892.748054
881.643583	8412.218793
881.953631	8081.385511
882.263637	7402.914258
882.573602	6780.566172
882.883526	6193.223858
883.193408	5618.413852
883.503248	5160.286394
883.813048	4844.017004
884.122806	4518.940719
884.432522	4194.527346
884.742197	3957.053712
885.051831	3761.865276
885.361424	3632.776449
885.670975	3558.242990
885.980485	3461.909060
886.289954	3384.078686
886.599382	3340.528158
886.908768	3303.337045
887.218113	3259.199223
887.527417	3198.647403
887.836680	3147.761997
888.145901	3144.669249
888.455082	3128.817340
888.764221	3077.793302
889.073319	3048.476472
889.382376	3049.809857
889.691392	3052.779096
890.000366	3049.472099
890.309300	3035.538350
890.618193	3052.345557
890.927044	3064.928277
891.235855	3066.720407
891.544625	3054.891340
891.853353	3067.204358
892.162041	3086.960640
892.470687	3128.454377
892.779293	3176.509176
893.087858	3228.664954
893.396381	3303.062303
893.704864	3435.165739
894.013306	3688.158565
894.321707	4002.577851
894.630068	4199.634035
894.938387	4181.823638
895.246665	4146.364162
895.554903	4016.738452
895.863100	3810.338491
896.171256	3638.349445
896.479371	3493.509533
896.787446	3364.221581
897.095480	3258.914398
897.403473	3196.041127
897.711425	3161.025272
898.019336	3151.908346
898.327207	3119.546658
898.635038	3078.957808
898.942827	3067.617733
899.250576	3055.758418
899.558284	3025.249355
899.865952	3006.360152
900.173579	2984.350474
900.481165	2977.088692
900.788711	2961.090590
901.096216	2938.614606
901.403681	2926.987184
901.711105	2935.605037
902.018489	2933.732248
902.325832	2935.037907
902.633135	2944.464865
902.940397	2978.795123
903.247619	3070.498752
903.554800	3278.297634
903.861941	3646.944612
904.169041	4092.811985
904.476101	4383.835276
904.783121	4315.210048
905.090100	4056.399730
905.397039	3771.546812
905.703938	3515.365456
906.010796	3330.491221
906.317614	3217.652553
906.624391	3120.713686
906.931129	3045.567726
907.237826	2980.453662
907.544483	2935.191662
907.851099	2903.253432
908.157675	2882.534290
908.464211	2861.900847
908.770707	2846.797550
909.077163	2834.403873
909.383578	2817.705051
909.689954	2806.254070
909.996289	2804.449337
910.302584	2809.402271
910.608839	2805.069399
910.915054	2800.449182
911.221229	2793.527677
911.527363	2798.294088
911.833458	2804.086374
912.139513	2808.779688
912.445527	2813.931748
912.751502	2820.835608
913.057436	2830.852381
913.363331	2846.563137
913.669186	2870.364944
913.975000	2906.136972
914.280775	2973.083495
914.586510	3041.118908
914.892205	3123.524129
915.197859	3265.052003
915.503475	3471.217551
915.809050	3694.094524
916.114585	3844.580528
916.420081	3853.964636
916.725536	3784.409316
917.030952	3661.707631
917.336328	3527.582692
917.641665	3392.104203
917.946961	3288.596712
918.252218	3216.679611
918.557435	3134.965028
918.862612	3074.622416
919.167750	3021.471010
919.472848	2981.340905
919.777906	2954.935341
920.082925	2927.962648
920.387904	2894.252452
920.692843	2877.772920
920.997743	2868.202289
921.302603	2854.749970
921.607423	2843.238496
921.912204	2829.957576
922.216946	2816.555668
922.521647	2808.525110
922.826310	2799.808955
923.130932	2793.971299
923.435516	2785.003086
923.740059	2779.011675
924.044564	2767.767381
924.349028	2762.025507
924.653454	2756.044178
924.957840	2750.750967
925.262186	2746.879360
925.566493	2740.333422
925.870761	2738.480798
926.174989	2732.345714
926.479178	2724.143757
926.783328	2722.782645
927.087438	2721.182079
927.391509	2718.601008
927.695541	2715.621686
927.999533	2711.107333
928.303486	2709.355532
928.607400	2709.431149
928.911275	2708.024667
929.215110	2706.908052
929.518906	2706.134234
929.822663	2705.965356
930.126381	2707.906200
930.430060	2707.797815
930.733699	2707.210521
931.037299	2708.596838
931.340861	2712.065152
931.644383	2713.398537
931.947866	2708.705223
932.251309	2706.950901
932.554714	2707.023998
932.858080	2705.637681
933.161407	2701.234233
933.464694	2702.310519
933.767943	2699.222812
934.071153	2698.718697
934.374323	2697.665096
934.677455	2701.203986
934.980548	2699.043852
935.283602	2698.086032
935.586617	2697.302133
935.889593	2698.491845
936.192530	2698.418748
936.495428	2699.984027
936.798287	2699.865560
937.101108	2703.298585
937.403890	2709.640357
937.706632	2715.120091
938.009336	2719.372304
938.312002	2729.333624
938.614628	2737.596076
938.917216	2745.072107
939.219765	2740.827455
939.522275	2744.623444
939.824747	2742.226375
940.127179	2739.771333
940.429573	2735.967783
940.731929	2732.985940
941.034246	2729.036196
941.336524	2725.157028
941.638763	2723.475804
941.940964	2722.936400
942.243126	2720.912377
942.545250	2718.409444
942.847335	2716.410627
943.149381	2712.700337
943.451389	2708.407795
943.753359	2702.895293
944.055290	2707.061807
944.357182	2705.829245
944.659036	2702.973431
944.960851	2701.849254
945.262628	2699.303471
945.564367	2700.127700
945.866067	2702.159285
946.167729	2700.168029
946.469352	2702.197093
946.770937	2703.306147
947.072484	2703.580890
947.373992	2701.720704
947.675462	2697.166022
947.976893	2692.497913
948.278286	2691.625794
948.579641	2692.787780
948.880958	2692.177800
949.182236	2694.300126
949.483476	2692.528160
949.784678	2690.357943
950.085841	2691.996318
950.386967	2691.527491
950.688054	2692.371884
950.989103	2696.495548
951.290114	2694.610157
951.591087	2696.286340
951.892021	2700.220961
952.192917	2700.896476
952.493776	2702.781867
952.794596	2705.715819
953.095378	2704.490818
953.396122	2699.535364
953.696828	2702.839840
953.997496	2701.128369
954.298126	2695.333562
954.598718	2696.954293
954.899272	2693.067564
955.199788	2689.659744
955.500266	2687.849969
955.800706	2684.850483
956.101108	2682.551717
956.401472	2680.865451
956.701798	2680.386541
957.002087	2677.883608
957.302337	2676.527538
957.602550	2675.892352
957.902724	2674.309430
958.202861	2671.743483
958.502960	2672.915551
958.803022	2671.473781
959.103045	2670.079902
959.403031	2668.418842
959.702979	2670.026970
960.002889	2671.463699
960.302762	2666.243584
960.602596	2669.517813
960.902393	2667.680313
961.202153	2667.070333
961.501875	2666.301557
961.801559	2666.278872
962.101205	2665.812565
962.400814	2666.866167
962.700385	2666.246105
962.999918	2662.528254
963.299414	2661.545229
963.598873	2662.339210
963.898293	2661.177224
964.197677	2663.526402
964.497022	2661.089004
964.796331	2663.836433
965.095601	2664.035559
965.394835	2663.642349
965.694030	2665.308450
965.993189	2663.443223
966.292309	2664.637977
966.591393	2663.234015
966.890439	2662.351813
967.189447	2662.687050
967.488419	2659.377532
967.787353	2663.745692
968.086249	2663.392812
968.385108	2664.935405
968.683930	2663.360044
968.982714	2662.132523
969.281462	2661.504899
969.580172	2662.487924
969.878844	2663.758295
970.177480	2662.540857
970.476078	2662.944149
970.774639	2663.604540
971.073162	2661.537667
971.371649	2662.558501
971.670098	2662.500527
971.968510	2663.884324
972.266885	2663.236536
972.565223	2663.228974
972.863524	2666.455312
973.161788	2663.228974
973.460014	2664.368275
973.758204	2663.297030
974.056356	2663.065137
974.354471	2663.859118
974.652550	2663.735610
974.950591	2663.556649
975.248595	2661.666216
975.546563	2664.673265
975.844493	2661.434323
976.142386	2660.126144
976.440243	2662.876093
976.738062	2661.525064
977.035845	2661.746875
977.333590	2662.563542
977.631299	2660.564724
977.928971	2660.572286
978.226606	2657.751760
978.524204	2658.485248
978.821765	2653.781852
979.119290	2660.587409
979.416777	2660.277378
979.714228	2660.360557
980.011642	2659.440547
980.309020	2660.184117
980.606360	2659.543891
980.903664	2660.877276
981.200931	2662.707215
981.498162	2661.020949
981.795356	2661.996412
982.092513	2662.404745
982.389633	2665.338697
982.686717	2669.152330
982.983764	2674.591735
983.280775	2678.828825
983.577749	2679.330419
983.874686	2677.876047
984.171587	2674.349759
984.468451	2675.652898
984.765279	2669.656445
985.062070	2671.788853
985.358824	2667.506393
985.655543	2666.974551
985.952224	2664.040600
986.248869	2662.404745
986.545478	2660.264776
986.842050	2663.526402
987.138586	2660.186638
987.435086	2661.280568
987.731549	2659.100269
988.027975	2660.151350
988.324366	2656.284785
988.620719	2658.291164
988.917037	2659.750578
989.213318	2656.786379
989.509563	2656.463746
989.805772	2657.222439
990.101944	2658.018942
990.398080	2659.579179
990.694180	2658.313849
990.990244	2658.233191
991.286271	2657.688746
991.582262	2657.928201
991.878217	2655.664723
992.174136	2659.274189
992.470019	2654.938797
992.765865	2657.272851
993.061676	2655.452994
993.357450	2653.592808
993.653188	2652.624907
993.948890	2657.507264
994.244556	2655.493323
994.540186	2659.531288
994.835780	2658.336534
995.131337	2659.367450
995.426859	2660.531957
995.722345	2660.254693
996.017795	2659.110351
996.313208	2662.906340
996.608586	2661.514982
996.903928	2663.609581
997.199234	2664.287616
997.494504	2665.124448
997.789738	2661.104128
998.084936	2663.627225
998.380099	2658.076915
998.675225	2659.453150
998.970316	2660.418531
999.265371	2659.541370
999.560390	2657.731596
999.855373	2657.918118
1000.150320	2656.864517
1000.445232	2658.061791
1000.740108	2658.553304
1001.034948	2658.260917
1001.329752	2657.230001
1001.624521	2655.601708
1001.919254	2657.754281
1002.213951	2656.579692
1002.508613	2655.568941
1002.803239	2652.403096
1003.097829	2655.710093
1003.392384	2654.941317
1003.686903	2652.786224
1003.981386	2655.236225
1004.275834	2657.635814
1004.570246	2658.971720
1004.864623	2657.494662
1005.158964	2654.603560
1005.453270	2655.747902
1005.747540	2657.648417
1006.041775	2654.780000
1006.335974	2655.150525
1006.630138	2653.406286
1006.924266	2653.701193
1007.218359	2652.443425
1007.512416	2654.485093
1007.806438	2649.751449
1008.100425	2651.341933
1008.394376	2651.609114
1008.688292	2654.606080
1008.982172	2654.684218
1009.276017	2652.582057
1009.569827	2654.830412
1009.863602	2654.028868
1010.157341	2651.843528
1010.451045	2653.618014
1010.744714	2655.924342
1011.038347	2654.585916
1011.331945	2655.906698
1011.625508	2656.110865
1011.919036	2652.980308
1012.212528	2657.240083
1012.505986	2654.767397
1012.799408	2653.348312
1013.092795	2655.899136
1013.386147	2655.064825
1013.679464	2654.863179
1013.972745	2656.123468
1014.265992	2655.536173
1014.559204	2654.154897
1014.852380	2653.716317
1015.145521	2654.238076
1015.438628	2655.619352
1015.731699	2657.908036
1016.024736	2653.786893
1016.317737	2654.197747
1016.610703	2657.245124
1016.903635	2653.494506
1017.196531	2655.805875
1017.489393	2654.192706
1017.782219	2652.942500
1018.075011	2654.384270
1018.367768	2653.751605
1018.660490	2652.939979
1018.953177	2652.939979
1019.245829	2652.939979
