Dividing Wavelength (nm)	Counts (n)	Blue Motor Position (mm): 18.700000	Red Motor Position (mm): 0.000000	
326.493990	2181.337516
326.888308	2181.337516
327.282561	2181.337516
327.676750	2139.576598
328.070874	2135.624333
328.464933	2138.326392
328.858929	2143.291928
329.252859	2146.641775
329.646726	2155.791469
330.040528	2169.074909
330.434265	2181.692918
330.827938	2198.485001
331.221547	2215.846735
331.615091	2233.019425
332.008571	2250.824781
332.401986	2268.410846
332.795338	2289.979423
333.188625	2305.639767
333.581847	2326.129537
333.975006	2342.367093
334.368100	2362.125896
334.761129	2381.592312
335.154095	2397.015722
335.546996	2417.623959
335.939833	2451.603856
336.332606	2467.538943
336.725315	2476.728967
337.117960	2492.777480
337.510540	2504.500683
337.903056	2516.546521
338.295508	2519.616583
338.687896	2531.271731
339.080220	2537.409336
339.472480	2545.177754
339.864676	2554.080432
340.256807	2556.961451
340.648875	2560.596123
341.040879	2561.637121
341.432818	2569.188770
341.824694	2568.777916
342.216506	2571.716908
342.608253	2569.793708
342.999937	2571.174984
343.391557	2570.948132
343.783113	2569.040056
344.174605	2572.551219
344.566033	2566.774057
344.957397	2567.598286
345.348697	2566.206927
345.739934	2562.743654
346.131106	2560.830537
346.522215	2560.797769
346.913260	2559.812223
347.304241	2557.153015
347.695159	2555.736451
348.086012	2555.791903
348.476802	2552.943651
348.867528	2548.512477
349.258191	2543.249512
349.648789	2543.141128
350.039324	2539.937474
350.429796	2543.070552
350.820203	2541.066693
351.210548	2540.691127
351.600828	2542.548792
351.991045	2538.117618
352.381198	2539.589635
352.771288	2537.716846
353.161314	2534.959335
353.551276	2537.459747
353.941175	2535.002185
354.331010	2535.425642
354.720782	2534.054448
355.110490	2534.344314
355.500135	2534.724921
355.889717	2536.640560
356.279235	2533.920857
356.668689	2535.476053
357.058080	2537.968904
357.447408	2536.799356
357.836672	2536.275076
358.225873	2535.702905
358.615010	2536.869932
359.004084	2536.312885
359.393095	2537.517721
359.782043	2537.164840
360.170927	2540.794471
360.559748	2540.665921
360.948505	2539.166178
361.337199	2543.678011
361.725830	2542.034594
362.114398	2543.824204
362.502903	2543.894780
362.891344	2542.745397
363.279722	2545.986859
363.668037	2542.115253
364.056289	2542.415202
364.444478	2546.130532
364.832603	2545.858310
365.220665	2545.737322
365.608665	2547.836962
365.996601	2547.854607
366.384474	2547.489123
366.772284	2546.410316
367.160031	2547.042981
367.547715	2548.966181
367.935336	2548.046170
368.322893	2545.462579
368.710388	2546.725388
369.097820	2544.192208
369.485189	2543.620037
369.872495	2549.003990
370.259738	2550.009700
370.646918	2551.010369
371.034035	2550.128167
371.421090	2548.898125
371.808081	2553.183106
372.195010	2550.279402
372.581875	2552.550441
372.968678	2550.680173
373.355418	2552.842828
373.742096	2553.772921
374.128710	2552.762170
374.515262	2552.578168
374.901751	2551.275029
375.288177	2553.253682
375.674540	2551.741336
376.060841	2555.310473
376.447079	2554.471121
376.833254	2555.045812
377.219367	2552.379042
377.605417	2557.450443
377.991404	2552.258054
378.377329	2555.648230
378.763191	2555.396173
379.148991	2557.402552
379.534727	2553.707386
379.920402	2555.388611
380.306013	2558.194013
380.691563	2559.504713
381.077049	2553.866183
381.462474	2558.347768
381.847835	2556.139743
382.233134	2559.330793
382.618371	2555.905329
383.003545	2556.366595
383.388657	2557.284085
383.773706	2557.838612
384.158693	2558.526729
384.543618	2559.981102
384.928480	2556.240566
385.313280	2561.599312
385.698017	2556.895916
386.082692	2557.936914
386.467305	2560.613767
386.851856	2560.782646
387.236344	2556.754764
387.620770	2559.315670
388.005133	2555.940617
388.389435	2559.431616
388.773674	2555.567572
389.157851	2563.371278
389.541965	2560.265927
389.926018	2561.024621
390.310008	2559.754250
390.693936	2562.151319
391.077802	2562.869683
391.461606	2563.633418
391.845348	2563.572924
392.229027	2562.058058
392.612645	2562.990671
392.996200	2564.560990
393.379694	2563.381360
393.763125	2562.536967
394.146494	2563.593089
394.529801	2562.612584
394.913047	2565.415466
395.296230	2563.275496
395.679351	2563.041082
396.062410	2566.443861
396.445408	2563.877914
396.828343	2565.806155
397.211217	2565.430589
397.594028	2564.409756
397.976778	2564.810527
398.359466	2568.107442
398.742092	2567.310940
399.124656	2568.563667
399.507158	2566.038048
399.889598	2568.314129
400.271977	2567.101732
400.654294	2566.910168
401.036549	2566.645507
401.418742	2565.901937
401.800874	2571.147258
402.182944	2567.444530
402.564952	2567.590724
402.946898	2568.203224
403.328783	2570.055848
403.710606	2566.758933
404.092367	2567.101732
404.474067	2572.016857
404.855705	2572.079871
405.237282	2565.969993
405.618797	2570.257494
406.000250	2572.105077
406.381642	2569.791187
406.762972	2568.619119
407.144240	2565.334807
407.525447	2569.634912
407.906593	2567.013512
408.287677	2568.871177
408.668700	2571.931157
409.049661	2572.546178
409.430560	2570.565005
409.811399	2570.600293
410.192176	2570.234809
410.572891	2570.728842
410.953545	2572.647001
411.334138	2573.619944
411.714669	2571.245560
412.095139	2574.426528
412.475547	2574.333267
412.855894	2572.737742
413.236180	2573.869481
413.616405	2572.614234
413.996568	2573.690520
414.376670	2573.735890
414.756711	2573.992989
415.136691	2578.106571
415.516609	2575.490212
415.896466	2574.028277
416.276262	2574.292938
416.655997	2576.289235
417.035670	2576.299317
417.415283	2577.761252
417.794834	2575.389389
418.174324	2576.579101
418.553753	2573.632547
418.933121	2580.261664
419.312428	2578.373752
419.691674	2575.165057
420.070859	2579.021540
420.449983	2577.390727
420.829045	2576.511046
421.208047	2577.955336
421.586988	2578.759400
421.965867	2576.538772
422.344686	2576.407702
422.723444	2578.204873
423.102141	2579.208063
423.480777	2578.121694
423.859352	2578.056159
424.237866	2578.439287
424.616319	2579.757549
424.994712	2579.918866
425.373044	2577.292424
425.751314	2577.743608
426.129524	2574.464337
426.507673	2574.761765
426.885762	2574.345870
427.263789	2577.630182
427.641756	2581.383321
428.019662	2579.134966
428.397508	2579.331571
428.775292	2579.775193
429.153016	2579.109760
429.530679	2580.261664
429.908282	2579.505491
430.285824	2579.681931
430.663305	2578.918197
431.040726	2578.338464
431.418086	2581.738722
431.795385	2583.062025
432.172624	2578.739236
432.549802	2582.021027
432.926920	2583.956830
433.303977	2580.060018
433.680974	2580.226376
434.057910	2581.804257
434.434786	2581.892477
434.811601	2583.858527
435.188355	2584.614700
435.565050	2581.937848
435.941683	2579.505491
436.318257	2583.177972
436.694770	2584.113106
437.071222	2583.898857
437.447614	2583.737540
437.823946	2585.136460
438.200218	2582.036150
438.576429	2585.186871
438.952580	2585.524629
439.328670	2582.691500
439.704700	2586.737026
440.080670	2583.455235
440.456580	2586.699217
440.832429	2586.444639
441.208218	2584.738209
441.583947	2587.488158
441.959616	2583.934145
442.335224	2587.740216
442.710773	2585.212077
443.086261	2586.679053
443.461689	2585.711151
443.837057	2587.740216
444.212365	2589.723910
444.587612	2583.319124
444.962800	2582.368866
445.337927	2586.502612
445.712995	2583.183013
446.088002	2587.281471
446.462949	2586.109402
446.837837	2585.569999
447.212664	2584.322313
447.587431	2590.558221
447.962139	2587.223498
448.336786	2590.898499
448.711374	2591.117789
449.085901	2588.309866
449.460369	2588.398086
449.834776	2589.718869
450.209124	2589.827253
450.583412	2589.512181
450.957640	2591.710124
451.331808	2590.515371
451.705917	2588.529156
452.079965	2590.858169
452.453954	2589.287850
452.827883	2591.150556
453.201752	2591.024527
453.575562	2593.724065
453.949311	2591.092583
454.323001	2591.584096
454.696632	2590.810278
455.070202	2593.288006
455.443713	2591.505958
455.817164	2592.718355
456.190556	2591.072418
456.563888	2596.221957
456.937160	2594.192893
457.310373	2591.231215
457.683526	2593.482090
458.056619	2592.824219
458.429653	2598.437544
458.802628	2593.330855
459.175542	2593.824888
459.548398	2597.174735
459.921194	2593.472008
460.293930	2596.244642
460.666607	2596.524426
461.039224	2595.846391
461.411782	2596.496700
461.784280	2598.543408
462.156719	2598.031731
462.529099	2598.276227
462.901419	2599.334870
463.273680	2598.561052
463.645882	2593.625763
464.018024	2597.366299
464.390106	2593.908067
464.762130	2598.924016
465.134094	2602.886363
465.505999	2601.711774
465.877845	2602.543564
466.249631	2606.354676
466.621358	2606.339553
466.993026	2608.172012
467.364634	2610.044801
467.736184	2608.401385
468.107674	2605.681682
468.479105	2604.769233
468.850477	2604.582711
469.221790	2604.849892
469.593043	2601.542895
469.964238	2603.929881
470.335373	2604.257556
470.706449	2603.105653
471.077467	2604.189501
471.448425	2605.313678
471.819324	2609.213011
472.190164	2613.356839
472.560945	2611.070676
472.931667	2605.908534
473.302330	2606.493308
473.672934	2607.632609
474.043479	2608.071189
474.413965	2604.330653
474.784393	2607.320057
475.154761	2609.510439
475.525070	2609.422218
475.895321	2605.958946
476.265513	2607.814090
476.635645	2609.918772
477.005719	2609.293669
477.375734	2611.211828
477.745691	2610.995058
478.115588	2612.620831
478.485427	2615.953033
478.855207	2616.510081
479.224928	2617.036881
479.594591	2621.024434
479.964194	2621.226080
480.333739	2622.430916
480.703226	2623.451750
481.072653	2623.781945
481.442022	2624.790176
481.811333	2625.458129
482.180584	2623.250103
482.549777	2624.243211
482.918912	2622.095679
483.287988	2627.174642
483.657005	2628.134982
484.025964	2626.940228
484.394864	2628.823099
484.763706	2630.027935
485.132489	2627.361164
485.501213	2628.815537
485.869879	2628.994498
486.238487	2628.659262
486.607036	2629.458284
486.975527	2633.196300
487.343959	2632.858543
487.712333	2632.606485
488.080648	2631.731845
488.448905	2636.765437
488.817104	2638.668472
489.185244	2641.025212
489.553326	2640.657208
489.921350	2642.068731
490.289315	2651.059629
490.657222	2656.201606
491.025070	2656.138591
491.392861	2661.242759
491.760593	2660.957934
492.128267	2659.112872
492.495883	2658.114723
492.863440	2658.510454
493.230939	2660.647903
493.598380	2664.227122
493.965763	2663.261742
494.333088	2663.395332
494.700354	2667.115704
495.067563	2669.096877
495.434713	2671.932526
495.801805	2676.799760
496.168839	2680.106757
496.535815	2680.865451
496.902733	2686.166224
497.269593	2691.898016
497.636395	2697.415559
498.003139	2703.205324
498.369825	2703.553164
498.736453	2712.042467
499.103023	2719.279043
499.469535	2726.427399
499.835989	2732.212123
500.202385	2738.067423
500.568723	2739.068092
500.935003	2754.932604
501.301226	2758.552152
501.667390	2783.026954
502.033497	2795.932308
502.399546	2802.659728
502.765537	2807.544606
503.131470	2825.866679
503.497345	2838.787157
503.863163	2847.899042
504.228923	2868.320757
504.594625	2887.678787
504.960269	2898.093811
505.325856	2919.619538
505.691385	2934.193514
506.056856	2962.640745
506.422270	2986.046822
506.787625	3006.778568
507.152924	3033.390819
507.518164	3056.585168
507.883347	3076.162488
508.248472	3100.213833
508.613540	3143.333343
508.978550	3177.908097
509.343503	3211.666183
509.708398	3252.199581
510.073236	3292.155766
510.438016	3336.787622
510.802738	3369.514793
511.167403	3419.061773
511.532010	3446.967080
511.896561	3527.844832
512.261053	3580.522369
512.625488	3620.407978
512.989866	3662.983043
513.354186	3703.503838
513.718449	3771.579579
514.082655	3839.015094
514.446803	3893.520050
514.810894	3978.647494
515.174927	4009.131351
515.538904	4075.326742
515.902822	4166.909384
516.266684	4229.454980
516.630488	4280.968011
516.994235	4349.991489
517.357925	4446.945481
517.721558	4545.696643
518.085133	4623.383345
518.448651	4695.451680
518.812112	4759.723871
519.175516	4848.430535
519.538863	4966.333041
519.902152	5026.063152
520.265385	5151.391278
520.628560	5221.274273
520.991678	5319.743131
521.354739	5423.956384
521.717743	5530.319689
522.080690	5600.429536
522.443580	5759.367035
522.806413	5834.376883
523.169189	5971.203881
523.531908	6056.303599
523.894569	6134.388552
524.257174	6255.532520
524.619722	6386.136213
524.982213	6435.796619
525.344647	6585.546615
525.707025	6701.883843
526.069345	6834.680438
526.431608	6948.098838
526.793815	7118.295753
527.155964	7106.973322
527.518057	7267.912158
527.880093	7385.376084
528.242072	7515.692432
528.603995	7593.227898
528.965860	7677.175713
529.327669	7866.448355
529.689421	7959.843291
530.051117	8051.867034
530.412755	8255.567458
530.774337	8306.445303
531.135862	8417.559896
531.497331	8600.165612
531.858743	8624.277451
532.220098	8907.227334
532.581396	8907.285307
532.942638	9091.436136
533.303824	9218.742915
533.664953	9370.975679
534.026025	9438.176780
534.387040	9605.159960
534.747999	9816.984204
535.108902	9967.999529
535.469748	9967.749992
535.830537	10177.494759
536.191270	10319.909876
536.551947	10484.586728
536.912567	10463.048398
537.273131	10718.413088
537.633638	10746.386450
537.994089	11003.097128
538.354483	10961.124481
538.714821	11286.798142
539.075103	11486.609316
539.435328	11535.894157
539.795497	11499.897798
540.155609	11820.457209
540.515665	12078.420613
540.875665	11907.084397
541.235609	12162.552430
541.595496	12332.093995
541.955328	12627.293882
542.315102	12747.563210
542.674821	12726.849109
543.034483	12803.257878
543.394090	13005.158610
543.753640	13058.330180
544.113134	13495.705729
544.472571	13488.360768
544.831953	13819.574658
545.191278	13721.743506
545.550548	13876.902659
545.909761	14054.515112
546.268918	14351.302963
546.628019	14464.431496
546.987064	14516.879661
547.346053	14524.988357
547.704986	14701.375809
548.063863	14955.971723
548.422684	15030.777404
548.781449	14985.805271
549.140158	15337.435834
549.498811	15273.725732
549.857408	15208.999837
550.215949	15620.504184
550.574434	15556.231993
550.932864	15823.357694
551.291237	16020.739032
551.649555	16104.742299
552.007817	16271.735562
552.366022	16327.583984
552.724173	16458.142307
553.082267	16552.863067
553.440305	16986.177967
553.798288	16642.293137
554.156215	17127.476468
554.514086	17300.325031
554.871902	17003.892582
555.229661	17314.843554
555.587365	17373.338582
555.945014	17355.369389
556.302606	17700.423767
556.660143	17731.005927
557.017625	18072.738185
557.375050	17865.456021
557.732421	18235.287670
558.089735	18249.125637
558.446994	18380.016676
558.804197	18534.848155
559.161345	18630.131004
559.518437	18491.610178
559.875474	18814.027255
560.232455	19015.489407
560.589381	19032.886428
560.946251	19069.608714
561.303065	19444.045457
561.659825	19613.720613
562.016528	19411.202339
562.373177	19326.576490
562.729770	19668.265897
563.086307	19712.209636
563.442789	19937.619789
563.799216	19891.720083
564.155587	19969.948708
564.511904	20073.786395
564.868164	20070.383616
565.224370	20192.719817
565.580520	20158.777728
565.936615	20385.032275
566.292654	20164.857360
566.648638	20548.337933
567.004567	20444.419588
567.360441	20490.775518
567.716260	20327.873152
568.072023	20708.709640
568.427732	20560.524922
568.783385	20445.206008
569.138982	20703.986079
569.494525	20827.882517
569.850013	20674.412150
570.205445	20823.131229
570.560823	20695.191786
570.916145	20579.658622
571.271412	20766.135944
571.626625	20625.099583
571.981782	20761.654358
572.336884	20643.066255
572.691931	20824.336065
573.046923	20622.722679
573.401860	20585.014848
573.756743	20635.096191
574.111570	20602.338773
574.466342	20593.294943
574.821059	20735.841130
575.175722	20489.636217
575.530330	20548.574867
575.884882	20604.801377
576.239380	20564.807383
576.593823	20498.939667
576.948211	20507.645739
577.302544	20405.713608
577.656823	20332.253915
578.011047	20461.572114
578.365216	20366.788339
578.719330	20296.532298
579.073389	20232.529809
579.427394	20394.875128
579.781344	20211.447704
580.135239	20140.493463
580.489080	20152.950155
580.842866	19943.129770
581.196597	20138.479522
581.550273	20142.141921
581.903895	20079.331664
582.257463	20395.215406
582.610975	19961.721545
582.964434	20275.457755
583.317837	20031.750734
583.671186	20124.064343
584.024481	20109.664287
584.377721	19923.496996
584.730906	19980.293156
585.084037	20040.713905
585.437113	19955.740216
585.790135	20173.364307
586.143103	19681.539256
586.496016	19698.787563
586.848874	19947.959195
587.201679	19909.621220
587.554428	19583.103165
587.907124	19930.418500
588.259765	19724.457119
588.612352	19813.289811
588.964884	19409.866434
589.317362	19583.597198
589.669786	19642.699686
590.022155	19717.802796
590.374470	19887.959382
590.726731	19715.050326
591.078937	19464.603282
591.431090	19587.733465
591.783188	19326.296706
592.135232	19316.668102
592.487222	19413.601929
592.839157	19469.573860
593.191038	19359.437251
593.542866	19247.740405
593.894639	18982.452205
594.246358	19195.977838
594.598022	19121.600654
594.949633	18879.116113
595.301190	18841.705710
595.652692	19003.867026
596.004141	19261.112066
596.355535	18595.483153
596.706876	18610.097458
597.058162	18505.632148
597.409395	18735.289473
597.760573	18828.611313
598.111698	18614.226163
598.462768	18550.735351
598.813785	18517.385598
599.164748	18353.681688
599.515657	18379.638590
599.866511	18168.719233
600.217312	18538.636582
600.568060	18070.930931
600.918753	18376.008959
601.269392	18287.922357
601.619978	18061.309889
601.970510	18277.968599
602.320988	18230.566629
602.671412	18429.417463
603.021783	18328.632195
603.372100	18082.767560
603.722363	18215.808651
604.072572	18152.562335
604.422728	18278.230739
604.772830	18050.257159
605.122878	17995.280856
605.472872	17995.331267
605.822813	17988.729876
606.172701	17937.688194
606.522534	18159.108273
606.872314	18165.054314
607.222041	17993.637440
607.571714	18224.355928
607.921333	18056.646822
608.270899	18123.394219
608.620411	18324.914344
608.969870	18068.238955
609.319276	18083.775791
609.668627	18117.463302
610.017926	18244.109689
610.367171	18367.905304
610.716362	18409.366274
611.065500	18230.186022
611.414585	18358.153192
611.763616	18349.978961
612.112594	18303.499522
612.461518	18263.969315
612.810389	18460.254201
613.159207	18305.780645
613.507971	18221.361482
613.856682	18504.510491
614.205340	18430.992824
614.553945	18577.695442
614.902496	18318.406214
615.250994	18559.622905
615.599439	18498.219131
615.947830	18481.225401
616.296169	18522.547739
616.644454	18497.629316
616.992686	18473.298187
617.340864	18679.131019
617.688990	18442.138815
618.037063	18618.221278
618.385082	18470.812898
618.733048	18746.458149
619.080961	18613.333879
619.428821	18656.047576
619.776628	18552.025887
620.124382	18464.697978
620.472083	18504.024020
620.819731	18537.721613
621.167326	18220.454075
621.514868	18265.506867
621.862357	18016.176438
622.209793	18035.841980
622.557176	17881.658289
622.904506	17707.546918
623.251783	17607.346423
623.599007	17389.863485
623.946179	17322.617013
624.293297	17265.800688
624.640363	17025.103236
624.987376	17050.382102
625.334336	16841.322932
625.681243	16686.294848
626.028097	16693.662494
626.374899	16628.245962
626.721647	16497.506157
627.068343	16320.874209
627.414987	16251.374341
627.761577	16227.935496
628.108115	16285.858354
628.454600	15996.591905
628.801032	16091.015237
629.147412	16032.850404
629.493739	16051.984104
629.840014	15854.635533
630.186236	15964.159642
630.532405	15716.155037
630.878521	15918.161634
631.224585	15811.518545
631.570597	15637.853315
631.916556	15670.983778
632.262462	15655.018444
632.608316	15566.173149
632.954117	15508.371279
633.299866	15511.527041
633.645562	15440.658500
633.991206	15184.462021
634.336797	15053.644078
634.682336	15025.103586
635.027823	14924.406538
635.373257	14805.899093
635.718639	14689.261917
636.063968	14646.288601
636.409245	14398.843564
636.754470	14438.280511
637.099642	14285.808292
637.444762	14050.421695
637.789829	14094.577162
638.134845	13934.044138
638.479808	13953.634062
638.824719	13913.952620
639.169577	13763.577521
639.514383	13807.039829
639.859137	13618.609060
640.203839	13704.810270
640.548489	13550.248493
640.893086	13535.220813
641.237632	13407.861103
641.582125	13554.770408
641.926566	13397.879618
642.270955	13403.019074
642.615292	13361.605996
642.959576	13371.980690
643.303809	13414.414603
643.647990	13344.904653
643.992118	13399.132345
644.336195	13184.021269
644.680219	13368.265360
645.024192	13301.520483
645.368112	13531.891131
645.711981	13593.287344
646.055797	13774.441207
646.399562	13731.679620
646.743274	14010.021888
647.086935	14279.312765
647.430544	14241.468823
647.774101	14269.346404
648.117606	14431.406897
648.461059	14391.049940
648.804460	14401.427155
649.147810	14125.212254
649.491108	14022.881872
649.834354	14033.969890
650.177548	13745.963729
650.520690	13554.898957
650.863781	13470.298314
651.206820	13516.674408
651.549807	13340.173530
651.892742	13162.702229
652.235626	13091.261518
652.578458	13094.210593
652.921238	12780.918005
653.263967	12969.557982
653.606644	12805.024802
653.949269	12773.278136
654.291843	12581.270668
654.634365	12733.047208
654.976836	12584.325607
655.319255	12599.978390
655.661622	12551.522819
656.003938	12472.384266
656.346203	12399.834500
656.688416	12464.217597
657.030577	12428.468254
657.372687	12351.822551
657.714746	12325.169971
658.056753	12511.959844
658.398708	12341.591529
658.740612	12338.987773
659.082465	12435.828339
659.424266	12397.240827
659.766016	12422.900300
660.107715	12330.783295
660.449362	12401.069583
660.790958	12364.236392
661.132503	12308.602218
661.473996	12373.035726
661.815438	12387.755896
662.156829	12400.063873
662.498168	12378.472611
662.839456	12377.635779
663.180693	12392.066082
663.521879	12484.747696
663.863013	12473.972229
664.204097	12443.062394
664.545129	12560.370044
664.886110	12520.965865
665.227040	12603.214811
665.567918	12621.093263
665.908746	12659.090960
666.249522	12633.348308
666.590248	12679.177438
666.930922	12796.414512
667.271545	12787.181638
667.612118	12875.159855
667.952639	12772.602621
668.293109	12772.247220
668.633528	12736.777662
668.973896	12707.806150
669.314213	12792.878142
669.654480	12543.293136
669.994695	12591.252153
670.334859	12623.873459
670.674973	12560.344839
671.015035	12608.185389
671.355047	12541.937065
671.695008	12516.746420
672.034918	12521.313705
672.374777	12565.459089
672.714585	12482.844660
673.054342	12507.624452
673.394049	12461.754993
673.733705	12555.102039
674.073310	12471.643216
674.412864	12487.812717
674.752368	12365.206814
675.091820	12371.745191
675.431223	12362.439221
675.770574	12233.209242
676.109875	12160.495639
676.449125	12119.032149
676.788324	12051.591593
677.127473	11896.351780
677.466571	11883.680840
677.805619	11789.882611
678.144616	11703.837677
678.483562	11677.212823
678.822458	11544.688450
679.161303	11515.611074
679.500098	11517.945129
679.838842	11468.332613
680.177535	11484.560087
680.516179	11543.468491
680.854771	11486.513534
681.193314	11704.034282
681.531805	11849.048113
681.870247	12252.463929
682.208638	12656.830003
682.546978	12984.502482
682.885268	13051.743913
683.223508	12735.325809
683.561697	12569.602918
683.899836	12476.961633
684.237925	12281.586675
684.575963	12192.955629
684.913951	12129.600928
685.251889	12066.094992
685.589776	12158.222079
685.927614	12095.368972
686.265401	12050.275851
686.603137	12101.264602
686.940824	12244.118299
687.278460	12362.025846
687.616046	12408.928742
687.953582	12588.043458
688.291068	12504.171261
688.628504	12731.794481
688.965889	12742.922828
689.303224	12724.530178
689.640510	12611.905760
689.977745	12309.076087
690.314930	12086.665420
690.652065	12002.936896
690.989150	11716.586755
691.326185	11492.867909
691.663170	11284.965683
692.000105	11039.796727
692.336990	10939.197982
692.673825	10695.853924
693.010610	10573.905892
693.347345	10367.145487
693.684030	10156.301748
694.020665	10106.457340
694.357251	9907.349407
694.693786	9865.971616
695.030272	9690.148773
695.366707	9569.735772
695.703093	9507.837965
696.039429	9500.911419
696.375716	9434.973127
696.711952	9303.071337
697.048139	9337.431841
697.384276	9288.613307
697.720363	9311.013674
698.056400	9244.152851
698.392388	9194.729379
698.728326	9164.424482
699.064214	9092.698945
699.400053	9140.584866
699.735842	8960.519892
700.071581	8912.056759
700.407270	8840.250564
700.742910	8762.117720
701.078501	8675.903907
701.414042	8556.690701
701.749533	8478.104154
702.084974	8341.173812
702.420366	8446.927138
702.755709	8335.615940
703.091002	8206.398564
703.426246	8236.728666
703.761440	8186.806120
704.096584	8142.819532
704.431679	8074.229593
704.766725	8062.428252
705.101721	8007.633430
705.436668	8050.473155
705.771565	7948.142773
706.106413	8029.950618
706.441212	8075.240344
706.775961	8029.663272
707.110661	8056.232673
707.445311	8204.500570
707.779913	8105.225127
708.114465	8229.766833
708.448967	8274.272660
708.783421	8396.414776
709.117825	8586.849404
709.452180	8624.015311
709.786485	8710.511428
710.120742	8995.510540
710.454949	8992.974840
710.789107	9087.378008
711.123216	9296.346437
711.457275	9460.738464
711.791286	9628.964289
712.125247	9616.164799
712.459159	9608.693809
712.793023	9868.827430
713.126837	9446.565260
713.460602	9585.895191
713.794318	9412.499663
714.127985	9449.778996
714.461602	9133.428948
714.795171	9080.302748
715.128691	8838.770985
715.462162	8583.227335
715.795584	8532.231023
716.128957	8388.734578
716.462281	8210.973411
716.795556	8265.291844
717.128782	8068.707009
717.461960	7791.536808
717.795088	7866.602110
718.128167	7778.621372
718.461198	7612.041485
718.794180	7550.741054
719.127113	7543.461628
719.459997	7397.623567
719.792833	7166.743762
720.125619	7226.458750
720.458357	7087.842143
720.791046	7075.387972
721.123686	7078.967192
721.456278	6917.544404
721.788821	6938.646674
722.121315	6832.623647
722.453761	6891.821917
722.786158	6843.013465
723.118506	6853.940166
723.450805	6815.884496
723.783056	6886.629528
724.115259	6797.270035
724.447412	6790.651000
724.779518	6835.378638
725.111574	6833.929306
725.443582	6912.427633
725.775542	6891.463995
726.107453	7082.022131
726.439315	6999.001889
726.771129	7053.111114
727.102895	7219.428861
727.434612	7334.364648
727.766281	7365.899586
728.097901	7449.706248
728.429473	7437.368024
728.760996	7407.105978
729.092471	7390.437403
729.423897	7332.491860
729.755276	7348.704211
730.086606	7277.361801
730.417887	7370.532407
730.749120	7547.668471
731.080305	7741.336998
731.411442	7869.057152
731.742530	7869.672172
732.073570	7970.631361
732.404562	8061.616626
732.735506	7900.665186
733.066401	8048.204636
733.397249	7984.081159
733.728048	7745.412771
734.058798	7420.197854
734.389501	7202.921603
734.720156	7025.629263
735.050762	6791.326515
735.381320	6689.618716
735.711831	6647.802344
736.042293	6539.142794
736.372707	6563.153810
736.703073	6421.875473
737.033391	6455.439475
737.363661	6465.262164
737.693883	6491.962635
738.024056	6577.798362
738.354182	6620.091122
738.684260	6660.322050
739.014290	6766.927330
739.344272	6873.212498
739.674207	6898.912300
740.004093	6970.171530
740.333931	6983.384394
740.663722	6995.984758
740.993464	7069.855306
741.323159	7076.938127
741.652806	6820.214847
741.982405	6824.131824
742.311956	6877.956223
742.641460	6731.198153
742.970915	6532.203646
743.300323	6523.842892
743.629683	6467.515559
743.958996	6341.159038
744.288260	6249.846098
744.617477	6195.328540
744.946647	6211.987033
745.275768	6043.783893
745.604842	5998.247151
745.933869	5978.591692
746.262847	5934.925217
746.591778	5924.484988
746.920662	5883.487804
747.249498	5869.969950
747.578286	5916.598103
747.907027	5995.373693
748.235720	6056.245626
748.564365	6027.057345
748.892963	6044.792124
749.221514	6202.476896
749.550017	6048.872938
749.878473	5922.952477
750.206881	5975.289736
750.535242	5918.861581
750.863555	5845.777453
751.191821	5864.863261
751.520039	5867.388879
751.848210	5775.317245
752.176334	5797.672242
752.504411	5849.810376
752.832440	5772.325321
753.160421	5698.676583
753.488356	5745.065281
753.816243	5783.312515
754.144082	5634.389269
754.471875	5600.626141
754.799620	5645.247914
755.127318	5660.134442
755.454969	5608.339107
755.782572	5575.866514
756.110129	5615.885714
756.437638	5611.603254
756.765100	5553.297268
757.092515	5545.838881
757.419882	5589.427218
757.747203	5575.899282
758.074477	5639.992512
758.401703	5632.566892
758.728882	5575.579168
759.056014	5622.948370
759.383099	5761.068424
759.710138	5771.964878
760.037129	5754.010809
760.364073	5760.100523
760.690970	5845.071691
761.017820	5823.498073
761.344623	5778.031907
761.671379	5871.199992
761.998088	5987.597713
762.324751	6213.605243
762.651366	6787.505320
762.977935	8056.514978
763.304456	9659.246500
763.630931	10584.419218
763.957359	10233.159180
764.283740	9309.251791
764.610074	8508.973659
764.936362	7519.911878
765.262602	6926.610920
765.588796	6380.974071
765.914943	6038.291556
766.241044	5886.439400
766.567097	5696.062745
766.893104	5442.714517
767.219064	5254.467751
767.544978	5194.934244
767.870845	5120.466320
768.196665	5015.121328
768.522438	4941.510399
768.848165	4909.025204
769.173846	4846.519937
769.499479	4806.435202
769.825066	4753.188015
770.150607	4691.935475
770.476101	4663.684849
770.801548	4661.512112
771.126949	4594.573150
771.452303	4538.976785
771.777611	4496.298377
772.102872	4513.216489
772.428087	4472.678050
772.753256	4435.885189
773.078378	4394.973705
773.403453	4325.768745
773.728482	4309.727793
774.053465	4262.860186
774.378401	4250.204369
774.703291	4254.832149
775.028135	4182.960418
775.352932	4134.550218
775.677683	4123.729381
776.002388	4139.856032
776.327046	4153.416736
776.651658	4077.428904
776.976224	4017.829862
777.300743	4019.213659
777.625216	4042.344993
777.949643	4041.041855
778.274024	3997.990401
778.598359	3951.216055
778.922647	3971.058037
779.246889	3971.297492
779.571086	3961.401707
779.895236	3949.955767
780.219339	3930.801903
780.543397	3923.756890
780.867409	3975.975682
781.191374	3995.240452
781.515294	3930.544804
781.839167	3924.445008
782.162995	3946.142134
782.486776	3932.629321
782.810511	3938.822379
783.134201	3938.671144
783.457844	3895.765884
783.781441	3839.763706
784.104993	3841.989375
784.428498	3860.659288
784.751958	3862.983260
785.075372	3840.192204
785.398739	3799.295843
785.722061	3810.824962
786.045337	3851.212166
786.368568	3890.303793
786.691752	3801.798776
787.014891	3844.988862
787.337983	3964.529743
787.661030	4123.978918
787.984031	4283.904483
788.306987	4454.381182
788.629897	4530.396741
788.952760	4493.079600
789.275579	4425.031585
789.598351	4368.616032
789.921078	4232.441864
790.243759	4032.403838
790.566395	4006.812421
790.888984	4007.550950
791.211529	3902.238725
791.534027	3840.134230
791.856480	3835.657686
792.178888	3770.967079
792.501249	3720.631158
792.823566	3730.174062
793.145836	3767.975154
793.468062	3713.530693
793.790241	3665.319618
794.112375	3691.200902
794.434464	3757.847476
794.756507	3778.773306
795.078505	3765.341151
795.400457	3788.550624
795.722364	3925.264195
796.044226	4031.624980
796.366042	4100.802213
796.687812	4087.977518
797.009538	4095.332562
797.331218	4052.833114
797.652852	4025.986449
797.974442	4004.773274
798.295986	4007.114890
798.617484	3929.264351
798.938938	3838.889065
799.260346	3877.358110
799.581709	3875.117317
799.903026	3805.418324
800.224299	3768.925412
800.545526	3763.370060
800.866708	3726.516705
801.187845	3660.021365
801.508936	3700.156512
801.829983	3701.540308
802.150984	3623.097434
802.471940	3608.626802
802.792851	3621.892598
803.113717	3621.338071
803.434538	3622.489975
803.755314	3569.101635
804.076045	3539.159702
804.396731	3556.198802
804.717372	3586.780962
805.037967	3573.013570
805.358518	3559.891447
805.679024	3588.109306
805.999485	3600.513065
806.319901	3599.885441
806.640272	3618.010910
806.960598	3631.513640
807.280879	3608.238633
807.601115	3619.770272
807.921306	3630.303763
808.241453	3673.251873
808.561554	3652.121877
808.881611	3588.285746
809.201623	3619.505612
809.521590	3633.827530
809.841513	3608.268880
810.161390	3633.356182
810.481223	3618.545272
810.801011	3561.318093
811.120755	3548.480795
811.440453	3585.979418
811.760107	3590.536621
812.079716	3550.048594
812.399281	3516.524921
812.718801	3537.107952
813.038276	3512.761700
813.357707	3511.070392
813.677093	3528.502703
813.996434	3477.486226
814.315731	3484.682473
814.634983	3486.925786
814.954191	3501.787108
815.273354	3529.929349
815.592473	3526.738299
815.911547	3527.275182
816.230577	3566.094587
816.549562	3619.498050
816.868502	3658.360305
817.187399	3685.574974
817.506250	3685.297711
817.825058	3651.234634
818.143821	3737.912233
818.462539	3841.308819
818.781213	3888.957805
819.099843	3942.096608
819.418429	4172.126979
819.736970	4410.997012
820.055466	4645.032580
820.373919	5001.399307
820.692327	5405.094907
821.010691	5812.306712
821.329011	7110.640761
821.647286	9733.159897
821.965517	14141.870747
822.283704	18137.388462
822.601847	20398.310674
822.919945	18673.789917
823.237999	16160.043757
823.556010	13718.983474
823.873976	11683.534430
824.191897	9622.977918
824.509775	8271.295858
824.827609	7155.975858
825.145398	6606.764832
825.463144	6489.953735
825.780845	6600.783503
826.098502	6771.905470
826.416116	7591.581962
826.733685	8875.256336
827.051210	9987.818825
827.368692	10093.849414
827.686129	8900.996467
828.003522	7396.088536
828.320872	6387.794752
828.638177	5702.863262
828.955439	5157.982587
829.272656	4668.547042
829.589830	4378.882342
829.906960	4210.964028
830.224046	4028.312942
830.541088	3903.042789
830.858086	3857.611911
831.175041	3785.599028
831.491952	3765.802417
831.808819	3772.938170
832.125642	3841.238243
832.442421	3979.028101
832.759157	4242.579624
833.075849	4764.820477
833.392497	5606.378098
833.709101	6368.787082
834.025662	6714.338013
834.342179	6397.420836
834.658653	5745.019911
834.975083	5110.583138
835.291469	4551.052869
835.607811	4135.641628
835.924110	3998.764218
836.240366	3807.056699
836.556578	3602.799228
836.872746	3496.370388
837.188871	3459.383442
837.504952	3396.719379
837.820990	3314.661998
838.136984	3265.697270
838.452935	3291.576033
838.768842	3286.325672
839.084706	3308.962973
839.400526	3453.195426
839.716303	3776.971093
840.032037	4274.396867
840.347727	4557.651740
840.663373	4303.965755
840.978977	3928.135132
841.294537	3625.623052
841.610054	3400.076788
841.925527	3293.448822
842.240957	3227.518092
842.556344	3174.066737
842.871687	3118.248561
843.186987	3067.852146
843.502244	3031.586086
843.817458	2996.696260
844.132629	2963.412042
844.447756	2974.101808
844.762840	2960.846094
845.077881	2930.064809
845.392879	2912.597211
845.707833	2907.233423
846.022745	2907.563619
846.337613	2906.729308
846.652438	2895.331259
846.967221	2893.826474
847.281960	2882.622510
847.596656	2877.372148
847.911309	2875.474154
848.225919	2871.874770
848.540485	2862.755323
848.855009	2865.381764
849.169490	2858.641741
849.483928	2847.289063
849.798323	2845.413753
850.112675	2841.519462
850.426984	2853.214939
850.741251	2851.745443
851.055474	2843.268742
851.369654	2835.704491
851.683792	2841.529544
851.997887	2847.601614
852.311938	2850.618745
852.625947	2837.857064
852.939914	2841.882425
853.253837	2851.125381
853.567718	2832.266424
853.881555	2830.965807
854.195350	2847.899042
854.509103	2843.551047
854.822812	2836.735407
855.136479	2831.671568
855.450103	2832.687361
855.763685	2826.852225
856.077224	2821.785865
856.390720	2838.104080
856.704173	2846.295955
857.017584	2839.119873
857.330953	2835.449913
857.644278	2842.424349
857.957561	2851.110257
858.270802	2855.796010
858.584000	2855.977491
858.897155	2844.014833
859.210268	2842.734380
859.523339	2840.244050
859.836367	2840.838906
860.149352	2834.945797
860.462295	2831.318687
860.775195	2839.447548
861.088054	2837.418483
861.400869	2820.598674
861.713642	2818.804023
862.026373	2833.839264
862.339062	2836.102742
862.651708	2838.283041
862.964312	2843.316633
863.276873	2837.007629
863.589392	2844.455934
863.901869	2856.663088
864.214303	2878.007334
864.526696	2895.729510
864.839045	2891.366391
865.151353	2893.667678
865.463619	2888.553428
865.775842	2888.664333
866.088023	2905.222003
866.400162	2916.040319
866.712258	2889.307080
867.024313	2874.481047
867.336325	2884.853221
867.648296	2904.848957
867.960224	2898.076167
868.272110	2882.735936
868.583954	2888.762635
868.895755	2901.930129
869.207515	2889.738099
869.519233	2893.581978
869.830909	2904.536406
870.142542	2915.216090
870.454134	2914.369176
870.765684	2915.372366
871.077191	2916.720875
871.388657	2920.496699
871.700081	2937.722322
872.011463	2944.137190
872.322803	2949.934517
872.634101	2949.044753
872.945357	2966.023359
873.256571	2991.720641
873.567744	2981.088848
873.878874	2972.158443
874.189963	2998.107783
874.501010	3000.313288
874.812015	2989.104282
875.122979	2988.950527
875.433900	2988.516988
875.744780	2989.568068
876.055618	2999.592403
876.366415	2994.808348
876.677169	3006.372755
876.987882	3004.739421
877.298554	2997.931343
877.609183	3013.684948
877.919771	3035.684544
878.230317	3062.684964
878.540822	3114.190433
878.851285	3152.271309
879.161707	3190.906712
879.472087	3283.409364
879.782425	3494.424503
880.092722	3910.765837
880.402977	4420.635699
880.713191	5019.582749
881.023363	6123.504700
881.333494	7366.524689
881.643583	7945.778472
881.953631	7664.880339
882.263637	7068.146355
882.573602	6507.514595
882.883526	5940.777997
883.193408	5381.719077
883.503248	4918.600876
883.813048	4622.828818
884.122806	4336.796269
884.432522	4032.048437
884.742197	3805.231802
885.051831	3611.568315
885.361424	3478.249960
885.670975	3408.576173
885.980485	3331.300326
886.289954	3257.223091
886.599382	3217.395455
886.908768	3174.240657
887.218113	3132.459574
887.527417	3080.001327
887.836680	3026.174407
888.145901	3025.266999
888.455082	3014.355422
888.764221	2964.866414
889.073319	2934.886673
889.382376	2934.407763
889.691392	2935.587393
890.000366	2936.497321
890.309300	2927.844181
890.618193	2939.007816
890.927044	2953.332254
891.235855	2956.994653
891.544625	2937.669389
891.853353	2951.532563
892.162041	2965.214254
892.470687	3003.078361
892.779293	3052.821946
893.087858	3099.666868
893.396381	3166.741941
893.704864	3277.518776
894.013306	3507.216430
894.321707	3797.065132
894.630068	4004.276720
894.938387	4005.017770
895.246665	3959.095379
895.554903	3845.676979
895.863100	3654.264367
896.171256	3494.628669
896.479371	3355.971733
896.787446	3240.002509
897.095480	3136.182466
897.403473	3077.374886
897.711425	3038.119421
898.019336	3027.331352
898.327207	3005.190604
898.635038	2971.331694
898.942827	2955.192440
899.250576	2947.597942
899.558284	2913.386151
899.865952	2891.968809
900.173579	2874.256715
900.481165	2869.487784
900.788711	2859.218953
901.096216	2833.715756
901.403681	2822.204281
901.711105	2827.444561
902.018489	2827.207626
902.325832	2824.059426
902.633135	2834.116528
902.940397	2864.938142
903.247619	2944.127108
903.554800	3120.489354
903.861941	3447.090588
904.169041	3859.454452
904.476101	4151.642250
904.783121	4124.024289
905.090100	3892.264802
905.397039	3625.423926
905.703938	3384.671022
906.010796	3205.677292
906.317614	3097.690736
906.624391	3008.391737
906.931129	2936.847681
907.237826	2878.629916
907.544483	2832.294151
907.851099	2803.244502
908.157675	2782.537962
908.464211	2764.125148
908.770707	2750.403127
909.077163	2736.524830
909.383578	2723.480845
909.689954	2714.033722
909.996289	2713.075903
910.302584	2715.094885
910.608839	2711.586242
910.915054	2705.476364
911.221229	2697.420600
911.527363	2702.146682
911.833458	2709.274873
912.139513	2713.020451
912.445527	2719.130329
912.751502	2725.537636
913.057436	2731.952504
913.363331	2745.979514
913.669186	2764.099942
913.975000	2796.506999
914.280775	2853.035978
914.586510	2923.513829
914.892205	2996.363544
915.197859	3117.184878
915.503475	3297.746406
915.809050	3502.465143
916.114585	3641.802635
916.420081	3670.164167
916.725536	3618.618369
917.030952	3503.478415
917.336328	3378.961915
917.641665	3256.008173
917.946961	3157.985457
918.252218	3092.548759
918.557435	3018.897501
918.862612	2960.510858
919.167750	2909.728794
919.472848	2874.410470
919.777906	2848.556913
920.082925	2823.918273
920.387904	2792.353089
920.692843	2778.716767
920.997743	2766.093718
921.302603	2752.321286
921.607423	2744.383989
921.912204	2735.070457
922.216946	2724.105948
922.521647	2713.320399
922.826310	2707.472661
923.130932	2701.123327
923.435516	2687.928107
923.740059	2684.212777
924.044564	2676.761952
924.349028	2672.124090
924.653454	2665.517658
924.957840	2661.819972
925.262186	2657.666061
925.566493	2652.521563
925.870761	2645.216931
926.174989	2643.941519
926.479178	2639.114615
926.783328	2631.048768
927.087438	2633.113121
927.391509	2631.033645
927.695541	2627.966103
927.999533	2626.199178
928.303486	2624.059209
928.607400	2620.976543
928.911275	2622.882099
929.215110	2621.652058
929.518906	2618.377828
929.822663	2619.751543
930.126381	2618.576954
930.430060	2620.472428
930.733699	2617.566202
931.037299	2620.018724
931.340861	2622.995525
931.644383	2623.406379
931.947866	2621.309259
932.251309	2622.015021
932.554714	2618.458487
932.858080	2615.695934
933.161407	2614.496140
933.464694	2614.823815
933.767943	2615.012858
934.071153	2614.120574
934.374323	2614.798609
934.677455	2611.743670
934.980548	2612.756942
935.283602	2610.004472
935.586617	2609.457507
935.889593	2612.136880
936.192530	2612.479678
936.495428	2612.305758
936.798287	2614.332302
937.101108	2615.932869
937.403890	2622.567027
937.706632	2626.042903
938.009336	2630.113634
938.312002	2639.011271
938.614628	2645.511839
938.917216	2654.941317
939.219765	2652.642551
939.522275	2654.653971
939.824747	2652.521563
940.127179	2649.136428
940.429573	2646.063845
940.731929	2640.392547
941.034246	2640.818525
941.336524	2638.592855
941.638763	2636.178142
941.940964	2635.832823
942.243126	2631.520116
942.545250	2632.485497
942.847335	2627.298150
943.149381	2623.713890
943.451389	2620.081738
943.753359	2617.437653
944.055290	2618.937396
944.357182	2616.600822
944.659036	2615.007817
944.960851	2615.103599
945.262628	2614.055039
945.564367	2612.688886
945.866067	2613.167796
946.167729	2614.753239
946.469352	2613.102261
946.770937	2614.218876
947.072484	2610.853906
947.373992	2610.027157
947.675462	2609.225613
947.976893	2605.192690
948.278286	2603.907196
948.579641	2603.927361
948.880958	2602.480550
949.182236	2603.506424
949.483476	2603.952567
949.784678	2604.852413
950.085841	2604.570108
950.386967	2605.117073
950.688054	2605.180087
950.989103	2604.257556
951.290114	2605.817793
951.591087	2609.550768
951.892021	2612.159565
952.192917	2615.955554
952.493776	2615.678290
952.794596	2618.266923
953.095378	2617.649382
953.396122	2619.280195
953.696828	2615.781634
953.997496	2613.419853
954.298126	2609.318875
954.598718	2608.222424
954.899272	2603.962649
955.199788	2602.919130
955.500266	2602.178080
955.800706	2600.738831
956.101108	2596.093408
956.401472	2595.284302
956.701798	2590.245669
957.002087	2593.497213
957.302337	2592.468818
957.602550	2590.301122
957.902724	2584.473548
958.202861	2587.422623
958.502960	2588.846749
958.803022	2586.177458
959.103045	2586.694176
959.403031	2584.662591
959.702979	2583.233424
960.002889	2582.827611
960.302762	2582.517580
960.602596	2582.830132
960.902393	2582.935996
961.202153	2581.224524
961.501875	2581.998342
961.801559	2580.130594
962.101205	2581.403485
962.400814	2582.782241
962.700385	2580.420460
962.999918	2579.268557
963.299414	2576.385017
963.598873	2578.393917
963.898293	2575.855696
964.197677	2577.380645
964.497022	2578.041036
964.796331	2580.062538
965.095601	2581.869792
965.394835	2576.584142
965.694030	2577.171437
965.993189	2577.915007
966.292309	2579.946592
966.591393	2576.755542
966.890439	2577.579770
967.189447	2577.577250
967.488419	2576.127918
967.787353	2579.197981
968.086249	2578.504822
968.385108	2577.161354
968.683930	2576.964749
968.982714	2578.875347
969.281462	2574.434090
969.580172	2576.001889
969.878844	2576.926941
970.177480	2579.674370
970.476078	2576.780747
970.774639	2578.577919
971.073162	2577.078175
971.371649	2577.625141
971.670098	2577.453741
971.968510	2578.308217
972.266885	2577.665470
972.565223	2576.616910
972.863524	2577.012640
973.161788	2580.024730
973.460014	2579.490368
973.758204	2579.064390
974.056356	2576.874009
974.354471	2579.981880
974.652550	2578.091447
974.950591	2581.095975
975.248595	2578.388875
975.546563	2577.710840
975.844493	2578.499781
976.142386	2578.000707
976.440243	2578.214956
976.738062	2576.843762
977.035845	2576.773186
977.333590	2577.161354
977.631299	2576.266550
977.928971	2573.057855
978.226606	2570.640622
978.524204	2573.715726
978.821765	2571.618606
979.119290	2575.459965
979.416777	2573.509038
979.714228	2577.920048
980.011642	2575.071796
980.309020	2574.073648
980.606360	2573.413257
980.903664	2578.391396
981.200931	2575.278483
981.498162	2577.121025
981.795356	2576.231262
982.092513	2579.540779
982.389633	2578.530028
982.686717	2585.748960
982.983764	2589.933118
983.280775	2592.299939
983.577749	2593.817327
983.874686	2592.665423
984.171587	2591.679877
984.468451	2587.498240
984.765279	2584.541604
985.062070	2583.072107
985.358824	2581.718557
985.655543	2580.385172
985.952224	2579.240830
986.248869	2576.120356
986.545478	2576.342167
986.842050	2575.495253
987.138586	2576.004410
987.435086	2575.134811
987.731549	2572.289079
988.027975	2573.299831
988.324366	2575.689337
988.620719	2572.740262
988.917037	2573.874522
989.213318	2571.633729
989.509563	2570.582649
989.805772	2573.128431
990.101944	2570.416291
990.398080	2572.410067
990.694180	2576.311920
990.990244	2570.804459
991.286271	2571.651373
991.582262	2572.770509
991.878217	2573.118349
992.174136	2571.777402
992.470019	2569.823955
992.765865	2572.306723
993.061676	2567.807493
993.357450	2570.731363
993.653188	2566.642987
993.948890	2572.488205
994.244556	2572.561302
994.540186	2573.919892
994.835780	2573.171281
995.131337	2576.218659
995.426859	2572.218503
995.722345	2575.376786
996.017795	2573.246898
996.313208	2578.832497
996.608586	2578.391396
996.903928	2576.248906
997.199234	2577.438618
997.494504	2578.464493
997.789738	2575.018864
998.084936	2575.517938
998.380099	2574.804615
998.675225	2575.737228
998.970316	2573.526683
999.265371	2576.125397
999.560390	2572.392423
999.855373	2572.939388
1000.150320	2573.808987
1000.445232	2573.072979
1000.740108	2574.638257
1001.034948	2573.193966
1001.329752	2569.740776
1001.624521	2570.784295
1001.919254	2570.234809
1002.213951	2573.365366
1002.508613	2570.063410
1002.803239	2570.070972
1003.097829	2571.346383
1003.392384	2568.041907
1003.686903	2568.525858
1003.981386	2571.298492
1004.275834	2567.973852
1004.570246	2571.139696
1004.864623	2570.645663
1005.158964	2567.653738
1005.453270	2569.702967
1005.747540	2572.435273
1006.041775	2570.592731
1006.335974	2568.651887
1006.630138	2569.549212
1006.924266	2570.756568
1007.218359	2569.012329
1007.512416	2568.175498
1007.806438	2566.370765
1008.100425	2569.161043
1008.394376	2563.351113
1008.688292	2569.471074
1008.982172	2568.467885
1009.276017	2571.011147
1009.569827	2567.694068
1009.863602	2568.735066
1010.157341	2567.774726
1010.451045	2567.613409
1010.744714	2570.068451
1011.038347	2569.952504
1011.331945	2569.448389
1011.625508	2570.476784
1011.919036	2572.173133
1012.212528	2569.355128
1012.505986	2569.944943
1012.799408	2567.739438
1013.092795	2570.401167
1013.386147	2570.285221
1013.679464	2568.107442
1013.972745	2571.847978
1014.265992	2568.861095
1014.559204	2570.880077
1014.852380	2571.290931
1015.145521	2567.394119
1015.438628	2569.145920
1015.731699	2568.525858
1016.024736	2569.045097
1016.317737	2569.017370
1016.610703	2569.581980
1016.903635	2572.636919
1017.196531	2569.634912
1017.489393	2569.818914
1017.782219	2569.345045
1018.075011	2570.242371
1018.367768	2568.672051
1018.660490	2569.055179
1018.953177	2569.055179
1019.245829	2569.055179
