Dividing Wavelength (nm)	Counts (n)	Blue Motor Position (mm): 30.200000	Red Motor Position (mm): 0.000000	
326.493990	2216.436550
326.888308	2216.436550
327.282561	2216.436550
327.676750	2172.520538
328.070874	2170.425939
328.464933	2170.688079
328.858929	2174.272339
329.252859	2177.617145
329.646726	2188.387570
330.040528	2200.766123
330.434265	2213.172403
330.827938	2233.707543
331.221547	2248.326889
331.615091	2265.824734
332.008571	2283.753598
332.401986	2303.908131
332.795338	2321.158959
333.188625	2338.762668
333.581847	2357.820751
333.975006	2379.159955
334.368100	2394.878273
334.761129	2415.337795
335.154095	2432.097111
335.546996	2461.073664
335.939833	2495.613129
336.332606	2512.765655
336.725315	2525.844929
337.117960	2539.965201
337.510540	2547.332847
337.903056	2560.873386
338.295508	2570.514593
338.687896	2576.823597
339.080220	2585.506985
339.472480	2590.180134
339.864676	2598.162801
340.256807	2603.088009
340.648875	2607.458689
341.040879	2609.570932
341.432818	2610.720316
341.824694	2611.423557
342.216506	2615.393465
342.608253	2616.774741
342.999937	2619.134001
343.391557	2616.724330
343.783113	2615.769031
344.174605	2612.754421
344.566033	2613.097220
344.957397	2613.898763
345.348697	2612.056221
345.739934	2611.826849
346.131106	2610.364914
346.522215	2607.448607
346.913260	2605.293513
347.304241	2602.924171
347.695159	2599.397884
348.086012	2597.595672
348.476802	2599.163470
348.867528	2592.551997
349.258191	2589.744074
349.648789	2591.621904
350.039324	2585.774166
350.429796	2590.112079
350.820203	2589.701225
351.210548	2588.829105
351.600828	2585.176789
351.991045	2583.424988
352.381198	2580.675039
352.771288	2583.069587
353.161314	2582.580595
353.551276	2582.094123
353.941175	2580.675039
354.331010	2581.595049
354.720782	2581.680749
355.110490	2584.443301
355.500135	2580.395255
355.889717	2582.699062
356.279235	2583.475400
356.668689	2584.912128
357.058080	2579.376942
357.447408	2581.499267
357.836672	2582.378949
358.225873	2582.356263
358.615010	2586.421954
359.004084	2584.473548
359.393095	2583.540935
359.782043	2585.754001
360.170927	2583.661922
360.559748	2586.671491
360.948505	2586.200143
361.337199	2588.682912
361.725830	2586.386666
362.114398	2588.327510
362.502903	2589.519743
362.891344	2587.793148
363.279722	2587.901533
363.668037	2590.298601
364.056289	2589.030751
364.444478	2588.183837
364.832603	2590.038982
365.220665	2590.769949
365.608665	2591.274065
365.996601	2593.613160
366.384474	2594.386977
366.772284	2593.895465
367.160031	2596.645414
367.547715	2595.939652
367.935336	2594.485280
368.322893	2589.305494
368.710388	2592.862028
369.097820	2596.663058
369.485189	2588.876996
369.872495	2595.206165
370.259738	2596.337904
370.646918	2597.378902
371.034035	2599.052565
371.421090	2597.242791
371.808081	2597.008377
372.195010	2600.335539
372.581875	2597.451999
372.968678	2600.590117
373.355418	2600.380909
373.742096	2600.801845
374.128710	2598.780343
374.515262	2598.845878
374.901751	2600.290168
375.288177	2600.333018
375.674540	2603.713112
376.060841	2604.537340
376.447079	2601.825200
376.833254	2601.679006
377.219367	2601.217741
377.605417	2599.990220
377.991404	2600.927874
378.377329	2601.230343
378.763191	2603.203955
379.148991	2606.405088
379.534727	2605.046497
379.920402	2606.077413
380.306013	2603.103132
380.691563	2604.968359
381.077049	2602.901486
381.462474	2603.561877
381.847835	2605.177567
382.233134	2605.109511
382.618371	2604.441558
383.003545	2607.357866
383.388657	2604.872577
383.773706	2606.977259
384.158693	2607.423401
384.543618	2608.703854
384.928480	2609.397013
385.313280	2607.423401
385.698017	2608.421549
386.082692	2607.320057
386.467305	2609.855758
386.851856	2609.031529
387.236344	2611.834411
387.620770	2607.478854
388.005133	2608.706375
388.389435	2605.409460
388.773674	2609.185284
389.157851	2609.419698
389.541965	2610.959770
389.926018	2612.129318
390.310008	2609.207969
390.693936	2612.199894
391.077802	2612.691407
391.461606	2615.640482
391.845348	2614.150821
392.229027	2612.013372
392.612645	2613.550923
392.996200	2616.520163
393.379694	2617.437653
393.763125	2615.874895
394.146494	2615.763990
394.529801	2616.252982
394.913047	2619.229783
395.296230	2616.903291
395.679351	2618.287087
396.062410	2621.190792
396.445408	2618.140894
396.828343	2620.858076
397.211217	2619.663322
397.594028	2619.234824
397.976778	2618.798765
398.359466	2621.384877
398.742092	2620.245576
399.124656	2618.612242
399.507158	2619.345730
399.889598	2620.043930
400.271977	2624.102058
400.654294	2620.858076
401.036549	2622.193982
401.418742	2620.406893
401.800874	2623.441667
402.182944	2620.835391
402.564952	2624.197840
402.946898	2624.248252
403.328783	2625.037192
403.710606	2627.398973
404.092367	2627.472070
404.474067	2625.911833
404.855705	2627.794704
405.237282	2625.392594
405.618797	2627.514920
406.000250	2625.730351
406.381642	2629.135651
406.762972	2625.969806
407.144240	2624.906122
407.525447	2629.828809
407.906593	2627.174642
408.287677	2633.176135
408.668700	2630.615229
409.049661	2633.367699
409.430560	2633.430714
409.811399	2634.360807
410.192176	2635.744603
410.572891	2635.623616
410.953545	2636.800725
411.334138	2631.300826
411.714669	2636.475571
412.095139	2637.445993
412.475547	2638.063534
412.855894	2640.165695
413.236180	2638.376086
413.616405	2640.337094
413.996568	2640.354738
414.376670	2640.644605
414.756711	2640.992444
415.136691	2641.355407
415.516609	2641.975469
415.896466	2643.245840
416.276262	2646.363794
416.655997	2645.468989
417.035670	2646.479740
417.415283	2648.760862
417.794834	2648.453352
418.174324	2648.173568
418.553753	2649.360760
418.933121	2650.568116
419.312428	2654.162459
419.691674	2651.462921
420.070859	2656.234373
420.449983	2656.189003
420.829045	2657.471976
421.208047	2660.584889
421.586988	2663.360044
421.965867	2666.034376
422.344686	2670.221054
422.723444	2674.634585
423.102141	2675.562157
423.480777	2684.931141
423.859352	2686.405679
424.237866	2704.362269
424.616319	2712.798640
424.994712	2729.371433
425.373044	2735.811507
425.751314	2754.599887
426.129524	2770.300561
426.507673	2799.115797
426.885762	2821.927018
427.263789	2852.383149
427.641756	2883.963457
428.019662	2914.880853
428.397508	2961.657720
428.775292	2994.989829
429.153016	3054.505692
429.530679	3095.525560
429.908282	3151.812564
430.285824	3184.993438
430.663305	3304.383085
431.040726	3317.439673
431.418086	3379.282028
431.795385	3484.148110
432.172624	3568.179104
432.549802	3635.533960
432.926920	3728.296232
433.303977	3783.663225
433.680974	3898.094897
434.057910	4007.530785
434.434786	4105.510651
434.811601	4173.145292
435.188355	4382.242271
435.565050	4424.260288
435.941683	4509.115510
436.318257	4742.026900
436.694770	4884.668869
437.071222	5024.719685
437.447614	5087.250157
437.823946	5168.533722
438.200218	5336.724258
438.576429	5383.359972
438.952580	5580.716104
439.328670	5724.946036
439.704700	5767.919352
440.080670	5874.081011
440.456580	6236.020734
440.832429	6259.252891
441.208218	6192.190422
441.583947	6462.300486
441.959616	6666.852865
442.335224	6690.407656
442.710773	6881.351440
443.086261	7128.846888
443.461689	6856.128027
443.837057	7329.739390
444.212365	7630.897921
444.587612	7543.343161
444.962800	7821.768608
445.337927	7810.678070
445.712995	7633.723487
446.088002	8474.414029
446.462949	8354.595884
446.837837	8456.336451
447.212664	8588.475176
447.587431	9043.736739
447.962139	9652.720726
448.336786	11348.776608
448.711374	11953.289092
449.085901	10537.939780
449.460369	10357.153921
449.834776	10056.998579
450.209124	10804.647065
450.583412	11213.048582
450.957640	12100.634458
451.331808	11575.101731
451.705917	10833.749646
452.079965	10356.402789
452.453954	11207.329393
452.827883	10970.690070
453.201752	11300.343723
453.575562	10951.974786
453.949311	11383.563091
454.323001	11409.217523
454.696632	11672.249807
455.070202	11989.076244
455.443713	12279.887806
455.817164	12765.270263
456.190556	12838.944206
456.563888	13233.399371
456.937160	13468.889311
457.310373	12878.658416
457.683526	13002.529648
458.056619	12618.512192
458.429653	12775.120678
458.802628	12304.350005
459.175542	12670.262157
459.548398	13622.180717
459.921194	13970.784067
460.293930	14037.750755
460.666607	14945.266832
461.039224	15948.761437
461.411782	16653.240002
461.784280	16608.202334
462.156719	16674.949731
462.529099	16399.952268
462.901419	15358.414596
463.273680	15180.774417
463.645882	15055.005190
464.018024	14801.435151
464.390106	15040.766451
464.762130	15764.471976
465.134094	16500.876168
465.505999	18442.748795
465.877845	21675.822238
466.249631	24511.924980
466.621358	24260.031125
466.993026	22833.336696
467.364634	22288.571967
467.736184	20861.262517
468.107674	20065.259283
468.479105	20198.451609
468.850477	19662.924795
469.221790	19252.005222
469.593043	18586.812369
469.964238	18033.205456
470.335373	17708.797124
470.706449	18121.702912
471.077467	17655.234864
471.448425	19464.688982
471.819324	23428.613786
472.190164	25547.788834
472.560945	22076.619174
472.931667	19673.506177
473.302330	19025.150778
473.672934	18488.769488
474.043479	18874.087562
474.413965	18680.731585
474.784393	18325.650352
475.154761	18985.555035
475.525070	19013.631741
475.895321	18657.081012
476.265513	19230.761799
476.635645	19798.821700
477.005719	19600.273335
477.375734	19790.960020
477.745691	20277.746439
478.115588	20780.931730
478.485427	21286.493926
478.855207	22334.471673
479.224928	24078.153856
479.594591	26293.713245
479.964194	26385.134570
480.333739	26573.325884
480.703226	26141.495605
481.072653	25813.881099
481.442022	26374.338939
481.811333	27267.752388
482.180584	27216.365387
482.549777	26267.957990
482.918912	25901.899645
483.287988	26008.217579
483.657005	25708.430242
484.025964	25427.716111
484.394864	25365.639343
484.763706	25080.239459
485.132489	24497.887887
485.501213	24650.712987
485.869879	24573.674073
486.238487	24377.694177
486.607036	24529.563977
486.975527	24203.970974
487.343959	24544.999990
487.712333	24501.875440
488.080648	24173.315717
488.448905	24636.388548
488.817104	24382.054775
489.185244	25038.332347
489.553326	25020.993298
489.921350	25987.493396
490.289315	28238.144257
490.657222	30056.959797
491.025070	30544.252851
491.392861	30338.067138
491.760593	29498.115126
492.128267	28603.736296
492.495883	27569.115086
492.863440	26698.149895
493.230939	25824.230588
493.598380	25666.520610
493.965763	25267.180567
494.333088	24826.470295
494.700354	24746.540280
495.067563	24642.712675
495.434713	24374.044381
495.801805	24529.359811
496.168839	24338.877292
496.535815	24176.574823
496.902733	24393.530961
497.269593	24055.811462
497.636395	24246.488065
498.003139	24233.660849
498.369825	23982.800431
498.736453	24167.851107
499.103023	24057.137286
499.469535	24078.103445
499.835989	24271.650985
500.202385	24302.122239
500.568723	23807.355674
500.935003	24079.179731
501.301226	23662.697244
501.667390	24494.061651
502.033497	24743.140022
502.399546	24463.963442
502.765537	24058.397574
503.131470	24424.350055
503.497345	24564.214348
503.863163	23771.855869
504.228923	24390.680189
504.594625	24588.734521
504.960269	24112.221974
505.325856	24605.196408
505.691385	24006.118288
506.056856	24611.704538
506.422270	24584.033645
506.787625	24167.427650
507.152924	24573.217849
507.518164	24601.279432
507.883347	24409.914711
508.248472	24102.991621
508.613540	24876.856628
508.978550	24665.105481
509.343503	24658.597351
509.708398	24915.912967
510.073236	25072.042543
510.438016	25276.547031
510.802738	24955.891837
511.167403	25205.207142
511.532010	24904.255299
511.896561	25687.847211
512.261053	25648.775748
512.625488	25488.572920
512.989866	25386.910491
513.354186	25231.529527
513.718449	25321.342724
514.082655	25713.670522
514.446803	25453.466325
514.810894	25905.388123
515.174927	25392.864094
515.538904	25427.317860
515.902822	25924.937718
516.266684	25670.530848
516.630488	25574.844707
516.994235	25559.343159
517.357925	25854.515319
517.721558	26038.645984
518.085133	26125.971372
518.448651	26043.871140
518.812112	25782.288187
519.175516	25971.351621
519.538863	26127.153522
519.902152	25907.013895
520.265385	26189.815064
520.628560	25986.091955
520.991678	26001.212896
521.354739	26079.784320
521.717743	26141.971994
522.080690	25931.183707
522.443580	26262.067402
522.806413	26263.461281
523.169189	26349.785999
523.531908	26400.840285
523.894569	26008.905697
524.257174	26079.890184
524.619722	26269.364472
524.982213	25967.679141
525.344647	26026.814396
525.707025	26139.627857
526.069345	26142.771017
526.431608	26094.635559
526.793815	26281.122963
527.155964	25727.626956
527.518057	25914.502529
527.880093	25829.196124
528.242072	26069.409625
528.603995	25765.634736
528.965860	25574.716157
529.327669	25623.890093
529.689421	25609.386693
530.051117	25432.336329
530.412755	25616.068742
530.774337	25418.407621
531.135862	25285.757219
531.497331	25488.416645
531.858743	25029.265832
532.220098	25543.024944
532.581396	25194.131727
532.942638	25147.175900
533.303824	25234.198818
533.664953	25266.568067
534.026025	24916.812813
534.387040	25152.834595
534.747999	25219.556787
535.108902	25370.519180
535.469748	24871.659198
535.830537	25057.224071
536.191270	25168.920917
536.551947	25061.564504
536.912567	24711.607604
537.273131	25048.613780
537.633638	24750.268213
537.994089	24957.444513
538.354483	24515.511761
538.714821	25017.431723
539.075103	25039.948037
539.435328	24825.610778
539.795497	24396.548092
540.155609	24796.490553
540.515665	25088.443937
540.875665	24322.203676
541.235609	24605.408137
541.595496	24576.053498
541.955328	24929.319916
542.315102	24852.157494
542.674821	24404.717282
543.034483	24286.880311
543.394090	24450.468273
543.753640	24238.792744
544.113134	24872.153231
544.472571	24473.400482
544.831953	24763.463433
545.191278	24379.735844
545.550548	24301.542507
545.909761	24503.632282
546.268918	24737.118363
546.628019	24702.785585
546.987064	24401.548917
547.346053	24158.981196
547.704986	24294.389109
548.063863	24448.598005
548.422684	24439.365132
548.781449	23986.246060
549.140158	24395.834769
549.498811	23961.241937
549.857408	23705.471435
550.215949	24130.445745
550.574434	23827.646319
550.932864	24034.845303
551.291237	24186.105125
551.649555	24059.274735
552.007817	24107.261478
552.366022	23978.389422
552.724173	24012.162632
553.082267	23962.199756
553.440305	24437.588125
553.798288	23702.235014
554.156215	24214.280133
554.514086	24304.030316
554.871902	23677.104862
555.229661	23968.964984
555.587365	23826.648170
555.945014	23677.982023
556.302606	23940.963895
556.660143	23880.139854
557.017625	24132.363904
557.375050	23663.256812
557.732421	24051.831471
558.089735	23866.034705
558.446994	23925.210290
558.804197	23959.535506
559.161345	23918.954218
559.518437	23654.346573
559.875474	23851.836295
560.232455	24030.893039
560.589381	23863.110836
560.946251	23845.542415
561.303065	24159.220651
561.659825	24246.430092
562.016528	23856.532130
562.373177	23589.330812
562.729770	23950.804228
563.086307	23808.716786
563.442789	23980.194155
563.799216	23814.793897
564.155587	23820.094670
564.511904	23800.623213
564.868164	23729.268201
565.224370	23713.713721
565.580520	23621.274083
565.936615	23758.418673
566.292654	23436.954375
566.648638	23739.804213
567.004567	23569.352719
567.360441	23512.765767
567.716260	23237.304518
568.072023	23578.499893
568.427732	23334.311442
568.783385	23121.189101
569.138982	23341.621115
569.494525	23392.158682
569.850013	23134.696873
570.205445	23235.910639
570.560823	23019.972814
570.916145	22791.111991
571.271412	22966.914670
571.626625	22720.283780
571.981782	22843.701308
572.336884	22638.304536
572.691931	22781.566566
573.046923	22508.356192
573.401860	22398.592629
573.756743	22394.839490
574.111570	22311.552067
574.466342	22248.328436
574.821059	22329.425478
575.175722	22033.232484
575.530330	22021.098426
575.884882	22043.234133
576.239380	21954.313220
576.593823	21846.750121
576.948211	21823.840597
577.302544	21665.114827
577.656823	21543.892721
578.011047	21627.515381
578.365216	21505.917709
578.719330	21379.462885
579.073389	21282.793719
579.427394	21428.621697
579.781344	21200.431348
580.135239	21085.682083
580.489080	21054.588246
580.842866	20827.882517
581.196597	21012.053511
581.550273	20989.454018
581.903895	20867.722756
582.257463	21203.115762
582.610975	20726.678833
582.964434	21027.330728
583.317837	20745.124415
583.671186	20832.164977
584.024481	20802.921243
584.377721	20573.362221
584.730906	20635.733897
585.084037	20650.993469
585.437113	20560.270344
585.790135	20759.121178
586.143103	20225.061340
586.496016	20245.735112
586.848874	20481.882922
587.201679	20418.503016
587.554428	20090.928839
587.907124	20422.125085
588.259765	20204.087619
588.612352	20278.139649
588.964884	19846.637044
589.317362	20023.999960
589.669786	20074.459389
590.022155	20114.060173
590.374470	20296.718821
590.726731	20089.572768
591.078937	19859.497027
591.431090	19952.019845
591.783188	19702.717143
592.135232	19671.550209
592.487222	19769.003275
592.839157	19799.880342
593.191038	19677.075314
593.542866	19564.743283
593.894639	19279.000600
594.246358	19513.139511
594.598022	19412.621424
594.949633	19160.541047
595.301190	19115.831053
595.652692	19300.445669
596.004141	19529.671975
596.355535	18861.822434
596.706876	18868.973311
597.058162	18762.582280
597.409395	18991.380088
597.760573	19065.648887
598.111698	18841.491461
598.462768	18779.709600
598.813785	18745.575947
599.164748	18555.070743
599.515657	18603.140666
599.866511	18395.535868
600.217312	18761.226209
600.568060	18275.810985
600.918753	18592.234130
601.269392	18485.616246
601.619978	18264.118029
601.970510	18476.950503
602.320988	18423.622657
602.671412	18630.100757
603.021783	18541.066418
603.372100	18264.614582
603.722363	18405.154390
604.072572	18353.595989
604.422728	18487.922574
604.772830	18249.690246
605.122878	18196.064972
605.472872	18198.615796
605.822813	18174.498916
606.172701	18143.563876
606.522534	18341.078804
606.872314	18363.015385
607.222041	18194.308130
607.571714	18408.945338
607.921333	18234.778513
608.270899	18314.247263
608.620411	18493.490529
608.969870	18263.344212
609.319276	18272.546838
609.668627	18285.210216
610.017926	18439.106561
610.367171	18542.316624
610.716362	18594.369058
611.065500	18409.885513
611.414585	18533.938227
611.763616	18529.280200
612.112594	18463.518348
612.461518	18431.638092
612.810389	18629.170664
613.159207	18480.955700
613.507971	18399.785561
613.856682	18682.387604
614.205340	18603.869113
614.553945	18750.538963
614.902496	18498.438421
615.250994	18727.263956
615.599439	18679.098252
615.947830	18657.849788
616.296169	18705.307210
616.644454	18670.495522
616.992686	18637.085275
617.340864	18854.938739
617.688990	18613.167521
618.037063	18782.741854
618.385082	18631.272825
618.733048	18915.672040
619.080961	18790.543040
619.428821	18821.664603
619.776628	18710.287870
620.124382	18636.802971
620.472083	18673.311007
620.819731	18694.297330
621.167326	18381.027428
621.514868	18432.295962
621.862357	18193.549437
622.209793	18216.279999
622.557176	18036.404068
622.904506	17868.266464
623.251783	17769.908511
623.599007	17531.282973
623.946179	17477.355230
624.293297	17424.080316
624.640363	17175.795928
624.987376	17193.893670
625.334336	16984.322822
625.681243	16838.010894
626.028097	16841.088518
626.374899	16766.544976
626.721647	16638.608053
627.068343	16471.125799
627.414987	16405.137095
627.761577	16381.027777
628.108115	16416.061276
628.454600	16136.395704
628.801032	16239.444451
629.147412	16176.601427
629.493739	16192.418047
629.840014	15998.361350
630.186236	16102.262052
630.532405	15863.565937
630.878521	16057.302521
631.224585	15948.993331
631.570597	15771.764005
631.916556	15803.276258
632.262462	15788.767817
632.608316	15702.591813
632.954117	15637.293747
633.299866	15636.401463
633.645562	15561.462190
633.991206	15327.280430
634.336797	15183.410940
634.682336	15154.124357
635.027823	15045.694179
635.373257	14924.913174
635.718639	14828.483462
636.063968	14774.187715
636.409245	14531.884655
636.754470	14551.356112
637.099642	14389.409045
637.444762	14170.012988
637.789829	14218.067787
638.134845	14050.767014
638.479808	14088.477366
638.824719	14031.373696
639.169577	13885.170152
639.514383	13925.378395
639.859137	13757.538219
640.203839	13828.497500
640.548489	13668.113191
640.893086	13656.493331
641.237632	13529.239484
641.582125	13683.377804
641.926566	13513.213656
642.270955	13521.269420
642.615292	13480.194099
642.959576	13491.592148
643.303809	13524.163043
643.647990	13448.376856
643.992118	13515.323379
644.336195	13284.060447
644.680219	13493.195234
645.024192	13419.095314
645.368112	13661.327798
645.711981	13714.970716
646.055797	13888.288105
646.399562	13869.338408
646.743274	14132.239622
647.086935	14410.150872
647.430544	14374.693917
647.774101	14405.863371
648.117606	14550.095823
648.461059	14521.018448
648.804460	14511.324309
649.147810	14237.337598
649.491108	14142.024502
649.834354	14158.161235
650.177548	13847.394265
650.520690	13659.596161
650.863781	13583.857866
651.206820	13626.916881
651.549807	13454.085963
651.892742	13254.093308
652.235626	13196.982076
652.578458	13196.735059
652.921238	12883.054302
653.263967	13083.835898
653.606644	12910.407603
653.949269	12888.150909
654.291843	12687.331504
654.634365	12846.788241
654.976836	12706.954195
655.319255	12712.035678
655.661622	12662.997854
656.003938	12585.991709
656.346203	12513.399093
656.688416	12588.376175
657.030577	12542.783979
657.372687	12459.645270
657.714746	12440.433433
658.056753	12636.004996
658.398708	12436.607197
658.740612	12448.582458
659.082465	12549.219012
659.424266	12504.256961
659.766016	12536.986652
660.107715	12444.476438
660.449362	12528.240250
660.790958	12476.732261
661.132503	12418.101121
661.473996	12486.565032
661.815438	12504.882064
662.156829	12520.507120
662.498168	12496.196156
662.839456	12497.874860
663.180693	12518.273889
663.521879	12609.105399
663.863013	12578.939135
664.204097	12551.522819
664.545129	12679.121985
664.886110	12654.591730
665.227040	12737.725398
665.567918	12748.362233
665.908746	12778.730144
666.249522	12766.210438
666.590248	12816.808499
666.930922	12929.483329
667.271545	12906.278898
667.612118	12992.074295
667.952639	12893.776836
668.293109	12901.141962
668.633528	12859.096218
668.973896	12833.961025
669.314213	12918.143253
669.654480	12651.168787
669.994695	12730.125859
670.334859	12744.102458
670.674973	12694.835262
671.015035	12731.406312
671.355047	12678.741378
671.695008	12638.422229
672.034918	12647.897078
672.374777	12689.965507
672.714585	12605.206067
673.054342	12637.734112
673.394049	12590.090167
673.733705	12685.017614
674.073310	12593.954211
674.412864	12614.910288
674.752368	12468.603400
675.091820	12498.124397
675.431223	12490.663490
675.770574	12354.673323
676.109875	12269.818101
676.449125	12231.369221
676.788324	12171.046774
677.127473	12015.655727
677.466571	12002.435301
677.805619	11898.020402
678.144616	11822.256901
678.483562	11795.594238
678.822458	11654.535192
679.161303	11640.445167
679.500098	11624.096705
679.838842	11574.733727
680.177535	11602.331523
680.516179	11663.657160
680.854771	11604.786565
681.193314	11830.484064
681.531805	11981.469143
681.870247	12396.976166
682.208638	12811.394300
682.546978	13127.973721
682.885268	13172.819825
683.223508	12869.783465
683.561697	12705.061242
683.899836	12615.232922
684.237925	12410.304977
684.575963	12329.026453
684.913951	12251.455698
685.251889	12197.139786
685.589776	12298.540075
685.927614	12218.544526
686.265401	12187.117972
686.603137	12236.138153
686.940824	12393.160012
687.278460	12516.524609
687.616046	12562.729304
687.953582	12730.796333
688.291068	12650.006801
688.628504	12884.745609
688.965889	12898.283628
689.303224	12859.053369
689.640510	12757.690888
689.977745	12445.091459
690.314930	12221.591903
690.652065	12127.834003
690.989150	11839.432112
691.326185	11618.397681
691.663170	11408.496637
692.000105	11171.912767
692.336990	11056.634181
692.673825	10805.098248
693.010610	10685.524600
693.347345	10475.454678
693.684030	10277.692733
694.020665	10214.373320
694.357251	10022.423826
694.693786	9962.164393
695.030272	9800.219847
695.366707	9678.571763
695.703093	9611.400909
696.039429	9613.306465
696.375716	9522.497640
696.711952	9409.222913
697.048139	9443.550650
697.384276	9400.413497
697.720363	9416.756918
698.056400	9354.954892
698.392388	9299.189648
698.728326	9267.899206
699.064214	9202.490235
699.400053	9238.413497
699.735842	9059.979336
700.071581	9021.162452
700.407270	8946.891132
700.742910	8866.215027
701.078501	8773.835882
701.414042	8650.534300
701.749533	8583.570133
702.084974	8437.553112
702.420366	8559.488541
702.755709	8443.887322
703.091002	8304.469171
703.426246	8334.446393
703.761440	8284.642313
704.096584	8242.531034
704.431679	8175.607197
704.766725	8163.521030
705.101721	8112.726364
705.436668	8162.180083
705.771565	8048.965850
706.106413	8131.751679
706.441212	8177.003596
706.775961	8130.332594
707.110661	8165.663521
707.445311	8311.781365
707.779913	8209.193884
708.114465	8341.383020
708.448967	8377.850727
708.783421	8518.776183
709.117825	8705.802991
709.452180	8739.341787
709.786485	8831.423503
710.120742	9109.029763
710.454949	9106.307540
710.789107	9209.376451
711.123216	9425.420140
711.457275	9591.669832
711.791286	9745.152802
712.125247	9745.883770
712.459159	9737.291123
712.793023	9981.219955
713.126837	9555.169358
713.460602	9709.005209
713.794318	9535.450885
714.127985	9564.371984
714.461602	9244.740145
714.795171	9187.757463
715.128691	8947.395247
715.462162	8694.604067
715.795584	8638.657342
716.128957	8491.369950
716.462281	8323.161770
716.795556	8374.853761
717.128782	8168.267277
717.461960	7898.384064
717.795088	7972.403326
718.128167	7879.018472
718.461198	7711.495888
718.794180	7650.122361
719.127113	7646.459963
719.459997	7492.326684
719.792833	7264.617764
720.125619	7326.843247
720.458357	7182.436874
720.791046	7169.246695
721.123686	7168.954308
721.456278	7008.985894
721.788821	7030.761158
722.121315	6922.119252
722.453761	6989.448902
722.786158	6934.888494
723.118506	6946.838549
723.450805	6912.422592
723.783056	6980.268961
724.115259	6883.463684
724.447412	6885.485187
724.779518	6930.467402
725.111574	6931.848678
725.443582	7015.448653
725.775542	6995.979717
726.107453	7184.546597
726.439315	7090.730724
726.771129	7154.738255
727.102895	7325.303174
727.434612	7428.122548
727.766281	7470.344732
728.097901	7548.036475
728.429473	7536.061214
728.760996	7509.418716
729.092471	7490.499265
729.423897	7444.045033
729.755276	7452.189017
730.086606	7380.264354
730.417887	7475.907646
730.749120	7677.498347
731.080305	7868.116977
731.411442	7989.545770
731.742530	7989.323959
732.073570	8088.380112
732.404562	8172.048142
732.735506	8023.497941
733.066401	8168.562184
733.397249	8095.185669
733.728048	7857.356634
734.058798	7523.329780
734.389501	7298.882487
734.720156	7117.395907
735.050762	6889.059365
735.381320	6792.601927
735.711831	6740.408341
736.042293	6635.242310
736.372707	6650.464074
736.703073	6517.390215
737.033391	6558.493263
737.363661	6568.729326
737.693883	6596.760662
738.024056	6675.642117
738.354182	6720.825978
738.684260	6757.888542
739.014290	6878.835905
739.344272	6976.558672
739.674207	7008.043198
740.004093	7077.381749
740.333931	7089.321722
740.663722	7102.179185
740.993464	7184.783532
741.323159	7171.757190
741.652806	6917.120948
741.982405	6932.902280
742.311956	6990.762123
742.641460	6821.283572
742.970915	6630.821218
743.300323	6622.422655
743.629683	6575.295429
743.958996	6436.895591
744.288260	6344.990315
744.617477	6295.894518
744.946647	6300.295445
745.275768	6133.760928
745.604842	6089.189566
745.933869	6072.440332
746.262847	6033.933479
746.591778	6019.314133
746.920662	5975.816537
747.249498	5970.611545
747.578286	6015.818093
747.907027	6091.546306
748.235720	6154.164998
748.564365	6126.834382
748.892963	6151.924205
749.221514	6304.023378
749.550017	6140.354757
749.878473	6014.923288
750.206881	6068.278860
750.535242	6008.180744
750.863555	5940.258758
751.191821	5961.187108
751.520039	5961.005627
751.848210	5865.195977
752.176334	5894.888373
752.504411	5939.830260
752.832440	5865.309403
753.160421	5798.476306
753.488356	5839.695301
753.816243	5874.658223
754.144082	5724.628443
754.471875	5694.043763
754.799620	5740.213171
755.127318	5752.904275
755.454969	5704.998190
755.782572	5673.299415
756.110129	5717.308688
756.437638	5697.582653
756.765100	5636.952696
757.092515	5639.253982
757.419882	5689.294996
757.747203	5669.836142
758.074477	5733.188323
758.401703	5721.863371
758.728882	5674.327810
759.056014	5726.972580
759.383099	5860.409402
759.710138	5865.586667
760.037129	5856.467219
760.364073	5859.161716
760.690970	5940.810764
761.017820	5922.571870
761.344623	5879.684253
761.671379	5980.015818
761.998088	6098.382110
762.324751	6339.503019
762.651366	6944.678415
762.977935	8262.549456
763.304456	9891.217715
763.630931	10794.930241
763.957359	10386.506039
764.283740	9446.303120
764.610074	8611.198177
764.936362	7610.887060
765.262602	7015.448653
765.588796	6486.561039
765.914943	6143.961703
766.241044	5980.638400
766.567097	5779.597185
766.893104	5519.914747
767.219064	5341.271379
767.544978	5280.328870
767.870845	5203.277354
768.196665	5094.448925
768.522438	5027.361249
768.848165	4995.107947
769.173846	4924.607410
769.499479	4884.242892
769.825066	4826.675435
770.150607	4770.307773
770.476101	4744.633177
770.801548	4741.830295
771.126949	4665.761804
771.452303	4612.612919
771.777611	4569.533739
772.102872	4589.622737
772.428087	4556.235175
772.753256	4511.673896
773.078378	4467.097493
773.403453	4394.976226
773.728482	4384.843506
774.053465	4335.873738
774.378401	4323.074248
774.703291	4321.138445
775.028135	4254.317951
775.352932	4203.916495
775.677683	4188.092313
776.002388	4210.200293
776.327046	4222.712437
776.651658	4147.901714
776.976224	4084.395778
777.300743	4091.818877
777.625216	4111.373513
777.949643	4109.505766
778.274024	4065.970361
778.598359	4018.084441
778.922647	4038.952297
779.246889	4031.821585
779.571086	4027.375287
779.895236	4011.697299
780.219339	3999.268334
780.543397	3990.448835
780.867409	4045.021846
781.191374	4055.227662
781.515294	3995.870596
781.839167	3987.351046
782.162995	4006.356196
782.486776	3994.937983
782.810511	4005.468953
783.134201	4003.903675
783.457844	3957.872899
783.781441	3903.554466
784.104993	3908.867842
784.428498	3930.144032
784.751958	3923.106582
785.075372	3904.776946
785.398739	3867.263200
785.722061	3878.560426
786.045337	3919.363525
786.368568	3951.362249
786.691752	3864.659444
787.014891	3917.463010
787.337983	4040.971279
787.661030	4201.116134
787.984031	4367.259962
788.306987	4537.076270
788.629897	4616.907983
788.952760	4570.219336
789.275579	4502.640148
789.598351	4436.946352
789.921078	4295.037871
790.243759	4095.098148
790.566395	4081.164399
790.888984	4073.829520
791.211529	3966.500834
791.534027	3906.952204
791.856480	3896.537180
792.178888	3835.186338
792.501249	3785.672125
792.823566	3797.332314
793.145836	3824.584791
793.468062	3774.687451
793.790241	3727.043506
794.112375	3759.102723
794.434464	3821.610511
794.756507	3845.850899
795.078505	3823.775686
795.400457	3859.986294
795.722364	3998.630628
796.044226	4105.861011
796.366042	4178.899769
796.687812	4157.981501
797.009538	4161.840504
797.331218	4121.738125
797.652852	4094.679732
797.974442	4073.562339
798.295986	4071.389601
798.617484	3991.268023
798.938938	3901.359044
799.260346	3945.174232
799.581709	3941.476546
799.903026	3865.647510
800.224299	3832.028055
800.545526	3827.158300
800.866708	3785.341929
801.187845	3723.439081
801.508936	3761.512395
801.829983	3759.952158
802.150984	3682.053728
802.471940	3669.488652
802.792851	3682.600693
803.113717	3682.293183
803.434538	3684.312165
803.755314	3626.570789
804.076045	3599.376284
804.396731	3620.208853
804.717372	3647.486536
805.037967	3632.587406
805.358518	3620.019809
805.679024	3647.907472
805.999485	3662.027744
806.319901	3664.344155
806.640272	3676.805887
806.960598	3694.520502
807.280879	3666.060668
807.601115	3679.644057
807.921306	3697.479659
808.241453	3736.783015
808.561554	3709.885938
808.881611	3648.411588
809.201623	3685.106147
809.521590	3694.749874
809.841513	3667.444464
810.161390	3696.776418
810.481223	3677.075589
810.801011	3618.840179
811.120755	3616.034777
811.440453	3649.492915
811.760107	3649.477792
812.079716	3608.130248
812.399281	3577.139755
812.718801	3601.821244
813.038276	3573.845361
813.357707	3571.912078
813.677093	3588.699121
813.996434	3535.288096
814.315731	3544.583983
814.634983	3546.819735
814.954191	3562.603588
815.273354	3590.481168
815.592473	3586.372628
815.911547	3593.589040
816.230577	3632.549597
816.549562	3682.993903
816.868502	3724.875809
817.187399	3750.820108
817.506250	3748.274325
817.825058	3719.199470
818.143821	3815.919048
818.462539	3915.048297
818.781213	3960.832056
819.099843	4018.959081
819.418429	4265.423613
819.736970	4504.681816
820.055466	4752.315895
820.373919	5119.488336
820.692327	5529.001427
821.010691	5973.795034
821.329011	7358.955397
821.647286	10119.740780
821.965517	14688.074725
822.283704	18732.073217
822.601847	20886.458204
822.919945	19062.228464
823.237999	16465.179758
823.556010	13964.618736
823.873976	11871.882020
824.191897	9777.000292
824.509775	8426.023993
824.827609	7291.978627
825.145398	6751.992912
825.463144	6636.106868
825.780845	6752.096256
826.098502	6944.444001
826.416116	7822.907909
826.733685	9154.256475
827.051210	10263.844683
827.368692	10304.615015
827.686129	9038.327581
828.003522	7524.554780
828.320872	6510.554410
828.638177	5802.521832
828.955439	5239.235904
829.272656	4744.050924
829.589830	4457.229434
829.906960	4283.649905
830.224046	4100.834981
830.541088	3977.049448
830.858086	3925.549021
831.175041	3850.836600
831.491952	3836.151719
831.808819	3847.963142
832.125642	3921.203546
832.442421	4063.578333
832.759157	4347.501159
833.075849	4895.701434
833.392497	5768.110916
833.709101	6539.651950
834.025662	6878.132664
834.342179	6511.091293
834.658653	5841.903326
834.975083	5198.470614
835.291469	4618.531234
835.607811	4212.988051
835.924110	4069.594951
836.240366	3873.610012
836.556578	3665.211233
836.872746	3555.893812
837.188871	3519.153883
837.504952	3449.984211
837.820990	3370.840616
838.136984	3322.541321
838.452935	3347.000999
838.768842	3344.354394
839.084706	3367.468084
839.400526	3524.084131
839.716303	3865.627345
840.032037	4393.489085
840.347727	4656.254188
840.663373	4373.921847
840.978977	3989.052436
841.294537	3684.720498
841.610054	3454.014613
841.925527	3349.398068
842.240957	3279.043725
842.556344	3225.080694
842.871687	3168.521468
843.186987	3116.350567
843.502244	3080.160123
843.817458	3045.136707
844.132629	3016.079496
844.447756	3022.943027
844.762840	3006.995337
845.077881	2977.494505
845.392879	2957.728141
845.707833	2952.049281
846.022745	2953.753191
846.337613	2955.207564
846.652438	2943.310441
846.967221	2942.375307
847.281960	2927.692946
847.596656	2920.582398
847.911309	2920.426123
848.225919	2916.234403
848.540485	2910.643764
848.855009	2910.084196
849.169490	2899.777557
849.483928	2891.142060
849.798323	2890.476628
850.112675	2887.739281
850.426984	2898.328225
850.741251	2895.797566
851.055474	2885.654764
851.369654	2879.123949
851.683792	2884.376832
851.997887	2893.234139
852.311938	2892.369581
852.625947	2884.359187
852.939914	2886.491596
853.253837	2893.138357
853.567718	2877.951881
853.881555	2877.394833
854.195350	2888.162738
854.509103	2888.225753
854.822812	2877.762838
855.136479	2876.552961
855.450103	2879.207128
855.763685	2869.820500
856.077224	2869.754965
856.390720	2880.331306
856.704173	2892.036865
857.017584	2882.758621
857.330953	2882.065463
857.644278	2889.344889
857.957561	2894.985940
858.270802	2902.164543
858.584000	2901.741086
858.897155	2887.993859
859.210268	2889.571741
859.523339	2886.017727
859.836367	2880.810215
860.149352	2879.454145
860.462295	2875.156561
860.775195	2884.606204
861.088054	2881.952037
861.400869	2864.817155
861.713642	2864.696167
862.026373	2878.912221
862.339062	2880.142262
862.651708	2887.615773
862.964312	2891.568038
863.276873	2882.617469
863.589392	2892.961917
863.901869	2905.310223
864.214303	2928.537339
864.526696	2944.215328
864.839045	2938.894390
865.151353	2938.412960
865.463619	2933.215530
865.775842	2936.053700
866.088023	2952.548355
866.400162	2962.504634
866.712258	2932.232505
867.024313	2920.456370
867.336325	2930.581527
867.648296	2952.311421
867.960224	2942.977724
868.272110	2929.474994
868.583954	2937.271138
868.895755	2953.037347
869.207515	2937.616457
869.519233	2943.159206
869.830909	2952.172789
870.142542	2960.820888
870.454134	2963.066723
870.765684	2964.596713
871.077191	2965.105869
871.388657	2970.414204
871.700081	2985.446925
872.011463	2999.168946
872.322803	2997.777587
872.634101	2998.742968
872.945357	3013.803415
873.256571	3040.148485
873.567744	3031.099614
873.878874	3024.036958
874.189963	3048.852038
874.501010	3048.693241
874.812015	3038.351314
875.122979	3038.542878
875.433900	3034.615819
875.744780	3042.727036
876.055618	3050.523180
876.366415	3048.839435
876.677169	3058.571382
876.987882	3055.927297
877.298554	3048.990669
877.609183	3070.130748
877.919771	3092.526074
878.230317	3122.049591
878.540822	3169.464164
878.851285	3210.736090
879.161707	3253.585898
879.472087	3360.133205
879.782425	3589.402362
880.092722	4026.692211
880.402977	4553.797778
880.713191	5189.832597
881.023363	6355.854002
881.333494	7643.236145
881.643583	8194.917336
881.953631	7887.338896
882.263637	7261.058710
882.573602	6662.232647
882.883526	6079.850829
883.193408	5504.821533
883.503248	5048.120721
883.813048	4741.875666
884.122806	4436.553142
884.432522	4119.560347
884.742197	3883.876322
885.051831	3689.925490
885.361424	3550.986249
885.670975	3481.178871
885.980485	3394.372722
886.289954	3319.607369
886.599382	3272.737242
886.908768	3237.454206
887.218113	3189.159952
887.527417	3132.613329
887.836680	3081.246492
888.145901	3077.737849
888.455082	3068.053792
888.764221	3016.644106
889.073319	2986.815598
889.382376	2986.341730
889.691392	2990.888851
890.000366	2989.575630
890.309300	2976.917293
890.618193	2989.618480
890.927044	3004.605830
891.235855	3004.789832
891.544625	2991.566886
891.853353	3003.688340
892.162041	3020.999663
892.470687	3059.178841
892.779293	3113.739249
893.087858	3161.867145
893.396381	3232.786097
893.704864	3356.927031
894.013306	3595.393773
894.321707	3897.613467
894.630068	4103.683233
894.938387	4103.894961
895.246665	4055.429308
895.554903	3937.221812
895.863100	3734.764033
896.171256	3563.178279
896.479371	3425.529573
896.787446	3303.037097
897.095480	3199.194369
897.403473	3136.278248
897.711425	3096.153184
898.019336	3088.412492
898.327207	3060.592885
898.635038	3021.350023
898.942827	3007.292765
899.250576	2993.311125
899.558284	2963.424644
899.865952	2945.190791
900.173579	2924.126330
900.481165	2918.185330
900.788711	2906.167219
901.096216	2881.452962
901.403681	2868.275386
901.711105	2876.457179
902.018489	2874.826366
902.325832	2873.601365
902.633135	2883.522356
902.940397	2915.906728
903.247619	2999.657938
903.554800	3191.622556
903.861941	3539.497459
904.169041	3969.873366
904.476101	4273.063482
904.783121	4228.335844
905.090100	3980.159840
905.397039	3700.527036
905.703938	3453.671815
906.010796	3267.103752
906.317614	3156.435302
906.624391	3059.481310
906.931129	2986.808037
907.237826	2924.983326
907.544483	2877.253681
907.851099	2846.003568
908.157675	2828.477997
908.464211	2807.244657
908.770707	2793.820064
909.077163	2779.220883
909.383578	2766.118924
909.689954	2753.679877
909.996289	2754.917480
910.302584	2754.415885
910.608839	2755.650968
910.915054	2746.990266
911.221229	2742.314596
911.527363	2746.919690
911.833458	2750.597211
912.139513	2755.769435
912.445527	2758.917636
912.751502	2769.907351
913.057436	2773.718463
913.363331	2791.652368
913.669186	2813.097437
913.975000	2848.224197
914.280775	2906.648649
914.586510	2977.164309
914.892205	3055.123233
915.197859	3185.326154
915.503475	3380.620454
915.809050	3596.207919
916.114585	3745.718460
916.420081	3763.828805
916.725536	3702.334290
917.030952	3584.237699
917.336328	3454.753142
917.641665	3322.420333
917.946961	3222.368553
918.252218	3149.733088
918.557435	3073.951943
918.862612	3012.659073
919.167750	2962.136630
919.472848	2923.160949
919.777906	2897.128430
920.082925	2872.850233
920.387904	2839.593741
920.692843	2821.899291
920.997743	2810.486119
921.302603	2797.757206
921.607423	2785.948303
921.912204	2774.799791
922.216946	2765.766043
922.521647	2754.640217
922.826310	2746.897004
923.130932	2739.105901
923.435516	2731.498800
923.740059	2725.003273
924.044564	2715.919114
924.349028	2710.751931
924.653454	2705.062989
924.957840	2697.264324
925.262186	2694.305167
925.566493	2689.700073
925.870761	2686.163703
926.174989	2680.079031
926.479178	2675.342867
926.783328	2672.242557
927.087438	2668.746517
927.391509	2669.921106
927.695541	2665.938594
927.999533	2660.176555
928.303486	2662.452636
928.607400	2657.832419
928.911275	2658.966678
929.215110	2657.572799
929.518906	2654.364105
929.822663	2655.652120
930.126381	2656.776297
930.430060	2657.494662
930.733699	2659.100269
931.037299	2659.291833
931.340861	2659.160763
931.644383	2660.673109
931.947866	2658.555824
932.251309	2658.596154
932.554714	2656.743530
932.858080	2655.725217
933.161407	2653.774290
933.464694	2651.992242
933.767943	2647.941675
934.071153	2653.318066
934.374323	2650.963847
934.677455	2650.784886
934.980548	2649.285142
935.283602	2648.561737
935.586617	2648.465955
935.889593	2648.148362
936.192530	2648.541572
936.495428	2651.407468
936.798287	2651.208343
937.101108	2652.075421
937.403890	2660.322749
937.706632	2662.505568
938.009336	2672.151816
938.312002	2678.284380
938.614628	2686.415761
938.917216	2693.458253
939.219765	2695.361289
939.522275	2692.840712
939.824747	2689.569003
940.127179	2688.928776
940.429573	2684.605987
940.731929	2682.970132
941.034246	2680.527693
941.336524	2674.679955
941.638763	2672.739111
941.940964	2669.868174
942.243126	2669.119562
942.545250	2668.527227
942.847335	2664.900117
943.149381	2661.671257
943.451389	2657.595485
943.753359	2655.337048
944.055290	2653.005514
944.357182	2651.263795
944.659036	2652.803868
944.960851	2651.324289
945.262628	2649.917807
945.564367	2650.479896
945.866067	2651.498209
946.167729	2652.385452
946.469352	2652.163641
946.770937	2650.341264
947.072484	2647.409833
947.373992	2648.692807
947.675462	2647.913949
947.976893	2641.962867
948.278286	2645.549647
948.579641	2642.434214
948.880958	2639.563277
949.182236	2643.538227
949.483476	2641.315078
949.784678	2639.878349
950.085841	2640.367341
950.386967	2641.917496
950.688054	2641.231899
950.989103	2644.402785
951.290114	2644.803557
951.591087	2645.635347
951.892021	2648.571819
952.192917	2649.509474
952.493776	2655.667243
952.794596	2655.087511
953.095378	2652.544248
953.396122	2654.164979
953.696828	2653.098775
953.997496	2650.787406
954.298126	2646.986376
954.598718	2647.339257
954.899272	2644.571664
955.199788	2639.548154
955.500266	2636.931795
955.800706	2634.748975
956.101108	2631.462143
956.401472	2632.230919
956.701798	2629.480970
957.002087	2626.438633
957.302337	2628.263531
957.602550	2628.036679
957.902724	2623.640793
958.202861	2625.198509
958.502960	2620.911008
958.803022	2623.297994
959.103045	2616.545369
959.403031	2618.241717
959.702979	2619.126440
960.002889	2618.854217
960.302762	2619.587705
960.602596	2616.169803
960.902393	2618.914711
961.202153	2614.511263
961.501875	2615.466562
961.801559	2617.208281
962.101205	2614.959926
962.400814	2618.216511
962.700385	2613.616458
962.999918	2614.566716
963.299414	2612.557816
963.598873	2612.444390
963.898293	2611.468927
964.197677	2613.482868
964.497022	2612.885491
964.796331	2612.956067
965.095601	2614.970008
965.394835	2614.297014
965.694030	2614.123094
965.993189	2613.921448
966.292309	2613.064452
966.591393	2611.847013
966.890439	2613.777775
967.189447	2613.341716
967.488419	2611.852055
967.787353	2613.868516
968.086249	2615.312807
968.385108	2610.654781
968.683930	2612.330964
968.982714	2614.728033
969.281462	2614.017230
969.580172	2613.742487
969.878844	2611.088320
970.177480	2611.536983
970.476078	2612.600666
970.774639	2615.655605
971.073162	2612.827518
971.371649	2615.960595
971.670098	2612.804833
971.968510	2612.527569
972.266885	2615.438836
972.565223	2614.695265
972.863524	2613.049329
973.161788	2614.455811
973.460014	2613.356839
973.758204	2613.903804
974.056356	2614.649895
974.354471	2611.599997
974.652550	2612.688886
974.950591	2614.526387
975.248595	2614.574278
975.546563	2613.661829
975.844493	2613.470265
976.142386	2611.947837
976.440243	2611.055552
976.738062	2613.011520
977.035845	2612.918259
977.333590	2611.458845
977.631299	2610.274173
977.928971	2609.132352
978.226606	2607.705706
978.524204	2607.801487
978.821765	2604.252515
979.119290	2610.495984
979.416777	2612.459514
979.714228	2610.803495
980.011642	2611.915069
980.309020	2611.703341
980.606360	2612.761983
980.903664	2612.076386
981.200931	2612.154524
981.498162	2610.372476
981.795356	2613.802981
982.092513	2616.646192
982.389633	2615.302724
982.686717	2618.279526
982.983764	2624.021400
983.280775	2625.967285
983.577749	2630.622791
983.874686	2626.305043
984.171587	2624.298663
984.468451	2624.344034
984.765279	2620.071656
985.062070	2619.572582
985.358824	2616.797427
985.655543	2616.598301
985.952224	2614.831377
986.248869	2614.672580
986.545478	2613.472786
986.842050	2610.743001
987.138586	2606.601693
987.435086	2613.021602
987.731549	2609.651591
988.027975	2607.995572
988.324366	2610.170830
988.620719	2607.491457
988.917037	2608.388782
989.213318	2608.560181
989.509563	2607.183946
989.805772	2606.878956
990.101944	2609.187805
990.398080	2608.807198
990.694180	2608.479523
990.990244	2605.638832
991.286271	2606.954574
991.582262	2608.547578
991.878217	2608.872733
992.174136	2610.400202
992.470019	2606.914244
992.765865	2604.978441
993.061676	2604.607917
993.357450	2607.430963
993.653188	2600.983327
993.948890	2607.932557
994.244556	2607.861981
994.540186	2607.166302
994.835780	2608.794595
995.131337	2607.922475
995.426859	2610.264091
995.722345	2610.518669
996.017795	2608.509770
996.313208	2612.000769
996.608586	2608.870212
996.903928	2612.693927
997.199234	2611.708382
997.494504	2612.502363
997.789738	2613.432456
998.084936	2612.348608
998.380099	2610.438011
998.675225	2611.678135
998.970316	2609.094543
999.265371	2608.885336
999.560390	2607.143617
999.855373	2610.110336
1000.150320	2607.246961
1000.445232	2606.072372
1000.740108	2604.963318
1001.034948	2606.979779
1001.329752	2604.865015
1001.624521	2605.873246
1001.919254	2605.230499
1002.213951	2605.288472
1002.508613	2606.294182
1002.803239	2605.664038
1003.097829	2605.036415
1003.392384	2605.429625
1003.686903	2603.277052
1003.981386	2605.386775
1004.275834	2607.982969
1004.570246	2605.021291
1004.864623	2606.495829
1005.158964	2603.629933
1005.453270	2605.779985
1005.747540	2607.980448
1006.041775	2604.091198
1006.335974	2605.104470
1006.630138	2605.248143
1006.924266	2608.794595
1007.218359	2605.570777
1007.512416	2603.151023
1007.806438	2600.456526
1008.100425	2600.915271
1008.394376	2599.097935
1008.688292	2604.295365
1008.982172	2604.928030
1009.276017	2607.531786
1009.569827	2603.614809
1009.863602	2603.571959
1010.157341	2606.410129
1010.451045	2604.388626
1010.744714	2604.675972
1011.038347	2605.832917
1011.331945	2602.530961
1011.625508	2607.609924
1011.919036	2604.701178
1012.212528	2604.353338
1012.505986	2604.796960
1012.799408	2606.296703
1013.092795	2605.752258
1013.386147	2605.439707
1013.679464	2602.493152
1013.972745	2604.502052
1014.265992	2605.802670
1014.559204	2604.091198
1014.852380	2604.713781
1015.145521	2603.577001
1015.438628	2603.801332
1015.731699	2605.011209
1016.024736	2604.391147
1016.317737	2601.931064
1016.610703	2603.697988
1016.903635	2604.171857
1017.196531	2604.028184
1017.489393	2604.973400
1017.782219	2603.481219
1018.075011	2605.827876
1018.367768	2605.164964
1018.660490	2603.844182
1018.953177	2603.844182
1019.245829	2603.844182
