Dividing Wavelength (nm)	Counts (n)	Blue Motor Position (mm): 19.300000	Red Motor Position (mm): 0.000000	
326.493990	2182.890192
326.888308	2182.890192
327.282561	2182.890192
327.676750	2141.267905
328.070874	2140.836886
328.464933	2140.791516
328.858929	2144.123718
329.252859	2147.690335
329.646726	2155.506644
330.040528	2170.582214
330.434265	2183.210305
330.827938	2200.181349
331.221547	2217.341437
331.615091	2233.946998
332.008571	2254.303177
332.401986	2271.922010
332.795338	2292.197530
333.188625	2311.752166
333.581847	2327.956955
333.975006	2343.556806
334.368100	2366.305013
334.761129	2382.172044
335.154095	2399.344735
335.546996	2423.398600
335.939833	2454.847839
336.332606	2466.079529
336.725315	2483.098465
337.117960	2495.552635
337.510540	2505.844151
337.903056	2518.144566
338.295508	2526.868283
338.687896	2536.045704
339.080220	2541.906045
339.472480	2549.770245
339.864676	2554.985319
340.256807	2558.161246
340.648875	2563.824982
341.040879	2568.241033
341.432818	2571.048955
341.824694	2569.506362
342.216506	2572.538616
342.608253	2573.781261
342.999937	2575.008782
343.391557	2572.891497
343.783113	2574.353432
344.174605	2572.866291
344.566033	2573.380489
344.957397	2571.628688
345.348697	2567.361351
345.739934	2566.973182
346.131106	2567.494942
346.522215	2565.619633
346.913260	2561.148129
347.304241	2559.413972
347.695159	2558.030176
348.086012	2558.108313
348.476802	2553.551110
348.867528	2550.629762
349.258191	2544.013247
349.648789	2548.668753
350.039324	2540.280273
350.429796	2547.854607
350.820203	2546.611962
351.210548	2547.995759
351.600828	2541.162475
351.991045	2542.889070
352.381198	2541.606096
352.771288	2540.040818
353.161314	2542.677342
353.551276	2538.576363
353.941175	2538.442772
354.331010	2538.473019
354.720782	2541.195242
355.110490	2537.396733
355.500135	2537.497556
355.889717	2536.421270
356.279235	2541.278421
356.668689	2541.139790
357.058080	2539.879501
357.447408	2540.670962
357.836672	2540.111394
358.225873	2539.534182
358.615010	2539.173740
359.004084	2541.215407
359.393095	2542.400078
359.782043	2545.018958
360.170927	2546.727909
360.559748	2540.764224
360.948505	2544.514842
361.337199	2544.842517
361.725830	2544.381252
362.114398	2547.461397
362.502903	2545.001313
362.891344	2547.123639
363.279722	2548.104144
363.668037	2546.264122
364.056289	2549.606407
364.444478	2546.866540
364.832603	2547.214380
365.220665	2550.236552
365.608665	2547.204298
365.996601	2547.801674
366.384474	2549.503064
366.772284	2549.036757
367.160031	2551.726213
367.547715	2551.227138
367.935336	2552.333672
368.322893	2547.897456
368.710388	2549.661860
369.097820	2552.142108
369.485189	2548.363763
369.872495	2553.294012
370.259738	2550.675132
370.646918	2552.928528
371.034035	2554.103117
371.421090	2553.203271
371.808081	2552.137067
372.195010	2554.007335
372.581875	2555.716286
372.968678	2555.968344
373.355418	2557.430278
373.742096	2552.936090
374.128710	2554.892057
374.515262	2554.188816
374.901751	2554.708055
375.288177	2555.433981
375.674540	2555.227294
376.060841	2555.980947
376.447079	2557.674774
376.833254	2556.341389
377.219367	2556.316183
377.605417	2559.257697
377.991404	2557.596636
378.377329	2558.196534
378.763191	2559.383725
379.148991	2556.452294
379.534727	2558.372974
379.920402	2559.320711
380.306013	2558.133519
380.691563	2558.410783
381.077049	2559.744168
381.462474	2561.299364
381.847835	2558.138560
382.233134	2559.703839
382.618371	2561.291802
383.003545	2561.395146
383.388657	2562.521844
383.773706	2560.676781
384.158693	2560.296174
384.543618	2562.078222
384.928480	2562.073181
385.313280	2562.584858
385.698017	2563.696432
386.082692	2561.339693
386.467305	2563.547718
386.851856	2564.066957
387.236344	2562.594940
387.620770	2559.550083
388.005133	2558.783828
388.389435	2562.179045
388.773674	2559.345917
389.157851	2563.136864
389.541965	2566.698440
389.926018	2564.177863
390.310008	2561.778273
390.693936	2564.939077
391.077802	2565.657441
391.461606	2565.826320
391.845348	2567.469736
392.229027	2568.654407
392.612645	2566.521999
392.996200	2567.948646
393.379694	2566.234653
393.763125	2568.588872
394.146494	2565.533933
394.529801	2568.041907
394.913047	2566.945456
395.296230	2567.285734
395.679351	2568.871177
396.062410	2569.062741
396.445408	2569.309757
396.828343	2570.547361
397.211217	2569.781105
397.594028	2568.833368
397.976778	2570.002916
398.359466	2571.792526
398.742092	2568.394788
399.124656	2567.999057
399.507158	2568.803121
399.889598	2569.662638
400.271977	2571.366548
400.654294	2568.989644
401.036549	2567.817576
401.418742	2573.186405
401.800874	2570.963256
402.182944	2571.956363
402.564952	2572.339491
402.946898	2571.711867
403.328783	2572.001733
403.710606	2572.200859
404.092367	2576.506004
404.474067	2574.446693
404.855705	2572.589028
405.237282	2575.638926
405.618797	2572.241188
406.000250	2570.829665
406.381642	2573.332598
406.762972	2571.946281
407.144240	2568.956877
407.525447	2571.616085
407.906593	2571.502659
408.287677	2574.257650
408.668700	2576.367373
409.049661	2576.916858
409.430560	2573.287228
409.811399	2575.964080
410.192176	2578.093968
410.572891	2574.602969
410.953545	2577.385686
411.334138	2577.473906
411.714669	2572.682289
412.095139	2578.598083
412.475547	2576.836200
412.855894	2578.898032
413.236180	2576.236303
413.616405	2576.160685
413.996568	2577.267219
414.376670	2576.543813
414.756711	2576.480799
415.136691	2579.182857
415.516609	2577.993145
415.896466	2579.626479
416.276262	2577.859554
416.655997	2576.027095
417.035670	2578.870306
417.415283	2580.954823
417.794834	2577.831828
418.174324	2579.669328
418.553753	2578.083886
418.933121	2578.807291
419.312428	2578.328382
419.691674	2580.848958
420.070859	2579.981880
420.449983	2581.733681
420.829045	2579.233269
421.208047	2581.237127
421.586988	2581.063207
421.965867	2578.943402
422.344686	2580.488516
422.723444	2582.694021
423.102141	2581.118660
423.480777	2581.791654
423.859352	2579.218145
424.237866	2582.502457
424.616319	2581.612693
424.994712	2582.487333
425.373044	2582.663774
425.751314	2578.822415
426.129524	2580.299473
426.507673	2579.258474
426.885762	2578.512384
427.263789	2582.978846
427.641756	2581.942889
428.019662	2585.706110
428.397508	2583.611511
428.775292	2581.824422
429.153016	2583.850966
429.530679	2583.324165
429.908282	2585.416244
430.285824	2583.987077
430.663305	2582.867941
431.040726	2585.141501
431.418086	2586.689135
431.795385	2585.499423
432.172624	2585.539752
432.549802	2588.146029
432.926920	2583.881212
433.303977	2586.467324
433.680974	2586.747108
434.057910	2584.395410
434.434786	2586.051429
434.811601	2586.406831
435.188355	2587.263827
435.565050	2584.259299
435.941683	2589.058477
436.318257	2591.168200
436.694770	2587.006728
437.071222	2587.853642
437.447614	2588.072932
437.823946	2588.324990
438.200218	2586.941193
438.576429	2590.956472
438.952580	2587.137798
439.328670	2587.858683
439.704700	2590.820361
440.080670	2587.740216
440.456580	2589.923035
440.832429	2588.839187
441.208218	2589.222315
441.583947	2590.235587
441.959616	2589.391194
442.335224	2589.933118
442.710773	2588.902202
443.086261	2588.453539
443.461689	2589.988570
443.837057	2590.333889
444.212365	2589.655854
444.587612	2588.871955
444.962800	2587.689804
445.337927	2586.202664
445.712995	2586.177458
446.088002	2590.086873
446.462949	2592.615012
446.837837	2591.677357
447.212664	2592.819178
447.587431	2589.005545
447.962139	2592.786411
448.336786	2596.010229
448.711374	2597.073912
449.085901	2593.235073
449.460369	2593.325814
449.834776	2591.758015
450.209124	2593.373705
450.583412	2595.518716
450.957640	2597.673809
451.331808	2596.169025
451.705917	2594.142481
452.079965	2595.402770
452.453954	2596.000146
452.827883	2594.543253
453.201752	2596.897472
453.575562	2596.955445
453.949311	2594.765064
454.323001	2594.674323
454.696632	2600.721187
455.070202	2594.661720
455.443713	2597.661207
455.817164	2595.861515
456.190556	2598.044334
456.563888	2600.665734
456.937160	2600.345621
457.310373	2599.264293
457.683526	2598.152719
458.056619	2598.959304
458.429653	2599.720518
458.802628	2596.940322
459.175542	2598.984509
459.548398	2602.916609
459.921194	2602.551126
460.293930	2600.708584
460.666607	2602.704881
461.039224	2603.849223
461.411782	2605.275869
461.784280	2602.009202
462.156719	2604.970880
462.529099	2606.780654
462.901419	2602.697319
463.273680	2600.607761
463.645882	2599.503748
464.018024	2599.430652
464.390106	2599.632298
464.762130	2603.216558
465.134094	2603.219079
465.505999	2606.367279
465.877845	2611.194184
466.249631	2610.430449
466.621358	2613.472786
466.993026	2613.755090
467.364634	2616.071500
467.736184	2611.090840
468.107674	2608.721498
468.479105	2611.000100
468.850477	2610.813577
469.221790	2612.439349
469.593043	2609.835593
469.964238	2612.018413
470.335373	2611.819287
470.706449	2610.357352
471.077467	2611.345419
471.448425	2612.424226
471.819324	2615.791716
472.190164	2621.183230
472.560945	2618.115688
472.931667	2615.096037
473.302330	2615.343054
473.672934	2613.717282
474.043479	2613.588732
474.413965	2614.314658
474.784393	2611.683176
475.154761	2616.565533
475.525070	2617.014196
475.895321	2614.365070
476.265513	2617.843466
476.635645	2616.051336
477.005719	2620.180041
477.375734	2620.782459
477.745691	2620.180041
478.115588	2624.147429
478.485427	2623.214815
478.855207	2626.267234
479.224928	2628.954169
479.594591	2635.323667
479.964194	2632.989613
480.333739	2636.284007
480.703226	2633.498769
481.072653	2636.886425
481.442022	2635.800056
481.811333	2640.211066
482.180584	2636.800725
482.549777	2640.778195
482.918912	2638.224851
483.287988	2641.859523
483.657005	2642.051087
484.025964	2643.913793
484.394864	2646.134421
484.763706	2647.810605
485.132489	2644.531334
485.501213	2650.079124
485.869879	2649.262457
486.238487	2648.496202
486.607036	2649.683394
486.975527	2653.509629
487.343959	2657.784528
487.712333	2656.486431
488.080648	2662.513130
488.448905	2662.298881
488.817104	2666.760302
489.185244	2670.561332
489.553326	2674.160716
489.921350	2679.335461
490.289315	2690.720907
490.657222	2704.092567
491.025070	2709.826880
491.392861	2712.617158
491.760593	2715.183106
492.128267	2714.608414
492.495883	2717.373487
492.863440	2717.905329
493.230939	2720.526729
493.598380	2730.614077
493.965763	2732.653224
494.333088	2740.010788
494.700354	2745.535893
495.067563	2753.329517
495.434713	2761.581886
495.801805	2776.528907
496.168839	2782.923610
496.535815	2792.741257
496.902733	2808.159627
497.269593	2817.498364
497.636395	2833.652742
498.003139	2850.543127
498.369825	2862.553677
498.736453	2880.195194
499.103023	2897.052813
499.469535	2917.978643
499.835989	2940.424380
500.202385	2958.998511
500.568723	2972.397898
500.935003	3004.240347
501.301226	3020.810619
501.667390	3070.740727
502.033497	3107.294134
502.399546	3127.471352
502.765537	3146.889877
503.131470	3191.778831
503.497345	3226.096486
503.863163	3242.671800
504.228923	3299.851088
504.594625	3348.102492
504.960269	3366.530429
505.325856	3429.504523
505.691385	3461.546097
506.056856	3526.783669
506.422270	3581.601176
506.787625	3610.512193
507.152924	3690.200233
507.518164	3738.577666
507.883347	3780.741876
508.248472	3820.035150
508.613540	3928.092283
508.978550	3995.926049
509.343503	4061.115730
509.708398	4148.138648
510.073236	4220.794278
510.438016	4307.544974
510.802738	4363.065722
511.167403	4459.717244
511.532010	4508.545860
511.896561	4659.790558
512.261053	4760.543058
512.625488	4817.185463
512.989866	4887.446545
513.354186	4954.229230
513.718449	5073.621398
514.082655	5189.610786
514.446803	5274.261841
514.810894	5424.760448
515.174927	5462.254030
515.538904	5569.754115
515.902822	5730.914762
516.266684	5820.324667
516.630488	5898.460031
516.994235	6011.497824
517.357925	6159.732953
517.721558	6311.655685
518.085133	6443.766684
518.448651	6545.592950
518.812112	6635.043184
519.175516	6760.502380
519.538863	6935.095182
519.902152	7007.392889
520.265385	7196.902465
520.628560	7280.857842
520.991678	7431.061541
521.354739	7576.879437
521.717743	7735.189311
522.080690	7809.541289
522.443580	8045.232876
522.806413	8159.331831
523.169189	8353.708641
523.531908	8470.676013
523.894569	8555.826143
524.257174	8717.876554
524.619722	8903.406139
524.982213	8956.933111
525.344647	9153.361670
525.707025	9313.549375
526.069345	9481.437442
526.431608	9634.396132
526.793815	9846.666518
527.155964	9803.093304
527.518057	10023.641264
527.880093	10166.575620
528.242072	10351.533034
528.603995	10416.838662
528.965860	10512.938177
529.327669	10741.060471
529.689421	10847.441420
530.051117	10949.043355
530.412755	11215.806093
530.774337	11257.924934
531.135862	11381.166022
531.497331	11607.312183
531.858743	11589.327867
532.220098	11972.614356
532.581396	11942.228801
532.942638	12150.741006
533.303824	12302.799850
533.664953	12478.247128
534.026025	12529.074561
534.387040	12763.064758
534.747999	13010.361081
535.108902	13200.846120
535.469748	13147.946772
535.830537	13412.990477
536.191270	13585.841560
536.551947	13749.139656
536.912567	13689.666644
537.273131	13999.523686
537.633638	14004.055683
537.994089	14307.328978
538.354483	14203.894583
538.714821	14618.300114
539.075103	14829.920191
539.435328	14856.663512
539.795497	14758.746661
540.155609	15152.957330
540.515665	15459.734226
540.875665	15172.108673
541.235609	15472.289220
541.595496	15638.191072
541.955328	15975.598020
542.315102	16076.247177
542.674821	15982.776623
543.034483	16050.350770
543.394090	16261.033192
543.753640	16288.469672
544.113134	16815.698747
544.472571	16738.138074
544.831953	17091.177640
545.191278	16937.077128
545.550548	17073.062253
545.909761	17285.889687
546.268918	17624.637581
546.628019	17718.334987
546.987064	17705.359057
547.346053	17672.193306
547.704986	17871.414665
548.063863	18125.438407
548.422684	18198.330971
548.781449	18067.568481
549.140158	18465.645715
549.498811	18324.306885
549.857408	18213.013332
550.215949	18677.411986
550.574434	18537.363691
550.932864	18828.656683
551.291237	19030.156644
551.649555	19088.971786
552.007817	19238.111802
552.366022	19254.485469
552.724173	19373.532317
553.082267	19439.820970
553.440305	19916.852755
553.798288	19462.758220
554.156215	19969.474840
554.514086	20140.044801
554.871902	19738.930272
555.229661	20057.397604
555.587365	20065.511341
555.945014	20000.782926
556.302606	20341.401088
556.660143	20347.954588
557.017625	20671.054741
557.375050	20382.249558
557.732421	20787.306269
558.089735	20726.222608
558.446994	20840.707212
558.804197	20954.475972
559.161345	21027.166890
559.518437	20842.242243
559.875474	21134.601440
560.232455	21340.053665
560.589381	21297.622273
560.946251	21320.393165
561.303065	21682.012775
561.659825	21829.332934
562.016528	21551.270450
562.373177	21408.580590
562.729770	21750.297724
563.086307	21735.146536
563.442789	21958.298252
563.799216	21844.882373
564.155587	21907.685068
564.511904	21965.922998
564.868164	21931.353285
565.224370	22003.134275
565.580520	21942.428700
565.936615	22133.571610
566.292654	21858.826205
566.648638	22230.984346
567.004567	22099.201023
567.360441	22097.592895
567.716260	21892.420454
568.072023	22263.371239
568.427732	22056.381462
568.783385	21895.898850
569.138982	22145.498980
569.494525	22223.921690
569.850013	22036.700797
570.205445	22163.029592
570.560823	21996.767297
570.916145	21804.926188
571.271412	21998.037668
571.626625	21798.637348
571.981782	21928.066453
572.336884	21777.010798
572.691931	21927.285074
573.046923	21696.586750
573.401860	21624.823405
573.756743	21632.203654
574.111570	21575.624264
574.466342	21551.739277
574.821059	21656.585195
575.175722	21378.704192
575.530330	21389.419164
575.884882	21444.256836
576.239380	21360.089731
576.593823	21277.102257
576.948211	21265.880648
577.302544	21121.872527
577.656823	21027.799555
578.011047	21139.844240
578.365216	21032.691995
578.719330	20919.283677
579.073389	20833.949545
579.427394	20998.419710
579.781344	20790.308277
580.135239	20695.022907
580.489080	20675.619506
580.842866	20448.346647
581.196597	20636.391767
581.550273	20635.779267
581.903895	20552.441432
582.257463	20854.434274
582.610975	20396.470653
582.964434	20687.481341
583.317837	20429.154974
583.671186	20522.128974
584.024481	20481.797223
584.377721	20283.798344
584.730906	20324.167904
585.084037	20381.458097
585.437113	20272.372569
585.790135	20474.316151
586.143103	19964.600044
586.496016	19976.529935
586.848874	20228.388501
587.201679	20179.585091
587.554428	19848.315748
587.907124	20172.325829
588.259765	19956.965217
588.612352	20046.995183
588.964884	19609.047463
589.317362	19790.309712
589.669786	19841.427012
590.022155	19905.613503
590.374470	20072.931920
590.726731	19896.161339
591.078937	19633.406319
591.431090	19752.543907
591.783188	19494.620833
592.135232	19463.723601
592.487222	19573.766948
592.839157	19600.268294
593.191038	19482.645572
593.542866	19372.163644
593.894639	19100.604248
594.246358	19325.054061
594.598022	19238.081555
594.949633	18984.884562
595.301190	18944.880485
595.652692	19109.890053
596.004141	19340.550568
596.355535	18685.563531
596.706876	18697.115335
597.058162	18581.491431
597.409395	18799.087795
597.760573	18899.164782
598.111698	18685.737451
598.462768	18624.293348
598.813785	18586.663655
599.164748	18418.755423
599.515657	18433.646991
599.866511	18232.943533
600.217312	18594.192618
600.568060	18126.900342
600.918753	18427.506866
601.269392	18332.329881
601.619978	18102.879243
601.970510	18329.998348
602.320988	18273.393752
602.671412	18484.232450
603.021783	18379.976347
603.372100	18122.761554
603.722363	18244.316376
604.072572	18183.285647
604.422728	18319.195155
604.772830	18089.482377
605.122878	18024.869908
605.472872	18032.151855
605.822813	18024.343108
606.172701	17977.392321
606.522534	18179.237601
606.872314	18203.871199
607.222041	18049.044762
607.571714	18260.932019
607.921333	18075.682218
608.270899	18155.924785
608.620411	18354.155557
608.969870	18098.906814
609.319276	18114.857025
609.668627	18139.092372
610.017926	18285.308519
610.367171	18390.330877
610.716362	18427.726156
611.065500	18258.618130
611.414585	18383.663951
611.763616	18371.315645
612.112594	18319.810176
612.461518	18291.191545
612.810389	18481.714393
613.159207	18334.096806
613.507971	18240.485099
613.856682	18523.180404
614.205340	18471.558989
614.553945	18590.522658
614.902496	18335.294080
615.250994	18588.254139
615.599439	18527.881280
615.947830	18508.538373
616.296169	18547.158653
616.644454	18521.108490
616.992686	18490.375096
617.340864	18710.481955
617.688990	18462.661352
618.037063	18645.075504
618.385082	18482.798241
618.733048	18766.378269
619.080961	18632.333988
619.428821	18667.866561
619.776628	18568.946519
620.124382	18484.532398
620.472083	18523.087143
620.819731	18546.344506
621.167326	18235.912773
621.514868	18289.636349
621.862357	18037.903812
622.209793	18049.932005
622.557176	17896.411226
622.904506	17722.551912
623.251783	17622.704298
623.599007	17396.840442
623.946179	17334.652768
624.293297	17291.694575
624.640363	17051.072740
624.987376	17055.715643
625.334336	16850.979262
625.681243	16700.074842
626.028097	16698.247424
626.374899	16643.629042
626.721647	16513.516862
627.068343	16330.507854
627.414987	16271.488545
627.761577	16241.745737
628.108115	16294.982843
628.454600	16011.720408
628.801032	16111.996520
629.147412	16031.529622
629.493739	16061.237142
629.840014	15869.998450
630.186236	15981.959956
630.532405	15731.946452
630.878521	15933.403562
631.224585	15818.336705
631.570597	15651.988711
631.916556	15681.847465
632.262462	15663.192675
632.608316	15580.658904
632.954117	15516.724471
633.299866	15522.884761
633.645562	15451.650736
633.991206	15197.170769
634.336797	15066.269648
634.682336	15038.228230
635.027823	14924.388894
635.373257	14811.204907
635.718639	14704.007292
636.063968	14655.448377
636.409245	14410.652467
636.754470	14440.145738
637.099642	14284.016162
637.444762	14055.379670
637.789829	14109.700623
638.134845	13941.111836
638.479808	13967.935816
638.824719	13921.471501
639.169577	13760.731790
639.514383	13820.366119
639.859137	13629.845792
640.203839	13717.824009
640.548489	13557.855594
640.893086	13550.709759
641.237632	13419.193617
641.582125	13561.949011
641.926566	13399.127304
642.270955	13400.730391
642.615292	13371.862223
642.959576	13385.082649
643.303809	13419.145726
643.647990	13360.645656
643.992118	13415.763111
644.336195	13186.617463
644.680219	13372.547820
645.024192	13304.217500
645.368112	13536.912121
645.711981	13601.436369
646.055797	13777.740643
646.399562	13739.536258
646.743274	14016.189740
647.086935	14289.755515
647.430544	14255.016924
647.774101	14278.581798
648.117606	14436.984934
648.461059	14408.908228
648.804460	14404.761879
649.147810	14138.541065
649.491108	14018.692673
649.834354	14043.049008
650.177548	13745.124377
650.520690	13554.921643
650.863781	13475.241165
651.206820	13515.585519
651.549807	13349.292977
651.892742	13159.886745
652.235626	13102.528497
652.578458	13100.285183
652.921238	12781.331379
653.263967	12987.368378
653.606644	12806.247282
653.949269	12775.382818
654.291843	12593.490425
654.634365	12739.535173
654.976836	12590.017070
655.319255	12615.200154
655.661622	12555.651524
656.003938	12480.898775
656.346203	12411.824885
656.688416	12479.429278
657.030577	12437.600304
657.372687	12357.375382
657.714746	12334.977535
658.056753	12522.972245
658.398708	12340.676560
658.740612	12347.933301
659.082465	12439.460490
659.424266	12407.539904
659.766016	12424.795773
660.107715	12334.438132
660.449362	12413.493507
660.790958	12372.564378
661.132503	12326.803304
661.473996	12378.149977
661.815438	12395.352914
662.156829	12407.905388
662.498168	12386.500648
662.839456	12387.518961
663.180693	12402.687793
663.521879	12496.201197
663.863013	12480.127478
664.204097	12451.599588
664.545129	12570.414543
664.886110	12535.207125
665.227040	12629.514511
665.567918	12621.879683
665.908746	12663.557423
666.249522	12638.505408
666.590248	12694.477340
666.930922	12801.785861
667.271545	12789.487966
667.612118	12874.486861
667.952639	12776.345678
668.293109	12781.744754
668.633528	12742.214546
668.973896	12713.729506
669.314213	12803.333495
669.654480	12551.757233
669.994695	12610.635389
670.334859	12629.335550
670.674973	12572.153742
671.015035	12617.413221
671.355047	12545.302036
671.695008	12519.955114
672.034918	12531.756455
672.374777	12572.879668
672.714585	12486.386071
673.054342	12515.965041
673.394049	12473.969709
673.733705	12560.677555
674.073310	12477.798465
674.412864	12499.656908
674.752368	12374.127136
675.091820	12370.184954
675.431223	12370.348791
675.770574	12242.442115
676.109875	12163.011175
676.449125	12124.705967
676.788324	12068.262688
677.127473	11901.390414
677.466571	11890.713250
677.805619	11797.582974
678.144616	11713.080632
678.483562	11681.102073
678.822458	11550.243801
679.161303	11534.505319
679.500098	11524.286900
679.838842	11474.092131
680.177535	11494.526448
680.516179	11556.837631
680.854771	11503.350988
681.193314	11720.541540
681.531805	11865.822553
681.870247	12260.053386
682.208638	12665.639419
682.546978	12998.937826
682.885268	13063.058783
683.223508	12743.527767
683.561697	12588.797111
683.899836	12484.409938
684.237925	12292.901545
684.575963	12202.919469
684.913951	12134.579067
685.251889	12077.177969
685.589776	12171.692042
685.927614	12106.547731
686.265401	12065.507698
686.603137	12101.186464
686.940824	12257.404260
687.278460	12370.799975
687.616046	12435.359511
687.953582	12605.964760
688.291068	12521.117100
688.628504	12755.747523
688.965889	12760.947474
689.303224	12726.130745
689.640510	12626.923357
689.977745	12330.233810
690.314930	12103.386928
690.652065	12012.038699
690.989150	11727.768034
691.326185	11506.403407
691.663170	11298.644854
692.000105	11056.119984
692.336990	10949.597882
692.673825	10694.770076
693.010610	10575.803886
693.347345	10376.148988
693.684030	10172.352782
694.020665	10110.180232
694.357251	9917.920707
694.693786	9875.086022
695.030272	9703.822903
695.366707	9579.639119
695.703093	9511.800312
696.039429	9509.791412
696.375716	9442.018139
696.711952	9309.468561
697.048139	9341.910906
697.384276	9300.311305
697.720363	9312.699940
698.056400	9253.990663
698.392388	9209.207573
698.728326	9165.417590
699.064214	9102.599772
699.400053	9146.104929
699.735842	8966.730593
700.071581	8920.392307
700.407270	8849.906894
700.742910	8773.440152
701.078501	8680.264505
701.414042	8558.354282
701.749533	8491.654775
702.084974	8352.148404
702.420366	8463.850291
702.755709	8348.901901
703.091002	8214.413999
703.426246	8246.619410
703.761440	8192.623611
704.096584	8153.804206
704.431679	8085.400790
704.766725	8072.525683
705.101721	8022.456943
705.436668	8062.309784
705.771565	7963.233467
706.106413	8039.395220
706.441212	8088.092766
706.775961	8033.277779
707.110661	8064.449754
707.445311	8214.545069
707.779913	8114.553782
708.114465	8242.399964
708.448967	8288.914691
708.783421	8409.826766
709.117825	8600.999923
709.452180	8639.194225
709.786485	8720.785300
710.120742	9009.088888
710.454949	9004.095625
710.789107	9103.499618
711.123216	9313.776227
711.457275	9470.735072
711.791286	9639.540629
712.125247	9627.265420
712.459159	9618.728226
712.793023	9874.292041
713.126837	9456.287125
713.460602	9598.326676
713.794318	9424.243031
714.127985	9460.922466
714.461602	9150.304210
714.795171	9098.476108
715.128691	8851.043674
715.462162	8595.467256
715.795584	8540.206128
716.128957	8402.416270
716.462281	8226.520330
716.795556	8284.843959
717.128782	8078.751508
717.461960	7805.578943
717.795088	7881.836477
718.128167	7785.371477
718.461198	7621.806200
718.794180	7562.779329
719.127113	7552.964203
719.459997	7413.530928
719.792833	7174.973446
720.125619	7236.737663
720.458357	7098.647856
720.791046	7083.985660
721.123686	7087.302740
721.456278	6933.318175
721.788821	6947.592202
722.121315	6838.312589
722.453761	6905.155769
722.786158	6852.145516
723.118506	6863.225972
723.450805	6834.524162
723.783056	6900.139821
724.115259	6808.584905
724.447412	6799.616693
724.779518	6839.494740
725.111574	6842.073290
725.443582	6926.757113
725.775542	6906.272384
726.107453	7091.565035
726.439315	7010.929259
726.771129	7058.326187
727.102895	7229.049903
727.434612	7343.554672
727.766281	7371.863271
728.097901	7456.668082
728.429473	7442.865403
728.760996	7421.153153
729.092471	7399.471150
729.423897	7343.652974
729.755276	7361.891869
730.086606	7286.440919
730.417887	7382.800055
730.749120	7566.600524
731.080305	7760.763085
731.411442	7882.514512
731.742530	7880.737505
732.073570	7988.550142
732.404562	8076.432577
732.735506	7917.220336
733.066401	8066.236843
733.397249	7997.624219
733.728048	7763.084536
734.058798	7434.807118
734.389501	7220.023717
734.720156	7042.154166
735.050762	6803.770603
735.381320	6704.492640
735.711831	6655.613612
736.042293	6552.332973
736.372707	6572.288380
736.703073	6434.581701
737.033391	6468.770807
737.363661	6480.128526
737.693883	6507.456621
738.024056	6589.254384
738.354182	6637.420088
738.684260	6667.858575
739.014290	6778.126254
739.344272	6887.070629
739.674207	6914.754126
740.004093	6981.418344
740.333931	7002.780234
740.663722	7011.705597
740.993464	7085.112358
741.323159	7084.388953
741.652806	6833.614234
741.982405	6826.049983
742.311956	6886.821092
742.641460	6745.988898
742.970915	6545.983640
743.300323	6537.398555
743.629683	6484.315205
743.958996	6352.179001
744.288260	6264.601555
744.617477	6212.997784
744.946647	6221.494649
745.275768	6053.906530
745.604842	6007.036403
745.933869	5990.536706
746.262847	5947.260921
746.591778	5934.963026
746.920662	5894.046501
747.249498	5882.464450
747.578286	5928.507828
747.907027	6010.587895
748.235720	6067.777265
748.564365	6037.424478
748.892963	6056.943826
749.221514	6219.374844
749.550017	6065.677625
749.878473	5931.134270
750.206881	5982.216282
750.535242	5927.539927
750.863555	5859.708681
751.191821	5877.740889
751.520039	5877.440940
751.848210	5785.639008
752.176334	5802.123581
752.504411	5861.934351
752.832440	5786.140603
753.160421	5712.154108
753.488356	5755.192959
753.816243	5795.007992
754.144082	5644.143902
754.471875	5614.295230
754.799620	5667.434032
755.127318	5670.799003
755.454969	5620.856292
755.782572	5588.242547
756.110129	5631.984639
756.437638	5624.319564
756.765100	5563.309000
757.092515	5555.933792
757.419882	5605.790803
757.747203	5584.292803
758.074477	5651.992978
758.401703	5638.497809
758.728882	5584.328091
759.056014	5629.385924
759.383099	5771.823726
759.710138	5784.159429
760.037129	5767.516060
760.364073	5772.322800
760.690970	5849.724676
761.017820	5838.805537
761.344623	5792.205111
761.671379	5883.089553
761.998088	5999.928376
762.324751	6227.758283
762.651366	6805.545089
762.977935	8078.519615
763.304456	9688.762456
763.630931	10615.016502
763.957359	10256.867727
764.283740	9332.864556
764.610074	8517.359619
764.936362	7531.496449
765.262602	6938.503002
765.588796	6396.251288
765.914943	6054.647580
766.241044	5897.477006
766.567097	5708.963058
766.893104	5451.725580
767.219064	5268.361171
767.544978	5207.355647
767.870845	5129.253051
768.196665	5022.362945
768.522438	4955.217297
768.848165	4916.009722
769.173846	4855.183160
769.499479	4818.503725
769.825066	4759.746556
770.150607	4699.270354
770.476101	4673.930994
770.801548	4675.834030
771.126949	4598.994242
771.452303	4550.460534
771.777611	4504.122248
772.102872	4519.628837
772.428087	4487.307479
772.753256	4443.346097
773.078378	4401.993512
773.403453	4335.601516
773.728482	4317.397909
774.053465	4273.118934
774.378401	4257.945061
774.703291	4261.289867
775.028135	4195.717058
775.352932	4141.514572
775.677683	4130.187099
776.002388	4150.868433
776.327046	4161.623735
776.651658	4087.642281
776.976224	4024.819422
777.300743	4028.915360
777.625216	4051.618196
777.949643	4050.771282
778.274024	4006.570445
778.598359	3957.484730
778.922647	3980.928616
779.246889	3971.277327
779.571086	3973.571052
779.895236	3954.165130
780.219339	3942.888069
780.543397	3928.931635
780.867409	3982.148575
781.191374	3998.605422
781.515294	3940.344807
781.839167	3931.580761
782.162995	3947.062145
782.486776	3938.013273
782.810511	3945.532154
783.134201	3945.335549
783.457844	3904.797111
783.781441	3847.406095
784.104993	3847.751414
784.428498	3869.660268
784.751958	3866.806975
785.075372	3849.198225
785.398739	3808.695074
785.722061	3814.691527
786.045337	3860.835729
786.368568	3894.261099
786.691752	3805.798932
787.014891	3852.359028
787.337983	3976.978872
787.661030	4131.805310
787.984031	4293.747336
788.306987	4462.315959
788.629897	4545.285789
788.952760	4501.694932
789.275579	4431.428809
789.598351	4372.079305
789.921078	4241.861260
790.243759	4043.869942
790.566395	4015.515973
790.888984	4012.435828
791.211529	3907.108480
791.534027	3849.329295
791.856480	3840.197245
792.178888	3780.648615
792.501249	3725.999987
792.823566	3739.069178
793.145836	3770.513375
793.468062	3719.849779
793.790241	3673.771112
794.112375	3699.654917
794.434464	3761.877879
794.756507	3787.721354
795.078505	3771.619908
795.400457	3800.046975
795.722364	3934.368519
796.044226	4035.473901
796.366042	4107.219602
796.687812	4093.565637
797.009538	4102.644755
797.331218	4060.840987
797.652852	4031.151111
797.974442	4010.910879
798.295986	4012.511445
798.617484	3935.044034
798.938938	3847.436342
799.260346	3887.014441
799.581709	3886.717013
799.903026	3813.690858
800.224299	3772.378602
800.545526	3767.743261
800.866708	3732.646748
801.187845	3671.305988
801.508936	3703.639949
801.829983	3707.935012
802.150984	3627.722692
802.471940	3612.911782
802.792851	3628.128505
803.113717	3625.330665
803.434538	3631.778301
803.755314	3573.384095
804.076045	3546.494581
804.396731	3564.332703
804.717372	3591.202053
805.037967	3577.263263
805.358518	3567.110379
805.679024	3596.487703
805.999485	3605.700412
806.319901	3607.815176
806.640272	3621.950571
806.960598	3641.230464
807.280879	3612.692492
807.601115	3622.278246
807.921306	3640.638129
808.241453	3681.400899
808.561554	3659.756705
808.881611	3592.911005
809.201623	3626.674132
809.521590	3639.090494
809.841513	3611.054117
810.161390	3641.374137
810.481223	3623.765387
810.801011	3566.598702
811.120755	3557.252403
811.440453	3591.312959
811.760107	3598.685646
812.079716	3555.452711
812.399281	3519.637833
812.718801	3541.508879
813.038276	3517.021475
813.357707	3517.835621
813.677093	3534.731048
813.996434	3482.393789
814.315731	3491.036847
814.634983	3495.102538
814.954191	3505.933457
815.273354	3537.591903
815.592473	3533.947149
815.911547	3537.934701
816.230577	3574.692275
816.549562	3624.874441
816.868502	3668.024197
817.187399	3691.909184
817.506250	3692.932538
817.825058	3655.247392
818.143821	3745.295003
818.462539	3848.585725
818.781213	3895.203795
819.099843	3949.663380
819.418429	4178.622505
819.736970	4419.720729
820.055466	4655.079599
820.373919	5013.072099
820.692327	5418.269962
821.010691	5830.437222
821.329011	7134.392158
821.647286	9760.651830
821.965517	14169.410570
822.283704	18164.033481
822.601847	20398.028369
822.919945	18677.797634
823.237999	16175.971282
823.556010	13735.405033
823.873976	11699.174609
824.191897	9631.391604
824.509775	8284.685163
824.827609	7170.817015
825.145398	6623.693026
825.463144	6503.267422
825.780845	6620.655731
826.098502	6785.871987
826.416116	7604.976308
826.733685	8902.546622
827.051210	10016.150110
827.368692	10119.524011
827.686129	8911.018281
828.003522	7409.061946
828.320872	6400.332102
828.638177	5715.173759
828.955439	5165.793854
829.272656	4676.386036
829.589830	4387.439701
829.906960	4217.099112
830.224046	4036.625804
830.541088	3911.832041
830.858086	3863.507540
831.175041	3789.846200
831.491952	3772.192079
831.808819	3780.910755
832.125642	3847.907690
832.442421	3988.339112
832.759157	4253.534052
833.075849	4780.435452
833.392497	5620.226147
833.709101	6382.909874
834.025662	6729.988276
834.342179	6406.943575
834.658653	5755.311426
834.975083	5122.755003
835.291469	4559.642995
835.607811	4140.511382
835.924110	4007.561032
836.240366	3812.975014
836.556578	3608.740228
836.872746	3500.778877
837.188871	3465.488279
837.504952	3398.912281
837.820990	3316.343222
838.136984	3270.519134
838.452935	3293.229532
838.768842	3291.150056
839.084706	3314.178047
839.400526	3461.667085
839.716303	3782.050056
840.032037	4284.043115
840.347727	4567.497113
840.663373	4308.676713
840.978977	3936.977316
841.294537	3632.504227
841.610054	3407.547778
841.925527	3298.081643
842.240957	3228.879203
842.556344	3177.396419
842.871687	3117.010958
843.186987	3071.436407
843.502244	3034.855274
843.817458	3003.579955
844.132629	2969.380768
844.447756	2979.216059
844.762840	2966.310705
845.077881	2935.204265
845.392879	2917.502253
845.707833	2915.493354
846.022745	2910.558064
846.337613	2913.043353
846.652438	2900.289234
846.967221	2897.844274
847.281960	2883.134187
847.596656	2880.744680
847.911309	2879.439021
848.225919	2872.908207
848.540485	2866.785725
848.855009	2869.303782
849.169490	2859.564272
849.483928	2850.109588
849.798323	2846.661439
850.112675	2843.283866
850.426984	2856.421113
850.741251	2856.645444
851.055474	2845.925431
851.369654	2837.826817
851.683792	2843.150275
851.997887	2853.078828
852.311938	2855.410362
852.625947	2842.709174
852.939914	2845.106243
853.253837	2851.480782
853.567718	2837.967969
853.881555	2832.221054
854.195350	2850.233097
854.509103	2846.371573
854.822812	2837.983093
855.136479	2838.414111
855.450103	2836.657269
855.763685	2831.109479
856.077224	2825.607060
856.390720	2838.905624
856.704173	2853.683766
857.017584	2844.745801
857.330953	2841.164061
857.644278	2848.597242
857.957561	2852.990608
858.270802	2859.985209
858.584000	2861.404293
858.897155	2848.680421
859.210268	2844.249247
859.523339	2843.208249
859.836367	2843.727487
860.149352	2835.223061
860.462295	2835.707012
860.775195	2844.042560
861.088054	2841.625326
861.400869	2825.909529
861.713642	2821.090186
862.026373	2836.009481
862.339062	2839.692044
862.651708	2846.691686
862.964312	2845.980883
863.276873	2841.547188
863.589392	2852.481451
863.901869	2861.658872
864.214303	2882.073024
864.526696	2898.512227
864.839045	2895.288409
865.151353	2893.337483
865.463619	2893.539129
865.775842	2890.552245
866.088023	2909.418763
866.400162	2918.291194
866.712258	2890.761453
867.024313	2881.460524
867.336325	2885.127963
867.648296	2906.928433
867.960224	2898.431568
868.272110	2888.523181
868.583954	2893.592061
868.895755	2906.320974
869.207515	2894.060888
869.519233	2895.863101
869.830909	2906.870460
870.142542	2917.028385
870.454134	2917.313210
870.765684	2922.261103
871.077191	2919.992583
871.388657	2926.651948
871.700081	2943.242385
872.011463	2951.320834
872.322803	2952.631534
872.634101	2950.635237
872.945357	2965.357927
873.256571	2991.899602
873.567744	2986.916421
873.878874	2978.222952
874.189963	3001.697084
874.501010	3004.431910
874.812015	2992.350785
875.122979	2991.629900
875.433900	2988.332986
875.744780	2994.611743
876.055618	2999.181549
876.366415	2998.112824
876.677169	3013.808457
876.987882	3009.089937
877.298554	3001.008967
877.609183	3021.455887
877.919771	3041.111346
878.230317	3068.799883
878.540822	3116.204373
878.851285	3157.907319
879.161707	3193.996939
879.472087	3288.568985
879.782425	3500.494052
880.092722	3917.941919
880.402977	4426.390176
880.713191	5030.002814
881.023363	6134.431401
881.333494	7380.841566
881.643583	7946.378369
881.953631	7668.068868
882.263637	7072.464103
882.573602	6508.101889
882.883526	5947.875942
883.193408	5384.789139
883.503248	4932.365746
883.813048	4630.473727
884.122806	4345.577959
884.432522	4040.232750
884.742197	3809.131134
885.051831	3618.890591
885.361424	3482.671052
885.670975	3417.995569
885.980485	3336.845595
886.289954	3260.590581
886.599382	3219.094323
886.908768	3179.939682
887.218113	3136.416880
887.527417	3084.064497
887.836680	3032.732948
888.145901	3029.574665
888.455082	3015.933303
888.764221	2969.035449
889.073319	2943.212138
889.382376	2938.181067
889.691392	2942.702982
890.000366	2941.868671
890.309300	2927.965168
890.618193	2943.098712
890.927044	2959.124540
891.235855	2957.912143
891.544625	2943.214659
891.853353	2954.161524
892.162041	2974.154740
892.470687	3006.355111
892.779293	3058.712534
893.087858	3100.281889
893.396381	3169.996006
893.704864	3284.145373
894.013306	3511.148530
894.321707	3804.883962
894.630068	4009.330477
894.938387	4010.313502
895.246665	3959.917087
895.554903	3854.151159
895.863100	3658.146056
896.171256	3497.691170
896.479371	3363.546066
896.787446	3246.616503
897.095480	3143.504742
897.403473	3080.097109
897.711425	3043.122766
898.019336	3036.551622
898.327207	3008.152282
898.635038	2975.795636
898.942827	2960.830971
899.250576	2949.730350
899.558284	2918.709610
899.865952	2899.643966
900.173579	2879.260060
900.481165	2873.969369
900.788711	2864.169366
901.096216	2836.218689
901.403681	2825.284426
901.711105	2830.809531
902.018489	2830.867504
902.325832	2828.931701
902.633135	2839.341684
902.940397	2867.849409
903.247619	2944.573250
903.554800	3126.115282
903.861941	3452.580405
904.169041	3860.298846
904.476101	4162.377387
904.783121	4133.539467
905.090100	3896.401069
905.397039	3631.059936
905.703938	3385.293604
906.010796	3208.865822
906.317614	3101.277517
906.624391	3010.992972
906.931129	2942.012343
907.237826	2880.742160
907.544483	2833.884635
907.851099	2805.417239
908.157675	2785.981070
908.464211	2765.171187
908.770707	2752.986718
909.077163	2742.264184
909.383578	2724.952862
909.689954	2718.598487
909.996289	2714.926007
910.302584	2716.675287
910.608839	2716.513970
910.915054	2713.416181
911.221229	2700.886393
911.527363	2704.821014
911.833458	2710.832590
912.139513	2714.666387
912.445527	2718.565720
912.751502	2729.726834
913.057436	2738.473236
913.363331	2748.825246
913.669186	2769.826693
913.975000	2803.269707
914.280775	2858.246011
914.586510	2925.729417
914.892205	2996.469408
915.197859	3123.713172
915.503475	3303.838640
915.809050	3507.271883
916.114585	3649.341681
916.420081	3674.484436
916.725536	3623.853607
917.030952	3508.905217
917.336328	3384.950806
917.641665	3257.833070
917.946961	3159.210457
918.252218	3093.032710
918.557435	3021.493696
918.862612	2961.362813
919.167750	2911.112591
919.472848	2877.465410
919.777906	2850.084382
920.082925	2827.303408
920.387904	2797.661424
920.692843	2780.697941
920.997743	2772.662342
921.302603	2755.998808
921.607423	2744.588156
921.912204	2736.544995
922.216946	2724.862121
922.521647	2717.819629
922.826310	2707.550799
923.130932	2703.596013
923.435516	2690.720907
923.740059	2687.842408
924.044564	2679.494257
924.349028	2676.230110
924.653454	2666.150323
924.957840	2665.242915
925.262186	2658.331493
925.566493	2652.854279
925.870761	2649.837149
926.174989	2644.869092
926.479178	2641.126035
926.783328	2636.881383
927.087438	2635.139665
927.391509	2634.527165
927.695541	2630.862246
927.999533	2629.281844
928.303486	2625.372429
928.607400	2623.050978
928.911275	2622.693056
929.215110	2624.293622
929.518906	2621.841101
929.822663	2626.136164
930.126381	2623.973509
930.430060	2621.664661
930.733699	2622.070473
931.037299	2625.828654
931.340861	2624.122223
931.644383	2627.484673
931.947866	2623.257665
932.251309	2623.106431
932.554714	2623.103910
932.858080	2621.836060
933.161407	2621.241204
933.464694	2618.007303
933.767943	2614.201232
934.071153	2618.758435
934.374323	2619.287757
934.677455	2615.920266
934.980548	2615.970677
935.283602	2616.457149
935.586617	2615.088475
935.889593	2616.036212
936.192530	2612.704010
936.495428	2614.312138
936.798287	2617.359515
937.101108	2619.217180
937.403890	2624.437295
937.706632	2628.664303
938.009336	2635.023718
938.312002	2644.750625
938.614628	2651.798158
938.917216	2657.865186
939.219765	2658.891061
939.522275	2657.151863
939.824747	2653.749084
940.127179	2654.061636
940.429573	2650.389155
940.731929	2647.525780
941.034246	2644.891777
941.336524	2640.909265
941.638763	2636.906589
941.940964	2633.521454
942.243126	2634.375930
942.545250	2633.796197
942.847335	2630.022894
943.149381	2629.561628
943.451389	2623.595422
943.753359	2621.052160
944.055290	2620.464866
944.357182	2619.870010
944.659036	2616.421861
944.960851	2619.169289
945.262628	2615.159052
945.564367	2615.365739
945.866067	2616.212653
946.167729	2618.733230
946.469352	2620.202726
946.770937	2616.379011
947.072484	2616.164762
947.373992	2615.821963
947.675462	2614.891870
947.976893	2609.323916
948.278286	2607.332660
948.579641	2608.991200
948.880958	2606.130345
949.182236	2607.057917
949.483476	2607.632609
949.784678	2606.992382
950.085841	2605.895931
950.386967	2607.877105
950.688054	2610.367435
950.989103	2609.462548
951.290114	2611.723505
951.591087	2613.077055
951.892021	2614.299535
952.192917	2616.870523
952.493776	2618.145935
952.794596	2617.220883
953.095378	2619.552417
953.396122	2617.881275
953.696828	2616.603342
953.997496	2615.723661
954.298126	2613.989504
954.598718	2612.739298
954.899272	2608.706375
955.199788	2607.756117
955.500266	2604.000457
955.800706	2602.694799
956.101108	2600.451485
956.401472	2598.286310
956.701798	2598.480394
957.002087	2594.739858
957.302337	2594.518047
957.602550	2593.837491
957.902724	2589.504620
958.202861	2591.795824
958.502960	2589.698704
958.803022	2588.607294
959.103045	2588.398086
959.403031	2587.757860
959.702979	2585.229721
960.002889	2585.610328
960.302762	2583.941706
960.602596	2583.235945
960.902393	2583.798033
961.202153	2582.328537
961.501875	2581.569843
961.801559	2583.019175
962.101205	2584.319793
962.400814	2583.946748
962.700385	2585.275092
962.999918	2583.039340
963.299414	2580.380131
963.598873	2580.838876
963.898293	2573.854357
964.197677	2582.552868
964.497022	2579.838207
964.796331	2582.169741
965.095601	2578.746797
965.394835	2582.003383
965.694030	2579.397106
965.993189	2580.672518
966.292309	2579.835687
966.591393	2580.440625
966.890439	2581.015317
967.189447	2578.058680
967.488419	2578.250244
967.787353	2580.435584
968.086249	2577.983062
968.385108	2583.971953
968.683930	2580.874164
968.982714	2579.203022
969.281462	2578.991293
969.580172	2580.228897
969.878844	2577.519276
970.177480	2582.194947
970.476078	2579.971798
970.774639	2581.942889
971.073162	2581.048084
971.371649	2583.230904
971.670098	2582.477251
971.968510	2580.559092
972.266885	2581.862230
972.565223	2580.153279
972.863524	2581.282498
973.161788	2581.342992
973.460014	2579.356777
973.758204	2583.588826
974.056356	2580.241499
974.354471	2581.645461
974.652550	2579.492888
974.950591	2582.058835
975.248595	2580.778382
975.546563	2578.197312
975.844493	2581.852148
976.142386	2578.303176
976.440243	2578.772003
976.738062	2579.223186
977.035845	2579.422312
977.333590	2579.298804
977.631299	2579.228227
977.928971	2578.164544
978.226606	2575.409553
978.524204	2578.293093
978.821765	2574.550037
979.119290	2579.775193
979.416777	2578.638412
979.714228	2576.448031
980.011642	2579.997003
980.309020	2578.714030
980.606360	2579.203022
980.903664	2577.824266
981.200931	2581.103537
981.498162	2580.715368
981.795356	2578.192270
982.092513	2580.667477
982.389633	2584.211408
982.686717	2586.883220
982.983764	2589.887747
983.280775	2593.943356
983.577749	2598.205651
983.874686	2597.381422
984.171587	2592.746082
984.468451	2591.871441
984.765279	2589.144177
985.062070	2586.547983
985.358824	2585.723754
985.655543	2580.919535
985.952224	2578.971129
986.248869	2581.305183
986.545478	2580.294432
986.842050	2578.590522
987.138586	2578.320820
987.435086	2577.738567
987.731549	2579.860892
988.027975	2575.681776
988.324366	2576.190932
988.620719	2575.306210
988.917037	2575.603638
989.213318	2575.338977
989.509563	2575.142372
989.805772	2577.539441
990.101944	2574.285376
990.398080	2575.739749
990.694180	2577.408371
990.990244	2573.350242
991.286271	2573.947619
991.582262	2574.776889
991.878217	2575.069276
992.174136	2576.228741
992.470019	2576.926941
992.765865	2574.277814
993.061676	2571.628688
993.357450	2571.807649
993.653188	2571.154820
993.948890	2575.424677
994.244556	2575.959039
994.540186	2575.291086
994.835780	2577.047928
995.131337	2575.422156
995.426859	2577.781416
995.722345	2577.017682
996.017795	2578.940882
996.313208	2580.980028
996.608586	2581.267374
996.903928	2579.339133
997.199234	2579.850810
997.494504	2578.986252
997.789738	2579.334092
998.084936	2579.467682
998.380099	2577.375603
998.675225	2575.598597
998.970316	2575.956519
999.265371	2578.479616
999.560390	2574.106415
999.855373	2573.617423
1000.150320	2574.227403
1000.445232	2574.945767
1000.740108	2574.393761
1001.034948	2575.023905
1001.329752	2571.905952
1001.624521	2572.397464
1001.919254	2574.471899
1002.213951	2572.475602
1002.508613	2574.532393
1002.803239	2571.691702
1003.097829	2571.991651
1003.392384	2570.615416
1003.686903	2572.964594
1003.981386	2574.348391
1004.275834	2572.152968
1004.570246	2573.388051
1004.864623	2572.715057
1005.158964	2571.416960
1005.453270	2573.965263
1005.747540	2570.938050
1006.041775	2574.522310
1006.335974	2574.320664
1006.630138	2574.776889
1006.924266	2574.640777
1007.218359	2571.966445
1007.512416	2570.111301
1007.806438	2571.038873
1008.100425	2565.312122
1008.394376	2567.371434
1008.688292	2573.035170
1008.982172	2574.620613
1009.276017	2572.629357
1009.569827	2574.406364
1009.863602	2571.306054
1010.157341	2573.753534
1010.451045	2573.249419
1010.744714	2571.245560
1011.038347	2573.448545
1011.331945	2573.851837
1011.625508	2571.522824
1011.919036	2571.424521
1012.212528	2573.814028
1012.505986	2570.680951
1012.799408	2569.781105
1013.092795	2571.353945
1013.386147	2573.622464
1013.679464	2574.088771
1013.972745	2574.544996
1014.265992	2574.474419
1014.559204	2572.168092
1014.852380	2571.369069
1015.145521	2571.220355
1015.438628	2572.775551
1015.731699	2571.265725
1016.024736	2570.287741
1016.317737	2571.036352
1016.610703	2570.877556
1016.903635	2571.580797
1017.196531	2570.605334
1017.489393	2571.883266
1017.782219	2570.612896
1018.075011	2572.062227
1018.367768	2569.518965
1018.660490	2573.083061
1018.953177	2573.083061
1019.245829	2573.083061
