Dividing Wavelength (nm)	Counts (n)	Blue Motor Position (mm): 23.900000	Red Motor Position (mm): 0.000000	
326.493990	2196.387881
326.888308	2196.387881
327.282561	2196.387881
327.676750	2157.056799
328.070874	2154.808444
328.464933	2151.080511
328.858929	2155.420944
329.252859	2160.434372
329.646726	2170.133552
330.040528	2181.491271
330.434265	2194.315967
330.827938	2210.798019
331.221547	2229.596482
331.615091	2246.706158
332.008571	2265.875146
332.401986	2283.521705
332.795338	2302.579787
333.188625	2322.063846
333.581847	2337.835096
333.975006	2357.362006
334.368100	2378.025695
334.761129	2397.676113
335.154095	2412.562640
335.546996	2441.350149
335.939833	2474.493215
336.332606	2487.759012
336.725315	2499.835096
337.117960	2512.763135
337.510540	2523.992305
337.903056	2535.660055
338.295508	2543.617517
338.687896	2554.647561
339.080220	2557.342058
339.472480	2569.150961
339.864676	2572.861250
340.256807	2576.304358
340.648875	2585.499423
341.040879	2584.554207
341.432818	2588.216605
341.824694	2588.970257
342.216506	2591.964703
342.608253	2591.813468
342.999937	2592.836822
343.391557	2593.373705
343.783113	2592.257090
344.174605	2591.316914
344.566033	2589.252562
344.957397	2586.679053
345.348697	2587.394897
345.739934	2585.832139
346.131106	2586.442119
346.522215	2584.798702
346.913260	2578.537589
347.304241	2581.705955
347.695159	2575.948957
348.086012	2577.637743
348.476802	2574.723957
348.867528	2569.947463
349.258191	2564.177863
349.648789	2562.617626
350.039324	2563.678788
350.429796	2564.800445
350.820203	2563.179714
351.210548	2560.323901
351.600828	2559.247614
351.991045	2559.381205
352.381198	2558.173848
352.771288	2557.339538
353.161314	2555.812068
353.551276	2560.021431
353.941175	2559.136709
354.331010	2557.394990
354.720782	2557.452963
355.110490	2557.140412
355.500135	2556.348951
355.889717	2556.583364
356.279235	2559.860114
356.668689	2557.818447
357.058080	2558.698128
357.447408	2558.428427
357.836672	2556.036399
358.225873	2558.897254
358.615010	2557.495813
359.004084	2558.993036
359.393095	2557.712583
359.782043	2559.134188
360.170927	2561.196020
360.559748	2559.366081
360.948505	2562.577296
361.337199	2565.203738
361.725830	2561.385063
362.114398	2563.777091
362.502903	2565.390260
362.891344	2565.110476
363.279722	2563.600651
363.668037	2563.477142
364.056289	2564.024107
364.444478	2567.048800
364.832603	2567.200034
365.220665	2567.542833
365.608665	2569.317319
365.996601	2567.515107
366.384474	2569.009809
366.772284	2566.408573
367.160031	2566.763975
367.547715	2569.569377
367.935336	2571.215313
368.322893	2567.797411
368.710388	2566.567370
369.097820	2568.432597
369.485189	2567.378995
369.872495	2568.886300
370.259738	2570.557443
370.646918	2572.717577
371.034035	2573.806467
371.421090	2570.479305
371.808081	2571.805128
372.195010	2572.387382
372.581875	2571.036353
372.968678	2573.352763
373.355418	2575.432239
373.742096	2574.209759
374.128710	2572.520972
374.515262	2574.378637
374.901751	2572.500808
375.288177	2573.509038
375.674540	2576.780747
376.060841	2575.475088
376.447079	2576.677404
376.833254	2577.128587
377.219367	2577.045408
377.605417	2577.617579
377.991404	2576.891653
378.377329	2576.080027
378.763191	2577.151272
379.148991	2576.453072
379.534727	2580.047415
379.920402	2577.902404
380.306013	2578.222517
380.691563	2580.060018
381.077049	2578.416602
381.462474	2580.380131
381.847835	2578.943402
382.233134	2581.436253
382.618371	2582.825091
383.003545	2580.208732
383.388657	2580.264185
383.773706	2580.995152
384.158693	2579.586149
384.543618	2583.016655
384.928480	2581.708475
385.313280	2582.159658
385.698017	2584.299628
386.082692	2582.000862
386.467305	2582.784762
386.851856	2587.445308
387.236344	2581.612693
387.620770	2580.405337
388.005133	2580.980028
388.389435	2583.329206
388.773674	2580.092785
389.157851	2582.429360
389.541965	2582.749473
389.926018	2588.022520
390.310008	2582.383990
390.693936	2582.532704
391.077802	2584.629824
391.461606	2587.009248
391.845348	2583.719896
392.229027	2584.922211
392.612645	2585.121336
392.996200	2588.844228
393.379694	2587.233580
393.763125	2587.818354
394.146494	2587.304156
394.529801	2584.604618
394.913047	2590.190217
395.296230	2589.429002
395.679351	2592.357913
396.062410	2589.590319
396.445408	2591.216091
396.828343	2589.088724
397.211217	2591.027048
397.594028	2589.492017
397.976778	2590.386822
398.359466	2588.859352
398.742092	2590.341451
399.124656	2590.190217
399.507158	2588.808940
399.889598	2592.622573
400.271977	2591.095104
400.654294	2590.986719
401.036549	2590.520412
401.418742	2589.789445
401.800874	2590.863211
402.182944	2593.436720
402.564952	2594.024014
402.946898	2591.558890
403.328783	2593.091401
403.710606	2591.619384
404.092367	2593.416555
404.474067	2593.789600
404.855705	2594.346648
405.237282	2596.952924
405.618797	2595.639704
406.000250	2594.071905
406.381642	2596.332862
406.762972	2593.073757
407.144240	2592.249528
407.525447	2596.012749
407.906593	2590.376739
408.287677	2596.378233
408.668700	2598.359406
409.049661	2597.419231
409.430560	2598.467791
409.811399	2599.733121
410.192176	2596.226998
410.572891	2599.579366
410.953545	2597.746906
411.334138	2598.286310
411.714669	2598.581217
412.095139	2600.590117
412.475547	2602.079778
412.855894	2600.708584
413.236180	2601.205138
413.616405	2598.157760
413.996568	2598.634149
414.376670	2600.698502
414.756711	2600.020467
415.136691	2600.312853
415.516609	2600.607761
415.896466	2600.380909
416.276262	2600.902668
416.655997	2603.382916
417.035670	2603.072885
417.415283	2601.321084
417.794834	2603.607247
418.174324	2602.276383
418.553753	2602.387288
418.933121	2604.328133
419.312428	2603.982813
419.691674	2604.277721
420.070859	2600.978286
420.449983	2604.436517
420.829045	2603.077926
421.208047	2605.238061
421.586988	2603.912237
421.965867	2605.580859
422.344686	2607.972887
422.723444	2605.013729
423.102141	2604.605396
423.480777	2603.650097
423.859352	2605.898452
424.237866	2606.238730
424.616319	2609.699482
424.994712	2608.608072
425.373044	2610.163268
425.751314	2606.362238
426.129524	2604.807042
426.507673	2608.721498
426.885762	2604.010540
427.263789	2610.964812
427.641756	2610.165789
428.019662	2610.425408
428.397508	2611.531941
428.775292	2608.484564
429.153016	2610.072527
429.530679	2610.596807
429.908282	2611.247116
430.285824	2612.615789
430.663305	2611.239554
431.040726	2612.877929
431.418086	2611.093361
431.795385	2613.250975
432.172624	2611.456324
432.549802	2612.709051
432.926920	2612.507405
433.303977	2613.896242
433.680974	2612.449431
434.057910	2613.172837
434.434786	2613.530759
434.811601	2611.836931
435.188355	2613.845831
435.565050	2614.970008
435.941683	2615.645523
436.318257	2617.248610
436.694770	2617.142746
437.071222	2615.262395
437.447614	2617.760287
437.823946	2616.235338
438.200218	2617.417488
438.576429	2617.616614
438.952580	2615.862292
439.328670	2621.140381
439.704700	2617.346912
440.080670	2616.943620
440.456580	2619.277674
440.832429	2621.589043
441.208218	2620.459825
441.583947	2622.151132
441.959616	2620.379166
442.335224	2621.551235
442.710773	2622.637603
443.086261	2623.454270
443.461689	2622.597274
443.837057	2624.472583
444.212365	2625.551390
444.587612	2621.863786
444.962800	2621.959568
445.337927	2622.927470
445.712995	2620.822788
446.088002	2627.832512
446.462949	2626.030300
446.837837	2629.085239
447.212664	2626.783952
447.587431	2628.318984
447.962139	2630.431227
448.336786	2633.702936
448.711374	2637.020015
449.085901	2632.603964
449.460369	2635.598410
449.834776	2632.430045
450.209124	2634.834675
450.583412	2639.207876
450.957640	2642.101498
451.331808	2638.812145
451.705917	2639.379275
452.079965	2640.460603
452.453954	2644.251550
452.827883	2645.645429
453.201752	2646.714154
453.575562	2644.254071
453.949311	2648.861686
454.323001	2650.840338
454.696632	2656.085659
455.070202	2656.002480
455.443713	2661.270486
455.817164	2666.029335
456.190556	2670.934378
456.563888	2676.230110
456.937160	2680.749504
457.310373	2682.634896
457.683526	2690.161338
458.056619	2694.342976
458.429653	2701.360262
458.802628	2704.437886
459.175542	2714.684031
459.548398	2731.040055
459.921194	2749.999835
460.293930	2761.602050
460.666607	2790.162707
461.039224	2828.944304
461.411782	2860.121320
461.784280	2876.852909
462.156719	2890.900085
462.529099	2912.826583
462.901419	2910.530338
463.273680	2925.787390
463.645882	2945.702468
464.018024	2971.989565
464.390106	3007.128928
464.762130	3067.292578
465.134094	3145.448107
465.505999	3293.471507
465.877845	3541.619785
466.249631	3745.952874
466.621358	3771.128396
466.993026	3747.482864
467.364634	3779.398409
467.736184	3773.573356
468.107674	3794.269813
468.479105	3882.918503
468.850477	3937.887245
469.221790	3983.272753
469.593043	4003.099611
469.964238	4045.271383
470.335373	4091.032457
470.706449	4219.012230
471.077467	4253.395420
471.448425	4558.687697
471.819324	5177.060833
472.190164	5571.440381
472.560945	5262.150469
472.931667	5036.826016
473.302330	5060.650509
473.672934	5091.217545
474.043479	5278.067912
474.413965	5368.957396
474.784393	5434.149597
475.154761	5676.054406
475.525070	5804.210619
475.895321	5858.713053
476.265513	6114.556652
476.635645	6360.958170
477.005719	6471.992104
477.375734	6656.762995
477.745691	6933.971004
478.115588	7189.711259
478.485427	7506.898139
478.855207	7937.957122
479.224928	8591.885517
479.594591	9452.246641
479.964194	9661.227673
480.333739	9973.559922
480.703226	9976.519079
481.072653	10126.765628
481.442022	10550.671214
481.811333	11062.003010
482.180584	11297.011520
482.549777	11159.178812
482.918912	11295.111005
483.287988	11556.061293
483.657005	11669.736792
484.025964	11773.894592
484.394864	11975.888585
484.763706	12080.467322
485.132489	12115.145419
485.501213	12367.392155
485.869879	12604.225562
486.238487	12652.353458
486.607036	13054.844222
486.975527	13092.168925
487.343959	13466.255308
487.712333	13710.695817
488.080648	13713.781003
488.448905	14205.895921
488.817104	14284.787458
489.185244	14848.343088
489.553326	15113.046515
489.921350	15795.389373
490.289315	17304.947769
490.657222	18644.994846
491.025070	19210.793789
491.392861	19377.655981
491.760593	19117.774418
492.128267	18915.810672
492.495883	18470.202918
492.863440	18189.640022
493.230939	17808.390159
493.598380	17952.574721
493.965763	17875.641672
494.333088	17786.645142
494.700354	17935.225590
495.067563	18091.415660
495.434713	18096.852544
495.801805	18347.372684
496.168839	18459.140106
496.535815	18504.671808
496.902733	18833.100460
497.269593	18726.096929
497.636395	19084.522967
498.003139	19232.097705
498.369825	19246.822915
498.736453	19511.125570
499.103023	19582.253731
499.469535	19765.413973
499.835989	20084.299722
500.202385	20278.061511
500.568723	20024.763695
500.935003	20355.788541
501.301226	20163.400467
501.667390	20945.900969
502.033497	21319.115233
502.399546	21190.180161
502.765537	21025.173114
503.131470	21457.764608
503.497345	21702.212678
503.863163	21114.537648
504.228923	21798.949900
504.594625	22070.317732
504.960269	21713.129297
505.325856	22279.865894
505.691385	21862.700331
506.056856	22490.003872
506.422270	22564.905336
506.787625	22272.069750
507.152924	22757.495057
507.518164	22837.427592
507.883347	22737.988312
508.248472	22538.023383
508.613540	23329.177026
508.978550	23196.851779
509.343503	23257.363269
509.708398	23591.488426
510.073236	23800.328306
510.438016	24053.616040
510.802738	23819.169618
511.167403	24106.830460
511.532010	23858.881308
511.896561	24660.628936
512.261053	24686.243039
512.625488	24577.540638
512.989866	24515.615105
513.354186	24416.032152
513.718449	24544.372367
514.082655	24948.264572
514.446803	24749.476752
514.810894	25207.515991
515.174927	24734.323044
515.538904	24797.004751
515.902822	25306.783872
516.266684	25099.990700
516.630488	25025.563104
516.994235	25052.460181
517.357925	25331.477964
517.721558	25558.836523
518.085133	25661.600444
518.448651	25605.832679
518.812112	25338.712019
519.175516	25536.489088
519.538863	25726.127213
519.902152	25526.351327
520.265385	25838.073596
520.628560	25629.606761
520.991678	25653.902602
521.354739	25742.495840
521.717743	25817.006614
522.080690	25599.944612
522.443580	25956.858304
522.806413	25973.168957
523.169189	26059.513840
523.531908	26122.119930
523.894569	25746.047332
524.257174	25797.003316
524.619722	26023.981268
524.982213	25704.518307
525.344647	25791.190865
525.707025	25897.329839
526.069345	25921.045947
526.431608	25866.961928
526.793815	26060.257411
527.155964	25509.544120
527.518057	25689.208323
527.880093	25611.438443
528.242072	25853.065988
528.603995	25541.346239
528.965860	25355.763722
529.327669	25410.850931
529.689421	25400.075465
530.051117	25231.819393
530.412755	25416.865027
530.774337	25230.498611
531.135862	25093.485091
531.497331	25300.681555
531.858743	24841.790361
532.220098	25329.607696
532.581396	25014.338975
532.942638	24962.921727
533.303824	25046.146135
533.664953	25075.326854
534.026025	24745.925259
534.387040	24971.862213
534.747999	25037.503077
535.108902	25204.501381
535.469748	24688.715725
535.830537	24883.483224
536.191270	25002.462017
536.551947	24891.710387
536.912567	24571.599639
537.273131	24866.852458
537.633638	24588.981537
537.994089	24795.386540
538.354483	24356.591907
538.714821	24855.845098
539.075103	24897.956377
539.435328	24698.941705
539.795497	24239.601849
540.155609	24636.743949
540.515665	24928.984679
540.875665	24182.488097
541.235609	24446.639517
541.595496	24423.296454
541.955328	24781.994715
542.315102	24698.263670
542.674821	24267.454224
543.034483	24136.432115
543.394090	24308.388393
543.753640	24099.253606
544.113134	24727.272990
544.472571	24340.815616
544.831953	24620.634942
545.191278	24220.468150
545.550548	24164.309696
545.909761	24382.846236
546.268918	24600.266160
546.628019	24556.428286
546.987064	24259.884932
547.346053	24026.169478
547.704986	24158.109077
548.063863	24309.396624
548.422684	24300.539317
548.781449	23867.279870
549.140158	24268.979173
549.498811	23839.344316
549.857408	23573.173914
550.215949	24026.476988
550.574434	23692.777809
550.932864	23915.427931
551.291237	24055.304826
551.649555	23934.085241
552.007817	23981.053671
552.366022	23849.010729
552.724173	23908.115737
553.082267	23826.481812
553.440305	24308.645492
553.798288	23583.704884
554.156215	24108.120995
554.514086	24187.967831
554.871902	23557.006933
555.229661	23848.977961
555.587365	23706.396486
555.945014	23547.252301
556.302606	23811.779287
556.660143	23745.483073
557.017625	24013.891747
557.375050	23552.149782
557.732421	23932.721609
558.089735	23742.828905
558.446994	23814.062930
558.804197	23829.680424
559.161345	23785.502273
559.518437	23519.026880
559.875474	23733.807760
560.232455	23910.757302
560.589381	23754.463888
560.946251	23696.639333
561.303065	24048.191758
561.659825	24121.313695
562.016528	23730.556216
562.373177	23461.527479
562.729770	23819.769516
563.086307	23699.505229
563.442789	23867.272308
563.799216	23692.979455
564.155587	23695.515156
564.511904	23686.403270
564.868164	23606.533749
565.224370	23601.437143
565.580520	23500.266226
565.936615	23642.724193
566.292654	23303.116782
566.648638	23623.532520
567.004567	23443.991826
567.360441	23399.133118
567.716260	23120.783288
568.072023	23456.940029
568.427732	23207.455846
568.783385	22996.251665
569.138982	23217.727197
569.494525	23269.099075
569.850013	23012.101052
570.205445	23114.345735
570.560823	22917.118152
570.916145	22679.538654
571.271412	22857.561961
571.626625	22614.701853
571.981782	22713.929405
572.336884	22521.130476
572.691931	22661.297238
573.046923	22395.184809
573.401860	22284.902007
573.756743	22278.109052
574.111570	22208.939380
574.466342	22135.963637
574.821059	22220.100495
575.175722	21919.640164
575.530330	21911.470974
575.884882	21926.405393
576.239380	21849.789936
576.593823	21726.949620
576.948211	21716.932847
577.302544	21551.865306
577.656823	21425.861665
578.011047	21519.725429
578.365216	21405.991958
578.719330	21288.270933
579.073389	21180.067607
579.427394	21320.932569
579.781344	21103.011050
580.135239	20988.511322
580.489080	20963.860080
580.842866	20727.145139
581.196597	20900.603682
581.550273	20898.884648
581.903895	20789.920108
582.257463	21100.351841
582.610975	20623.965323
582.964434	20932.083167
583.317837	20650.950620
583.671186	20743.024774
584.024481	20701.543640
584.377721	20484.910135
584.730906	20539.326871
585.084037	20575.930689
585.437113	20454.869900
585.790135	20660.324645
586.143103	20134.638163
586.496016	20146.671398
586.848874	20384.092100
587.201679	20333.781384
587.554428	19995.855198
587.907124	20325.859211
588.259765	20109.356777
588.612352	20188.775114
588.964884	19760.329970
589.317362	19922.181255
589.669786	19978.927003
590.022155	20033.920951
590.374470	20195.799962
590.726731	20015.182982
591.078937	19757.080946
591.431090	19866.594972
591.783188	19603.658470
592.135232	19586.793290
592.487222	19676.687145
592.839157	19707.304593
593.191038	19595.040617
593.542866	19486.121447
593.894639	19200.610658
594.246358	19419.873124
594.598022	19335.191822
594.949633	19081.657071
595.301190	19042.489827
595.652692	19203.158961
596.004141	19448.809347
596.355535	18781.272358
596.706876	18783.492986
597.058162	18681.500361
597.409395	18905.108302
597.760573	18990.845726
598.111698	18765.564122
598.462768	18708.609166
598.813785	18656.917175
599.164748	18492.492380
599.515657	18510.990894
599.866511	18302.950037
600.217312	18668.801695
600.568060	18206.706848
600.918753	18510.814454
601.269392	18420.421524
601.619978	18189.070371
601.970510	18409.630934
602.320988	18345.613322
602.671412	18564.071724
603.021783	18465.703689
603.372100	18195.359211
603.722363	18339.168207
604.072572	18266.661291
604.422728	18407.354853
604.772830	18165.051794
605.122878	18118.653014
605.472872	18108.792517
605.822813	18095.572091
606.172701	18057.886945
606.522534	18266.447042
606.872314	18281.303322
607.222041	18121.042521
607.571714	18335.490685
607.921333	18163.252102
608.270899	18239.721365
608.620411	18428.303368
608.969870	18185.314712
609.319276	18195.991876
609.668627	18222.241164
610.017926	18352.529785
610.367171	18465.807032
610.716362	18508.636675
611.065500	18329.784099
611.414585	18463.646898
611.763616	18449.077963
612.112594	18405.076252
612.461518	18363.708543
612.810389	18560.288338
613.159207	18411.982633
613.507971	18308.923804
613.856682	18597.426518
614.205340	18527.483029
614.553945	18673.411830
614.902496	18414.387263
615.250994	18660.072937
615.599439	18594.253112
615.947830	18582.701308
616.296169	18623.711094
616.644454	18584.150639
616.992686	18557.563594
617.340864	18770.459083
617.688990	18540.290080
618.037063	18713.279795
618.385082	18559.998471
618.733048	18845.400876
619.080961	18695.388740
619.428821	18742.054701
619.776628	18640.893867
620.124382	18554.170898
620.472083	18588.980065
620.819731	18620.812431
621.167326	18305.299214
621.514868	18360.315847
621.862357	18115.963558
622.209793	18124.306668
622.557176	17960.093602
622.904506	17786.922406
623.251783	17692.945216
623.599007	17460.222869
623.946179	17419.359276
624.293297	17348.561311
624.640363	17111.246473
624.987376	17124.088813
625.334336	16920.680776
625.681243	16768.924401
626.028097	16769.637724
626.374899	16711.858539
626.721647	16576.957262
627.068343	16407.241777
627.414987	16330.230590
627.761577	16311.747200
628.108115	16350.710278
628.454600	16063.926597
628.801032	16170.746127
629.147412	16110.532064
629.493739	16126.104189
629.840014	15931.482883
630.186236	16036.722010
630.532405	15793.768642
630.878521	15991.906153
631.224585	15892.953344
631.570597	15701.875969
631.916556	15741.207051
632.262462	15722.978239
632.608316	15630.899043
632.954117	15582.516569
633.299866	15580.056486
633.645562	15495.400390
633.991206	15259.227373
634.336797	15129.551252
634.682336	15093.539770
635.027823	14985.346526
635.373257	14867.552405
635.718639	14757.065436
636.063968	14714.376945
636.409245	14465.817813
636.754470	14495.331249
637.099642	14340.666128
637.444762	14107.003606
637.789829	14152.573116
638.134845	13990.106810
638.479808	14023.728786
638.824719	13971.593173
639.169577	13821.475173
639.514383	13862.812634
639.859137	13689.044061
640.203839	13775.459521
640.548489	13607.969705
640.893086	13593.552005
641.237632	13469.854692
641.582125	13614.245941
641.926566	13451.787197
642.270955	13463.948980
642.615292	13422.430037
642.959576	13435.723560
643.303809	13472.380310
643.647990	13402.807346
643.992118	13462.799597
644.336195	13233.676634
644.680219	13433.550823
645.024192	13358.019215
645.368112	13596.092746
645.711981	13654.754133
646.055797	13828.202593
646.399562	13796.828972
646.743274	14070.677052
647.086935	14350.307335
647.430544	14313.411130
647.774101	14342.319627
648.117606	14490.910157
648.461059	14460.527123
648.804460	14456.093428
649.147810	14184.788610
649.491108	14086.740688
649.834354	14103.346249
650.177548	13806.621413
650.520690	13606.510291
650.863781	13532.188559
651.206820	13576.344026
651.549807	13400.274166
651.892742	13208.579250
652.235626	13152.670333
652.578458	13149.501968
652.921238	12836.524452
653.263967	13032.464020
653.606644	12864.923792
653.949269	12827.994820
654.291843	12638.926345
654.634365	12792.822689
654.976836	12646.430102
655.319255	12661.533399
655.661622	12607.784617
656.003938	12535.010520
656.346203	12461.071917
656.688416	12537.044626
657.030577	12481.659989
657.372687	12411.877817
657.714746	12390.566339
658.056753	12577.835122
658.398708	12391.635063
658.740612	12391.844271
659.082465	12493.655414
659.424266	12456.224847
659.766016	12481.075215
660.107715	12385.066440
660.449362	12463.852113
660.790958	12427.749890
661.132503	12368.697813
661.473996	12424.563880
661.815438	12447.410390
662.156829	12461.744911
662.498168	12443.753032
662.839456	12437.174327
663.180693	12466.438225
663.521879	12546.731203
663.863013	12521.575845
664.204097	12505.799554
664.545129	12617.947583
664.886110	12594.957401
665.227040	12681.826564
665.567918	12683.477542
665.908746	12717.780073
666.249522	12704.204246
666.590248	12753.582348
666.930922	12868.278680
667.271545	12847.831760
667.612118	12928.772526
667.952639	12835.836335
668.293109	12836.622755
668.633528	12800.205459
668.973896	12770.969288
669.314213	12862.120911
669.654480	12598.077875
669.994695	12670.685614
670.334859	12686.565249
670.674973	12637.144297
671.015035	12668.316272
671.355047	12613.433230
671.695008	12586.405083
672.034918	12591.597472
672.374777	12637.454328
672.714585	12549.221533
673.054342	12583.012387
673.394049	12527.564736
673.733705	12623.392029
674.073310	12539.020758
674.412864	12547.699104
674.752368	12426.504725
675.091820	12437.938062
675.431223	12427.283583
675.770574	12297.655353
676.109875	12212.782487
676.449125	12178.205213
676.788324	12116.347734
677.127473	11952.608537
677.466571	11934.538521
677.805619	11847.359327
678.144616	11763.807243
678.483562	11735.856565
678.822458	11600.627613
679.161303	11589.663104
679.500098	11575.454612
679.838842	11525.181705
680.177535	11548.204655
680.516179	11609.147163
680.854771	11553.066847
681.193314	11762.418405
681.531805	11919.483115
681.870247	12329.366731
682.208638	12737.811098
682.546978	13055.774315
682.885268	13123.441723
683.223508	12800.102116
683.561697	12643.297025
683.899836	12548.445195
684.237925	12350.385822
684.575963	12260.192018
684.913951	12192.133921
685.251889	12136.015796
685.589776	12233.393244
685.927614	12156.293837
686.265401	12126.790484
686.603137	12171.122391
686.940824	12321.686533
687.278460	12436.435798
687.616046	12483.570586
687.953582	12663.980879
688.291068	12586.246287
688.628504	12809.944968
688.965889	12825.746465
689.303224	12795.842341
689.640510	12684.853777
689.977745	12380.257179
690.314930	12151.461891
690.652065	12071.267216
690.989150	11782.003288
691.326185	11560.618496
691.663170	11347.390291
692.000105	11102.382653
692.336990	11001.524288
692.673825	10749.176729
693.010610	10626.192740
693.347345	10422.562892
693.684030	10215.747035
694.020665	10159.833077
694.357251	9966.015835
694.693786	9917.277959
695.030272	9747.703626
695.366707	9633.438313
695.703093	9569.887007
696.039429	9556.066683
696.375716	9483.554727
696.711952	9354.526394
697.048139	9388.619717
697.384276	9342.041976
697.720363	9364.034010
698.056400	9304.550915
698.392388	9253.572247
698.728326	9215.622441
699.064214	9150.296649
699.400053	9193.615284
699.735842	9011.223817
700.071581	8975.154361
700.407270	8896.217454
700.742910	8815.072521
701.078501	8726.811999
701.414042	8603.104604
701.749533	8539.029018
702.084974	8403.167402
702.420366	8511.746294
702.755709	8396.664313
703.091002	8264.427286
703.426246	8289.257489
703.761440	8243.345181
704.096584	8198.304992
704.431679	8128.905947
704.766725	8118.019576
705.101721	8071.895538
705.436668	8110.372145
705.771565	8010.915221
706.106413	8086.025893
706.441212	8132.671689
706.775961	8081.990449
707.110661	8114.730223
707.445311	8262.559539
707.779913	8157.786718
708.114465	8291.084908
708.448967	8332.336670
708.783421	8464.545970
709.117825	8651.098910
709.452180	8682.159979
709.786485	8772.512579
710.120742	9054.333244
710.454949	9052.785610
710.789107	9155.448708
711.123216	9368.387046
711.457275	9528.368064
711.791286	9694.559782
712.125247	9685.752887
712.459159	9676.900621
712.793023	9925.505122
713.126837	9502.937963
713.460602	9651.047063
713.794318	9479.766299
714.127985	9507.923664
714.461602	9196.501344
714.795171	9141.121749
715.128691	8895.335252
715.462162	8646.390472
715.795584	8587.255217
716.128957	8444.940923
716.462281	8273.728215
716.795556	8325.926843
717.128782	8114.954554
717.461960	7849.497475
717.795088	7922.127899
718.128167	7830.343611
718.461198	7663.012591
718.794180	7602.629650
719.127113	7598.833662
719.459997	7453.169521
719.792833	7219.154118
720.125619	7280.968747
720.458357	7135.004658
720.791046	7126.424614
721.123686	7130.838144
721.456278	6971.295707
721.788821	6986.242728
722.121315	6880.806996
722.453761	6942.467869
722.786158	6894.282000
723.118506	6900.356590
723.450805	6867.959615
723.783056	6938.336643
724.115259	6841.924576
724.447412	6842.824422
724.779518	6885.437296
725.111574	6882.825978
725.443582	6965.843699
725.775542	6943.839063
726.107453	7138.041953
726.439315	7050.613222
726.771129	7106.202025
727.102895	7277.933972
727.434612	7387.876497
727.766281	7418.105776
728.097901	7508.362594
728.429473	7489.894327
728.760996	7468.164433
729.092471	7448.816485
729.423897	7388.607464
729.755276	7406.591780
730.086606	7331.143351
730.417887	7428.603978
730.749120	7614.688090
731.080305	7807.245044
731.411442	7938.844365
731.742530	7925.021521
732.073570	8030.999178
732.404562	8123.025441
732.735506	7971.536248
733.066401	8113.782486
733.397249	8047.458545
733.728048	7809.470713
734.058798	7476.774724
734.389501	7260.622650
734.720156	7080.466935
735.050762	6843.908270
735.381320	6741.688794
735.711831	6697.404778
736.042293	6588.732624
736.372707	6609.799606
736.703073	6473.073432
737.033391	6507.398648
737.363661	6523.492532
737.693883	6546.669237
738.024056	6633.893801
738.354182	6673.368556
738.684260	6710.017745
739.014290	6823.186607
739.344272	6936.806653
739.674207	6958.624767
740.004093	7028.991713
740.333931	7044.405041
740.663722	7057.030611
740.993464	7129.535006
741.323159	7127.286651
741.652806	6874.689556
741.982405	6879.937397
742.311956	6938.129956
742.641460	6784.730165
742.970915	6583.540236
743.300323	6576.868269
743.629683	6524.278952
743.958996	6392.011678
744.288260	6303.383152
744.617477	6251.164360
744.946647	6258.637870
745.275768	6091.072437
745.604842	6044.966044
745.933869	6029.366193
746.262847	5985.485470
746.591778	5973.542976
746.920662	5936.061998
747.249498	5925.281490
747.578286	5969.810002
747.907027	6046.674995
748.235720	6110.536332
748.564365	6074.978553
748.892963	6106.977278
749.221514	6260.094764
749.550017	6102.561227
749.878473	5967.556606
750.206881	6025.562643
750.535242	5970.029292
750.863555	5900.584877
751.191821	5913.031486
751.520039	5918.196148
751.848210	5825.844730
752.176334	5842.702349
752.504411	5895.783178
752.832440	5822.356252
753.160421	5751.810345
753.488356	5801.410258
753.816243	5835.014589
754.144082	5686.676117
754.471875	5653.611189
754.799620	5695.856058
755.127318	5708.869797
755.454969	5662.846582
755.782572	5625.710923
756.110129	5671.822357
756.437638	5659.554709
756.765100	5599.348209
757.092515	5592.638433
757.419882	5644.592564
757.747203	5624.435511
758.074477	5686.734090
758.401703	5676.896278
758.728882	5621.083143
759.056014	5675.441905
759.383099	5808.714890
759.710138	5823.036808
760.037129	5807.525177
760.364073	5811.789993
760.690970	5894.371655
761.017820	5879.870776
761.344623	5828.307334
761.671379	5929.407674
761.998088	6045.646600
762.324751	6280.897085
762.651366	6869.524893
762.977935	8154.693970
763.304456	9777.832082
763.630931	10700.736282
763.957359	10319.350308
764.283740	9389.665757
764.610074	8559.531391
764.936362	7572.390289
765.262602	6981.249466
765.588796	6437.649243
765.914943	6100.275063
766.241044	5938.121309
766.567097	5743.016052
766.893104	5480.823120
767.219064	5303.293846
767.544978	5241.575000
767.870845	5164.538607
768.196665	5057.613213
768.522438	4989.101412
768.848165	4952.827790
769.173846	4887.774220
769.499479	4848.874156
769.825066	4792.047749
770.150607	4730.633893
770.476101	4711.076736
770.801548	4705.155901
771.126949	4631.141680
771.452303	4575.308381
771.777611	4534.437226
772.102872	4552.716450
772.428087	4518.295452
772.753256	4475.632167
773.078378	4431.544756
773.403453	4357.888457
773.728482	4345.865305
774.053465	4304.056495
774.378401	4287.108136
774.703291	4291.672901
775.028135	4220.002817
775.352932	4168.585568
775.677683	4157.744567
776.002388	4176.205272
776.327046	4188.203218
776.651658	4118.226962
776.976224	4052.197929
777.300743	4057.985173
777.625216	4078.033842
777.949643	4076.980241
778.274024	4031.380484
778.598359	3982.118328
778.922647	4007.046834
779.246889	4000.896627
779.571086	3997.229187
779.895236	3982.355263
780.219339	3968.056030
780.543397	3961.447077
780.867409	4006.817462
781.191374	4024.562323
781.515294	3965.364054
781.839167	3956.408444
782.162995	3976.600786
782.486776	3965.285916
782.810511	3972.323367
783.134201	3971.552070
783.457844	3927.096655
783.781441	3867.285885
784.104993	3876.768295
784.428498	3891.841345
784.751958	3890.359246
785.075372	3871.142368
785.398739	3833.154753
785.722061	3845.349304
786.045337	3890.024009
786.368568	3925.203702
786.691752	3831.193744
787.014891	3881.234758
787.337983	4003.984333
787.661030	4164.487110
787.984031	4322.605421
788.306987	4496.749560
788.629897	4577.730655
788.952760	4533.371022
789.275579	4465.257472
789.598351	4405.401332
789.921078	4267.674488
790.243759	4064.488262
790.566395	4042.281979
790.888984	4042.712998
791.211529	3937.751133
791.534027	3875.581104
791.856480	3866.363354
792.178888	3803.903458
792.501249	3751.099892
792.823566	3764.020369
793.145836	3794.131181
793.468062	3742.852564
793.790241	3696.531922
794.112375	3729.443095
794.434464	3787.169347
794.756507	3815.097340
795.078505	3795.209988
795.400457	3825.628310
795.722364	3959.912046
796.044226	4066.335845
796.366042	4139.387205
796.687812	4120.475316
797.009538	4131.888489
797.331218	4087.007096
797.652852	4058.955595
797.974442	4039.027914
798.295986	4043.557391
798.617484	3963.087973
798.938938	3874.862739
799.260346	3915.055859
799.581709	3911.572422
799.903026	3838.291689
800.224299	3800.891368
800.545526	3793.538845
800.866708	3756.292280
801.187845	3693.391283
801.508936	3733.443250
801.829983	3729.554000
802.150984	3650.818739
802.471940	3640.428921
802.792851	3651.461486
803.113717	3652.469717
803.434538	3656.860562
803.755314	3596.870831
804.076045	3569.971234
804.396731	3588.779779
804.717372	3618.467134
805.037967	3603.504989
805.358518	3592.996704
805.679024	3617.995786
805.999485	3632.670585
806.319901	3632.642859
806.640272	3649.654232
806.960598	3664.271058
807.280879	3637.704177
807.601115	3649.447545
807.921306	3665.836336
808.241453	3708.386195
808.561554	3685.128832
808.881611	3617.264819
809.201623	3655.628000
809.521590	3666.234587
809.841513	3637.237870
810.161390	3665.259124
810.481223	3649.324037
810.801011	3589.488061
811.120755	3579.466247
811.440453	3619.608955
811.760107	3623.883854
812.079716	3578.548757
812.399281	3545.748490
812.718801	3569.704053
813.038276	3541.927295
813.357707	3537.506203
813.677093	3559.291550
813.996434	3509.200124
814.315731	3513.064169
814.634983	3518.503574
814.954191	3532.081922
815.273354	3559.266344
815.592473	3556.125705
815.911547	3561.605439
816.230577	3602.869804
816.549562	3652.835200
816.868502	3692.529246
817.187399	3719.965726
817.506250	3714.289386
817.825058	3690.905994
818.143821	3777.944036
818.462539	3879.150241
818.781213	3926.297632
819.099843	3981.140345
819.418429	4220.869895
819.736970	4467.483141
820.055466	4704.881158
820.373919	5063.430705
820.692327	5471.680987
821.010691	5899.586729
821.329011	7238.434011
821.647286	9927.609804
821.965517	14435.999388
822.283704	18457.337894
822.601847	20662.993936
822.919945	18886.080467
823.237999	16330.618759
823.556010	13872.751269
823.873976	11796.254630
824.191897	9713.416218
824.509775	8355.825926
824.827609	7235.492498
825.145398	6687.836668
825.463144	6569.621610
825.780845	6679.549011
826.098502	6865.489450
826.416116	7715.722896
826.733685	9029.712249
827.051210	10143.172063
827.368692	10210.597496
827.686129	8986.567533
828.003522	7474.047460
828.320872	6455.411749
828.638177	5760.765955
828.955439	5201.432292
829.272656	4709.095563
829.589830	4421.212911
829.906960	4253.914659
830.224046	4067.291143
830.541088	3942.696505
830.858086	3894.999628
831.175041	3821.121519
831.491952	3802.660813
831.808819	3812.725477
832.125642	3884.793812
832.442421	4026.951830
832.759157	4297.659271
833.075849	4835.194985
833.392497	5691.160223
833.709101	6459.333767
834.025662	6808.375697
834.342179	6463.805270
834.658653	5804.054343
834.975083	5163.764790
835.291469	4591.069548
835.607811	4176.411959
835.924110	4037.255949
836.240366	3840.083819
836.556578	3635.007160
836.872746	3527.771735
837.188871	3487.203050
837.504952	3424.123092
837.820990	3341.584280
838.136984	3292.654840
838.452935	3319.667863
838.768842	3314.994714
839.084706	3338.446161
839.400526	3490.021055
839.716303	3824.173937
840.032037	4336.030014
840.347727	4607.475984
840.663373	4342.396991
840.978977	3961.633600
841.294537	3659.270233
841.610054	3427.767846
841.925527	3321.263388
842.240957	3250.921648
842.556344	3201.541026
842.871687	3141.473157
843.186987	3092.536156
843.502244	3057.021227
843.817458	3020.331710
844.132629	2988.229642
844.447756	2997.638956
844.762840	2982.691934
845.077881	2952.271092
845.392879	2936.469595
845.707833	2928.953234
846.022745	2928.660848
846.337613	2929.840478
846.652438	2917.091399
846.967221	2917.598035
847.281960	2902.310736
847.596656	2899.467526
847.911309	2896.818399
848.225919	2892.331772
848.540485	2889.405382
848.855009	2889.879251
849.169490	2876.855430
849.483928	2868.708925
849.798323	2864.643235
850.112675	2863.307329
850.426984	2875.388454
850.741251	2874.261756
851.055474	2862.533512
851.369654	2856.214426
851.683792	2861.810106
851.997887	2870.100284
852.311938	2871.809235
852.625947	2859.902030
852.939914	2864.431506
853.253837	2868.325798
853.567718	2852.506657
853.881555	2851.722757
854.195350	2868.189687
854.509103	2864.459233
854.822812	2857.250383
855.136479	2854.379446
855.450103	2854.497913
855.763685	2848.854341
856.077224	2845.635564
856.390720	2859.995291
856.704173	2867.685571
857.017584	2859.793645
857.330953	2856.857173
857.644278	2865.790097
857.957561	2876.636140
858.270802	2878.002292
858.584000	2877.772920
858.897155	2864.660879
859.210268	2865.107021
859.523339	2862.072246
859.836367	2862.616691
860.149352	2856.821885
860.462295	2850.419619
860.775195	2857.991432
861.088054	2858.908922
861.400869	2844.728157
861.713642	2840.460820
862.026373	2857.595702
862.339062	2857.381453
862.651708	2863.821527
862.964312	2864.204654
863.276873	2859.970085
863.589392	2869.477701
863.901869	2879.333157
864.214303	2902.497259
864.526696	2916.952768
864.839045	2914.512849
865.151353	2912.261974
865.463619	2913.126532
865.775842	2912.645102
866.088023	2933.371806
866.400162	2940.144596
866.712258	2909.938002
867.024313	2898.812176
867.336325	2908.032446
867.648296	2929.114551
867.960224	2921.232707
868.272110	2907.813156
868.583954	2912.635019
868.895755	2927.728234
869.207515	2914.543096
869.519233	2917.512336
869.830909	2924.640527
870.142542	2937.407249
870.454134	2939.456478
870.765684	2941.014195
871.077191	2941.785492
871.388657	2946.612396
871.700081	2959.316104
872.011463	2970.293217
872.322803	2971.240953
872.634101	2973.093578
872.945357	2987.460866
873.256571	3010.680421
873.567744	3008.585821
873.878874	3000.028463
874.189963	3022.872451
874.501010	3025.871938
874.812015	3013.150586
875.122979	3014.516739
875.433900	3010.143538
875.744780	3015.237624
876.055618	3023.951258
876.366415	3019.915814
876.677169	3031.308822
876.987882	3031.233205
877.298554	3022.156607
877.609183	3045.981100
877.919771	3067.610171
878.230317	3094.469439
878.540822	3144.155051
878.851285	3181.169723
879.161707	3224.183368
879.472087	3321.046619
879.782425	3543.152296
880.092722	3972.300681
880.402977	4494.755784
880.713191	5110.878045
881.023363	6243.441312
881.333494	7512.513984
881.643583	8080.702434
881.953631	7794.024618
882.263637	7175.033940
882.573602	6595.921310
882.883526	6023.389906
883.193408	5456.139110
883.503248	4988.987986
883.813048	4692.051422
884.122806	4396.896905
884.432522	4081.940736
884.742197	3846.375179
885.051831	3653.094820
885.361424	3519.005169
885.670975	3449.235599
885.980485	3363.795603
886.289954	3289.869603
886.599382	3246.440062
886.908768	3205.054710
887.218113	3163.205571
887.527417	3105.111314
887.836680	3054.591391
888.145901	3051.221380
888.455082	3041.378527
888.764221	2990.714931
889.073319	2963.114613
889.382376	2960.140333
889.691392	2964.092597
890.000366	2964.125365
890.309300	2948.580967
890.618193	2962.756692
890.927044	2978.984166
891.235855	2978.719505
891.544625	2965.521764
891.853353	2976.312354
892.162041	2993.038903
892.470687	3032.826209
892.779293	3085.133222
893.087858	3130.450674
893.396381	3197.624049
893.704864	3320.250117
894.013306	3552.717885
894.321707	3852.177547
894.630068	4059.434505
894.938387	4057.055080
895.246665	4012.055221
895.554903	3894.518198
895.863100	3699.327242
896.171256	3531.227446
896.479371	3393.861045
896.787446	3269.336983
897.095480	3169.454082
897.403473	3107.392437
897.711425	3067.494224
898.019336	3059.609860
898.327207	3031.485263
898.635038	2995.816578
898.942827	2982.959116
899.250576	2972.193732
899.558284	2939.428752
899.865952	2922.145156
900.173579	2901.115983
900.481165	2891.552914
900.788711	2880.192674
901.096216	2858.671988
901.403681	2843.881243
901.711105	2850.298632
902.018489	2850.553210
902.325832	2850.374249
902.633135	2859.183665
902.940397	2891.129457
903.247619	2970.116776
903.554800	3155.807678
903.861941	3495.803258
904.169041	3916.558123
904.476101	4222.137745
904.783121	4180.671734
905.090100	3938.393881
905.397039	3669.705422
905.703938	3419.323913
906.010796	3238.177611
906.317614	3126.848770
906.624391	3036.627239
906.931129	2961.665282
907.237826	2901.108421
907.544483	2853.005731
907.851099	2826.481700
908.157675	2801.709470
908.464211	2783.584002
908.770707	2771.618823
909.077163	2759.008377
909.383578	2744.396592
909.689954	2730.762792
909.996289	2730.072153
910.302584	2733.578276
910.608839	2734.037021
910.915054	2728.605178
911.221229	2719.989846
911.527363	2721.933211
911.833458	2729.883110
912.139513	2733.477453
912.445527	2738.402660
912.751502	2745.992117
913.057436	2755.182141
913.363331	2767.122114
913.669186	2785.716410
913.975000	2820.664209
914.280775	2879.307951
914.586510	2948.868313
914.892205	3026.076104
915.197859	3150.464055
915.503475	3340.878518
915.809050	3552.004562
916.114585	3697.507385
916.420081	3723.676015
916.725536	3662.907426
917.030952	3548.080023
917.336328	3421.388266
917.641665	3292.589305
917.946961	3192.545087
918.252218	3120.907770
918.557435	3044.350287
918.862612	2987.047491
919.167750	2936.124276
919.472848	2897.158677
919.777906	2871.413504
920.082925	2845.625482
920.387904	2817.294197
920.692843	2800.429017
920.997743	2788.342851
921.302603	2777.030502
921.607423	2767.265787
921.912204	2753.873961
922.216946	2743.824421
922.521647	2734.634398
922.826310	2727.407904
923.130932	2719.931872
923.435516	2710.388968
923.740059	2703.346476
924.044564	2694.526978
924.349028	2691.078828
924.653454	2685.273940
924.957840	2675.932682
925.262186	2674.203566
925.566493	2670.233657
925.870761	2666.896413
926.174989	2659.178407
926.479178	2655.881492
926.783328	2649.680873
927.087438	2651.654485
927.391509	2651.863693
927.695541	2642.603093
927.999533	2642.048566
928.303486	2639.832979
928.607400	2638.955818
928.911275	2639.094450
929.215110	2637.934985
929.518906	2635.076650
929.822663	2636.899027
930.126381	2636.475571
930.430060	2638.423977
930.733699	2638.512197
931.037299	2639.192752
931.340861	2641.609986
931.644383	2642.741725
931.947866	2638.769296
932.251309	2636.974645
932.554714	2639.550674
932.858080	2635.553039
933.161407	2633.045065
933.464694	2633.942391
933.767943	2630.007770
934.071153	2632.203193
934.374323	2631.956176
934.677455	2631.318470
934.980548	2627.865280
935.283602	2628.303860
935.586617	2627.696401
935.889593	2626.972996
936.192530	2628.782770
936.495428	2628.571041
936.798287	2629.105404
937.101108	2633.982720
937.403890	2635.893317
937.706632	2641.136117
938.009336	2648.415543
938.312002	2659.697646
938.614628	2667.622340
938.917216	2673.069306
939.219765	2674.392609
939.522275	2672.492094
939.824747	2667.816424
940.127179	2668.174346
940.429573	2664.884993
940.731929	2662.218223
941.034246	2659.485917
941.336524	2656.037768
941.638763	2652.496357
941.940964	2650.736995
942.243126	2650.268167
942.545250	2649.096099
942.847335	2644.513690
943.149381	2641.466313
943.451389	2635.953811
943.753359	2635.190076
944.055290	2634.625467
944.357182	2632.790487
944.659036	2631.593213
944.960851	2633.680251
945.262628	2629.828809
945.564367	2629.937194
945.866067	2630.756382
946.167729	2630.917698
946.469352	2630.378295
946.770937	2631.822586
947.072484	2630.978192
947.373992	2632.220837
947.675462	2631.676392
947.976893	2623.003087
948.278286	2623.600464
948.579641	2624.306225
948.880958	2619.486882
949.182236	2622.698097
949.483476	2619.950668
949.784678	2621.415123
950.085841	2621.163066
950.386967	2622.960237
950.688054	2624.107100
950.989103	2624.573406
951.290114	2625.742954
951.591087	2625.586678
951.892021	2631.903244
952.192917	2630.572379
952.493776	2631.542802
952.794596	2634.123872
953.095378	2632.397277
953.396122	2636.374747
953.696828	2633.206382
953.997496	2631.550363
954.298126	2630.650517
954.598718	2625.790845
954.899272	2625.201030
955.199788	2621.319342
955.500266	2618.831532
955.800706	2618.324896
956.101108	2613.828187
956.401472	2611.143772
956.701798	2611.103443
957.002087	2607.461210
957.302337	2609.825511
957.602550	2606.248812
957.902724	2604.885180
958.202861	2601.595827
958.502960	2601.215220
958.803022	2598.336721
959.103045	2599.458378
959.403031	2601.545416
959.702979	2599.445775
960.002889	2599.594489
960.302762	2596.839498
960.602596	2599.410487
960.902393	2598.127513
961.202153	2598.861001
961.501875	2596.791607
961.801559	2595.886720
962.101205	2596.715990
962.400814	2597.182297
962.700385	2595.543922
962.999918	2594.712132
963.299414	2590.953951
963.598873	2593.033427
963.898293	2590.096955
964.197677	2597.696495
964.497022	2591.410176
964.796331	2595.022162
965.095601	2593.877821
965.394835	2593.890423
965.694030	2594.404621
965.993189	2593.419076
966.292309	2594.283633
966.591393	2592.756164
966.890439	2593.232553
967.189447	2594.913778
967.488419	2597.565425
967.787353	2592.569641
968.086249	2594.341607
968.385108	2594.916298
968.683930	2594.729776
968.982714	2593.489652
969.281462	2593.174580
969.580172	2594.608788
969.878844	2590.222984
970.177480	2595.483428
970.476078	2594.855804
970.774639	2592.536874
971.073162	2596.521906
971.371649	2594.102152
971.670098	2593.172059
971.968510	2593.829930
972.266885	2594.790269
972.565223	2593.592995
972.863524	2594.197934
973.161788	2595.034765
973.460014	2592.947728
973.758204	2595.226329
974.056356	2595.533840
974.354471	2594.533171
974.652550	2595.193562
974.950591	2593.237594
975.248595	2593.590475
975.546563	2592.297419
975.844493	2593.267841
976.142386	2593.900506
976.440243	2591.228694
976.738062	2592.746082
977.035845	2595.024683
977.333590	2593.144333
977.631299	2592.196596
977.928971	2588.508992
978.226606	2588.350195
978.524204	2591.364805
978.821765	2587.747778
979.119290	2593.963520
979.416777	2592.625094
979.714228	2592.446133
980.011642	2591.248859
980.309020	2591.384970
980.606360	2591.531163
980.903664	2593.177100
981.200931	2591.503437
981.498162	2595.687595
981.795356	2593.305650
982.092513	2596.221957
982.389633	2595.982502
982.686717	2598.137596
982.983764	2604.098760
983.280775	2611.163937
983.577749	2611.821808
983.874686	2609.119749
984.171587	2606.921806
984.468451	2602.447782
984.765279	2601.104315
985.062070	2599.576845
985.358824	2598.477873
985.655543	2596.337904
985.952224	2595.523757
986.248869	2593.315732
986.545478	2593.076277
986.842050	2590.245669
987.138586	2590.112079
987.435086	2590.182655
987.731549	2589.613004
988.027975	2589.078642
988.324366	2589.355906
988.620719	2590.457398
988.917037	2586.361460
989.213318	2588.100658
989.509563	2584.324834
989.805772	2588.609815
990.101944	2588.745926
990.398080	2588.859352
990.694180	2588.882037
990.990244	2589.607963
991.286271	2587.856162
991.582262	2589.711307
991.878217	2588.992942
992.174136	2589.935638
992.470019	2589.549990
992.765865	2585.612849
993.061676	2586.641244
993.357450	2586.127047
993.653188	2583.039340
993.948890	2586.323652
994.244556	2588.756008
994.540186	2587.387335
994.835780	2587.362129
995.131337	2589.769280
995.426859	2588.234249
995.722345	2589.141657
996.017795	2592.254569
996.313208	2593.053592
996.608586	2594.051740
996.903928	2595.496031
997.199234	2591.006883
997.494504	2592.388160
997.789738	2588.617377
998.084936	2593.706421
998.380099	2592.877152
998.675225	2592.249528
998.970316	2589.630648
999.265371	2590.157449
999.560390	2590.011256
999.855373	2588.637541
1000.150320	2588.014959
1000.445232	2585.542273
1000.740108	2588.942531
1001.034948	2589.950762
1001.329752	2588.521595
1001.624521	2586.908425
1001.919254	2587.387335
1002.213951	2588.042685
1002.508613	2585.355750
1002.803239	2585.002869
1003.097829	2586.873137
1003.392384	2583.646799
1003.686903	2587.256265
1003.981386	2584.070256
1004.275834	2588.730802
1004.570246	2587.531008
1004.864623	2585.265009
1005.158964	2584.859196
1005.453270	2587.188209
1005.747540	2586.079156
1006.041775	2582.189905
1006.335974	2586.111923
1006.630138	2584.216449
1006.924266	2587.778024
1007.218359	2587.727613
1007.512416	2581.600090
1007.806438	2581.640420
1008.100425	2583.861048
1008.394376	2580.669997
1008.688292	2585.209557
1008.982172	2585.023034
1009.276017	2587.573858
1009.569827	2585.945565
1009.863602	2583.193095
1010.157341	2583.475400
1010.451045	2586.515215
1010.744714	2586.205184
1011.038347	2584.738209
1011.331945	2586.505133
1011.625508	2583.621593
1011.919036	2583.031778
1012.212528	2584.249217
1012.505986	2585.635534
1012.799408	2586.850452
1013.092795	2586.381625
1013.386147	2587.354567
1013.679464	2584.844073
1013.972745	2584.952458
1014.265992	2585.514546
1014.559204	2584.312231
1014.852380	2587.057139
1015.145521	2585.874989
1015.438628	2583.185533
1015.731699	2586.371543
1016.024736	2583.737540
1016.317737	2584.382807
1016.610703	2583.888774
1016.903635	2583.974474
1017.196531	2582.938517
1017.489393	2585.025554
1017.782219	2584.246696
1018.075011	2583.805595
1018.367768	2582.782241
1018.660490	2584.970102
1018.953177	2584.970102
1019.245829	2584.970102
