Dividing Wavelength (nm)	Counts (n)	Blue Motor Position (mm): 30.500000	Red Motor Position (mm): 0.000000	
326.493990	2213.842876
326.888308	2213.842876
327.282561	2213.842876
327.676750	2174.418533
328.070874	2171.310661
328.464933	2170.829231
328.858929	2174.859633
329.252859	2180.067145
329.646726	2187.371777
330.040528	2199.155474
330.434265	2214.435212
330.827938	2231.403736
331.221547	2249.945099
331.615091	2265.005547
332.008571	2285.351643
332.401986	2303.038532
332.795338	2322.721717
333.188625	2341.595797
333.581847	2360.205216
333.975006	2377.909749
334.368100	2397.020763
334.761129	2416.716551
335.154095	2435.197421
335.546996	2462.782615
335.939833	2497.256545
336.332606	2510.915552
336.725315	2526.906092
337.117960	2537.782381
337.510540	2549.571119
337.903056	2561.742985
338.295508	2569.851681
338.687896	2578.966087
339.080220	2586.699217
339.472480	2594.029055
339.864676	2598.745055
340.256807	2602.876280
340.648875	2608.335850
341.040879	2608.040942
341.432818	2615.542179
341.824694	2614.690224
342.216506	2615.955554
342.608253	2617.162910
342.999937	2618.902108
343.391557	2618.758435
343.783113	2617.578805
344.174605	2615.567385
344.566033	2613.790378
344.957397	2614.599483
345.348697	2615.249792
345.739934	2610.390120
346.131106	2608.897938
346.522215	2609.086982
346.913260	2605.744697
347.304241	2606.488267
347.695159	2601.520210
348.086012	2603.357710
348.476802	2600.164139
348.867528	2593.971082
349.258191	2590.477562
349.648789	2589.272727
350.039324	2588.352716
350.429796	2593.257759
350.820203	2589.126533
351.210548	2589.532346
351.600828	2589.320617
351.991045	2585.728795
352.381198	2586.361460
352.771288	2585.287694
353.161314	2582.999011
353.551276	2585.325503
353.941175	2580.647312
354.331010	2582.797364
354.720782	2583.329206
355.110490	2583.306521
355.500135	2584.138311
355.889717	2583.596387
356.279235	2582.815008
356.668689	2585.761563
357.058080	2584.939855
357.447408	2582.842735
357.836672	2585.128898
358.225873	2584.884402
358.615010	2583.301480
359.004084	2585.827098
359.393095	2586.389187
359.782043	2587.311718
360.170927	2584.518918
360.559748	2586.026223
360.948505	2587.523446
361.337199	2590.255752
361.725830	2585.706110
362.114398	2589.255082
362.502903	2588.332551
362.891344	2590.391863
363.279722	2592.816658
363.668037	2591.170721
364.056289	2592.897316
364.444478	2590.230546
364.832603	2592.108376
365.220665	2593.230032
365.608665	2595.521237
365.996601	2594.689446
366.384474	2593.615681
366.772284	2597.051227
367.160031	2596.441247
367.547715	2593.595516
367.935336	2595.228850
368.322893	2594.709611
368.710388	2594.578541
369.097820	2593.305650
369.485189	2593.587954
369.872495	2596.582400
370.259738	2598.414859
370.646918	2596.494179
371.034035	2599.654983
371.421090	2598.984509
371.808081	2600.920312
372.195010	2599.012236
372.581875	2600.191866
372.968678	2600.650611
373.355418	2597.121803
373.742096	2599.980137
374.128710	2600.461567
374.515262	2601.845364
374.901751	2599.901999
375.288177	2602.588934
375.674540	2601.671444
376.060841	2604.345777
376.447079	2601.827720
376.833254	2605.689244
377.219367	2603.811414
377.605417	2604.287803
377.991404	2602.704881
378.377329	2603.521548
378.763191	2602.846033
379.148991	2605.109511
379.534727	2605.588421
379.920402	2604.663369
380.306013	2604.456682
380.691563	2606.969697
381.077049	2607.413319
381.462474	2606.606734
381.847835	2603.317381
382.233134	2607.844337
382.618371	2607.413319
383.003545	2609.064297
383.388657	2607.292331
383.773706	2607.723350
384.158693	2610.427929
384.543618	2611.637806
384.928480	2608.126642
385.313280	2613.858434
385.698017	2612.744339
386.082692	2610.490943
386.467305	2609.886005
386.851856	2611.501694
387.236344	2612.230141
387.620770	2608.565222
388.005133	2607.375510
388.389435	2611.053032
388.773674	2605.452310
389.157851	2613.031685
389.541965	2612.666201
389.926018	2612.983794
390.310008	2612.338526
390.693936	2613.200563
391.077802	2614.594442
391.461606	2614.312138
391.845348	2614.370111
392.229027	2615.816922
392.612645	2616.119391
392.996200	2614.075203
393.379694	2616.207612
393.763125	2616.457149
394.146494	2617.183075
394.529801	2618.047633
394.913047	2617.498147
395.296230	2620.182561
395.679351	2618.662653
396.062410	2620.588374
396.445408	2620.560648
396.828343	2620.863117
397.211217	2620.318672
397.594028	2619.837242
397.976778	2620.099382
398.359466	2620.033847
398.742092	2623.121554
399.124656	2620.376646
399.507158	2621.321862
399.889598	2623.706328
400.271977	2624.283540
400.654294	2621.740278
401.036549	2626.892337
401.418742	2623.660957
401.800874	2624.911164
402.182944	2626.935187
402.564952	2625.052316
402.946898	2629.859056
403.328783	2627.058695
403.710606	2629.662451
404.092367	2629.586834
404.474067	2629.717904
404.855705	2629.909468
405.237282	2629.049951
405.618797	2629.458284
406.000250	2630.869807
406.381642	2630.768984
406.762972	2628.450054
407.144240	2630.073305
407.525447	2631.905765
407.906593	2629.861577
408.287677	2633.256794
408.668700	2634.900210
409.049661	2633.166053
409.430560	2635.404325
409.811399	2635.885756
410.192176	2636.679737
410.572891	2641.627630
410.953545	2641.085706
411.334138	2638.839872
411.714669	2638.003040
412.095139	2640.619399
412.475547	2639.306178
412.855894	2639.943884
413.236180	2640.400109
413.616405	2639.565798
413.996568	2640.195942
414.376670	2642.172074
414.756711	2641.201652
415.136691	2642.507311
415.516609	2644.705254
415.896466	2646.280615
416.276262	2647.296407
416.655997	2649.743887
417.035670	2650.028713
417.415283	2652.022489
417.794834	2651.021820
418.174324	2653.338230
418.553753	2654.858138
418.933121	2656.655309
419.312428	2658.253355
419.691674	2656.746050
420.070859	2666.276352
420.449983	2664.499345
420.829045	2668.920437
421.208047	2672.572753
421.586988	2679.753876
421.965867	2684.240503
422.344686	2693.654858
422.723444	2698.401104
423.102141	2703.301106
423.480777	2722.492779
423.859352	2726.863459
424.237866	2755.250196
424.616319	2771.086981
424.994712	2801.800211
425.373044	2814.443425
425.751314	2852.105885
426.129524	2878.324926
426.507673	2915.216090
426.885762	2956.377111
427.263789	2998.425376
427.641756	3044.216697
428.019662	3098.739296
428.397508	3168.468536
428.775292	3206.889690
429.153016	3298.351344
429.530679	3350.491998
429.908282	3425.222063
430.285824	3460.111889
430.663305	3620.072742
431.040726	3628.229328
431.418086	3699.415462
431.795385	3826.939010
432.172624	3936.899178
432.549802	4009.083460
432.926920	4115.056076
433.303977	4169.422400
433.680974	4312.203000
434.057910	4433.288995
434.434786	4545.346283
434.811601	4620.958550
435.188355	4873.706880
435.565050	4907.180142
435.941683	4992.605014
436.318257	5267.007621
436.694770	5419.734418
437.071222	5570.686728
437.447614	5637.439167
437.823946	5713.958841
438.200218	5903.604528
438.576429	5945.904850
438.952580	6161.807387
439.328670	6319.787067
439.704700	6343.046950
440.080670	6453.869156
440.456580	6854.920671
440.832429	6855.918819
441.208218	6769.362208
441.583947	7063.553864
441.959616	7274.374918
442.335224	7290.189017
442.710773	7494.572518
443.086261	7756.425172
443.461689	7418.715755
443.837057	7938.874612
444.212365	8258.652644
444.587612	8136.392061
444.962800	8423.964682
445.337927	8387.363384
445.712995	8180.802106
446.088002	9078.424918
446.462949	8927.943955
446.837837	9020.421402
447.212664	9139.342221
447.587431	9617.130180
447.962139	10257.235731
448.336786	12073.132443
448.711374	12719.047923
449.085901	11130.892898
449.460369	10912.144630
449.834776	10570.109903
450.209124	11347.183604
450.583412	11764.873447
450.957640	12689.763861
451.331808	12096.677152
451.705917	11277.582913
452.079965	10758.245765
452.453954	11628.119546
452.827883	11354.616785
453.201752	11673.573110
453.575562	11289.225458
453.949311	11723.740152
454.323001	11734.407234
454.696632	11982.956283
455.070202	12291.936164
455.443713	12584.519692
455.817164	13074.005648
456.190556	13116.132050
456.563888	13503.668232
456.937160	13722.454308
457.310373	13102.866254
457.683526	13218.051578
458.056619	12815.893530
458.429653	12959.475674
458.802628	12467.380921
459.175542	12820.526350
459.548398	13787.132312
459.921194	14114.577940
460.293930	14188.680381
460.666607	15077.332460
461.039224	16098.576968
461.411782	16794.906508
461.784280	16739.824340
462.156719	16794.876261
462.529099	16512.876635
462.901419	15446.748214
463.273680	15264.439926
463.645882	15130.178876
464.018024	14865.387229
464.390106	15094.084214
464.762130	15824.847355
465.134094	16553.455403
465.505999	18500.149893
465.877845	21748.954257
466.249631	24592.008750
466.621358	24333.447969
466.993026	22899.408579
467.364634	22347.828210
467.736184	20913.307389
468.107674	20114.213928
468.479105	20237.601210
468.850477	19707.198729
469.221790	19287.895716
469.593043	18620.963665
469.964238	18067.046722
470.335373	17743.979337
470.706449	18155.587028
471.077467	17690.023867
471.448425	19511.304531
471.819324	23468.143994
472.190164	25579.444760
472.560945	22106.326694
472.931667	19696.698005
473.302330	19050.875786
473.672934	18525.716105
474.043479	18904.261388
474.413965	18720.410507
474.784393	18358.145630
475.154761	19018.788842
475.525070	19046.295898
475.895321	18679.385597
476.265513	19258.828423
476.635645	19835.433080
477.005719	19633.093767
477.375734	19831.997533
477.745691	20311.812036
478.115588	20799.712549
478.485427	21319.858803
478.855207	22366.689687
479.224928	24106.202836
479.594591	26322.231052
479.964194	26409.775730
480.333739	26610.930372
480.703226	26179.329464
481.072653	25844.833783
481.442022	26387.297225
481.811333	27293.593343
482.180584	27233.732162
482.549777	26298.008308
482.918912	25931.839057
483.287988	26017.054722
483.657005	25757.508396
484.025964	25459.246008
484.394864	25400.357769
484.763706	25110.007472
485.132489	24529.102712
485.501213	24688.385529
485.869879	24612.243942
486.238487	24405.733074
486.607036	24567.347425
486.975527	24241.318362
487.343959	24587.207051
487.712333	24537.503795
488.080648	24201.087434
488.448905	24670.000441
488.817104	24413.178858
489.185244	25076.997997
489.553326	25067.180350
489.921350	26026.219540
490.289315	28272.308157
490.657222	30077.535267
491.025070	30574.494733
491.392861	30380.594312
491.760593	29543.109944
492.128267	28648.836978
492.495883	27610.770140
492.863440	26739.903252
493.230939	25856.617480
493.598380	25706.375972
493.965763	25313.896940
494.333088	24859.504976
494.700354	24772.875268
495.067563	24665.092878
495.434713	24417.617594
495.801805	24557.426435
496.168839	24391.756475
496.535815	24209.473393
496.902733	24419.313943
497.269593	24089.027625
497.636395	24277.690287
498.003139	24257.122379
498.369825	24007.214739
498.736453	24201.831004
499.103023	24095.152627
499.469535	24100.864254
499.835989	24306.762621
500.202385	24344.767880
500.568723	23840.924718
500.935003	24115.309681
501.301226	23700.021947
501.667390	24528.180181
502.033497	24772.406440
502.399546	24505.459700
502.765537	24083.815072
503.131470	24453.576145
503.497345	24590.083029
503.863163	23815.298012
504.228923	24438.319093
504.594625	24620.319870
504.960269	24144.011490
505.325856	24645.734847
505.691385	24052.867428
506.056856	24643.022706
506.422270	24618.323573
506.787625	24201.848648
507.152924	24614.842656
507.518164	24634.314113
507.883347	24445.255720
508.248472	24130.256702
508.613540	24906.735546
508.978550	24693.950963
509.343503	24683.568707
509.708398	24950.762463
510.073236	25095.965338
510.438016	25323.603681
510.802738	24992.646890
511.167403	25242.249541
511.532010	24940.223931
511.896561	25723.344496
512.261053	25682.306983
512.625488	25517.035275
512.989866	25416.862507
513.354186	25261.607571
513.718449	25364.560536
514.082655	25750.201243
514.446803	25489.911347
514.810894	25942.095285
515.174927	25424.051192
515.538904	25453.738547
515.902822	25950.241790
516.266684	25704.485540
516.630488	25606.568688
516.994235	25598.263387
517.357925	25884.237962
517.721558	26068.116569
518.085133	26143.859906
518.448651	26084.835556
518.812112	25800.985827
519.175516	26002.876477
519.538863	26160.563769
519.902152	25933.986589
520.265385	26225.735806
520.628560	26029.627360
520.991678	26033.728338
521.354739	26110.328671
521.717743	26171.059452
522.080690	25959.167152
522.443580	26296.720293
522.806413	26300.571735
523.169189	26384.307821
523.531908	26423.129747
523.894569	26040.186057
524.257174	26116.821677
524.619722	26296.596785
524.982213	25978.890667
525.344647	26051.327007
525.707025	26181.701327
526.069345	26168.183473
526.431608	26128.461702
526.793815	26322.147873
527.155964	25768.238492
527.518057	25949.168024
527.880093	25862.450095
528.242072	26097.665293
528.603995	25811.027806
528.965860	25620.431861
529.327669	25641.697968
529.689421	25651.777756
530.051117	25471.037267
530.412755	25657.048282
530.774337	25454.005728
531.135862	25327.593755
531.497331	25530.946339
531.858743	25064.702623
532.220098	25558.622274
532.581396	25233.122532
532.942638	25175.960888
533.303824	25269.353304
533.664953	25289.636387
534.026025	24958.785460
534.387040	25192.868918
534.747999	25240.487657
535.108902	25410.470324
535.469748	24910.075311
535.830537	25092.882673
536.191270	25203.236051
536.551947	25087.723052
536.912567	24741.809157
537.273131	25075.722585
537.633638	24790.660458
537.994089	24988.414842
538.354483	24537.337437
538.714821	25046.526742
539.075103	25082.213071
539.435328	24875.888726
539.795497	24421.774026
540.155609	24826.162784
540.515665	25118.529543
540.875665	24362.212793
541.235609	24644.701411
541.595496	24604.120122
541.955328	24969.684434
542.315102	24879.515836
542.674821	24429.988586
543.034483	24312.605319
543.394090	24474.927952
543.753640	24280.984681
544.113134	24908.384004
544.472571	24505.908363
544.831953	24793.233968
545.191278	24395.678493
545.550548	24335.819832
545.909761	24533.695203
546.268918	24772.910556
546.628019	24730.678289
546.987064	24435.241468
547.346053	24200.384193
547.704986	24312.549866
548.063863	24467.346057
548.422684	24481.567152
548.781449	24021.667727
549.140158	24419.994498
549.498811	23984.499300
549.857408	23745.868721
550.215949	24168.337578
550.574434	23858.228478
550.932864	24064.134407
551.291237	24222.270362
551.649555	24094.101546
552.007817	24150.368385
552.366022	24017.047510
552.724173	24050.409866
553.082267	23995.196628
553.440305	24466.725995
553.798288	23724.889959
554.156215	24249.162397
554.514086	24339.235214
554.871902	23709.706004
555.229661	23990.107584
555.587365	23857.633622
555.945014	23695.447100
556.302606	23972.791220
556.660143	23906.162290
557.017625	24170.119626
557.375050	23694.501884
557.732421	24082.532098
558.089735	23898.106526
558.446994	23965.196722
558.804197	23991.115814
559.161345	23940.795017
559.518437	23675.544625
559.875474	23893.183839
560.232455	24062.700199
560.589381	23891.873139
560.946251	23872.782290
561.303065	24188.356000
561.659825	24275.381439
562.016528	23875.491910
562.373177	23614.634883
562.729770	23983.985102
563.086307	23840.821374
563.442789	24000.751980
563.799216	23846.873279
564.155587	23851.967365
564.511904	23825.715557
564.868164	23764.677266
565.224370	23747.885183
565.580520	23650.275841
565.936615	23782.558239
566.292654	23467.740702
566.648638	23765.017544
567.004567	23601.114509
567.360441	23541.742319
567.716260	23268.668057
568.072023	23600.575105
568.427732	23357.629299
568.783385	23139.037306
569.138982	23370.189333
569.494525	23421.470471
569.850013	23150.634481
570.205445	23253.302620
570.560823	23058.658629
570.916145	22805.476759
571.271412	22989.546930
571.626625	22754.530858
571.981782	22861.899873
572.336884	22667.298732
572.691931	22802.036172
573.046923	22534.383670
573.401860	22420.166247
573.756743	22420.662801
574.111570	22325.942041
574.466342	22266.680757
574.821059	22355.009334
575.175722	22054.727964
575.530330	22045.094319
575.884882	22073.392836
576.239380	21974.349286
576.593823	21865.926670
576.948211	21834.275785
577.302544	21688.404958
577.656823	21566.759395
578.011047	21662.385042
578.365216	21528.665916
578.719330	21408.066392
579.073389	21305.627626
579.427394	21465.394394
579.781344	21222.519163
580.135239	21104.077254
580.489080	21072.166750
580.842866	20843.686534
581.196597	21043.122142
581.550273	21017.795385
581.903895	20900.301212
582.257463	21224.888506
582.610975	20746.619117
582.964434	21062.661654
583.317837	20761.077146
583.671186	20847.200218
584.024481	20814.881381
584.377721	20596.717887
584.730906	20652.725106
585.084037	20674.250833
585.437113	20580.626523
585.790135	20785.047833
586.143103	20243.045656
586.496016	20251.950854
586.848874	20509.203456
587.201679	20435.597568
587.554428	20105.540623
587.907124	20438.723084
588.259765	20224.905064
588.612352	20295.685385
588.964884	19867.275528
589.317362	20041.437311
589.669786	20082.139587
590.022155	20129.037441
590.374470	20319.739250
590.726731	20123.015783
591.078937	19878.635768
591.431090	19975.173864
591.783188	19721.545853
592.135232	19691.712304
592.487222	19781.364184
592.839157	19807.805036
593.191038	19694.633653
593.542866	19587.128526
593.894639	19300.899373
594.246358	19519.113279
594.598022	19427.565925
594.949633	19186.752526
595.301190	19141.901380
595.652692	19302.860382
596.004141	19548.780469
596.355535	18876.245176
596.706876	18899.031191
597.058162	18781.665568
597.409395	19003.473816
597.760573	19082.607329
598.111698	18858.205407
598.462768	18800.148958
598.813785	18761.246374
599.164748	18581.836750
599.515657	18619.736144
599.866511	18403.228669
600.217312	18774.378580
600.568060	18282.818189
600.918753	18601.850131
601.269392	18501.831118
601.619978	18288.003016
601.970510	18493.238471
602.320988	18439.391386
602.671412	18641.944948
603.021783	18554.624601
603.372100	18275.934493
603.722363	18422.122914
604.072572	18367.854893
604.422728	18509.496192
604.772830	18272.703114
605.122878	18209.928145
605.472872	18206.114513
605.822813	18189.834106
606.172701	18162.047266
606.522534	18357.545733
606.872314	18375.416623
607.222041	18211.702632
607.571714	18432.348894
607.921333	18265.204397
608.270899	18342.029061
608.620411	18516.576493
608.969870	18290.962173
609.319276	18287.004867
609.668627	18315.928487
610.017926	18447.351368
610.367171	18560.336229
610.716362	18611.264485
611.065500	18427.027956
611.414585	18550.188386
611.763616	18542.971974
612.112594	18494.647473
612.461518	18456.450651
612.810389	18649.428541
613.159207	18504.946551
613.507971	18406.696983
613.856682	18690.219037
614.205340	18617.550804
614.553945	18774.660884
614.902496	18508.283795
615.250994	18739.997911
615.599439	18693.336991
615.947830	18674.871244
616.296169	18721.075940
616.644454	18682.190999
616.992686	18666.823042
617.340864	18868.882570
617.688990	18630.504049
618.037063	18798.724832
618.385082	18646.214805
618.733048	18925.577907
619.080961	18804.648188
619.428821	18839.558178
619.776628	18723.049551
620.124382	18639.280698
620.472083	18689.833389
620.819731	18702.131283
621.167326	18399.336898
621.514868	18439.736705
621.862357	18202.764666
622.209793	18225.273418
622.557176	18050.168939
622.904506	17888.415956
623.251783	17781.601468
623.599007	17549.554636
623.946179	17494.338878
624.293297	17442.362061
624.640363	17181.827668
624.987376	17212.122482
625.334336	16995.554513
625.681243	16845.141606
626.028097	16852.995723
626.374899	16778.946215
626.721647	16648.622305
627.068343	16485.475443
627.414987	16418.110505
627.761577	16394.278450
628.108115	16432.853359
628.454600	16156.421688
628.801032	16254.409116
629.147412	16179.643763
629.493739	16190.578026
629.840014	16007.722773
630.186236	16112.603979
630.532405	15876.960283
630.878521	16075.100315
631.224585	15969.752802
631.570597	15791.369053
631.916556	15813.504759
632.262462	15797.332738
632.608316	15717.276694
632.954117	15662.002963
633.299866	15646.241795
633.645562	15566.679785
633.991206	15330.436192
634.336797	15191.910325
634.682336	15173.419373
635.027823	15049.664087
635.373257	14939.527479
635.718639	14832.100490
636.063968	14780.862202
636.409245	14538.206262
636.754470	14563.104521
637.099642	14411.708589
637.444762	14173.882074
637.789829	14230.262338
638.134845	14065.860229
638.479808	14099.464561
638.824719	14035.998954
639.169577	13898.055341
639.514383	13941.956229
639.859137	13758.576696
640.203839	13843.782279
640.548489	13678.329089
640.893086	13669.146627
641.237632	13533.000185
641.582125	13695.151419
641.926566	13517.856559
642.270955	13525.007436
642.615292	13491.156088
642.959576	13503.514476
643.303809	13529.788970
643.647990	13469.138848
643.992118	13528.158157
644.336195	13295.307261
644.680219	13510.337678
645.024192	13431.131069
645.368112	13661.647911
645.711981	13722.141757
646.055797	13907.736877
646.399562	13869.194735
646.743274	14142.221107
647.086935	14415.413837
647.430544	14383.498292
647.774101	14416.444753
648.117606	14562.870107
648.461059	14522.445095
648.804460	14522.273695
649.147810	14246.346140
649.491108	14149.601356
649.834354	14162.267255
650.177548	13844.450232
650.520690	13667.843489
650.863781	13592.884052
651.206820	13635.774189
651.549807	13468.695227
651.892742	13275.281277
652.235626	13204.760576
652.578458	13204.959702
652.921238	12898.477712
653.263967	13096.090943
653.606644	12920.714242
653.949269	12895.077454
654.291843	12696.473637
654.634365	12860.006147
654.976836	12711.350082
655.319255	12718.301833
655.661622	12668.996828
656.003938	12594.639808
656.346203	12518.818334
656.688416	12596.663832
657.030577	12550.975854
657.372687	12471.751601
657.714746	12444.562138
658.056753	12635.505922
658.398708	12457.941360
658.740612	12446.152622
659.082465	12547.505020
659.424266	12518.162984
659.766016	12545.425544
660.107715	12457.182666
660.449362	12528.646063
660.790958	12491.956546
661.132503	12436.839090
661.473996	12499.619099
661.815438	12516.882531
662.156829	12531.539686
662.498168	12511.349864
662.839456	12508.020182
663.180693	12532.686548
663.521879	12615.248045
663.863013	12590.382554
664.204097	12557.799056
664.545129	12695.876260
664.886110	12657.997030
665.227040	12748.352151
665.567918	12763.767999
665.908746	12785.800362
666.249522	12775.425667
666.590248	12823.538440
666.930922	12939.285853
667.271545	12914.269127
667.612118	13001.019823
667.952639	12901.585584
668.293109	12919.053182
668.633528	12866.741128
668.973896	12849.850742
669.314213	12928.979214
669.654480	12667.570181
669.994695	12734.398237
670.334859	12760.934871
670.674973	12703.165768
671.015035	12733.289183
671.355047	12684.490814
671.695008	12656.222544
672.034918	12661.795539
672.374777	12704.960419
672.714585	12615.555556
673.054342	12648.121409
673.394049	12601.861261
673.733705	12701.971015
674.073310	12604.686828
674.412864	12628.909572
674.752368	12486.822130
675.091820	12511.536387
675.431223	12498.207576
675.770574	12372.619831
676.109875	12287.850309
676.449125	12245.353382
676.788324	12186.525637
677.127473	12019.275276
677.466571	12008.265396
677.805619	11910.530026
678.144616	11827.605565
678.483562	11806.064715
678.822458	11667.231338
679.161303	11651.568473
679.500098	11637.352419
679.838842	11583.454923
680.177535	11612.852412
680.516179	11679.564521
680.854771	11618.848864
681.193314	11833.176040
681.531805	11998.546051
681.870247	12411.000656
682.208638	12818.734220
682.546978	13136.652067
682.885268	13187.320704
683.223508	12873.660112
683.561697	12719.229405
683.899836	12620.795835
684.237925	12420.757809
684.575963	12339.441477
684.913951	12262.503387
685.251889	12209.178062
685.589776	12313.048516
685.927614	12236.266702
686.265401	12197.013757
686.603137	12242.467321
686.940824	12390.132800
687.278460	12520.812110
687.616046	12562.479767
687.953582	12739.981315
688.291068	12663.655725
688.628504	12904.345615
688.965889	12903.602045
689.303224	12869.647353
689.640510	12764.067948
689.977745	12452.960700
690.314930	12226.070968
690.652065	12141.828246
690.989150	11853.648166
691.326185	11627.118877
691.663170	11421.066755
692.000105	11177.899137
692.336990	11059.048894
692.673825	10810.303240
693.010610	10693.287977
693.347345	10480.929371
693.684030	10284.856213
694.020665	10226.963602
694.357251	10037.164160
694.693786	9972.037493
695.030272	9811.930447
695.366707	9687.290439
695.703093	9619.865006
696.039429	9621.465572
696.375716	9540.363489
696.711952	9408.799456
697.048139	9447.765055
697.384276	9410.203418
697.720363	9421.611549
698.056400	9358.977733
698.392388	9315.185229
698.728326	9276.980845
699.064214	9211.264363
699.400053	9252.707689
699.735842	9067.349503
700.071581	9034.057723
700.407270	8955.645096
700.742910	8879.443014
701.078501	8787.973798
701.414042	8662.076022
701.749533	8598.935570
702.084974	8451.161707
702.420366	8567.738390
702.755709	8456.649003
703.091002	8318.460894
703.426246	8344.097682
703.761440	8289.605329
704.096584	8255.819516
704.431679	8186.105399
704.766725	8169.051176
705.101721	8122.773384
705.436668	8169.020929
705.771565	8064.003612
706.106413	8142.496898
706.441212	8183.080707
706.775961	8143.845407
707.110661	8182.190943
707.445311	8322.173703
707.779913	8222.089156
708.114465	8351.586316
708.448967	8386.352633
708.783421	8525.697687
709.117825	8715.058549
709.452180	8746.505267
709.786485	8831.317639
710.120742	9126.247824
710.454949	9115.744580
710.789107	9217.558244
711.123216	9431.015821
711.457275	9598.659392
711.791286	9757.669988
712.125247	9747.862423
712.459159	9739.378161
712.793023	9985.683897
713.126837	9561.470800
713.460602	9715.505777
713.794318	9544.184684
714.127985	9581.832021
714.461602	9254.066280
714.795171	9202.235657
715.128691	8949.797357
715.462162	8701.462557
715.795584	8649.263930
716.128957	8495.261721
716.462281	8338.512083
716.795556	8387.312973
717.128782	8175.632402
717.461960	7910.540807
717.795088	7986.387487
718.128167	7888.344606
718.461198	7723.022487
718.794180	7661.472519
719.127113	7658.437744
719.459997	7502.134248
719.792833	7269.575739
720.125619	7336.378589
720.458357	7192.113369
720.791046	7182.532656
721.123686	7173.723240
721.456278	7019.574838
721.788821	7041.405554
722.121315	6932.531755
722.453761	6996.955180
722.786158	6939.433094
723.118506	6954.213757
723.450805	6920.092708
723.783056	6986.683829
724.115259	6894.602113
724.447412	6887.899899
724.779518	6937.421674
725.111574	6940.254803
725.443582	7026.004829
725.775542	7004.337950
726.107453	7194.686878
726.439315	7105.208918
726.771129	7163.071282
727.102895	7333.424473
727.434612	7446.172400
727.766281	7473.601318
728.097901	7556.031745
728.429473	7540.121863
728.760996	7524.501848
729.092471	7496.583938
729.423897	7449.940662
729.755276	7459.854091
730.086606	7387.276599
730.417887	7488.976837
730.749120	7679.981115
731.080305	7883.356385
731.411442	7999.242429
731.742530	7993.374526
732.073570	8100.196576
732.404562	8189.188065
732.735506	8030.822737
733.066401	8178.364708
733.397249	8108.045653
733.728048	7866.198817
734.058798	7533.956532
734.389501	7303.785009
734.720156	7135.349977
735.050762	6897.755355
735.381320	6805.013248
735.711831	6749.729434
736.042293	6639.597867
736.372707	6662.018398
736.703073	6521.468508
737.033391	6561.747328
737.363661	6573.417599
737.693883	6604.831549
738.024056	6682.336769
738.354182	6731.356949
738.684260	6765.137721
739.014290	6883.065433
739.344272	6988.859087
739.674207	7019.423603
740.004093	7084.840136
740.333931	7101.417970
740.663722	7114.484641
740.993464	7184.607091
741.323159	7178.151894
741.652806	6927.437669
741.982405	6946.168076
742.311956	6997.653380
742.641460	6830.481157
742.970915	6637.331868
743.300323	6636.356405
743.629683	6578.486479
743.958996	6442.884482
744.288260	6360.378437
744.617477	6306.672505
744.946647	6307.660571
745.275768	6138.497092
745.604842	6092.405822
745.933869	6077.547021
746.262847	6040.456732
746.591778	6026.437283
746.920662	5984.293237
747.249498	5978.357278
747.578286	6027.359814
747.907027	6098.727429
748.235720	6161.885525
748.564365	6130.569878
748.892963	6163.617162
749.221514	6313.377239
749.550017	6141.980529
749.878473	6020.750862
750.206881	6074.726496
750.535242	6017.718608
750.863555	5948.861487
751.191821	5969.537780
751.520039	5972.365867
751.848210	5874.905240
752.176334	5897.983642
752.504411	5948.107835
752.832440	5873.239138
753.160421	5801.944620
753.488356	5845.137226
753.816243	5883.495366
754.144082	5733.760494
754.471875	5704.073139
754.799620	5747.545529
755.127318	5759.165388
755.454969	5712.010435
755.782572	5675.378891
756.110129	5719.244491
756.437638	5703.818560
756.765100	5646.175487
757.092515	5646.677082
757.419882	5694.782292
757.747203	5676.724879
758.074477	5740.480352
758.401703	5725.117435
758.728882	5674.894940
759.056014	5732.837962
759.383099	5860.537951
759.710138	5875.011104
760.037129	5858.493763
760.364073	5860.043918
760.690970	5947.467608
761.017820	5925.354587
761.344623	5886.235233
761.671379	5984.699050
761.998088	6103.914777
762.324751	6345.534760
762.651366	6950.826102
762.977935	8268.477853
763.304456	9900.755578
763.630931	10799.552979
763.957359	10403.247711
764.283740	9460.768711
764.610074	8622.235783
764.936362	7627.164946
765.262602	7025.863677
765.588796	6490.785526
765.914943	6157.925699
766.241044	5988.951263
766.567097	5787.809225
766.893104	5526.866499
767.219064	5353.034911
767.544978	5285.624602
767.870845	5211.570052
768.196665	5104.193475
768.522438	5032.036919
768.848165	4999.148432
769.173846	4929.721661
769.499479	4888.890835
769.825066	4834.799255
770.150607	4774.227271
770.476101	4750.337242
770.801548	4747.690637
771.126949	4675.289585
771.452303	4618.170792
771.777611	4576.432558
772.102872	4595.596505
772.428087	4557.382038
772.753256	4516.833517
773.078378	4469.093790
773.403453	4402.290940
773.728482	4387.752252
774.053465	4339.669727
774.378401	4331.687060
774.703291	4331.021627
775.028135	4259.585957
775.352932	4207.180642
775.677683	4196.460628
776.002388	4216.771437
776.327046	4223.501378
776.651658	4151.680059
776.976224	4089.996500
777.300743	4096.315587
777.625216	4118.448773
777.949643	4110.503914
778.274024	4069.446237
778.598359	4020.529400
778.922647	4050.486457
779.246889	4038.763254
779.571086	4031.151111
779.895236	4013.965818
780.219339	4004.334693
780.543397	3993.617200
780.867409	4047.802042
781.191374	4061.488775
781.515294	4001.786390
781.839167	3995.434536
782.162995	4015.440355
782.486776	3998.834795
782.810511	4010.371475
783.134201	4006.134385
783.457844	3960.953044
783.781441	3903.410793
784.104993	3911.421187
784.428498	3930.948096
784.751958	3926.020368
785.075372	3903.617481
785.398739	3868.984754
785.722061	3878.648646
786.045337	3924.434926
786.368568	3953.436684
786.691752	3866.076008
787.014891	3919.726488
787.337983	4047.045869
787.661030	4206.411866
787.984031	4369.198285
788.306987	4538.139954
788.629897	4617.099546
788.952760	4574.363165
789.275579	4509.637270
789.598351	4443.759471
789.921078	4301.787976
790.243759	4100.298098
790.566395	4083.306889
790.888984	4077.615426
791.211529	3970.110300
791.534027	3909.192997
791.856480	3896.398548
792.178888	3838.016946
792.501249	3791.988691
792.823566	3802.305412
793.145836	3828.915142
793.468062	3779.022843
793.790241	3734.154053
794.112375	3762.308897
794.434464	3823.800892
794.756507	3847.935416
795.078505	3830.679546
795.400457	3865.914691
795.722364	4001.113396
796.044226	4103.116103
796.366042	4180.916230
796.687812	4159.869413
797.009538	4165.560876
797.331218	4126.968323
797.652852	4097.777521
797.974442	4079.631888
798.295986	4075.651897
798.617484	3993.261799
798.938938	3909.513110
799.260346	3948.987865
799.581709	3941.842030
799.903026	3873.385681
800.224299	3836.350844
800.545526	3824.516736
800.866708	3791.053557
801.187845	3729.402766
801.508936	3766.616563
801.829983	3760.405862
802.150984	3685.640509
802.471940	3671.416893
802.792851	3682.182277
803.113717	3686.048842
803.434538	3684.861651
803.755314	3628.481386
804.076045	3602.257304
804.396731	3622.036271
804.717372	3647.002585
805.037967	3631.992550
805.358518	3625.464256
805.679024	3647.947802
805.999485	3663.648475
806.319901	3670.600227
806.640272	3680.521217
806.960598	3694.669216
807.280879	3671.217768
807.601115	3681.163964
807.921306	3697.343548
808.241453	3740.057244
808.561554	3717.717371
808.881611	3646.238851
809.201623	3686.973894
809.521590	3697.280533
809.841513	3670.101152
810.161390	3697.736758
810.481223	3678.570291
810.801011	3621.567444
811.120755	3615.528141
811.440453	3649.510559
811.760107	3653.293945
812.079716	3610.199642
812.399281	3580.338367
812.718801	3603.288220
813.038276	3577.432142
813.357707	3574.639342
813.677093	3590.690376
813.996434	3537.531409
814.315731	3546.454251
814.634983	3552.120508
814.954191	3563.780697
815.273354	3593.447887
815.592473	3593.460490
815.911547	3598.675564
816.230577	3637.585710
816.549562	3688.103113
816.868502	3729.160790
817.187399	3754.716920
817.506250	3750.873040
817.825058	3725.894123
818.143821	3813.216989
818.462539	3920.885953
818.781213	3967.042758
819.099843	4019.977394
819.418429	4268.362606
819.736970	4511.179863
820.055466	4757.558695
820.373919	5124.169047
820.692327	5529.666860
821.010691	5976.141691
821.329011	7366.728856
821.647286	10121.568198
821.965517	14679.431667
822.283704	18699.479637
822.601847	20848.783141
822.919945	19022.330252
823.237999	16457.141638
823.556010	13967.282986
823.873976	11872.986032
824.191897	9778.386609
824.509775	8425.807224
824.827609	7301.939947
825.145398	6759.151351
825.463144	6646.695811
825.780845	6755.695640
826.098502	6943.314783
826.416116	7825.332704
826.733685	9159.655551
827.051210	10266.350137
827.368692	10303.049737
827.686129	9041.800936
828.003522	7528.837240
828.320872	6512.749833
828.638177	5805.896885
828.955439	5252.574797
829.272656	4750.324640
829.589830	4461.937872
829.906960	4288.721305
830.224046	4106.849078
830.541088	3979.801918
830.858086	3928.687139
831.175041	3854.897249
831.491952	3839.325125
831.808819	3850.634954
832.125642	3924.399637
832.442421	4069.741144
832.759157	4346.190459
833.075849	4902.249893
833.392497	5768.617552
833.709101	6542.737137
834.025662	6882.125258
834.342179	6513.014493
834.658653	5848.466908
834.975083	5198.573957
835.291469	4621.344198
835.607811	4214.054255
835.924110	4073.993357
836.240366	3872.329559
836.556578	3669.740710
836.872746	3558.227866
837.188871	3518.853934
837.504952	3452.645940
837.820990	3370.041593
838.136984	3325.775221
838.452935	3349.670290
838.768842	3344.412367
839.084706	3366.956407
839.400526	3526.130840
839.716303	3867.487531
840.032037	4392.032192
840.347727	4658.820136
840.663373	4378.857136
840.978977	3994.048219
841.294537	3686.404244
841.610054	3457.049388
841.925527	3353.166331
842.240957	3280.165382
842.556344	3226.393914
842.871687	3168.864267
843.186987	3118.135135
843.502244	3081.243972
843.817458	3047.750545
844.132629	3014.877181
844.447756	3024.140301
844.762840	3008.091788
845.077881	2976.924854
845.392879	2959.222843
845.707833	2956.858542
846.022745	2953.667491
846.337613	2956.813171
846.652438	2945.460493
846.967221	2943.083589
847.281960	2927.682864
847.596656	2923.753284
847.911309	2922.709765
848.225919	2916.002510
848.540485	2909.822056
848.855009	2913.192067
849.169490	2901.635222
849.483928	2892.445198
849.798323	2892.107441
850.112675	2888.326576
850.426984	2903.049265
850.741251	2899.480128
851.055474	2887.154507
851.369654	2880.800133
851.683792	2887.119219
851.997887	2894.265055
852.311938	2896.079870
852.625947	2888.011503
852.939914	2887.514950
853.253837	2890.310270
853.567718	2878.135883
853.881555	2877.089844
854.195350	2891.593243
854.509103	2887.986298
854.822812	2880.023795
855.136479	2879.048332
855.450103	2879.494474
855.763685	2872.479708
856.077224	2868.436703
856.390720	2883.091337
856.704173	2891.023593
857.017584	2881.316851
857.330953	2882.781306
857.644278	2889.596946
857.957561	2897.995509
858.270802	2904.886766
858.584000	2902.424162
858.897155	2888.674415
859.210268	2892.200702
859.523339	2887.638458
859.836367	2886.574775
860.149352	2881.117726
860.462295	2877.036912
860.775195	2881.715102
861.088054	2882.322561
861.400869	2866.934439
861.713642	2863.637525
862.026373	2876.424411
862.339062	2882.872047
862.651708	2886.743653
862.964312	2888.510578
863.276873	2883.290463
863.589392	2894.491907
863.901869	2906.300810
864.214303	2928.383584
864.526696	2945.354628
864.839045	2936.630912
865.151353	2936.472115
865.463619	2937.629060
865.775842	2937.883638
866.088023	2959.235446
866.400162	2962.852473
866.712258	2934.523709
867.024313	2922.540887
867.336325	2932.756785
867.648296	2952.634055
867.960224	2946.766152
868.272110	2932.918102
868.583954	2937.707198
868.895755	2952.437450
869.207515	2937.190480
869.519233	2942.156016
869.830909	2953.901905
870.142542	2964.954635
870.454134	2960.745271
870.765684	2963.674182
871.077191	2963.578400
871.388657	2974.590800
871.700081	2988.433809
872.011463	2996.605519
872.322803	2997.054182
872.634101	2997.028976
872.945357	3013.992459
873.256571	3038.774771
873.567744	3031.177752
873.878874	3025.755991
874.189963	3048.547048
874.501010	3050.273643
874.812015	3042.394319
875.122979	3040.541695
875.433900	3036.423073
875.744780	3047.206101
876.055618	3049.905639
876.366415	3048.065618
876.677169	3058.571382
876.987882	3055.536608
877.298554	3049.194836
877.609183	3069.414904
877.919771	3095.853235
878.230317	3125.507823
878.540822	3172.879546
878.851285	3211.278014
879.161707	3252.633120
879.472087	3357.867207
879.782425	3585.576126
880.092722	4028.441491
880.402977	4555.020257
880.713191	5186.548285
881.023363	6347.520974
881.333494	7622.456508
881.643583	8163.652100
881.953631	7870.834158
882.263637	7236.543579
882.573602	6655.142264
882.883526	6078.479635
883.193408	5502.210215
883.503248	5041.065626
883.813048	4741.275768
884.122806	4437.475673
884.432522	4120.724853
884.742197	3885.154255
885.051831	3689.610418
885.361424	3554.452042
885.670975	3483.122236
885.980485	3396.878176
886.289954	3319.733398
886.599382	3274.337808
886.908768	3238.175091
887.218113	3191.196578
887.527417	3136.074081
887.836680	3083.388982
888.145901	3080.825556
888.455082	3067.693350
888.764221	3019.492357
889.073319	2991.327431
889.382376	2987.544045
889.691392	2992.552431
890.000366	2987.438181
890.309300	2974.245481
890.618193	2993.515292
890.927044	3005.377127
891.235855	3007.696058
891.544625	2995.057885
891.853353	3005.172960
892.162041	3022.948068
892.470687	3060.943245
892.779293	3114.185391
893.087858	3160.679953
893.396381	3233.103690
893.704864	3354.905529
894.013306	3591.940582
894.321707	3899.009866
894.630068	4101.530660
894.938387	4103.342955
895.246665	4054.426119
895.554903	3931.288374
895.863100	3735.149681
896.171256	3564.529308
896.479371	3423.618976
896.787446	3302.906027
897.095480	3198.153370
897.403473	3132.693988
897.711425	3097.025304
898.019336	3090.149170
898.327207	3057.621125
898.635038	3023.706762
898.942827	3011.134124
899.250576	2997.830519
899.558284	2964.261476
899.865952	2945.170626
900.173579	2924.504416
900.481165	2918.555855
900.788711	2905.106056
901.096216	2880.641337
901.403681	2865.588451
901.711105	2878.188815
902.018489	2875.320399
902.325832	2874.286962
902.633135	2882.499002
902.940397	2916.229362
903.247619	3001.618947
903.554800	3194.049871
903.861941	3539.641132
904.169041	3971.541988
904.476101	4268.254221
904.783121	4220.874936
905.090100	3976.411742
905.397039	3700.922767
905.703938	3452.000672
906.010796	3269.599123
906.317614	3151.830208
906.624391	3059.607339
906.931129	2988.443891
907.237826	2924.532143
907.544483	2880.401882
907.851099	2847.752849
908.157675	2826.912719
908.464211	2807.718526
908.770707	2792.993315
909.077163	2779.306582
909.383578	2764.110024
909.689954	2754.269692
909.996289	2753.364805
910.302584	2754.115937
910.608839	2755.885382
910.915054	2749.001686
911.221229	2740.537589
911.527363	2746.292066
911.833458	2750.942530
912.139513	2755.595515
912.445527	2759.414189
912.751502	2768.276538
913.057436	2779.999741
913.363331	2792.915177
913.669186	2813.629278
913.975000	2846.696727
914.280775	2906.439441
914.586510	2975.503249
914.892205	3058.223542
915.197859	3186.659540
915.503475	3381.805126
915.809050	3596.028958
916.114585	3740.387440
916.420081	3758.913680
916.725536	3700.166594
917.030952	3581.717122
917.336328	3455.053091
917.641665	3320.050991
917.946961	3220.578943
918.252218	3150.529590
918.557435	3070.607137
918.862612	3010.587159
919.167750	2964.601754
919.472848	2923.891916
919.777906	2897.448543
920.082925	2872.078937
920.387904	2837.738597
920.692843	2823.638489
920.997743	2813.359577
921.302603	2799.052782
921.607423	2786.820422
921.912204	2776.120573
922.216946	2764.422576
922.521647	2755.802203
922.826310	2747.829618
923.130932	2740.880387
923.435516	2730.528378
923.740059	2722.863303
924.044564	2718.568240
924.349028	2712.642364
924.653454	2705.602393
924.957840	2699.782381
925.262186	2693.354909
925.566493	2691.504806
925.870761	2686.854342
926.174989	2684.240503
926.479178	2675.385717
926.783328	2670.639470
927.087438	2672.003102
927.391509	2671.224244
927.695541	2667.652587
927.999533	2664.370795
928.303486	2659.337203
928.607400	2659.319559
928.911275	2659.100269
929.215110	2657.590443
929.518906	2658.744868
929.822663	2658.598674
930.126381	2656.519198
930.430060	2657.829898
930.733699	2658.351658
931.037299	2662.959272
931.340861	2663.120589
931.644383	2661.494817
931.947866	2660.327790
932.251309	2659.352327
932.554714	2654.885864
932.858080	2657.388797
933.161407	2652.571975
933.464694	2653.696152
933.767943	2651.951913
934.071153	2651.261275
934.374323	2650.192550
934.677455	2652.337561
934.980548	2649.302787
935.283602	2646.106695
935.586617	2648.644916
935.889593	2651.311686
936.192530	2649.398568
936.495428	2651.135246
936.798287	2650.555513
937.101108	2655.158087
937.403890	2659.748057
937.706632	2662.992040
938.009336	2667.559325
938.312002	2677.218176
938.614628	2687.413910
938.917216	2693.274251
939.219765	2693.402800
939.522275	2693.584282
939.824747	2691.305680
940.127179	2690.529343
940.429573	2683.756552
940.731929	2683.779238
941.034246	2680.396623
941.336524	2676.971159
941.638763	2673.200376
941.940964	2671.869512
942.243126	2669.232988
942.545250	2667.912206
942.847335	2667.849192
943.149381	2663.513799
943.451389	2658.084477
943.753359	2657.724034
944.055290	2654.653971
944.357182	2652.720689
944.659036	2652.791265
944.960851	2648.392858
945.262628	2650.222797
945.564367	2651.173055
945.866067	2651.760349
946.167729	2652.403096
946.469352	2651.851090
946.770937	2651.334372
947.072484	2650.913435
947.373992	2652.120792
947.675462	2646.283135
947.976893	2643.621406
948.278286	2643.865902
948.579641	2643.029071
948.880958	2639.618730
949.182236	2644.236427
949.483476	2640.004378
949.784678	2643.664256
950.085841	2641.824235
950.386967	2641.970428
950.688054	2643.321457
950.989103	2645.743732
951.290114	2648.039977
951.591087	2649.428815
951.892021	2649.385966
952.192917	2651.727582
952.493776	2655.957110
952.794596	2655.148004
953.095378	2652.128353
953.396122	2652.360246
953.696828	2652.934938
953.997496	2651.115081
954.298126	2647.296407
954.598718	2644.763227
954.899272	2643.785244
955.199788	2639.953967
955.500266	2640.052269
955.800706	2637.120838
956.101108	2634.012967
956.401472	2633.481125
956.701798	2630.022894
957.002087	2628.598768
957.302337	2627.782101
957.602550	2627.603140
957.902724	2624.207923
958.202861	2621.921759
958.502960	2625.158180
958.803022	2621.992336
959.103045	2622.065432
959.403031	2621.440329
959.702979	2617.178034
960.002889	2619.794393
960.302762	2617.921604
960.602596	2618.466048
960.902393	2616.996552
961.202153	2618.909670
961.501875	2616.459669
961.801559	2615.872375
962.101205	2617.596449
962.400814	2619.121398
962.700385	2613.205604
962.999918	2614.753239
963.299414	2615.274998
963.598873	2612.467075
963.898293	2612.076386
964.197677	2614.680142
964.497022	2614.564195
964.796331	2613.961777
965.095601	2614.836418
965.394835	2613.815584
965.694030	2613.462703
965.993189	2613.024123
966.292309	2614.120574
966.591393	2614.697786
966.890439	2612.532610
967.189447	2615.690893
967.488419	2614.685183
967.787353	2615.249792
968.086249	2616.273147
968.385108	2611.398351
968.683930	2613.553444
968.982714	2615.542179
969.281462	2614.392796
969.580172	2613.692076
969.878844	2613.072014
970.177480	2615.741305
970.476078	2611.610079
970.774639	2615.441356
971.073162	2613.979422
971.371649	2612.336005
971.670098	2615.254833
971.968510	2615.070831
972.266885	2614.473455
972.565223	2613.276181
972.863524	2616.502519
973.161788	2613.389607
973.460014	2614.118053
973.758204	2612.666201
974.056356	2615.408589
974.354471	2615.244751
974.652550	2616.482354
974.950591	2618.728188
975.248595	2615.080914
975.546563	2612.683845
975.844493	2615.698455
976.142386	2614.405399
976.440243	2615.395986
976.738062	2613.765172
977.035845	2612.028495
977.333590	2614.150821
977.631299	2613.644185
977.928971	2608.212342
978.226606	2608.953391
978.524204	2609.505397
978.821765	2605.636312
979.119290	2609.737291
979.416777	2610.208638
979.714228	2611.418515
980.011642	2611.358022
980.309020	2615.169134
980.606360	2611.158896
980.903664	2611.295007
981.200931	2610.531272
981.498162	2614.697786
981.795356	2615.595111
982.092513	2614.264247
982.389633	2616.636110
982.686717	2621.712552
982.983764	2624.152470
983.280775	2626.665485
983.577749	2630.658079
983.874686	2630.222019
984.171587	2626.930146
984.468451	2622.448560
984.765279	2622.448560
985.062070	2618.420678
985.358824	2615.925307
985.655543	2616.255502
985.952224	2616.794906
986.248869	2609.442383
986.545478	2613.326592
986.842050	2613.187960
987.138586	2613.195522
987.435086	2609.702003
987.731549	2609.210490
988.027975	2611.332816
988.324366	2609.543206
988.620719	2609.031529
988.917037	2612.988835
989.213318	2610.216200
989.509563	2608.401385
989.805772	2609.258381
990.101944	2608.330809
990.398080	2609.467589
990.694180	2607.700664
990.990244	2609.213011
991.286271	2608.474482
991.582262	2612.184771
991.878217	2610.934565
992.174136	2607.680500
992.470019	2609.394492
992.765865	2607.627568
993.061676	2602.440220
993.357450	2606.818462
993.653188	2602.709922
993.948890	2608.383741
994.244556	2609.754935
994.540186	2610.185953
994.835780	2608.330809
995.131337	2610.246447
995.426859	2609.480192
995.722345	2612.378855
996.017795	2613.596294
996.313208	2612.285594
996.608586	2612.845162
996.903928	2611.521859
997.199234	2613.828187
997.494504	2614.468413
997.789738	2612.557816
998.084936	2610.170830
998.380099	2612.746859
998.675225	2611.451283
998.970316	2610.937085
999.265371	2609.215531
999.560390	2608.925665
999.855373	2609.850717
1000.150320	2608.845006
1000.445232	2608.056066
1000.740108	2609.142434
1001.034948	2607.350304
1001.329752	2604.615478
1001.624521	2606.763010
1001.919254	2609.149996
1002.213951	2609.331478
1002.508613	2607.302413
1002.803239	2609.001282
1003.097829	2607.776282
1003.392384	2608.406426
1003.686903	2606.664707
1003.981386	2608.832403
1004.275834	2606.989862
1004.570246	2606.737804
1004.864623	2606.581528
1005.158964	2606.284100
1005.453270	2606.604213
1005.747540	2604.287803
1006.041775	2606.135386
1006.335974	2608.154368
1006.630138	2605.175046
1006.924266	2607.413319
1007.218359	2605.074223
1007.512416	2601.152206
1007.806438	2602.367124
1008.100425	2599.980137
1008.394376	2600.887545
1008.688292	2605.417022
1008.982172	2607.355345
1009.276017	2603.324943
1009.569827	2604.595314
1009.863602	2605.727053
1010.157341	2604.368462
1010.451045	2607.201590
1010.744714	2604.885180
1011.038347	2605.386775
1011.331945	2606.248812
1011.625508	2605.752258
1011.919036	2604.232351
1012.212528	2606.326950
1012.505986	2605.220417
1012.799408	2606.163112
1013.092795	2604.315530
1013.386147	2604.141610
1013.679464	2604.678493
1013.972745	2605.439707
1014.265992	2605.157402
1014.559204	2604.953236
1014.852380	2603.995416
1015.145521	2606.261415
1015.438628	2606.165633
1015.731699	2604.489449
1016.024736	2603.503904
1016.317737	2605.419542
1016.610703	2605.394337
1016.903635	2605.419542
1017.196531	2604.446600
1017.489393	2602.818307
1017.782219	2603.266970
1018.075011	2607.088164
1018.367768	2604.880139
1018.660490	2605.669079
1018.953177	2605.669079
1019.245829	2605.669079
