Dividing Wavelength (nm)	Counts (n)	Blue Motor Position (mm): 43.800000	Red Motor Position (mm): 0.000000	
326.493990	2261.083529
326.888308	2261.083529
327.282561	2261.083529
327.676750	2220.852601
328.070874	2218.999977
328.464933	2220.638352
328.858929	2222.755636
329.252859	2231.088663
329.646726	2236.671741
330.040528	2250.676067
330.434265	2262.439599
330.827938	2280.628082
331.221547	2301.218675
331.615091	2314.280305
332.008571	2335.604386
332.401986	2352.497292
332.795338	2369.763244
333.188625	2390.651265
333.581847	2412.547517
333.975006	2429.939497
334.368100	2449.965481
334.761129	2467.506176
335.154095	2483.763897
335.546996	2512.997548
335.939833	2551.650595
336.332606	2566.832030
336.725315	2580.458269
337.117960	2594.273551
337.510540	2604.902824
337.903056	2612.945985
338.295508	2621.936883
338.687896	2631.701598
339.080220	2640.072434
339.472480	2644.738022
339.864676	2651.500730
340.256807	2654.341420
340.648875	2661.177224
341.040879	2660.564724
341.432818	2665.242915
341.824694	2666.843481
342.216506	2667.879438
342.608253	2670.505880
342.999937	2672.134172
343.391557	2669.588390
343.783113	2670.798267
344.174605	2667.292144
344.566033	2670.120231
344.957397	2666.140240
345.348697	2665.333656
345.739934	2662.591268
346.131106	2663.836433
346.522215	2659.710249
346.913260	2659.538849
347.304241	2656.219250
347.695159	2656.385608
348.086012	2653.870072
348.476802	2648.453352
348.867528	2647.848414
349.258191	2643.722229
349.648789	2645.602580
350.039324	2642.988741
350.429796	2642.179636
350.820203	2642.824904
351.210548	2644.337250
351.600828	2642.933289
351.991045	2639.175108
352.381198	2638.867598
352.771288	2640.473206
353.161314	2638.461785
353.551276	2638.842392
353.941175	2637.498925
354.331010	2639.802732
354.720782	2638.182001
355.110490	2638.688637
355.500135	2638.320633
355.889717	2640.500932
356.279235	2635.648821
356.668689	2638.703761
357.058080	2639.626292
357.447408	2639.051600
357.836672	2637.481281
358.225873	2639.117135
358.615010	2637.319964
359.004084	2638.000520
359.393095	2639.739718
359.782043	2642.600572
360.170927	2641.304996
360.559748	2643.691982
360.948505	2645.128711
361.337199	2647.245996
361.725830	2644.541417
362.114398	2647.119967
362.502903	2645.325316
362.891344	2647.240955
363.279722	2645.390851
363.668037	2647.639206
364.056289	2651.193219
364.444478	2649.564927
364.832603	2651.742705
365.220665	2651.959475
365.608665	2651.725061
365.996601	2653.688590
366.384474	2653.131543
366.772284	2654.127171
367.160031	2653.812099
367.547715	2652.846718
367.935336	2655.188334
368.322893	2653.691111
368.710388	2653.343271
369.097820	2652.897129
369.485189	2652.113230
369.872495	2656.650268
370.259738	2659.780825
370.646918	2655.856287
371.034035	2659.460712
371.421090	2658.878458
371.808081	2660.005156
372.195010	2659.712769
372.581875	2661.532626
372.968678	2660.947852
373.355418	2661.215033
373.742096	2660.226967
374.128710	2662.941628
374.515262	2663.972544
374.901751	2663.102945
375.288177	2666.097391
375.674540	2666.062102
376.060841	2667.518996
376.447079	2667.322391
376.833254	2669.991682
377.219367	2671.814059
377.605417	2672.025787
377.991404	2676.535100
378.377329	2684.822757
378.763191	2688.636389
379.148991	2703.396888
379.534727	2715.006665
379.920402	2732.335632
380.306013	2744.383989
380.691563	2769.539347
381.077049	2789.847635
381.462474	2815.469300
381.847835	2850.908611
382.233134	2887.275495
382.618371	2918.936462
383.003545	2965.655355
383.388657	3002.493587
383.773706	3054.530897
384.158693	3094.509768
384.543618	3133.888741
384.928480	3191.393183
385.313280	3249.873088
385.698017	3292.009573
386.082692	3373.731718
386.467305	3403.187180
386.851856	3460.089204
387.236344	3546.098850
387.620770	3588.794902
388.005133	3658.685459
388.389435	3720.484964
388.773674	3758.737240
389.157851	3843.105991
389.541965	3928.054474
389.926018	3926.211932
390.310008	4040.983882
390.693936	4108.326136
391.077802	4164.545083
391.461606	4183.104091
391.845348	4262.706431
392.229027	4338.409438
392.612645	4361.039178
392.996200	4470.724603
393.379694	4545.880645
393.763125	4656.786030
394.146494	4697.649623
394.529801	4766.814254
394.913047	4856.060321
395.296230	4821.341894
395.679351	4930.429943
396.062410	4996.829501
396.445408	4973.345286
396.828343	5042.482190
397.211217	5100.624338
397.594028	4992.431094
397.976778	5110.247901
398.359466	5156.003934
398.742092	5182.182646
399.124656	5102.439153
399.507158	5223.389037
399.889598	5284.374396
400.271977	5411.839971
400.654294	5408.129682
401.036549	5449.923367
401.418742	5374.490062
401.800874	5579.128141
402.182944	5631.924145
402.564952	5742.143933
402.946898	5803.416637
403.328783	5644.456453
403.710606	5658.138145
404.092367	5983.859698
404.474067	6001.513818
404.855705	5907.332462
405.237282	5835.001986
405.618797	6090.074289
406.000250	6071.495116
406.381642	6273.542042
406.762972	6293.293282
407.144240	6355.254104
407.525447	6333.735939
407.906593	6354.994485
408.287677	6513.052302
408.668700	6428.050887
409.049661	6550.225771
409.430560	6574.982877
409.811399	6434.291835
410.192176	6704.404420
410.572891	6708.943979
410.953545	6911.116933
411.334138	6639.953268
411.714669	6815.463560
412.095139	6604.798782
412.475547	6856.296906
412.855894	6919.374343
413.236180	7099.991324
413.616405	6778.947962
413.996568	6994.956363
414.376670	7030.546909
414.756711	6930.018740
415.136691	7021.253542
415.516609	7230.831951
415.896466	7215.622790
416.276262	7419.320694
416.655997	7401.684217
417.035670	7587.128102
417.415283	7928.129392
417.794834	7982.450346
418.174324	7842.820467
418.553753	7768.730628
418.933121	8068.964107
419.312428	8169.681320
419.691674	7948.175541
420.070859	8426.202954
420.449983	8110.422557
420.829045	8468.369686
421.208047	8244.159327
421.586988	8546.379021
421.965867	8564.348214
422.344686	8669.927619
422.723444	8722.852173
423.102141	8074.882422
423.480777	8830.294285
423.859352	8361.872790
424.237866	8973.836099
424.616319	8841.485646
424.994712	9265.214792
425.373044	8811.742839
425.751314	9288.925859
426.129524	9163.728803
426.507673	9264.188917
426.885762	9422.029964
427.263789	9333.724073
427.641756	9271.738045
428.019662	9363.832364
428.397508	9616.623544
428.775292	9289.006517
429.153016	9672.913068
429.530679	9503.984003
429.908282	9526.054174
430.285824	9254.726671
430.663305	9939.453995
431.040726	9386.903204
431.418086	9364.795224
431.795385	9697.695380
432.172624	9800.020721
432.549802	9704.170742
432.926920	9781.486919
433.303977	9652.773658
433.680974	9855.314617
434.057910	9950.327764
434.434786	10028.647130
434.811601	9847.745324
435.188355	10414.285317
435.565050	10151.449638
435.941683	10074.289737
436.318257	10564.052957
436.694770	10719.176822
437.071222	10769.424523
437.447614	10609.367889
437.823946	10524.865547
438.200218	10632.204316
438.576429	10463.638213
438.952580	10712.456964
439.328670	10753.436504
439.704700	10538.320387
440.080670	10528.611125
440.456580	11067.792775
440.832429	10839.942704
441.208218	10440.353124
441.583947	10745.839485
441.959616	10919.391288
442.335224	10729.145704
442.710773	10846.763385
443.086261	11067.351674
443.461689	10336.603657
443.837057	11018.303768
444.212365	11259.593556
444.587612	10899.186344
444.962800	11119.663728
445.337927	10868.052178
445.712995	10518.175936
446.088002	11569.599312
446.462949	11251.285734
446.837837	11223.332536
447.212664	11168.323465
447.587431	11735.652399
447.962139	12477.120430
448.336786	14765.842085
448.711374	15269.413025
449.085901	13094.523144
449.460369	12736.971746
449.834776	12176.836539
450.209124	13095.067589
450.583412	13518.963092
450.957640	14452.942707
451.331808	13521.713042
451.705917	12573.088876
452.079965	11825.941985
452.453954	12748.369795
452.827883	12391.952656
453.201752	12684.846215
453.575562	12219.721635
453.949311	12634.699337
454.323001	12607.958537
454.696632	12851.912574
455.070202	13124.432310
455.443713	13335.918796
455.817164	13822.488445
456.190556	13788.894196
456.563888	14159.678623
456.937160	14310.643536
457.310373	13661.554649
457.683526	13755.642745
458.056619	13293.689050
458.429653	13489.058968
458.802628	12864.669214
459.175542	13270.318261
459.548398	14216.439494
459.921194	14581.671091
460.293930	14655.471062
460.666607	15495.407952
461.039224	16562.284984
461.411782	17274.872245
461.784280	17078.403356
462.156719	17167.528435
462.529099	16844.355186
462.901419	15798.023376
463.273680	15566.110134
463.645882	15453.513442
464.018024	15176.592779
464.390106	15413.103553
464.762130	16128.188706
465.134094	16921.353770
465.505999	18965.556778
465.877845	22239.158577
466.249631	25035.516862
466.621358	24672.412633
466.993026	23247.689295
467.364634	22667.775121
467.736184	21190.855676
468.107674	20394.013090
468.479105	20526.005622
468.850477	19986.629886
469.221790	19580.542259
469.593043	18899.096726
469.964238	18328.075148
470.335373	17963.156103
470.706449	18466.046487
471.077467	18039.428761
471.448425	19906.543596
471.819324	24037.065932
472.190164	25892.623922
472.560945	22236.945511
472.931667	19933.914541
473.302330	19319.715479
473.672934	18919.694881
474.043479	19179.873872
474.413965	18982.583275
474.784393	18580.158046
475.154761	19347.880406
475.525070	19277.228635
475.895321	18983.165528
476.265513	19583.541745
476.635645	20175.252219
477.005719	19938.186918
477.375734	20116.613518
477.745691	20599.916499
478.115588	21150.009727
478.485427	21693.231862
478.855207	22787.623513
479.224928	24578.604322
479.594591	26799.930791
479.964194	26728.817754
480.333739	26974.115259
480.703226	26549.249334
481.072653	26252.131288
481.442022	26861.551335
481.811333	27784.354711
482.180584	27666.684098
482.549777	26715.932565
482.918912	26386.478038
483.287988	26525.059357
483.657005	26144.810163
484.025964	25943.438753
484.394864	25813.331613
484.763706	25470.598686
485.132489	24935.548261
485.501213	25123.351407
485.869879	25037.654312
486.238487	24875.069538
486.607036	25006.968808
486.975527	24732.921603
487.343959	25037.258581
487.712333	24952.617608
488.080648	24614.593119
488.448905	25113.299346
488.817104	24868.455545
489.185244	25587.026655
489.553326	25535.057400
489.921350	26570.986789
490.289315	28915.377906
490.657222	30635.006223
491.025070	31157.909988
491.392861	30898.759393
491.760593	30040.457580
492.128267	29124.200142
492.495883	28057.310507
492.863440	27199.492645
493.230939	26335.206982
493.598380	26176.753435
493.965763	25780.606963
494.333088	25280.403513
494.700354	25261.189156
495.067563	25105.838438
495.434713	24854.804100
495.801805	25038.158427
496.168839	24799.364011
496.535815	24682.724313
496.902733	24886.029007
497.269593	24577.984260
497.636395	24744.170938
498.003139	24683.619118
498.369825	24420.906947
498.736453	24654.851774
499.103023	24507.859289
499.469535	24512.524877
499.835989	24741.604990
500.202385	24763.450831
500.568723	24293.569922
500.935003	24474.799402
501.301226	24164.085365
501.667390	25005.590053
502.033497	25213.046136
502.399546	24948.269613
502.765537	24480.528674
503.131470	24867.986717
503.497345	25010.621124
503.863163	24240.715944
504.228923	24801.511542
504.594625	25039.375866
504.960269	24599.845224
505.325856	25074.172430
505.691385	24462.869512
506.056856	25080.070580
506.422270	25062.978548
506.787625	24586.221505
507.152924	25020.350551
507.518164	25055.820110
507.883347	24869.660380
508.248472	24554.734458
508.613540	25333.212121
508.978550	25124.004236
509.343503	25141.431505
509.708398	25349.968916
510.073236	25514.993608
510.438016	25724.733334
510.802738	25390.956017
511.167403	25644.725181
511.532010	25384.828495
511.896561	26143.852344
512.261053	26093.176145
512.625488	25932.809480
512.989866	25815.257334
513.354186	25657.723797
513.718449	25788.264475
514.082655	26157.962534
514.446803	25885.762911
514.810894	26378.644085
515.174927	25848.342426
515.538904	25885.286522
515.902822	26386.064663
516.266684	26138.377651
516.630488	26049.595370
516.994235	25989.252759
517.357925	26318.470352
517.721558	26485.692987
518.085133	26611.210156
518.448651	26492.881672
518.812112	26260.572700
519.175516	26470.577087
519.538863	26617.836752
519.902152	26415.237820
520.265385	26663.504565
520.628560	26471.756717
520.991678	26451.471114
521.354739	26522.818564
521.717743	26606.529444
522.080690	26384.580043
522.443580	26722.226446
522.806413	26698.656531
523.169189	26796.361654
523.531908	26838.208272
523.894569	26459.257176
524.257174	26561.005304
524.619722	26703.533847
524.982213	26415.275629
525.344647	26454.470600
525.707025	26618.570240
526.069345	26564.173670
526.431608	26538.940174
526.793815	26707.798663
527.155964	26209.402468
527.518057	26386.352009
527.880093	26294.328266
528.242072	26526.004573
528.603995	26241.234834
528.965860	26028.886310
529.327669	26070.838792
529.689421	26063.529119
530.051117	25909.196715
530.412755	26086.332779
530.774337	25847.417375
531.135862	25742.430305
531.497331	25933.737052
531.858743	25525.973241
532.220098	25973.244575
532.581396	25671.652505
532.942638	25562.549332
533.303824	25692.825351
533.664953	25681.734812
534.026025	25354.137950
534.387040	25593.393632
534.747999	25636.515662
535.108902	25803.130838
535.469748	25305.677338
535.830537	25466.744724
536.191270	25607.244202
536.551947	25432.149806
536.912567	25066.789660
537.273131	25493.362017
537.633638	25163.428580
537.994089	25382.282712
538.354483	24881.544901
538.714821	25394.326029
539.075103	25438.065600
539.435328	25209.938265
539.795497	24807.810464
540.155609	25144.614993
540.515665	25469.164478
540.875665	24665.723022
541.235609	25031.234402
541.595496	24957.895696
541.955328	25307.620703
542.315102	25229.709670
542.674821	24750.321145
543.034483	24637.285873
543.394090	24804.289218
543.753640	24613.922646
544.113134	25242.879685
544.472571	24830.193187
544.831953	25128.725277
545.191278	24786.987978
545.550548	24672.452963
545.909761	24858.063206
546.268918	25100.235196
546.628019	25067.805453
546.987064	24757.920685
547.346053	24494.888401
547.704986	24611.606236
548.063863	24760.695840
548.422684	24794.900069
548.781449	24302.815398
549.140158	24712.119282
549.498811	24288.359889
549.857408	24036.521487
550.215949	24430.727115
550.574434	24124.255208
550.932864	24338.975594
551.291237	24529.626992
551.649555	24345.682850
552.007817	24421.784108
552.366022	24267.880202
552.724173	24293.955570
553.082267	24265.836014
553.440305	24750.691670
553.798288	23980.136181
554.156215	24474.716223
554.514086	24609.496513
554.871902	23982.865966
555.229661	24262.438276
555.587365	24113.744402
555.945014	24017.193703
556.302606	24229.688420
556.660143	24219.623757
557.017625	24446.843684
557.375050	23969.537155
557.732421	24344.719989
558.089735	24171.193392
558.446994	24223.581062
558.804197	24268.820377
559.161345	24172.960316
559.518437	23961.506597
559.875474	24129.959274
560.232455	24317.039013
560.589381	24124.164467
560.946251	24129.871053
561.303065	24436.141314
561.659825	24527.701271
562.016528	24138.199040
562.373177	23859.657646
562.729770	24224.042328
563.086307	24083.663837
563.442789	24242.051850
563.799216	24090.083747
564.155587	24080.319032
564.511904	24068.953750
564.868164	24023.515310
565.224370	23976.632579
565.580520	23901.249685
565.936615	24032.455797
566.292654	23738.213729
566.648638	23974.492610
567.004567	23824.843437
567.360441	23767.563327
567.716260	23487.025636
568.072023	23804.789727
568.427732	23597.953705
568.783385	23350.390202
569.138982	23600.489406
569.494525	23623.041008
569.850013	23382.893041
570.205445	23483.723680
570.560823	23297.092603
570.916145	23074.510537
571.271412	23249.693154
571.626625	22993.226972
571.981782	23118.557619
572.336884	22920.780550
572.691931	23050.297875
573.046923	22789.171147
573.401860	22662.118947
573.756743	22699.244524
574.111570	22584.331422
574.466342	22507.169001
574.821059	22584.507863
575.175722	22307.095687
575.530330	22263.467021
575.884882	22279.132407
576.239380	22198.121064
576.593823	22078.686047
576.948211	22063.428995
577.302544	21914.518352
577.656823	21781.734359
578.011047	21879.406715
578.365216	21750.423753
578.719330	21613.574070
579.073389	21506.323522
579.427394	21664.893016
579.781344	21428.934249
580.135239	21314.202628
580.489080	21256.675501
580.842866	21035.472191
581.196597	21251.291549
581.550273	21209.996937
581.903895	21088.006055
582.257463	21392.726161
582.610975	20928.042682
582.964434	21271.257039
583.317837	20921.048081
583.671186	21024.487517
584.024481	21012.325733
584.377721	20774.980648
584.730906	20860.367712
585.084037	20839.799804
585.437113	20773.685072
585.790135	20972.117490
586.143103	20431.176477
586.496016	20452.251020
586.848874	20687.829181
587.201679	20602.840368
587.554428	20307.045625
587.907124	20627.476487
588.259765	20381.621934
588.612352	20469.448917
588.964884	20045.646674
589.317362	20198.791887
589.669786	20258.748850
590.022155	20269.708319
590.374470	20509.700009
590.726731	20276.014802
591.078937	20065.720549
591.431090	20142.013371
591.783188	19910.972249
592.135232	19865.861484
592.487222	19966.966866
592.839157	19977.470110
593.191038	19866.073213
593.542866	19745.521580
593.894639	19446.873544
594.246358	19666.851854
594.598022	19550.922959
594.949633	19315.107865
595.301190	19301.579928
595.652692	19469.853644
596.004141	19687.709628
596.355535	19013.288943
596.706876	19032.679741
597.058162	18930.624102
597.409395	19177.547379
597.760573	19218.615139
598.111698	18993.298247
598.462768	18939.010062
598.813785	18909.224404
599.164748	18700.281180
599.515657	18765.249050
599.866511	18555.390857
600.217312	18917.587678
600.568060	18422.135517
600.918753	18741.643847
601.269392	18642.602818
601.619978	18437.909287
601.970510	18616.850084
602.320988	18574.867355
602.671412	18774.950751
603.021783	18701.899390
603.372100	18414.414989
603.722363	18572.845852
604.072572	18507.515019
604.422728	18667.377569
604.772830	18415.329959
605.122878	18373.385038
605.472872	18338.177620
605.822813	18331.331733
606.172701	18324.473243
606.522534	18491.839551
606.872314	18522.076392
607.222041	18363.433801
607.571714	18576.944310
607.921333	18403.223628
608.270899	18481.895875
608.620411	18636.598804
608.969870	18431.663297
609.319276	18418.989837
609.668627	18457.826886
610.017926	18578.096214
610.367171	18693.662145
610.716362	18750.178521
611.065500	18560.225323
611.414585	18709.496409
611.763616	18696.447382
612.112594	18626.219068
612.461518	18599.296786
612.810389	18779.654147
613.159207	18650.078849
613.507971	18566.002486
613.856682	18808.295463
614.205340	18734.503053
614.553945	18896.813083
614.902496	18642.718765
615.250994	18855.906640
615.599439	18802.034350
615.947830	18787.992216
616.296169	18871.657726
616.644454	18810.589188
616.992686	18790.535478
617.340864	19020.759933
617.688990	18753.876207
618.037063	18925.222506
618.385082	18778.988715
618.733048	19063.138393
619.080961	18942.165824
619.428821	18975.555906
619.776628	18842.124126
620.124382	18784.140774
620.472083	18845.307614
620.819731	18846.177213
621.167326	18541.633548
621.514868	18565.614317
621.862357	18365.563688
622.209793	18359.867184
622.557176	18196.811063
622.904506	18028.922996
623.251783	17953.393908
623.599007	17700.592646
623.946179	17634.039333
624.293297	17575.332576
624.640363	17312.978327
624.987376	17346.862442
625.334336	17137.997356
625.681243	16984.456413
626.028097	17002.498703
626.374899	16914.797749
626.721647	16782.404446
627.068343	16618.640043
627.414987	16556.913635
627.761577	16521.287800
628.108115	16544.265380
628.454600	16289.248530
628.801032	16384.105401
629.147412	16318.235165
629.493739	16330.868296
629.840014	16134.018800
630.186236	16229.755353
630.532405	15994.489744
630.878521	16195.362081
631.224585	16114.706140
631.570597	15920.493167
631.916556	15947.644822
632.262462	15925.826708
632.608316	15838.355127
632.954117	15792.563806
633.299866	15776.074192
633.645562	15688.300142
633.991206	15456.996880
634.336797	15326.894781
634.682336	15283.341733
635.027823	15158.565613
635.373257	15027.528381
635.718639	14948.616679
636.063968	14890.731630
636.409245	14642.613599
636.754470	14678.423436
637.099642	14519.904353
637.444762	14292.341627
637.789829	14335.814017
638.134845	14166.874870
638.479808	14207.572105
638.824719	14114.822436
639.169577	13987.697139
639.514383	14032.223130
639.859137	13862.101832
640.203839	13947.902270
640.548489	13795.561122
640.893086	13784.117702
641.237632	13654.454184
641.582125	13814.069718
641.926566	13630.717911
642.270955	13646.355571
642.615292	13603.770423
642.959576	13613.497330
643.303809	13641.480775
643.647990	13577.266557
643.992118	13636.963901
644.336195	13405.726174
644.680219	13635.822080
645.024192	13543.475703
645.368112	13781.806333
645.711981	13826.339886
646.055797	14017.918856
646.399562	13992.657634
646.743274	14255.551287
647.086935	14533.472619
647.430544	14486.272295
647.774101	14526.150343
648.117606	14675.156768
648.461059	14648.098375
648.804460	14626.169356
649.147810	14351.809599
649.491108	14263.579324
649.834354	14282.352581
650.177548	13951.541983
650.520690	13767.935598
650.863781	13688.537425
651.206820	13739.516094
651.549807	13576.770003
651.892742	13354.319008
652.235626	13294.735090
652.578458	13299.314978
652.921238	12995.076302
653.263967	13193.115511
653.606644	13024.229295
653.949269	13000.475378
654.291843	12801.770738
654.634365	12972.542345
654.976836	12816.921925
655.319255	12815.606184
655.661622	12781.076801
656.003938	12696.599665
656.346203	12618.111421
656.688416	12701.497146
657.030577	12660.368893
657.372687	12565.912793
657.714746	12552.977192
658.056753	12745.249321
658.398708	12547.363867
658.740612	12544.376984
659.082465	12667.280315
659.424266	12626.436886
659.766016	12654.571566
660.107715	12575.667426
660.449362	12647.211481
660.790958	12605.707662
661.132503	12532.696630
661.473996	12611.298301
661.815438	12624.218778
662.156829	12658.639777
662.498168	12624.002009
662.839456	12630.089202
663.180693	12638.467600
663.521879	12741.748239
663.863013	12708.983260
664.204097	12679.374043
664.545129	12810.539825
664.886110	12791.673306
665.227040	12883.966751
665.567918	12877.766132
665.908746	12897.774471
666.249522	12895.442938
666.590248	12940.291563
666.930922	13060.220613
667.271545	13026.497814
667.612118	13124.270993
667.952639	13008.828570
668.293109	13040.265205
668.633528	12984.106752
668.973896	12963.962301
669.314213	13023.841126
669.654480	12768.567178
669.994695	12855.895086
670.334859	12881.012635
670.674973	12819.066936
671.015035	12845.878313
671.355047	12806.058239
671.695008	12772.244699
672.034918	12781.951441
672.374777	12826.071620
672.714585	12737.218762
673.054342	12771.090275
673.394049	12730.335067
673.733705	12827.314264
674.073310	12717.656565
674.412864	12736.182805
674.752368	12585.553128
675.091820	12632.282104
675.431223	12609.974998
675.770574	12483.096718
676.109875	12392.098850
676.449125	12356.397398
676.788324	12305.834625
677.127473	12136.855148
677.466571	12126.626647
677.805619	12017.528516
678.144616	11954.277159
678.483562	11923.891604
678.822458	11791.629371
679.161303	11771.759663
679.500098	11758.027560
679.838842	11703.477234
680.177535	11743.146074
680.516179	11811.184007
680.854771	11751.947928
681.193314	11969.584622
681.531805	12137.145014
681.870247	12576.005183
682.208638	12989.609171
682.546978	13285.534984
682.885268	13313.644458
683.223508	13008.122808
683.561697	12854.561701
683.899836	12773.625976
684.237925	12557.050445
684.575963	12475.867703
684.913951	12385.157181
685.251889	12345.868948
685.589776	12445.008280
685.927614	12359.583407
686.265401	12341.561282
686.603137	12395.146227
686.940824	12540.379349
687.278460	12675.157117
687.616046	12708.794217
687.953582	12868.979401
688.291068	12804.440028
688.628504	13038.354608
688.965889	13053.331876
689.303224	13005.380421
689.640510	12895.395047
689.977745	12572.955285
690.314930	12354.217099
690.652065	12256.953077
690.989150	11964.881226
691.326185	11738.477965
691.663170	11530.177488
692.000105	11298.095368
692.336990	11166.027220
692.673825	10907.935266
693.010610	10807.454988
693.347345	10596.545714
693.684030	10396.822760
694.020665	10339.940901
694.357251	10140.044027
694.693786	10060.184589
695.030272	9918.518083
695.366707	9799.430906
695.703093	9731.965144
696.039429	9724.894926
696.375716	9633.909661
696.711952	9515.041773
697.048139	9563.267972
697.384276	9513.852061
697.720363	9536.998519
698.056400	9466.596285
698.392388	9412.197194
698.728326	9379.346515
699.064214	9320.798554
699.400053	9355.940437
699.735842	9171.721553
700.071581	9139.700143
700.407270	9059.240807
700.742910	8980.636616
701.078501	8886.525835
701.414042	8754.288808
701.749533	8696.549953
702.084974	8558.845794
702.420366	8684.448663
702.755709	8556.932676
703.091002	8422.003673
703.426246	8455.933159
703.761440	8402.212103
704.096584	8360.040331
704.431679	8296.552039
704.766725	8276.155531
705.101721	8235.392761
705.436668	8283.939072
705.771565	8172.824480
706.106413	8255.635514
706.441212	8292.151112
706.775961	8255.355730
707.110661	8304.892628
707.445311	8435.382895
707.779913	8332.077050
708.114465	8461.299467
708.448967	8495.435641
708.783421	8654.186616
709.117825	8829.255807
709.452180	8867.223257
709.786485	8950.185526
710.120742	9244.414991
710.454949	9242.527079
710.789107	9348.028347
711.123216	9571.530423
711.457275	9747.532227
711.791286	9887.951047
712.125247	9888.099761
712.459159	9877.228513
712.793023	10103.515827
713.126837	9683.030664
713.460602	9840.702833
713.794318	9668.670937
714.127985	9695.058857
714.461602	9358.130819
714.795171	9314.688676
715.128691	9057.920025
715.462162	8820.935383
715.795584	8754.823171
716.128957	8597.244263
716.462281	8441.112167
716.795556	8478.396541
717.128782	8268.528265
717.461960	8015.878237
717.795088	8080.591529
718.128167	7987.859504
718.461198	7827.419742
718.794180	7770.084178
719.127113	7756.304184
719.459997	7587.339831
719.792833	7367.966459
720.125619	7441.448838
720.458357	7292.366796
720.791046	7288.422093
721.123686	7277.303828
721.456278	7112.644620
721.788821	7136.244782
722.121315	7033.092692
722.453761	7104.803105
722.786158	7036.613938
723.118506	7052.937194
723.450805	7016.746750
723.783056	7074.142807
724.115259	6993.204562
724.447412	6995.435272
724.779518	7044.788169
725.111574	7042.943106
725.443582	7120.244159
725.775542	7099.764472
726.107453	7297.833927
726.439315	7201.016047
726.771129	7281.321628
727.102895	7459.980120
727.434612	7560.959473
727.766281	7605.891277
728.097901	7673.780496
728.429473	7677.384921
728.760996	7669.182963
729.092471	7630.199721
729.423897	7570.520021
729.755276	7566.482057
730.086606	7491.928433
730.417887	7597.374248
730.749120	7819.704256
731.080305	8011.237855
731.411442	8107.007175
731.742530	8096.655166
732.073570	8209.826549
732.404562	8299.259139
732.735506	8153.930235
733.066401	8283.893702
733.397249	8210.769245
733.728048	7968.670352
734.058798	7628.883980
734.389501	7391.599389
734.720156	7226.862043
735.050762	7006.588825
735.381320	6912.858652
735.711831	6852.914292
736.042293	6742.588640
736.372707	6759.476505
736.703073	6627.708305
737.033391	6670.124574
737.363661	6678.891140
737.693883	6718.910340
738.024056	6798.898328
738.354182	6831.786816
738.684260	6869.164451
739.014290	6993.128945
739.344272	7103.663804
739.674207	7132.010212
740.004093	7210.264044
740.333931	7215.310239
740.663722	7222.766105
740.993464	7303.863147
741.323159	7279.327851
741.652806	7031.298041
741.982405	7063.989924
742.311956	7105.178671
742.641460	6928.040087
742.970915	6739.886581
743.300323	6727.308902
743.629683	6685.366502
743.958996	6547.755605
744.288260	6457.720597
744.617477	6406.583133
744.946647	6399.948974
745.275768	6240.734212
745.604842	6195.318457
745.933869	6176.157032
746.262847	6132.150279
746.591778	6120.578311
746.920662	6079.334110
747.249498	6077.300005
747.578286	6126.942767
747.907027	6202.605445
748.235720	6259.237768
748.564365	6235.120888
748.892963	6274.522546
749.221514	6413.759215
749.550017	6230.747687
749.878473	6118.740810
750.206881	6177.321538
750.535242	6129.135669
750.863555	6052.437034
751.191821	6068.725002
751.520039	6064.676956
751.848210	5971.108099
752.176334	6002.038098
752.504411	6042.090066
752.832440	5970.540969
753.160421	5899.450618
753.488356	5952.939781
753.816243	5973.676567
754.144082	5829.728939
754.471875	5801.266585
754.799620	5844.791907
755.127318	5857.145255
755.454969	5815.754861
755.782572	5783.418380
756.110129	5821.564791
756.437638	5804.591226
756.765100	5745.017390
757.092515	5753.710860
757.419882	5805.793541
757.747203	5783.854439
758.074477	5840.214539
758.401703	5821.035470
758.728882	5784.802176
759.056014	5851.549574
759.383099	5968.017872
759.710138	5977.782587
760.037129	5963.783302
760.364073	5970.974508
760.690970	6050.324791
761.017820	6030.147572
761.344623	5991.832283
761.671379	6100.708603
761.998088	6221.023301
762.324751	6487.160936
762.651366	7123.750282
762.977935	8500.658276
763.304456	10154.653291
763.630931	11011.117603
763.957359	10557.806967
764.283740	9589.963402
764.610074	8719.277995
764.936362	7719.155922
765.262602	7124.166177
765.588796	6593.932574
765.914943	6263.285814
766.241044	6088.975317
766.567097	5876.823399
766.893104	5620.760510
767.219064	5445.154436
767.544978	5382.170260
767.870845	5296.382424
768.196665	5197.785017
768.522438	5123.866578
768.848165	5086.940126
769.173846	5019.686093
769.499479	4972.715142
769.825066	4928.877268
770.150607	4865.439388
770.476101	4840.336962
770.801548	4834.418647
771.126949	4747.365482
771.452303	4698.012586
771.777611	4656.302079
772.102872	4679.428373
772.428087	4639.184841
772.753256	4598.414510
773.078378	4546.535995
773.403453	4479.387826
773.728482	4467.848625
774.053465	4422.306841
774.378401	4410.429883
774.703291	4403.054675
775.028135	4328.062470
775.352932	4283.992703
775.677683	4268.551649
776.002388	4288.683497
776.327046	4298.339827
776.651658	4226.793251
776.976224	4166.178417
777.300743	4169.621525
777.625216	4190.799413
777.949643	4182.269780
778.274024	4138.948625
778.598359	4101.152574
778.922647	4128.485710
779.246889	4114.738483
779.571086	4106.506279
779.895236	4089.237807
780.219339	4082.898556
780.543397	4076.138368
780.867409	4132.430413
781.191374	4140.309736
781.515294	4072.007143
781.839167	4066.426585
782.162995	4091.707972
782.486776	4079.463009
782.810511	4090.785441
783.134201	4077.756579
783.457844	4028.587685
783.781441	3976.651197
784.104993	3985.067403
784.428498	4003.495341
784.751958	3997.035103
785.075372	3974.823779
785.398739	3943.278759
785.722061	3954.588587
786.045337	4001.551977
786.368568	4027.143394
786.691752	3941.007719
787.014891	3999.709435
787.337983	4132.702635
787.661030	4296.020896
787.984031	4456.748004
788.306987	4623.925269
788.629897	4707.169842
788.952760	4661.882637
789.275579	4592.743212
789.598351	4521.804095
789.921078	4372.303636
790.243759	4173.639325
790.566395	4165.142460
790.888984	4154.432529
791.211529	4044.278276
791.534027	3987.257785
791.856480	3971.307574
792.178888	3908.275507
792.501249	3861.342365
792.823566	3876.279303
793.145836	3899.392994
793.468062	3845.775282
793.790241	3804.836071
794.112375	3835.206502
794.434464	3903.977923
794.756507	3925.531377
795.078505	3899.627407
795.400457	3940.632153
795.722364	4086.008947
796.044226	4191.507695
796.366042	4265.695835
796.687812	4237.813213
797.009538	4243.713884
797.331218	4206.936146
797.652852	4178.425900
797.974442	4158.480575
798.295986	4150.255933
798.617484	4068.969847
798.938938	3985.228720
799.260346	4031.781256
799.581709	4021.335985
799.903026	3941.171556
800.224299	3906.642173
800.545526	3900.774270
800.866708	3860.293805
801.187845	3803.961431
801.508936	3837.933767
801.829983	3827.138136
802.150984	3754.394286
802.471940	3747.840786
802.792851	3751.775406
803.113717	3756.060387
803.434538	3752.559306
803.755314	3694.278526
804.076045	3674.552491
804.396731	3696.123588
804.717372	3722.546796
805.037967	3703.460988
805.358518	3691.800799
805.679024	3724.275912
805.999485	3735.573138
806.319901	3741.194024
806.640272	3752.851693
806.960598	3764.136316
807.280879	3740.891555
807.601115	3756.337651
807.921306	3774.536216
808.241453	3812.410405
808.561554	3784.401754
808.881611	3716.469685
809.201623	3761.051129
809.521590	3767.276954
809.841513	3740.528592
810.161390	3770.941873
810.481223	3743.147472
810.801011	3689.925490
811.120755	3690.928679
811.440453	3725.039647
811.760107	3718.891960
812.079716	3675.406967
812.399281	3652.968791
812.718801	3672.853622
813.038276	3646.740445
813.357707	3640.917913
813.677093	3655.595232
813.996434	3605.231585
814.315731	3617.814305
814.634983	3621.723719
814.954191	3639.531595
815.273354	3665.049916
815.592473	3655.638082
815.911547	3671.338756
816.230577	3713.812997
816.549562	3764.068260
816.868502	3807.339004
817.187399	3827.566634
817.506250	3824.302487
817.825058	3805.592244
818.143821	3903.123448
818.462539	4001.743540
818.781213	4044.679048
819.099843	4111.938122
819.418429	4376.833113
819.736970	4616.620637
820.055466	4877.036562
820.373919	5248.609930
820.692327	5666.330020
821.010691	6159.564074
821.329011	7644.582133
821.647286	10540.805676
821.965517	15284.758297
822.283704	19304.685279
822.601847	21299.563118
822.919945	19370.847903
823.237999	16707.331583
823.556010	14188.529146
823.873976	12022.799042
824.191897	9908.342514
824.509775	8567.589676
824.827609	7433.193949
825.145398	6914.713797
825.463144	6793.123686
825.780845	6902.620068
826.098502	7129.845037
826.416116	8072.896207
826.733685	9446.867729
827.051210	10538.685871
827.368692	10485.196708
827.686129	9155.113471
828.003522	7641.116339
828.320872	6622.611699
828.638177	5899.347274
828.955439	5327.536755
829.272656	4824.122091
829.589830	4548.237385
829.906960	4372.608626
830.224046	4180.316333
830.541088	4055.429308
830.858086	4007.876104
831.175041	3930.446502
831.491952	3918.743463
831.808819	3929.965071
832.125642	4010.676465
832.442421	4170.188655
832.759157	4462.487358
833.075849	5045.287592
833.392497	5942.330672
833.709101	6736.062866
834.025662	7043.295987
834.342179	6620.817048
834.658653	5942.701197
834.975083	5280.296102
835.291469	4694.466134
835.607811	4293.270947
835.924110	4149.406498
836.240366	3942.346145
836.556578	3741.504055
836.872746	3628.957775
837.188871	3586.947320
837.504952	3517.979294
837.820990	3434.840585
838.136984	3395.580078
838.452935	3420.432967
838.768842	3411.832758
839.084706	3437.134310
839.400526	3609.110752
839.716303	3976.255467
840.032037	4523.472717
840.347727	4757.256226
840.663373	4450.033187
840.978977	4057.193712
841.294537	3743.139910
841.610054	3520.257895
841.925527	3415.979108
842.240957	3343.545288
842.556344	3287.815333
842.871687	3226.759398
843.186987	3177.923220
843.502244	3141.820997
843.817458	3103.152826
844.132629	3076.336408
844.447756	3084.349322
844.762840	3067.690829
845.077881	3033.080788
845.392879	3017.559075
845.707833	3013.243847
846.022745	3014.221831
846.337613	3012.843076
846.652438	2997.686847
846.967221	2998.911847
847.281960	2984.279898
847.596656	2979.936944
847.911309	2979.919300
848.225919	2974.197590
848.540485	2968.120479
848.855009	2967.944039
849.169490	2957.405507
849.483928	2947.219855
849.798323	2948.964095
850.112675	2941.861109
850.426984	2957.879375
850.741251	2951.688838
851.055474	2941.974535
851.369654	2936.812393
851.683792	2942.574432
851.997887	2950.494085
852.311938	2951.766976
852.625947	2942.569391
852.939914	2943.176850
853.253837	2949.047274
853.567718	2935.675613
853.881555	2934.858946
854.195350	2949.639609
854.509103	2942.748352
854.822812	2936.061261
855.136479	2933.023966
855.450103	2936.709050
855.763685	2927.662699
856.077224	2928.623039
856.390720	2938.997733
856.704173	2948.611214
857.017584	2941.636778
857.330953	2936.867846
857.644278	2947.640792
857.957561	2959.331228
858.270802	2961.491362
858.584000	2959.026238
858.897155	2944.880760
859.210268	2943.507046
859.523339	2942.052673
859.836367	2943.582663
860.149352	2937.296344
860.462295	2935.143771
860.775195	2938.544030
861.088054	2940.094184
861.400869	2921.580547
861.713642	2920.695824
862.026373	2938.090326
862.339062	2937.490428
862.651708	2940.081582
862.964312	2947.103909
863.276873	2940.757096
863.589392	2950.811678
863.901869	2964.049748
864.214303	2985.262923
864.526696	3002.216323
864.839045	2994.677278
865.151353	2997.770026
865.463619	2992.864983
865.775842	2997.523009
866.088023	3019.744415
866.400162	3023.447143
866.712258	2991.135867
867.024313	2980.688076
867.336325	2991.392966
867.648296	3012.545648
867.960224	3008.510204
868.272110	2990.399859
868.583954	2995.062926
868.895755	3008.437107
869.207515	2995.821620
869.519233	3006.138341
869.830909	3013.546317
870.142542	3021.561751
870.454134	3023.585774
870.765684	3024.946886
871.077191	3026.262627
871.388657	3035.283772
871.700081	3050.213149
872.011463	3058.094993
872.322803	3058.200857
872.634101	3058.168090
872.945357	3078.980493
873.256571	3103.588886
873.567744	3091.432143
873.878874	3088.530959
874.189963	3111.049794
874.501010	3111.848817
874.812015	3101.937908
875.122979	3100.778443
875.433900	3101.680809
875.744780	3109.048456
876.055618	3116.393417
876.366415	3108.950153
876.677169	3122.810806
876.987882	3115.790999
877.298554	3114.258488
877.609183	3140.873260
877.919771	3163.578617
878.230317	3189.374201
878.540822	3240.388157
878.851285	3282.837193
879.161707	3330.760922
879.472087	3442.790484
879.782425	3692.166283
880.092722	4152.809277
880.402977	4694.813974
880.713191	5359.454821
881.023363	6583.908240
881.333494	7901.812049
881.643583	8416.692818
881.953631	8082.429029
882.263637	7403.665390
882.573602	6788.793335
882.883526	6197.602100
883.193408	5622.091374
883.503248	5171.336603
883.813048	4856.398078
884.122806	4524.128067
884.432522	4200.470866
884.742197	3959.511274
885.051831	3766.455246
885.361424	3635.959938
885.670975	3558.041343
885.980485	3467.797128
886.289954	3385.684293
886.599382	3343.971266
886.908768	3306.505411
887.218113	3260.827516
887.527417	3201.372147
887.836680	3150.718633
888.145901	3145.495998
888.455082	3132.260448
888.764221	3078.700709
889.073319	3049.378838
889.382376	3048.340360
889.691392	3054.757749
890.000366	3053.946123
890.309300	3037.186808
890.618193	3050.261040
890.927044	3068.323494
891.235855	3066.806107
891.544625	3056.658264
891.853353	3069.803073
892.162041	3086.343099
892.470687	3129.666775
892.779293	3180.690813
893.087858	3229.481621
893.396381	3306.444917
893.704864	3437.709001
894.013306	3695.581664
894.321707	4007.298892
894.630068	4206.641238
894.938387	4192.959547
895.246665	4150.097136
895.554903	4021.217518
895.863100	3810.857729
896.171256	3640.686020
896.479371	3495.523474
896.787446	3367.621839
897.095480	3264.971344
897.403473	3203.033207
897.711425	3164.715397
898.019336	3151.540341
898.327207	3120.454066
898.635038	3084.346802
898.942827	3070.977662
899.250576	3059.861917
899.558284	3027.517874
899.865952	3007.058352
900.173579	2986.566061
900.481165	2980.390648
900.788711	2964.001857
901.096216	2942.881943
901.403681	2930.604212
901.711105	2935.804163
902.018489	2933.394491
902.325832	2932.852567
902.633135	2946.894701
902.940397	2980.841831
903.247619	3073.140317
903.554800	3281.576905
903.861941	3651.809326
904.169041	4097.094445
904.476101	4390.759300
904.783121	4320.717509
905.090100	4059.540369
905.397039	3771.103190
905.703938	3519.602545
906.010796	3329.921570
906.317614	3217.108109
906.624391	3120.643109
906.931129	3045.217366
907.237826	2984.683190
907.544483	2937.969338
907.851099	2904.997671
908.157675	2883.625700
908.464211	2862.536032
908.770707	2849.325689
909.077163	2834.640808
909.383578	2818.856955
909.689954	2809.399750
909.996289	2807.698361
910.302584	2808.265491
910.608839	2808.381437
910.915054	2800.865077
911.221229	2794.868624
911.527363	2797.540436
911.833458	2806.135603
912.139513	2810.027374
912.445527	2815.207160
912.751502	2825.181082
913.057436	2835.233143
913.363331	2846.132118
913.669186	2869.364275
913.975000	2909.872467
914.280775	2972.160964
914.586510	3043.762993
914.892205	3128.386322
915.197859	3266.418155
915.503475	3472.339207
915.809050	3699.067622
916.114585	3850.687886
916.420081	3856.598639
916.725536	3795.255358
917.030952	3664.434895
917.336328	3531.474463
917.641665	3394.886920
917.946961	3291.371867
918.252218	3219.590877
918.557435	3134.360089
918.862612	3076.772468
919.167750	3023.817668
919.472848	2984.746205
919.777906	2957.609673
920.082925	2928.610436
920.387904	2898.318143
920.692843	2881.029505
920.997743	2869.293699
921.302603	2854.457583
921.607423	2844.657580
921.912204	2830.602843
922.216946	2821.979950
922.521647	2810.728094
922.826310	2800.693678
923.130932	2794.440126
923.435516	2783.379835
923.740059	2776.387754
924.044564	2769.211672
924.349028	2766.444078
924.653454	2756.550814
924.957840	2751.978487
925.262186	2745.982035
925.566493	2742.783423
925.870761	2737.260839
926.174989	2730.049468
926.479178	2728.126268
926.783328	2720.655278
927.087438	2721.635782
927.391509	2718.527911
927.695541	2714.729402
927.999533	2709.375696
928.303486	2710.542723
928.607400	2711.440049
928.911275	2710.363762
929.215110	2706.915613
929.518906	2707.946529
929.822663	2708.465768
930.126381	2708.107846
930.430060	2708.911910
930.733699	2706.804708
931.037299	2708.806046
931.340861	2711.329143
931.644383	2712.959957
931.947866	2708.188505
932.251309	2707.815459
932.554714	2706.653473
932.858080	2705.972917
933.161407	2704.349666
933.464694	2702.421425
933.767943	2699.099304
934.071153	2705.128524
934.374323	2698.597709
934.677455	2698.751465
934.980548	2699.275745
935.283602	2698.960672
935.586617	2698.665765
935.889593	2700.503266
936.192530	2697.516382
936.495428	2699.006043
936.798287	2701.254397
937.101108	2704.374872
937.403890	2707.702033
937.706632	2713.706047
938.009336	2721.207284
938.312002	2729.436968
938.614628	2737.838051
938.917216	2744.822570
939.219765	2745.699730
939.522275	2746.453383
939.824747	2743.448855
940.127179	2739.098339
940.429573	2734.394943
940.731929	2731.400497
941.034246	2729.268089
941.336524	2727.279354
941.638763	2724.678119
941.940964	2721.860114
942.243126	2720.171327
942.545250	2722.477655
942.847335	2712.990204
943.149381	2711.613969
943.451389	2709.947867
943.753359	2706.088864
944.055290	2704.100129
944.357182	2705.274718
944.659036	2702.597865
944.960851	2705.841847
945.262628	2699.482432
945.564367	2703.613657
945.866067	2702.391178
946.167729	2700.072247
946.469352	2701.330015
946.770937	2699.545446
947.072484	2701.655169
947.373992	2698.131403
947.675462	2696.901361
947.976893	2693.642255
948.278286	2693.909436
948.579641	2691.988757
948.880958	2689.117820
949.182236	2694.116124
949.483476	2690.834332
949.784678	2691.514888
950.085841	2691.454394
950.386967	2693.422965
950.688054	2691.242666
950.989103	2694.955476
951.290114	2694.988243
951.591087	2697.377750
951.892021	2700.324305
952.192917	2700.019315
952.493776	2704.339584
952.794596	2706.136755
953.095378	2706.066179
953.396122	2705.539378
953.696828	2704.342104
953.997496	2702.101311
954.298126	2699.646269
954.598718	2698.340611
954.899272	2692.094621
955.199788	2688.550690
955.500266	2689.407686
955.800706	2686.340144
956.101108	2682.080369
956.401472	2683.499454
956.701798	2680.391582
957.002087	2678.619617
957.302337	2675.269770
957.602550	2676.053669
957.902724	2673.880932
958.202861	2673.031498
958.502960	2671.967814
958.803022	2672.386230
959.103045	2671.796415
959.403031	2668.499500
959.702979	2668.663338
960.002889	2667.869356
960.302762	2668.807011
960.602596	2669.288441
960.902393	2666.477998
961.202153	2665.033707
961.501875	2665.545384
961.801559	2666.261228
962.101205	2665.076557
962.400814	2666.767864
962.700385	2661.978768
962.999918	2662.692091
963.299414	2662.828202
963.598873	2664.368275
963.898293	2660.617656
964.197677	2663.027328
964.497022	2665.303409
964.796331	2666.745179
965.095601	2666.213337
965.394835	2663.909530
965.694030	2666.024294
965.993189	2664.123779
966.292309	2661.545229
966.591393	2665.192503
966.890439	2663.155877
967.189447	2663.140754
967.488419	2662.682009
967.787353	2661.761998
968.086249	2661.162101
968.385108	2663.463388
968.683930	2664.141423
968.982714	2664.771567
969.281462	2663.733089
969.580172	2664.269972
969.878844	2663.818789
970.177480	2665.827689
970.476078	2661.767039
970.774639	2665.613440
971.073162	2664.932884
971.371649	2663.223933
971.670098	2666.775426
971.968510	2660.536998
972.266885	2662.893737
972.565223	2664.539674
972.863524	2662.051865
973.161788	2664.895075
973.460014	2662.561021
973.758204	2664.106135
974.056356	2665.439520
974.354471	2663.763336
974.652550	2663.657472
974.950591	2663.539005
975.248595	2665.086639
975.546563	2662.349293
975.844493	2660.925167
976.142386	2661.439364
976.440243	2662.682009
976.738062	2662.487924
977.035845	2662.533295
977.333590	2663.186124
977.631299	2662.563542
977.928971	2658.225629
978.226606	2655.601708
978.524204	2659.954745
978.821765	2657.865186
979.119290	2658.651606
979.416777	2660.017759
979.714228	2661.910712
980.011642	2660.058088
980.309020	2661.383912
980.606360	2662.157729
980.903664	2660.718479
981.200931	2658.437357
981.498162	2661.078922
981.795356	2662.044303
982.092513	2662.548418
982.389633	2668.058399
982.686717	2671.274656
982.983764	2674.982424
983.280775	2675.889832
983.577749	2681.722447
983.874686	2680.210101
984.171587	2675.083247
984.468451	2672.998730
984.765279	2671.521672
985.062070	2670.347083
985.358824	2666.939263
985.655543	2664.002791
985.952224	2664.237205
986.248869	2663.309632
986.545478	2661.255362
986.842050	2661.396515
987.138586	2660.973058
987.435086	2660.539518
987.731549	2659.080104
988.027975	2656.899805
988.324366	2658.341575
988.620719	2661.661175
988.917037	2657.003149
989.213318	2658.160094
989.509563	2656.705721
989.805772	2658.611277
990.101944	2657.290495
990.398080	2656.667912
990.694180	2657.338386
990.990244	2657.532470
991.286271	2656.831750
991.582262	2659.644714
991.878217	2657.857625
992.174136	2657.749240
992.470019	2658.225629
992.765865	2654.691780
993.061676	2655.851245
993.357450	2657.492141
993.653188	2654.316214
993.948890	2658.054230
994.244556	2657.335865
994.540186	2658.699497
994.835780	2658.744868
995.131337	2659.682522
995.426859	2659.261586
995.722345	2658.639003
996.017795	2661.991371
996.313208	2662.087153
996.608586	2662.467760
996.903928	2660.899961
997.199234	2660.753767
997.494504	2663.775939
997.789738	2661.671257
998.084936	2662.321566
998.380099	2663.062616
998.675225	2661.209992
998.970316	2658.903664
999.265371	2659.758140
999.560390	2657.350989
999.855373	2658.581030
1000.150320	2657.981133
1000.445232	2659.415341
1000.740108	2658.008859
1001.034948	2658.026503
1001.329752	2655.921822
1001.624521	2653.489465
1001.919254	2656.796462
1002.213951	2658.991884
1002.508613	2657.610608
1002.803239	2656.609939
1003.097829	2654.356543
1003.392384	2657.335865
1003.686903	2657.219919
1003.981386	2657.839981
1004.275834	2654.444763
1004.570246	2655.256389
1004.864623	2656.589774
1005.158964	2655.324445
1005.453270	2656.995587
1005.747540	2654.129691
1006.041775	2656.131029
1006.335974	2654.142294
1006.630138	2657.532470
1006.924266	2658.838129
1007.218359	2656.100782
1007.512416	2652.629948
1007.806438	2653.028199
1008.100425	2653.454177
1008.394376	2651.813281
1008.688292	2655.896616
1008.982172	2655.959630
1009.276017	2655.745381
1009.569827	2656.902326
1009.863602	2654.553148
1010.157341	2655.689928
1010.451045	2656.642707
1010.744714	2656.660351
1011.038347	2651.099958
1011.331945	2655.412665
1011.625508	2653.751605
1011.919036	2654.666574
1012.212528	2654.112047
1012.505986	2654.253200
1012.799408	2657.318221
1013.092795	2656.430978
1013.386147	2655.463077
1013.679464	2654.815288
1013.972745	2655.904177
1014.265992	2654.900988
1014.559204	2652.640030
1014.852380	2654.994249
1015.145521	2655.463077
1015.438628	2653.653302
1015.731699	2653.088693
1016.024736	2654.371667
1016.317737	2654.031389
1016.610703	2654.233035
1016.903635	2657.749240
1017.196531	2653.043323
1017.489393	2652.456028
1017.782219	2654.323776
1018.075011	2653.749084
1018.367768	2651.588950
1018.660490	2652.710607
1018.953177	2652.710607
1019.245829	2652.710607
