Dividing Wavelength (nm)	Counts (n)	Blue Motor Position (mm): 38.500000	Red Motor Position (mm): 0.000000	
326.493990	2242.559809
326.888308	2242.559809
327.282561	2242.559809
327.676750	2202.656556
328.070874	2197.345700
328.464933	2199.052131
328.858929	2202.608665
329.252859	2211.828935
329.646726	2215.501416
330.040528	2228.832747
330.434265	2243.794892
330.827938	2262.137130
331.221547	2277.742022
331.615091	2293.803138
332.008571	2315.013793
332.401986	2329.353355
332.795338	2352.416634
333.188625	2370.421115
333.581847	2388.816285
333.975006	2410.372259
334.368100	2429.344641
334.761129	2447.911211
335.154095	2461.058540
335.546996	2490.355206
335.939833	2530.192924
336.332606	2545.563402
336.725315	2557.349620
337.117960	2573.609862
337.510540	2582.963722
337.903056	2594.923860
338.295508	2602.409973
338.687896	2610.329626
339.080220	2617.861110
339.472480	2624.318828
339.864676	2631.971300
340.256807	2634.063378
340.648875	2638.847433
341.040879	2640.490850
341.432818	2644.256592
341.824694	2646.545275
342.216506	2646.240286
342.608253	2649.249854
342.999937	2647.505615
343.391557	2648.710451
343.783113	2649.063332
344.174605	2644.480923
344.566033	2645.405975
344.957397	2645.557209
345.348697	2642.666107
345.739934	2641.531848
346.131106	2641.413381
346.522215	2639.066724
346.913260	2637.501445
347.304241	2637.519089
347.695159	2633.261835
348.086012	2633.448358
348.476802	2631.467184
348.867528	2624.989302
349.258191	2623.754219
349.648789	2621.556276
350.039324	2621.435288
350.429796	2622.231790
350.820203	2621.972171
351.210548	2621.946965
351.600828	2618.493775
351.991045	2619.882613
352.381198	2617.987139
352.771288	2617.805657
353.161314	2616.779782
353.551276	2617.258692
353.941175	2615.486727
354.331010	2617.611573
354.720782	2614.498660
355.110490	2614.634772
355.500135	2615.060749
355.889717	2614.143259
356.279235	2615.348095
356.668689	2615.486727
357.058080	2615.650564
357.447408	2614.367590
357.836672	2614.327261
358.225873	2616.530245
358.615010	2614.024792
359.004084	2617.624176
359.393095	2619.098713
359.782043	2619.275154
360.170927	2620.303549
360.559748	2617.233486
360.948505	2621.790689
361.337199	2623.141719
361.725830	2621.150463
362.114398	2623.771863
362.502903	2623.179527
362.891344	2620.689197
363.279722	2624.185237
363.668037	2622.211626
364.056289	2624.656585
364.444478	2624.452419
364.832603	2625.868983
365.220665	2625.858901
365.608665	2626.627677
365.996601	2626.443674
366.384474	2627.237656
366.772284	2627.209930
367.160031	2628.225722
367.547715	2629.516258
367.935336	2625.979888
368.322893	2627.214971
368.710388	2626.443674
369.097820	2626.557100
369.485189	2629.954838
369.872495	2632.465333
370.259738	2633.090436
370.646918	2634.743934
371.034035	2632.185549
371.421090	2634.086064
371.808081	2634.476753
372.195010	2634.431383
372.581875	2634.587658
372.968678	2635.711836
373.355418	2636.006743
373.742096	2635.104377
374.128710	2635.910961
374.515262	2637.728297
374.901751	2639.263329
375.288177	2639.772485
375.674540	2638.008081
376.060841	2639.512866
376.447079	2640.964718
376.833254	2642.025881
377.219367	2639.858185
377.605417	2639.948926
377.991404	2641.758700
378.377329	2644.748104
378.763191	2642.300624
379.148991	2645.728608
379.534727	2643.119811
379.920402	2642.328350
380.306013	2646.000831
380.691563	2647.556027
381.077049	2646.542755
381.462474	2649.902684
381.847835	2647.944196
382.233134	2649.380924
382.618371	2649.385966
383.003545	2649.073414
383.388657	2650.744557
383.773706	2653.199598
384.158693	2653.086172
384.543618	2649.743887
384.928480	2650.500061
385.313280	2652.972747
385.698017	2652.813950
386.082692	2653.479383
386.467305	2656.798982
386.851856	2656.420896
387.236344	2655.142963
387.620770	2654.411996
388.005133	2655.024496
388.389435	2654.250679
388.773674	2654.187665
389.157851	2658.785197
389.541965	2660.030362
389.926018	2660.075732
390.310008	2661.507420
390.693936	2662.566062
391.077802	2668.315498
391.461606	2664.784170
391.845348	2672.025787
392.229027	2676.532579
392.612645	2681.344360
392.996200	2687.204702
393.379694	2696.495548
393.763125	2708.806046
394.146494	2720.287274
394.529801	2736.429048
394.913047	2759.688932
395.296230	2780.687859
395.679351	2811.879998
396.062410	2847.987262
396.445408	2879.673435
396.828343	2926.354520
397.211217	2973.451499
397.594028	3012.412057
397.976778	3082.960484
398.359466	3142.534320
398.742092	3206.173846
399.124656	3245.842686
399.507158	3331.403669
399.889598	3416.410126
400.271977	3521.858462
400.654294	3584.809870
401.036549	3670.857325
401.418742	3709.291082
401.800874	3860.747508
402.182944	3960.600163
402.564952	4088.726129
402.946898	4191.006100
403.328783	4193.390566
403.710606	4270.424438
404.092367	4522.398951
404.474067	4617.956543
404.855705	4633.851301
405.237282	4665.159387
405.618797	4898.847114
406.000250	4963.187361
406.381642	5166.429040
406.762972	5250.152523
407.144240	5359.275860
407.525447	5419.822638
407.906593	5508.950238
408.287677	5698.510225
408.668700	5683.359037
409.049661	5841.726886
409.430560	5921.994658
409.811399	5843.637483
410.192176	6136.218490
410.572891	6180.714235
410.953545	6415.858856
411.334138	6216.561880
411.714669	6406.106744
412.095139	6261.037460
412.475547	6520.704774
412.855894	6616.272448
413.236180	6801.151724
413.616405	6541.002980
413.996568	6771.633248
414.376670	6815.244269
414.756711	6737.318113
415.136691	6844.251069
415.516609	7055.861063
415.896466	7065.172074
416.276262	7269.555575
416.655997	7266.793022
417.035670	7464.295348
417.415283	7804.724467
417.794834	7853.386725
418.174324	7728.214875
418.553753	7651.596898
418.933121	7969.769323
419.312428	8073.604490
419.691674	7864.051286
420.070859	8342.804626
420.449983	8024.753188
420.829045	8389.609218
421.208047	8177.306065
421.586988	8462.353068
421.965867	8484.667736
422.344686	8599.449768
422.723444	8625.668809
423.102141	8007.184767
423.480777	8753.595650
423.859352	8278.565202
424.237866	8893.389366
424.616319	8766.236343
424.994712	9175.479733
425.373044	8742.923527
425.751314	9203.624495
426.129524	9065.572497
426.507673	9193.890027
426.885762	9347.098254
427.263789	9260.198844
427.641756	9182.113891
428.019662	9284.993759
428.397508	9524.524184
428.775292	9220.051094
429.153016	9593.156973
429.530679	9419.554758
429.908282	9466.558476
430.285824	9187.540693
430.663305	9862.057160
431.040726	9317.809150
431.418086	9306.882449
431.795385	9623.701324
432.172624	9712.634840
432.549802	9631.613415
432.926920	9712.395385
433.303977	9590.303680
433.680974	9790.140059
434.057910	9880.220438
434.434786	9946.922465
434.811601	9781.517166
435.188355	10350.781902
435.565050	10077.727804
435.941683	10010.536785
436.318257	10505.535243
436.694770	10638.994750
437.071222	10704.267610
437.447614	10550.739269
437.823946	10441.018556
438.200218	10578.417725
438.576429	10396.048943
438.952580	10636.103648
439.328670	10687.493170
439.704700	10476.543567
440.080670	10460.555548
440.456580	11021.048676
440.832429	10770.868814
441.208218	10374.135047
441.583947	10699.554131
441.959616	10843.443785
442.335224	10653.581328
442.710773	10792.311362
443.086261	11000.964719
443.461689	10279.028639
443.837057	10935.943917
444.212365	11210.553211
444.587612	10841.752478
444.962800	11076.745865
445.337927	10847.885042
445.712995	10444.373444
446.088002	11522.731704
446.462949	11187.668893
446.837837	11153.817545
447.212664	11138.341203
447.587431	11657.401088
447.962139	12381.746840
448.336786	14656.832174
448.711374	15192.679101
449.085901	13043.574723
449.460369	12660.812514
449.834776	12108.044954
450.209124	12994.993123
450.583412	13387.842681
450.957640	14350.758518
451.331808	13468.758241
451.705917	12473.271509
452.079965	11767.615835
452.453954	12679.250534
452.827883	12316.108497
453.201752	12601.263884
453.575562	12119.541305
453.949311	12543.262889
454.323001	12510.792817
454.696632	12731.212228
455.070202	13021.232329
455.443713	13246.370260
455.817164	13720.339544
456.190556	13702.496380
456.563888	14074.364656
456.937160	14236.417587
457.310373	13585.410541
457.683526	13667.263756
458.056619	13198.786809
458.429653	13370.092778
458.802628	12792.986527
459.175542	13158.228205
459.548398	14119.598929
459.921194	14458.301453
460.293930	14528.378533
460.666607	15393.816099
461.039224	16446.310719
461.411782	17145.959859
461.784280	17004.331162
462.156719	17066.907005
462.529099	16739.083291
462.901419	15677.234809
463.273680	15463.636079
463.645882	15347.578636
464.018024	15068.167642
464.390106	15285.527073
464.762130	16019.687952
465.134094	16778.477387
465.505999	18802.304052
465.877845	22061.841032
466.249631	24885.817278
466.621358	24548.412852
466.993026	23107.252831
467.364634	22535.845604
467.736184	21073.684137
468.107674	20273.761407
468.479105	20401.766385
468.850477	19871.542865
469.221790	19457.790163
469.593043	18779.626421
469.964238	18218.939208
470.335373	17865.995424
470.706449	18325.274787
471.077467	17888.804125
471.448425	19725.840916
471.819324	23794.830928
472.190164	25761.798418
472.560945	22173.500069
472.931667	19823.810699
473.302330	19197.427169
473.672934	18752.726824
474.043479	19044.211381
474.413965	18861.749338
474.784393	18482.145412
475.154761	19184.486527
475.525070	19162.784360
475.895321	18839.500205
476.265513	19427.286141
476.635645	20018.006028
477.005719	19800.243305
477.375734	19990.463684
477.745691	20472.738269
478.115588	20995.677323
478.485427	21533.137419
478.855207	22598.315583
479.224928	24378.339444
479.594591	26607.504908
479.964194	26601.276562
480.333739	26810.849930
480.703226	26378.782716
481.072653	26073.782826
481.442022	26658.304615
481.811333	27573.561384
482.180584	27493.086924
482.549777	26536.565791
482.918912	26196.771857
483.287988	26323.897154
483.657005	25966.496990
484.025964	25730.107204
484.394864	25627.701205
484.763706	25312.828215
485.132489	24748.622277
485.501213	24922.284985
485.869879	24829.714277
486.238487	24666.219576
486.607036	24801.272087
486.975527	24526.503997
487.343959	24833.628733
487.712333	24774.788386
488.080648	24430.054121
488.448905	24915.582771
488.817104	24678.918242
489.185244	25362.234043
489.553326	25316.861138
489.921350	26333.661869
490.289315	28637.315421
490.657222	30391.059748
491.025070	30894.565153
491.392861	30679.196978
491.760593	29813.509875
492.128267	28914.651980
492.495883	27855.709723
492.863440	26990.264596
493.230939	26109.322961
493.598380	25954.055422
493.965763	25552.978702
494.333088	25089.530305
494.700354	25036.119280
495.067563	24901.076851
495.434713	24663.454503
495.801805	24827.700336
496.168839	24626.603668
496.535815	24466.670542
496.902733	24679.097203
497.269593	24368.357960
497.636395	24548.062491
498.003139	24501.146993
498.369825	24243.826336
498.736453	24458.967659
499.103023	24320.850126
499.469535	24331.222300
499.835989	24557.370982
500.202385	24565.310799
500.568723	24085.667696
500.935003	24297.043277
501.301226	23944.031437
501.667390	24787.136692
502.033497	25011.329406
502.399546	24744.753191
502.765537	24291.003974
503.131470	24694.399626
503.497345	24817.451671
503.863163	24061.076948
504.228923	24628.831858
504.594625	24850.440981
504.960269	24393.357042
505.325856	24866.628126
505.691385	24270.506643
506.056856	24885.537494
506.422270	24861.629822
506.787625	24405.765842
507.152924	24822.656662
507.518164	24872.995104
507.883347	24671.301059
508.248472	24358.744479
508.613540	25136.150896
508.978550	24927.747076
509.343503	24936.075062
509.708398	25166.601986
510.073236	25335.306720
510.438016	25539.085282
510.802738	25196.758168
511.167403	25463.606606
511.532010	25184.349368
511.896561	25946.481089
512.261053	25912.602014
512.625488	25746.553968
512.989866	25636.876105
513.354186	25480.794420
513.718449	25585.852066
514.082655	25972.420346
514.446803	25701.649891
514.810894	26183.990011
515.174927	25665.005743
515.538904	25687.247314
515.902822	26195.718256
516.266684	25937.603617
516.630488	25851.377201
516.994235	25805.306096
517.357925	26128.973379
517.721558	26307.455431
518.085133	26408.616265
518.448651	26300.664996
518.812112	26044.864247
519.175516	26258.949448
519.538863	26416.593891
519.902152	26206.445831
520.265385	26475.741749
520.628560	26266.216272
520.991678	26266.929595
521.354739	26329.656672
521.717743	26402.508907
522.080690	26183.490937
522.443580	26518.891505
522.806413	26498.038772
523.169189	26611.999096
523.531908	26653.321434
523.894569	26269.127538
524.257174	26357.085590
524.619722	26522.221187
524.982213	26218.335392
525.344647	26264.383812
525.707025	26422.502123
526.069345	26380.317748
526.431608	26350.126277
526.793815	26516.950661
527.155964	25996.877504
527.518057	26169.776478
527.880093	26095.026249
528.242072	26320.869941
528.603995	26039.293772
528.965860	25828.936505
529.327669	25877.399637
529.689421	25863.049993
530.051117	25702.138882
530.412755	25876.116663
530.774337	25663.450547
531.135862	25547.221704
531.497331	25739.957619
531.858743	25312.185468
532.220098	25784.360102
532.581396	25482.800799
532.942638	25397.985906
533.303824	25508.062021
533.664953	25499.885270
534.026025	25176.142370
534.387040	25404.252061
534.747999	25459.432531
535.108902	25627.431503
535.469748	25111.819767
535.830537	25294.992613
536.191270	25414.712455
536.551947	25272.178871
536.912567	24917.392546
537.273131	25308.588605
537.633638	24981.896630
537.994089	25196.808580
538.354483	24733.849175
538.714821	25236.076648
539.075103	25280.390911
539.435328	25049.334665
539.795497	24621.562514
540.155609	24994.557487
540.515665	25302.955115
540.875665	24517.087122
541.235609	24848.671536
541.595496	24797.350070
541.955328	25155.496324
542.315102	25074.595887
542.674821	24601.559216
543.034483	24482.197296
543.394090	24637.253106
543.753640	24462.100736
544.113134	25091.090542
544.472571	24679.714745
544.831953	24976.248017
545.191278	24606.842345
545.550548	24514.226267
545.909761	24710.254055
546.268918	24946.570744
546.628019	24918.302474
546.987064	24606.925524
547.346053	24356.475960
547.704986	24471.714216
548.063863	24633.205059
548.422684	24646.080166
548.781449	24164.496219
549.140158	24571.314813
549.498811	24141.226253
549.857408	23900.153234
550.215949	24306.321520
550.574434	23991.887111
550.932864	24207.018351
551.291237	24381.800196
551.649555	24234.969029
552.007817	24293.726197
552.366022	24153.171267
552.724173	24173.960985
553.082267	24131.988338
553.440305	24608.798313
553.798288	23861.331309
554.156215	24367.188412
554.514086	24486.701567
554.871902	23859.609755
555.229661	24135.227279
555.587365	24002.902032
555.945014	23874.138360
556.302606	24107.059832
556.660143	24075.603032
557.017625	24318.158150
557.375050	23847.478218
557.732421	24226.560384
558.089735	24050.482963
558.446994	24108.647796
558.804197	24136.081755
559.161345	24066.889398
559.518437	23833.151259
559.875474	24016.651779
560.232455	24188.250136
560.589381	24014.257231
560.946251	24006.622404
561.303065	24314.284023
561.659825	24407.419340
562.016528	24008.701880
562.373177	23751.910544
562.729770	24102.036322
563.086307	23964.836279
563.442789	24132.517659
563.799216	23965.060611
564.155587	23972.992866
564.511904	23960.833603
564.868164	23900.493512
565.224370	23879.252611
565.580520	23788.625267
565.936615	23922.871194
566.292654	23611.547177
566.648638	23877.042065
567.004567	23705.504202
567.360441	23665.321165
567.716260	23392.440987
568.072023	23703.147463
568.427732	23479.060613
568.783385	23243.921033
569.138982	23484.966324
569.494525	23529.648591
569.850013	23281.749851
570.205445	23374.265106
570.560823	23190.225182
570.916145	22957.976704
571.271412	23137.167038
571.626625	22891.272156
571.981782	22996.891891
572.336884	22810.149909
572.691931	22938.601029
573.046923	22679.470598
573.401860	22554.870919
573.756743	22578.425710
574.111570	22475.722283
574.466342	22400.604050
574.821059	22485.333243
575.175722	22190.806350
575.530330	22169.371364
575.884882	22183.907531
576.239380	22094.071649
576.593823	21979.740800
576.948211	21966.626238
577.302544	21821.652736
577.656823	21679.401457
578.011047	21779.430552
578.365216	21651.133187
578.719330	21528.852438
579.073389	21419.466962
579.427394	21563.890978
579.781344	21339.831854
580.135239	21210.027184
580.489080	21176.468223
580.842866	20957.694749
581.196597	21152.056435
581.550273	21113.607555
581.903895	21002.354331
582.257463	21308.556536
582.610975	20854.207422
582.964434	21175.160043
583.317837	20857.642968
583.671186	20945.898449
584.024481	20925.743916
584.377721	20684.628048
584.730906	20771.829927
585.084037	20767.789442
585.437113	20681.321051
585.790135	20891.718648
586.143103	20349.532469
586.496016	20367.783967
586.848874	20610.167685
587.201679	20526.625683
587.554428	20220.423478
587.907124	20548.211904
588.259765	20308.121911
588.612352	20392.634335
588.964884	19957.426482
589.317362	20126.915116
589.669786	20184.341420
590.022155	20208.284380
590.374470	20420.506874
590.726731	20194.116217
591.078937	19981.649226
591.431090	20072.516024
591.783188	19829.010650
592.135232	19789.903899
592.487222	19887.087263
592.839157	19903.085364
593.191038	19783.741088
593.542866	19678.154121
593.894639	19387.544204
594.246358	19605.780796
594.598022	19505.113994
594.949633	19258.223485
595.301190	19228.001767
595.652692	19395.042921
596.004141	19636.670466
596.355535	18950.937432
596.706876	18972.793354
597.058162	18873.074290
597.409395	19102.290514
597.760573	19162.146654
598.111698	18938.919321
598.462768	18878.012100
598.813785	18851.858594
599.164748	18658.989089
599.515657	18699.847641
599.866511	18496.578235
600.217312	18848.223922
600.568060	18372.182723
600.918753	18680.119085
601.269392	18585.466381
601.619978	18366.660139
601.970510	18561.566270
602.320988	18509.062653
602.671412	18722.971413
603.021783	18638.582498
603.372100	18348.708590
603.722363	18501.778186
604.072572	18453.675496
604.422728	18592.680272
604.772830	18347.332355
605.122878	18301.896436
605.472872	18294.763203
605.822813	18275.385008
606.172701	18253.153519
606.522534	18429.485519
606.872314	18463.362073
607.222041	18298.213873
607.571714	18519.263428
607.921333	18337.575202
608.270899	18420.270290
608.620411	18590.235312
608.969870	18374.388228
609.319276	18367.320530
609.668627	18396.954953
610.017926	18536.161375
610.367171	18648.642121
610.716362	18690.095529
611.065500	18513.718158
611.414585	18655.109921
611.763616	18633.800964
612.112594	18575.154700
612.461518	18537.829997
612.810389	18735.574298
613.159207	18597.577753
613.507971	18505.909411
613.856682	18772.384803
614.205340	18694.128452
614.553945	18849.340538
614.902496	18586.363706
615.250994	18809.669177
615.599439	18761.828627
615.947830	18744.955885
616.296169	18812.096493
616.644454	18766.655532
616.992686	18746.329600
617.340864	18963.013516
617.688990	18710.391214
618.037063	18891.325787
618.385082	18742.825998
618.733048	19007.710906
619.080961	18895.877949
619.428821	18925.479605
619.776628	18802.334298
620.124382	18735.173526
620.472083	18788.851733
620.819731	18797.162075
621.167326	18489.903748
621.514868	18522.777112
621.862357	18303.781827
622.209793	18301.941806
622.557176	18133.899984
622.904506	17968.499726
623.251783	17898.573881
623.599007	17646.758164
623.946179	17590.539216
624.293297	17520.678906
624.640363	17261.442611
624.987376	17288.581663
625.334336	17099.634175
625.681243	16936.187365
626.028097	16944.386802
626.374899	16871.504320
626.721647	16738.052375
627.068343	16569.025007
627.414987	16501.138308
627.761577	16467.476004
628.108115	16506.660892
628.454600	16228.235445
628.801032	16329.771845
629.147412	16262.588388
629.493739	16278.044566
629.840014	16081.651294
630.186236	16180.835996
630.532405	15952.559947
630.878521	16153.893549
631.224585	16049.788681
631.570597	15869.451485
631.916556	15897.989457
632.262462	15876.882145
632.608316	15797.385670
632.954117	15739.805611
633.299866	15734.696401
633.645562	15649.964687
633.991206	15409.504169
634.336797	15284.806188
634.682336	15248.766979
635.027823	15126.881961
635.373257	15004.412170
635.718639	14905.497170
636.063968	14856.698800
636.409245	14607.222179
636.754470	14637.771571
637.099642	14485.410258
637.444762	14263.919602
637.789829	14301.335046
638.134845	14127.916833
638.479808	14165.397812
638.824719	14093.843674
639.169577	13952.376294
639.514383	13996.738448
639.859137	13823.176562
640.203839	13916.359771
640.548489	13760.265483
640.893086	13741.429212
641.237632	13620.403711
641.582125	13765.102470
641.926566	13582.257299
642.270955	13605.592801
642.615292	13558.203434
642.959576	13573.342019
643.303809	13594.981172
643.647990	13534.457079
643.992118	13592.006891
644.336195	13364.078682
644.680219	13587.777363
645.024192	13490.783042
645.368112	13741.772010
645.711981	13788.090132
646.055797	13975.200118
646.399562	13955.413589
646.743274	14218.294639
647.086935	14487.154497
647.430544	14449.043374
647.774101	14492.982071
648.117606	14636.549091
648.461059	14605.150265
648.804460	14585.918263
649.147810	14318.674094
649.491108	14226.632707
649.834354	14242.918155
650.177548	13927.987192
650.520690	13738.331422
650.863781	13653.330007
651.206820	13710.917628
651.549807	13529.597406
651.892742	13323.494872
652.235626	13259.242846
652.578458	13276.844035
652.921238	12961.527423
653.263967	13167.118280
653.606644	12982.496103
653.949269	12966.742497
654.291843	12770.898711
654.634365	12924.827823
654.976836	12781.099486
655.319255	12779.642593
655.661622	12741.541552
656.003938	12660.275631
656.346203	12587.834251
656.688416	12670.234431
657.030577	12627.765230
657.372687	12526.969880
657.714746	12515.357582
658.056753	12708.204402
658.398708	12517.114424
658.740612	12523.378057
659.082465	12623.926392
659.424266	12593.051845
659.766016	12617.909774
660.107715	12526.496011
660.449362	12604.495264
660.790958	12557.829303
661.132503	12499.177998
661.473996	12573.784555
661.815438	12579.458373
662.156829	12608.573558
662.498168	12587.078078
662.839456	12586.528592
663.180693	12598.720622
663.521879	12692.876773
663.863013	12669.400120
664.204097	12642.447591
664.545129	12774.359463
664.886110	12744.483065
665.227040	12839.770955
665.567918	12833.509842
665.908746	12855.446423
666.249522	12847.032737
666.590248	12897.313206
666.930922	13013.302594
667.271545	12985.084735
667.612118	13081.421185
667.952639	12971.382879
668.293109	13001.090399
668.633528	12947.936473
668.973896	12923.764140
669.314213	12994.988082
669.654480	12737.959812
669.994695	12814.925628
670.334859	12845.941328
670.674973	12780.486986
671.015035	12809.445894
671.355047	12758.857915
671.695008	12728.918503
672.034918	12746.943148
672.374777	12785.500413
672.714585	12693.189325
673.054342	12735.454359
673.394049	12688.375023
673.733705	12781.585957
674.073310	12686.378726
674.412864	12695.004140
674.752368	12558.421638
675.091820	12590.493459
675.431223	12573.083834
675.770574	12432.125611
676.109875	12355.036287
676.449125	12313.386273
676.788324	12265.412133
677.127473	12091.739342
677.466571	12082.435892
677.805619	11980.251704
678.144616	11903.863100
678.483562	11875.819161
678.822458	11746.536250
679.161303	11721.547250
679.500098	11713.980478
679.838842	11667.387614
680.177535	11693.084896
680.516179	11762.468817
680.854771	11694.637571
681.193314	11918.240470
681.531805	12083.187024
681.870247	12515.617201
682.208638	12925.142896
682.546978	13229.210172
682.885268	13259.429369
683.223508	12964.910038
683.561697	12810.620483
683.899836	12716.529867
684.237925	12506.596056
684.575963	12425.715784
684.913951	12342.735871
685.251889	12295.401957
685.589776	12398.463306
685.927614	12317.555308
686.265401	12282.834361
686.603137	12338.634892
686.940824	12487.520330
687.278460	12622.371196
687.616046	12662.077844
687.953582	12818.527533
688.291068	12761.799429
688.628504	12993.939522
688.965889	12997.818690
689.303224	12952.833954
689.640510	12845.069208
689.977745	12527.022812
690.314930	12309.141622
690.652065	12213.301726
690.989150	11929.368818
691.326185	11694.753518
691.663170	11480.751496
692.000105	11249.448234
692.336990	11129.776282
692.673825	10875.442509
693.010610	10761.799778
693.347345	10545.327591
693.684030	10360.564261
694.020665	10294.535228
694.357251	10099.172873
694.693786	10030.812306
695.030272	9870.112924
695.366707	9753.246375
695.703093	9690.519298
696.039429	9683.519656
696.375716	9603.571997
696.711952	9474.218510
697.048139	9518.152165
697.384276	9473.646339
697.720363	9495.040996
698.056400	9426.942569
698.392388	9372.810659
698.728326	9331.062343
699.064214	9277.432028
699.400053	9319.051794
699.735842	9136.521696
700.071581	9091.365560
700.407270	9023.899798
700.742910	8942.071789
701.078501	8849.473355
701.414042	8718.917552
701.749533	8658.642996
702.084974	8518.879527
702.420366	8638.533834
702.755709	8509.329061
703.091002	8381.452632
703.426246	8411.034122
703.761440	8360.514199
704.096584	8315.705903
704.431679	8251.484124
704.766725	8231.715239
705.101721	8186.347375
705.436668	8238.581290
705.771565	8129.533571
706.106413	8212.518525
706.441212	8250.180985
706.775961	8210.950726
707.110661	8252.668795
707.445311	8385.573775
707.779913	8281.831870
708.114465	8413.547138
708.448967	8453.457952
708.783421	8606.698947
709.117825	8784.623952
709.452180	8812.486409
709.786485	8908.669104
710.120742	9199.919247
710.454949	9191.182927
710.789107	9297.170666
711.123216	9513.383234
711.457275	9694.557262
711.791286	9839.734931
712.125247	9840.632256
712.459159	9830.267644
712.793023	10061.137367
713.126837	9639.389395
713.460602	9797.651379
713.794318	9624.500347
714.127985	9646.104212
714.461602	9312.223551
714.795171	9268.738558
715.128691	9015.995269
715.462162	8769.439996
715.795584	8709.873722
716.128957	8556.420999
716.462281	8385.856079
716.795556	8431.327287
717.128782	8225.696101
717.461960	7969.519786
717.795088	8039.753142
718.128167	7945.100437
718.461198	7783.566744
718.794180	7728.466933
719.127113	7715.783390
719.459997	7557.554173
719.792833	7332.829617
720.125619	7396.935450
720.458357	7250.852894
720.791046	7242.403920
721.123686	7237.138435
721.456278	7070.742549
721.788821	7092.984120
722.121315	6988.690209
722.453761	7059.601599
722.786158	6998.727146
723.118506	7013.527974
723.450805	6973.375183
723.783056	7035.119236
724.115259	6951.012625
724.447412	6955.773995
724.779518	7002.049266
725.111574	7002.099678
725.443582	7080.497182
725.775542	7053.844602
726.107453	7256.408245
726.439315	7165.612023
726.771129	7232.687096
727.102895	7410.972543
727.434612	7514.807709
727.766281	7554.589975
728.097901	7629.083105
728.429473	7624.944318
728.760996	7615.872762
729.092471	7584.799089
729.423897	7522.959255
729.755276	7529.341356
730.086606	7448.655168
730.417887	7556.402270
730.749120	7762.703929
731.080305	7950.600336
731.411442	8066.708191
731.742530	8051.062970
732.073570	8168.080754
732.404562	8252.343640
732.735506	8104.597503
733.066401	8244.290397
733.397249	8165.451792
733.728048	7924.643435
734.058798	7592.297806
734.389501	7358.544543
734.720156	7181.814292
735.050762	6955.133768
735.381320	6866.021292
735.711831	6807.168341
736.042293	6702.967691
736.372707	6720.616771
736.703073	6585.886893
737.033391	6620.673375
737.363661	6634.821373
737.693883	6671.256313
738.024056	6752.532316
738.354182	6790.144364
738.684260	6821.064282
739.014290	6948.802079
739.344272	7051.742440
739.674207	7088.588234
740.004093	7159.479460
740.333931	7172.672159
740.663722	7181.121133
740.993464	7256.841785
741.323159	7240.644557
741.652806	6990.462174
741.982405	7016.343458
742.311956	7066.253402
742.641460	6886.269086
742.970915	6695.713471
743.300323	6684.859866
743.629683	6645.649772
743.958996	6506.748339
744.288260	6412.178814
744.617477	6365.379262
744.946647	6362.810794
745.275768	6198.791812
745.604842	6148.115613
745.933869	6134.499457
746.262847	6093.890442
746.591778	6084.085398
746.920662	6041.616197
747.249498	6034.167892
747.578286	6088.042704
747.907027	6161.063817
748.235720	6217.706222
748.564365	6190.231933
748.892963	6231.892029
749.221514	6374.907043
749.550017	6191.598086
749.878473	6076.226239
750.206881	6138.550024
750.535242	6084.818886
750.863555	6013.410942
751.191821	6024.534247
751.520039	6020.090470
751.848210	5929.568991
752.176334	5959.246264
752.504411	6006.020610
752.832440	5931.986225
753.160421	5863.605493
753.488356	5907.723151
753.816243	5937.402944
754.144082	5790.349966
754.471875	5762.689155
754.799620	5800.517973
755.127318	5815.321322
755.454969	5774.843377
755.782572	5740.442543
756.110129	5778.256238
756.437638	5764.007417
756.765100	5704.897367
757.092515	5703.057346
757.419882	5762.701758
757.747203	5740.404734
758.074477	5798.352798
758.401703	5783.186487
758.728882	5739.701493
759.056014	5805.934693
759.383099	5926.204021
759.710138	5929.667294
760.037129	5917.545839
760.364073	5926.874495
760.690970	6012.412793
761.017820	5985.001519
761.344623	5946.517351
761.671379	6057.142951
761.998088	6179.927815
762.324751	6428.607934
762.651366	7058.542957
762.977935	8406.860047
763.304456	10059.846831
763.630931	10935.817888
763.957359	10503.526343
764.283740	9547.476557
764.610074	8679.036984
764.936362	7681.203595
765.262602	7089.351969
765.588796	6552.690895
765.914943	6221.371141
766.241044	6050.670110
766.567097	5844.744016
766.893104	5582.634263
767.219064	5405.150360
767.544978	5345.281617
767.870845	5265.717085
768.196665	5158.143903
768.522438	5086.864509
768.848165	5052.415784
769.173846	4979.984485
769.499479	4938.762970
769.825066	4887.292790
770.150607	4829.357329
770.476101	4800.393380
770.801548	4798.006393
771.126949	4718.414136
771.452303	4662.923635
771.777611	4627.827122
772.102872	4645.254391
772.428087	4603.886682
772.753256	4562.014858
773.078378	4516.137838
773.403453	4445.801139
773.728482	4432.704221
774.053465	4388.957088
774.378401	4378.821848
774.703291	4372.994274
775.028135	4300.321000
775.352932	4250.448865
775.677683	4243.509717
776.002388	4258.857510
776.327046	4264.977471
776.651658	4195.240669
776.976224	4131.588540
777.300743	4136.118017
777.625216	4159.627438
777.949643	4152.441273
778.274024	4108.316053
778.598359	4070.824992
778.922647	4095.700566
779.246889	4085.020881
779.571086	4075.798090
779.895236	4063.265782
780.219339	4050.831776
780.543397	4042.254253
780.867409	4097.424640
781.191374	4108.810086
781.515294	4043.401115
781.839167	4036.933315
782.162995	4058.060791
782.486776	4045.092422
782.810511	4056.150193
783.134201	4049.579049
783.457844	4003.729755
783.781441	3949.013071
784.104993	3950.490129
784.428498	3972.547698
784.751958	3969.351606
785.075372	3947.599027
785.398739	3913.946805
785.722061	3923.915687
786.045337	3969.578458
786.368568	3996.969568
786.691752	3906.851381
787.014891	3965.250628
787.337983	4096.234928
787.661030	4257.506481
787.984031	4422.281635
788.306987	4587.475206
788.629897	4672.864790
788.952760	4623.653046
789.275579	4560.671391
789.598351	4491.226976
789.921078	4342.429758
790.243759	4143.326867
790.566395	4131.916215
790.888984	4125.904639
791.211529	4015.828524
791.534027	3954.646561
791.856480	3937.279786
792.178888	3879.407339
792.501249	3835.075433
792.823566	3845.064479
793.145836	3872.291751
793.468062	3815.417453
793.790241	3771.735855
794.112375	3806.250115
794.434464	3868.556256
794.756507	3893.290677
795.078505	3869.947614
795.400457	3908.446906
795.722364	4053.533834
796.044226	4159.715658
796.366042	4234.317173
796.687812	4210.225499
797.009538	4209.134089
797.331218	4172.489942
797.652852	4148.680572
797.974442	4126.378507
798.295986	4119.945995
798.617484	4035.461298
798.938938	3952.557002
799.260346	3996.629290
799.581709	3987.875326
799.903026	3910.133172
800.224299	3877.143861
800.545526	3872.032131
800.866708	3833.600895
801.187845	3774.102677
801.508936	3810.915703
801.829983	3800.326759
802.150984	3723.539904
802.471940	3716.620920
802.792851	3723.789441
803.113717	3726.327662
803.434538	3726.874627
803.755314	3667.557890
804.076045	3645.822955
804.396731	3668.041841
804.717372	3690.999256
805.037967	3677.511648
805.358518	3665.120492
805.679024	3693.497147
805.999485	3706.919219
806.319901	3714.896845
806.640272	3725.011921
806.960598	3738.970876
807.280879	3713.606310
807.601115	3726.615008
807.921306	3745.428594
808.241453	3782.377731
808.561554	3755.798247
808.881611	3690.923638
809.201623	3730.151377
809.521590	3741.841813
809.841513	3715.116136
810.161390	3744.322060
810.481223	3718.229048
810.801011	3665.743075
811.120755	3661.019514
811.440453	3694.023948
811.760107	3694.399514
812.079716	3649.946619
812.399281	3623.306642
812.718801	3645.845641
813.038276	3614.081330
813.357707	3614.295579
813.677093	3633.162097
813.996434	3578.034560
814.315731	3586.836414
814.634983	3596.943928
814.954191	3607.772326
815.273354	3637.641163
815.592473	3629.983650
815.911547	3639.541678
816.230577	3683.974408
816.549562	3735.230339
816.868502	3776.903038
817.187399	3797.390287
817.506250	3796.074546
817.825058	3771.861884
818.143821	3865.655072
818.462539	3966.452943
818.781213	4012.443389
819.099843	4074.424376
819.418429	4334.026155
819.736970	4576.563628
820.055466	4828.797761
820.373919	5202.266603
820.692327	5610.804231
821.010691	6088.420790
821.329011	7534.785802
821.647286	10393.319158
821.965517	15095.488176
822.283704	19135.166399
822.601847	21201.898323
822.919945	19284.066960
823.237999	16644.997716
823.556010	14130.155105
823.873976	11979.208185
824.191897	9867.378098
824.509775	8514.077828
824.827609	7387.896661
825.145398	6851.475042
825.463144	6735.674697
825.780845	6850.360947
826.098502	7056.103038
826.416116	7982.558731
826.733685	9344.393675
827.051210	10453.679414
827.368692	10437.464542
827.686129	9117.917318
828.003522	7601.959177
828.320872	6578.017652
828.638177	5866.509198
828.955439	5299.540707
829.272656	4794.207884
829.589830	4519.427191
829.906960	4339.435313
830.224046	4148.904903
830.541088	4028.605329
830.858086	3977.787977
831.175041	3902.941966
831.491952	3888.912435
831.808819	3897.714290
832.125642	3979.575066
832.442421	4132.309425
832.759157	4415.786109
833.075849	4989.792050
833.392497	5881.247011
833.709101	6668.803791
834.025662	6987.220712
834.342179	6586.781698
834.658653	5906.389766
834.975083	5252.756279
835.291469	4663.359695
835.607811	4263.823047
835.924110	4121.730564
836.240366	3917.150458
836.556578	3710.682441
836.872746	3605.773509
837.188871	3561.469328
837.504952	3493.338134
837.820990	3410.668252
838.136984	3367.828527
838.452935	3389.729819
838.768842	3386.173285
839.084706	3409.753283
839.400526	3577.933737
839.716303	3934.229887
840.032037	4474.669306
840.347727	4722.356318
840.663373	4421.338940
840.978977	4031.947614
841.294537	3721.571333
841.610054	3494.507682
841.925527	3388.088924
842.240957	3318.117708
842.556344	3262.632249
842.871687	3202.163608
843.186987	3150.758962
843.502244	3115.680093
843.817458	3081.768252
844.132629	3051.362532
844.447756	3061.104562
844.762840	3046.840617
845.077881	3008.258146
845.392879	2991.806341
845.707833	2991.541680
846.022745	2989.552945
846.337613	2988.695949
846.652438	2975.972076
846.967221	2975.593990
847.281960	2959.459777
847.596656	2957.032461
847.911309	2957.541618
848.225919	2948.651543
848.540485	2946.670370
848.855009	2945.825976
849.169490	2932.953390
849.483928	2925.520209
849.798323	2926.321752
850.112675	2925.006011
850.426984	2935.829368
850.741251	2930.536157
851.055474	2921.378901
851.369654	2916.105854
851.683792	2918.729774
851.997887	2926.346958
852.311938	2932.587906
852.625947	2919.032244
852.939914	2922.999632
853.253837	2927.362750
853.567718	2912.085534
853.881555	2911.548651
854.195350	2928.595313
854.509103	2923.002152
854.822812	2914.326327
855.136479	2909.698547
855.450103	2910.311048
855.763685	2903.941550
856.077224	2904.092784
856.390720	2915.125349
856.704173	2926.173038
857.017584	2919.017120
857.330953	2915.868920
857.644278	2923.909560
857.957561	2931.897268
858.270802	2936.908175
858.584000	2935.932712
858.897155	2920.489137
859.210268	2920.569796
859.523339	2919.009558
859.836367	2921.141967
860.149352	2912.100657
860.462295	2908.796181
860.775195	2917.504774
861.088054	2915.659712
861.400869	2901.307547
861.713642	2897.781260
862.026373	2913.784403
862.339062	2914.757345
862.651708	2922.472831
862.964312	2923.309663
863.276873	2917.396389
863.589392	2928.038265
863.901869	2940.179884
864.214303	2965.839357
864.526696	2978.147334
864.839045	2974.552992
865.151353	2972.448310
865.463619	2973.161633
865.775842	2972.400419
866.088023	2990.921618
866.400162	2999.673061
866.712258	2967.729790
867.024313	2956.848459
867.336325	2968.150726
867.648296	2990.288953
867.960224	2978.152375
868.272110	2967.613843
868.583954	2974.121973
868.895755	2986.838283
869.207515	2973.842189
869.519233	2980.284783
869.830909	2990.934221
870.142542	2999.857063
870.454134	2999.673061
870.765684	3003.809328
871.077191	3001.500479
871.388657	3010.506501
871.700081	3020.893798
872.011463	3035.918957
872.322803	3033.151364
872.634101	3034.043648
872.945357	3053.736916
873.256571	3077.503435
873.567744	3070.065213
873.878874	3062.838719
874.189963	3089.032554
874.501010	3087.288315
874.812015	3076.202818
875.122979	3076.916141
875.433900	3075.320616
875.744780	3083.779672
876.055618	3090.517174
876.366415	3084.850917
876.677169	3097.252156
876.987882	3093.592278
877.298554	3088.351998
877.609183	3111.334619
877.919771	3136.731952
878.230317	3162.794717
878.540822	3217.571895
878.851285	3257.903646
879.161707	3302.137251
879.472087	3410.040628
879.782425	3652.348729
880.092722	4103.468984
880.402977	4649.181449
880.713191	5300.478362
881.023363	6511.451736
881.333494	7822.809606
881.643583	8360.390691
881.953631	8040.526959
882.263637	7368.584001
882.573602	6756.482060
882.883526	6164.050701
883.193408	5585.792546
883.503248	5128.348164
883.813048	4815.421059
884.122806	4496.772245
884.432522	4171.718645
884.742197	3932.964558
885.051831	3735.963827
885.361424	3605.367696
885.670975	3530.090666
885.980485	3441.207562
886.289954	3361.393494
886.599382	3317.008655
886.908768	3280.702265
887.218113	3236.083012
887.527417	3175.513548
887.836680	3123.564458
888.145901	3117.575567
888.455082	3104.607199
888.764221	3053.600804
889.073319	3028.934439
889.382376	3024.586443
889.691392	3030.648431
890.000366	3027.714479
890.309300	3013.579084
890.618193	3025.907226
890.927044	3044.917417
891.235855	3045.184598
891.544625	3030.245139
891.853353	3044.733415
892.162041	3064.509861
892.470687	3103.480501
892.779293	3155.248110
893.087858	3204.648897
893.396381	3276.540792
893.704864	3410.149013
894.013306	3654.012310
894.321707	3969.540650
894.630068	4172.305940
894.938387	4163.342768
895.246665	4117.027167
895.554903	3991.462107
895.863100	3781.936630
896.171256	3613.516721
896.479371	3469.251501
896.787446	3343.101667
897.095480	3241.293044
897.403473	3176.282324
897.711425	3135.927888
898.019336	3130.841364
898.327207	3095.593616
898.635038	3061.601116
898.942827	3048.287428
899.250576	3034.948535
899.558284	3002.821262
899.865952	2984.347953
900.173579	2959.553038
900.481165	2955.431895
900.788711	2942.813887
901.096216	2917.847573
901.403681	2906.356262
901.711105	2912.650143
902.018489	2907.795512
902.325832	2912.771131
902.633135	2921.305804
902.940397	2957.090435
903.247619	3047.218704
903.554800	3247.120618
903.861941	3611.956484
904.169041	4055.101633
904.476101	4351.632385
904.783121	4286.019247
905.090100	4031.496430
905.397039	3748.556630
905.703938	3491.533401
906.010796	3309.159578
906.317614	3194.725386
906.624391	3096.521188
906.931129	3023.356402
907.237826	2960.278964
907.544483	2914.583425
907.851099	2880.656460
908.157675	2859.221474
908.464211	2840.143227
908.770707	2828.299036
909.077163	2813.253712
909.383578	2798.465488
909.689954	2787.528704
909.996289	2789.658592
910.302584	2789.653551
910.608839	2787.158180
910.915054	2779.989659
911.221229	2774.777106
911.527363	2778.764658
911.833458	2785.481996
912.139513	2790.044240
912.445527	2789.910650
912.751502	2798.309212
913.057436	2812.106850
913.363331	2820.346616
913.669186	2846.447190
913.975000	2883.824825
914.280775	2946.420833
914.586510	3019.131915
914.892205	3102.494956
915.197859	3236.534195
915.503475	3440.632870
915.809050	3662.345337
916.114585	3812.072647
916.420081	3825.482117
916.725536	3760.173969
917.030952	3637.041265
917.336328	3505.510000
917.641665	3369.784494
917.946961	3264.187445
918.252218	3190.556352
918.557435	3113.459465
918.862612	3049.527552
919.167750	3000.867815
919.472848	2959.618573
919.777906	2934.317022
920.082925	2906.721746
920.387904	2875.716129
920.692843	2857.777183
920.997743	2843.261181
921.302603	2832.089984
921.607423	2823.051195
921.912204	2809.717343
922.216946	2793.933490
922.521647	2786.391924
922.826310	2779.500667
923.130932	2770.514810
923.435516	2765.980292
923.740059	2756.127357
924.044564	2746.773496
924.349028	2741.790316
924.653454	2733.757237
924.957840	2729.026114
925.262186	2724.690722
925.566493	2720.279712
925.870761	2716.027499
926.174989	2711.480378
926.479178	2706.943340
926.783328	2704.077444
927.087438	2703.895962
927.391509	2701.146013
927.695541	2698.844726
927.999533	2695.550332
928.303486	2690.259641
928.607400	2687.418951
928.911275	2687.877696
929.215110	2688.064218
929.518906	2686.032633
929.822663	2687.295442
930.126381	2685.599094
930.430060	2686.655216
930.733699	2689.221163
931.037299	2690.758715
931.340861	2690.738551
931.644383	2690.960361
931.947866	2687.696214
932.251309	2688.480114
932.554714	2686.902232
932.858080	2684.764783
933.161407	2684.053981
933.464694	2683.852334
933.767943	2678.372600
934.071153	2682.140863
934.374323	2680.573064
934.677455	2681.210770
934.980548	2680.137004
935.283602	2677.878567
935.586617	2678.828825
935.889593	2677.934020
936.192530	2678.178516
936.495428	2678.725481
936.798287	2680.608352
937.101108	2685.536080
937.403890	2688.185206
937.706632	2694.529498
938.009336	2700.102494
938.312002	2707.392002
938.614628	2716.977756
938.917216	2723.720300
939.219765	2723.256513
939.522275	2725.391442
939.824747	2722.112172
940.127179	2716.143445
940.429573	2716.939948
940.731929	2714.310986
941.034246	2708.735470
941.336524	2705.602393
941.638763	2704.652135
941.940964	2700.251208
942.243126	2700.987216
942.545250	2700.278934
942.847335	2696.480425
943.149381	2691.449353
943.451389	2687.381142
943.753359	2685.944413
944.055290	2684.568178
944.357182	2681.911490
944.659036	2682.576922
944.960851	2681.152797
945.262628	2680.678928
945.564367	2683.270081
945.866067	2682.332427
946.167729	2683.265040
946.469352	2682.181192
946.770937	2682.095492
947.072484	2681.246058
947.373992	2677.732374
947.675462	2676.880419
947.976893	2674.160716
948.278286	2672.850016
948.579641	2672.789522
948.880958	2670.528565
949.182236	2670.841116
949.483476	2670.974707
949.784678	2672.567712
950.085841	2674.037208
950.386967	2672.144255
950.688054	2674.513597
950.989103	2671.514110
951.290114	2673.288597
951.591087	2677.399657
951.892021	2679.905111
952.192917	2683.302849
952.493776	2682.977694
952.794596	2683.743950
953.095378	2682.397962
953.396122	2684.449711
953.696828	2681.765297
953.997496	2679.027950
954.298126	2678.624658
954.598718	2675.484019
954.899272	2673.205417
955.199788	2673.719615
955.500266	2669.989161
955.800706	2663.102945
956.101108	2663.105466
956.401472	2664.211999
956.701798	2659.864004
957.002087	2658.523057
957.302337	2657.020793
957.602550	2657.527429
957.902724	2653.265133
958.202861	2651.362098
958.502960	2651.745226
958.803022	2652.793786
959.103045	2652.113230
959.403031	2648.700369
959.702979	2648.811274
960.002889	2647.513177
960.302762	2646.023516
960.602596	2647.354381
960.902393	2648.644916
961.202153	2647.261119
961.501875	2645.143835
961.801559	2647.256078
962.101205	2646.751963
962.400814	2643.102167
962.700385	2646.658701
962.999918	2640.783237
963.299414	2639.631333
963.598873	2641.060500
963.898293	2639.933802
964.197677	2644.954791
964.497022	2644.851448
964.796331	2643.845737
965.095601	2643.414719
965.394835	2642.953453
965.694030	2643.707106
965.993189	2644.680048
966.292309	2643.691982
966.591393	2645.322796
966.890439	2643.707106
967.189447	2644.680048
967.488419	2641.814152
967.787353	2645.544606
968.086249	2642.111581
968.385108	2644.178454
968.683930	2641.504122
968.982714	2645.063176
969.281462	2643.427322
969.580172	2641.378093
969.878844	2640.190901
970.177480	2641.718371
970.476078	2644.133083
970.774639	2642.698875
971.073162	2645.884884
971.371649	2645.723567
971.670098	2646.164668
971.968510	2641.925058
972.266885	2643.936478
972.565223	2642.955974
972.863524	2641.874646
973.161788	2643.417239
973.460014	2641.993113
973.758204	2643.752476
974.056356	2643.893628
974.354471	2644.450676
974.652550	2643.245840
974.950591	2643.923875
975.248595	2642.892959
975.546563	2642.202321
975.844493	2642.542599
976.142386	2642.159472
976.440243	2640.755510
976.738062	2640.652167
977.035845	2642.066210
977.333590	2640.069913
977.631299	2640.780716
977.928971	2641.854482
978.226606	2640.468164
978.524204	2640.105201
978.821765	2638.633184
979.119290	2636.863739
979.416777	2638.852475
979.714228	2640.843730
980.011642	2638.711322
980.309020	2642.298103
980.606360	2638.996147
980.903664	2641.627630
981.200931	2640.553864
981.498162	2641.136117
981.795356	2643.213073
982.092513	2643.167702
982.389633	2647.009062
982.686717	2652.118271
982.983764	2651.127684
983.280775	2656.476348
983.577749	2658.449960
983.874686	2657.620690
984.171587	2655.596667
984.468451	2653.068528
984.765279	2652.992911
985.062070	2652.992911
985.358824	2647.664412
985.655543	2647.170378
985.952224	2644.929586
986.248869	2644.717857
986.545478	2641.531848
986.842050	2641.546971
987.138586	2642.580408
987.435086	2642.232568
987.731549	2640.137969
988.027975	2641.042856
988.324366	2638.965901
988.620719	2640.493370
988.917037	2636.629326
989.213318	2636.213431
989.509563	2639.250726
989.805772	2638.111425
990.101944	2637.088071
990.398080	2634.950622
990.694180	2638.239974
990.990244	2639.711991
991.286271	2636.977165
991.582262	2638.108904
991.878217	2636.437762
992.174136	2639.381796
992.470019	2636.707464
992.765865	2634.907772
993.061676	2635.134624
993.357450	2635.358955
993.653188	2634.214613
993.948890	2639.074285
994.244556	2637.312402
994.540186	2635.379120
994.835780	2638.731487
995.131337	2637.009933
995.426859	2637.685447
995.722345	2643.722229
996.017795	2640.327012
996.313208	2639.744759
996.608586	2640.236271
996.903928	2641.640233
997.199234	2642.182157
997.494504	2641.557054
997.789738	2640.984883
998.084936	2639.815335
998.380099	2640.689975
998.675225	2642.053607
998.970316	2638.388688
999.265371	2640.659728
999.560390	2642.071251
999.855373	2638.366003
1000.150320	2639.525469
1000.445232	2637.110756
1000.740108	2639.228041
1001.034948	2638.182001
1001.329752	2638.343318
1001.624521	2634.098667
1001.919254	2635.502628
1002.213951	2635.913482
1002.508613	2636.321815
1002.803239	2635.926085
1003.097829	2635.013636
1003.392384	2633.072792
1003.686903	2634.222175
1003.981386	2633.982720
1004.275834	2635.782412
1004.570246	2634.640591
1004.864623	2637.662762
1005.158964	2635.001033
1005.453270	2634.184366
1005.747540	2633.715539
1006.041775	2632.200672
1006.335974	2635.321146
1006.630138	2633.438275
1006.924266	2632.062040
1007.218359	2636.906589
1007.512416	2631.822586
1007.806438	2629.322173
1008.100425	2633.208903
1008.394376	2630.552215
1008.688292	2635.041362
1008.982172	2634.380971
1009.276017	2633.503810
1009.569827	2636.203348
1009.863602	2635.356434
1010.157341	2632.041876
1010.451045	2634.801907
1010.744714	2631.615898
1011.038347	2636.800725
1011.331945	2634.733852
1011.625508	2636.089922
1011.919036	2634.655714
1012.212528	2635.464819
1012.505986	2633.874335
1012.799408	2634.388533
1013.092795	2635.651342
1013.386147	2634.852319
1013.679464	2634.181846
1013.972745	2635.406846
1014.265992	2634.534726
1014.559204	2634.716208
1014.852380	2632.641773
1015.145521	2634.484315
1015.438628	2634.202010
1015.731699	2636.359624
1016.024736	2634.791825
1016.317737	2634.796866
1016.610703	2632.046917
1016.903635	2632.782925
1017.196531	2632.298975
1017.489393	2631.845271
1017.782219	2631.741927
1018.075011	2635.321146
1018.367768	2634.842237
1018.660490	2636.478091
1018.953177	2636.478091
1019.245829	2636.478091
