Dividing Wavelength (nm)	Counts (n)	Blue Motor Position (mm): 8.400000	Red Motor Position (mm): 0.000000	
326.493990	2157.626449
326.888308	2157.626449
327.282561	2157.626449
327.676750	2118.779318
328.070874	2112.452669
328.464933	2114.214553
328.858929	2117.566920
329.252859	2122.756788
329.646726	2129.327932
330.040528	2144.660601
330.434265	2154.758033
330.827938	2175.467093
331.221547	2192.264217
331.615091	2210.545962
332.008571	2227.459033
332.401986	2243.537793
332.795338	2263.248704
333.188625	2282.208484
333.581847	2299.913016
333.975006	2320.916984
334.368100	2340.496825
334.761129	2356.058867
335.154095	2372.969418
335.546996	2393.917933
335.939833	2412.260171
336.332606	2424.104362
336.725315	2438.050714
337.117960	2450.666202
337.510540	2462.893520
337.903056	2474.475571
338.295508	2483.151397
338.687896	2492.560711
339.080220	2501.702843
339.472480	2507.185098
339.864676	2512.415295
340.256807	2518.164731
340.648875	2519.893847
341.040879	2523.470545
341.432818	2526.472552
341.824694	2529.416586
342.216506	2530.422297
342.608253	2529.174611
342.999937	2530.959179
343.391557	2533.273069
343.783113	2531.755682
344.174605	2528.214271
344.566033	2530.016484
344.957397	2531.367513
345.348697	2528.937677
345.739934	2524.264527
346.131106	2522.782428
346.522215	2521.869979
346.913260	2518.031140
347.304241	2516.115502
347.695159	2515.868485
348.086012	2513.874709
348.476802	2512.019564
348.867528	2509.322547
349.258191	2504.576301
349.648789	2505.957577
350.039324	2500.971876
350.429796	2505.483708
350.820203	2503.714263
351.210548	2502.146465
351.600828	2502.297699
351.991045	2501.327277
352.381198	2500.608913
352.771288	2498.085815
353.161314	2497.584220
353.551276	2497.745537
353.941175	2495.635814
354.331010	2496.147492
354.720782	2496.878459
355.110490	2495.789570
355.500135	2497.470794
355.889717	2497.314519
356.279235	2497.309478
356.668689	2499.396515
357.058080	2496.704539
357.447408	2496.185300
357.836672	2495.363592
358.225873	2495.827378
358.615010	2499.436844
359.004084	2494.282265
359.393095	2498.925167
359.782043	2500.371978
360.170927	2499.383912
360.559748	2497.536329
360.948505	2500.371978
361.337199	2501.574294
361.725830	2500.485404
362.114398	2500.986999
362.502903	2500.543378
362.891344	2503.114366
363.279722	2504.384737
363.668037	2504.422546
364.056289	2505.955056
364.444478	2504.982114
364.832603	2507.260715
365.220665	2507.046466
365.608665	2505.418173
365.996601	2505.423215
366.384474	2508.115191
366.772284	2507.817763
367.160031	2509.073010
367.547715	2510.345901
367.935336	2508.818432
368.322893	2508.228617
368.710388	2506.794408
369.097820	2506.439007
369.485189	2502.867350
369.872495	2510.209790
370.259738	2507.676610
370.646918	2510.111488
371.034035	2507.487567
371.421090	2509.922444
371.808081	2509.370438
372.195010	2511.757424
372.581875	2511.218021
372.968678	2514.096520
373.355418	2511.301200
373.742096	2513.305059
374.128710	2512.750532
374.515262	2512.170799
374.901751	2511.326406
375.288177	2511.936385
375.674540	2511.906138
376.060841	2512.221211
376.447079	2514.177178
376.833254	2512.881602
377.219367	2513.713392
377.605417	2515.313958
377.991404	2513.219359
378.377329	2512.488392
378.763191	2514.751870
379.148991	2518.162210
379.534727	2517.138856
379.920402	2513.037878
380.306013	2517.527025
380.691563	2516.357477
381.077049	2516.312107
381.462474	2517.826974
381.847835	2517.907632
382.233134	2513.322703
382.618371	2515.939062
383.003545	2518.704134
383.388657	2517.912673
383.773706	2519.384690
384.158693	2517.534587
384.543618	2518.290760
384.928480	2518.048784
385.313280	2516.743126
385.698017	2519.215812
386.082692	2521.018024
386.467305	2520.264372
386.851856	2520.551717
387.236344	2522.046419
387.620770	2515.548372
388.005133	2516.763290
388.389435	2515.913856
388.773674	2514.441839
389.157851	2519.977026
389.541965	2517.660616
389.926018	2520.276974
390.310008	2523.462984
390.693936	2521.469207
391.077802	2520.614732
391.461606	2521.469207
391.845348	2524.632531
392.229027	2524.209074
392.612645	2520.622293
392.996200	2523.364681
393.379694	2523.929290
393.763125	2521.519619
394.146494	2525.136647
394.529801	2524.897192
394.913047	2523.347037
395.296230	2523.289064
395.679351	2525.522295
396.062410	2524.783766
396.445408	2524.824095
396.828343	2524.955165
397.211217	2522.923580
397.594028	2523.105062
397.976778	2525.812161
398.359466	2523.861235
398.742092	2526.033972
399.124656	2526.215454
399.507158	2526.223015
399.889598	2526.437264
400.271977	2526.578417
400.654294	2525.008097
401.036549	2523.752850
401.418742	2528.231915
401.800874	2526.462470
402.182944	2526.984230
402.564952	2526.754857
402.946898	2526.459950
403.328783	2531.054961
403.710606	2528.126051
404.092367	2526.454908
404.474067	2526.318797
404.855705	2526.896009
405.237282	2527.052285
405.618797	2527.750485
406.000250	2529.398942
406.381642	2529.696370
406.762972	2524.473735
407.144240	2525.673530
407.525447	2529.076308
407.906593	2523.533560
408.287677	2527.236287
408.668700	2529.761905
409.049661	2528.501617
409.430560	2527.632018
409.811399	2527.715197
410.192176	2529.426669
410.572891	2530.749972
410.953545	2529.035979
411.334138	2531.387678
411.714669	2531.367513
412.095139	2530.528161
412.475547	2529.550177
412.855894	2531.322142
413.236180	2531.375075
413.616405	2531.211237
413.996568	2527.921884
414.376670	2532.698377
414.756711	2532.642925
415.136691	2532.942873
415.516609	2531.566638
415.896466	2531.208717
416.276262	2532.365661
416.655997	2531.521268
417.035670	2529.560259
417.415283	2533.525127
417.794834	2532.809283
418.174324	2536.138965
418.553753	2531.745599
418.933121	2534.296423
419.312428	2535.977648
419.691674	2533.578059
420.070859	2535.556712
420.449983	2534.480425
420.829045	2533.126876
421.208047	2536.280117
421.586988	2532.670651
421.965867	2538.016795
422.344686	2533.021011
422.723444	2534.820703
423.102141	2535.423121
423.480777	2533.356248
423.859352	2535.405477
424.237866	2535.178625
424.616319	2534.563604
424.994712	2537.540406
425.373044	2534.097298
425.751314	2532.035466
426.129524	2529.693850
426.507673	2533.724252
426.885762	2529.288037
427.263789	2535.972607
427.641756	2534.319108
428.019662	2535.067720
428.397508	2536.829603
428.775292	2534.888759
429.153016	2538.112577
429.530679	2539.357742
429.908282	2538.830941
430.285824	2535.367668
430.663305	2535.269366
431.040726	2537.668955
431.418086	2534.966897
431.795385	2536.872453
432.172624	2537.676517
432.549802	2535.990251
432.926920	2537.326157
433.303977	2537.346321
433.680974	2538.036959
434.057910	2536.196938
434.434786	2538.273894
434.811601	2537.454706
435.188355	2537.989068
435.565050	2535.738193
435.941683	2539.420756
436.318257	2539.685417
436.694770	2537.661393
437.071222	2540.766744
437.447614	2537.041332
437.823946	2538.919161
438.200218	2537.474871
438.576429	2538.490663
438.952580	2539.062834
439.328670	2540.562578
439.704700	2539.453524
440.080670	2541.023843
440.456580	2538.248688
440.832429	2537.585776
441.208218	2538.019315
441.583947	2539.897145
441.959616	2537.903369
442.335224	2540.600386
442.710773	2537.868081
443.086261	2540.940664
443.461689	2538.283976
443.837057	2539.526620
444.212365	2539.899666
444.587612	2538.616692
444.962800	2534.664428
445.337927	2539.118287
445.712995	2538.001671
446.088002	2539.549306
446.462949	2544.719009
446.837837	2539.907228
447.212664	2541.732125
447.587431	2540.255067
447.962139	2540.923020
448.336786	2543.609955
448.711374	2542.465613
449.085901	2540.486960
449.460369	2538.785571
449.834776	2540.252547
450.209124	2542.611807
450.583412	2540.282793
450.957640	2541.107022
451.331808	2543.183978
451.705917	2540.865047
452.079965	2544.103988
452.453954	2543.693134
452.827883	2540.756662
453.201752	2542.538710
453.575562	2544.880326
453.949311	2542.702547
454.323001	2543.342774
454.696632	2543.887218
455.070202	2541.603576
455.443713	2540.746580
455.817164	2542.921837
456.190556	2540.991076
456.563888	2542.563916
456.937160	2542.987372
457.310373	2546.793444
457.683526	2542.662218
458.056619	2543.211704
458.429653	2543.158772
458.802628	2544.915614
459.175542	2544.414019
459.548398	2544.010727
459.921194	2542.407640
460.293930	2543.930068
460.666607	2544.209852
461.039224	2543.935109
461.411782	2546.364946
461.784280	2545.376879
462.156719	2543.917465
462.529099	2546.531304
462.901419	2547.708413
463.273680	2544.219935
463.645882	2540.156765
464.018024	2540.779347
464.390106	2542.543751
464.762130	2545.265974
465.134094	2542.324461
465.505999	2544.093906
465.877845	2544.857641
466.249631	2545.044163
466.621358	2544.542568
466.993026	2546.755635
467.364634	2547.383259
467.736184	2547.022816
468.107674	2543.294883
468.479105	2543.826725
468.850477	2545.543237
469.221790	2547.622713
469.593043	2545.152548
469.964238	2546.964843
470.335373	2543.138607
470.706449	2547.229503
471.077467	2541.217928
471.448425	2546.518701
471.819324	2546.909390
472.190164	2546.732950
472.560945	2547.448794
472.931667	2546.455686
473.302330	2546.264123
473.672934	2546.349822
474.043479	2545.702034
474.413965	2547.453835
474.784393	2546.765717
475.154761	2548.260419
475.525070	2545.182795
475.895321	2546.987528
476.265513	2548.406613
476.635645	2547.842004
477.005719	2548.068856
477.375734	2547.156407
477.745691	2547.819318
478.115588	2547.163968
478.485427	2546.753114
478.855207	2547.642878
479.224928	2545.954092
479.594591	2548.018444
479.964194	2548.724206
480.333739	2550.476007
480.703226	2546.576674
481.072653	2548.666232
481.442022	2547.940306
481.811333	2546.301931
482.180584	2543.930068
482.549777	2545.737322
482.918912	2544.535007
483.287988	2550.050029
483.657005	2548.643547
484.025964	2550.385266
484.394864	2550.707900
484.763706	2547.413506
485.132489	2550.231511
485.501213	2552.043805
485.869879	2549.258568
486.238487	2551.335523
486.607036	2548.126829
486.975527	2550.763352
487.343959	2545.954092
487.712333	2551.292673
488.080648	2548.794782
488.448905	2551.045657
488.817104	2552.023641
489.185244	2552.394166
489.553326	2548.641027
489.921350	2552.494989
490.289315	2546.536345
490.657222	2551.549772
491.025070	2551.557334
491.392861	2550.344937
491.760593	2550.937272
492.128267	2552.111861
492.495883	2548.119267
492.863440	2550.521377
493.230939	2551.925338
493.598380	2551.761501
493.965763	2551.363250
494.333088	2549.926521
494.700354	2551.161603
495.067563	2550.286963
495.434713	2549.505584
495.801805	2551.423743
496.168839	2553.951882
496.535815	2551.635472
496.902733	2550.329813
497.269593	2550.259237
497.636395	2550.667570
498.003139	2549.934083
498.369825	2551.438867
498.736453	2548.903167
499.103023	2548.358722
499.469535	2553.084804
499.835989	2549.737477
500.202385	2549.109854
500.568723	2550.397869
500.935003	2548.265461
501.301226	2547.496685
501.667390	2551.154042
502.033497	2551.852242
502.399546	2551.385935
502.765537	2552.522715
503.131470	2549.787889
503.497345	2551.149001
503.863163	2549.608928
504.228923	2551.000287
504.594625	2551.204453
504.960269	2552.401727
505.325856	2553.553631
505.691385	2552.663867
506.056856	2552.847869
506.422270	2552.472303
506.787625	2553.162942
507.152924	2552.313507
507.518164	2553.740154
507.883347	2554.214022
508.248472	2553.173024
508.613540	2552.910884
508.978550	2551.343085
509.343503	2552.154711
509.708398	2552.643703
510.073236	2550.473486
510.438016	2553.180586
510.802738	2551.945503
511.167403	2551.733774
511.532010	2550.652447
511.896561	2554.418189
512.261053	2552.792417
512.625488	2553.278888
512.989866	2550.647406
513.354186	2555.867521
513.718449	2552.898281
514.082655	2555.993549
514.446803	2550.518856
514.810894	2554.075390
515.174927	2554.755946
515.538904	2554.733261
515.902822	2554.118240
516.266684	2555.388611
516.630488	2554.370298
516.994235	2551.743857
517.357925	2552.079093
517.721558	2553.999773
518.085133	2552.005997
518.448651	2552.772252
518.812112	2551.506922
519.175516	2549.245965
519.538863	2545.336550
519.902152	2554.723179
520.265385	2555.194527
520.628560	2554.372818
520.991678	2554.609753
521.354739	2553.732592
521.717743	2554.894578
522.080690	2552.253013
522.443580	2555.068498
522.806413	2553.321738
523.169189	2552.752087
523.531908	2554.791234
523.894569	2556.502706
524.257174	2556.618653
524.619722	2551.973229
524.982213	2553.677139
525.344647	2557.858776
525.707025	2554.224104
526.069345	2556.933725
526.431608	2553.417520
526.793815	2556.038920
527.155964	2555.933056
527.518057	2554.413148
527.880093	2554.534135
528.242072	2554.997922
528.603995	2554.531615
528.965860	2554.874413
529.327669	2559.267779
529.689421	2556.311142
530.051117	2558.468756
530.412755	2557.473128
530.774337	2556.172510
531.135862	2556.293498
531.497331	2555.280226
531.858743	2556.827860
532.220098	2560.306257
532.581396	2556.444733
532.942638	2561.095197
533.303824	2563.542677
533.664953	2562.753737
534.026025	2559.444219
534.387040	2561.586710
534.747999	2561.405228
535.108902	2561.437996
535.469748	2560.333983
535.830537	2561.609395
536.191270	2563.777091
536.551947	2559.819785
536.912567	2560.863304
537.273131	2561.929508
537.633638	2561.203582
537.994089	2562.272307
538.354483	2563.391443
538.714821	2565.758264
539.075103	2566.085939
539.435328	2570.428893
539.795497	2568.044428
540.155609	2570.020560
540.515665	2566.718604
540.875665	2567.149623
541.235609	2570.983420
541.595496	2570.441496
541.955328	2570.486867
542.315102	2571.316137
542.674821	2572.226065
543.034483	2575.104564
543.394090	2572.357135
543.753640	2572.926785
544.113134	2575.656570
544.472571	2574.769327
544.831953	2578.061200
545.191278	2574.590366
545.550548	2576.248906
545.909761	2574.786971
546.268918	2576.185891
546.628019	2577.176478
546.987064	2576.621951
547.346053	2578.590522
547.704986	2578.386355
548.063863	2582.363825
548.422684	2578.353587
548.781449	2579.424832
549.140158	2576.977352
549.498811	2582.394072
549.857408	2579.376942
550.215949	2579.956674
550.574434	2580.707806
550.932864	2581.695872
551.291237	2581.315265
551.649555	2585.330544
552.007817	2582.706624
552.366022	2582.973805
552.724173	2581.774010
553.082267	2584.234093
553.440305	2582.772159
553.798288	2583.674525
554.156215	2585.660740
554.514086	2580.954823
554.871902	2582.734350
555.229661	2580.859041
555.587365	2579.351736
555.945014	2584.518918
556.302606	2586.041347
556.660143	2584.856676
557.017625	2585.610328
557.375050	2588.816502
557.732421	2585.050760
558.089735	2586.111923
558.446994	2587.006728
558.804197	2585.063363
559.161345	2591.105186
559.518437	2587.412541
559.875474	2587.732654
560.232455	2585.421285
560.589381	2586.205184
560.946251	2585.910277
561.303065	2586.590833
561.659825	2589.832295
562.016528	2587.200812
562.373177	2587.243662
562.729770	2585.917839
563.086307	2588.816502
563.442789	2589.423961
563.799216	2586.343816
564.155587	2587.997315
564.511904	2588.440936
564.868164	2586.578230
565.224370	2588.841708
565.580520	2587.399938
565.936615	2588.836667
566.292654	2586.767273
566.648638	2586.956316
567.004567	2588.529156
567.360441	2588.261975
567.716260	2585.726275
568.072023	2589.416399
568.427732	2586.875658
568.783385	2586.094279
569.138982	2588.330031
569.494525	2587.808271
569.850013	2587.553693
570.205445	2587.067222
570.560823	2585.272571
570.916145	2587.314238
571.271412	2585.766604
571.626625	2586.774835
571.981782	2585.121336
572.336884	2580.526325
572.691931	2580.730491
573.046923	2578.855182
573.401860	2579.878536
573.756743	2583.944227
574.111570	2585.539752
574.466342	2584.725606
574.821059	2587.064701
575.175722	2583.427509
575.530330	2585.002869
575.884882	2586.852973
576.239380	2583.530852
576.593823	2583.505647
576.948211	2583.140163
577.302544	2583.324165
577.656823	2581.436253
578.011047	2584.667632
578.365216	2581.842066
578.719330	2580.286870
579.073389	2583.172930
579.427394	2580.541448
579.781344	2582.099165
580.135239	2578.149421
580.489080	2580.738053
580.842866	2580.072621
581.196597	2582.736871
581.550273	2582.449525
581.903895	2580.566654
582.257463	2579.379462
582.610975	2580.818712
582.964434	2580.828794
583.317837	2578.378793
583.671186	2577.713361
584.024481	2581.506829
584.377721	2578.651015
584.730906	2578.855182
585.084037	2580.375090
585.437113	2579.545820
585.790135	2580.112950
586.143103	2578.499781
586.496016	2578.625810
586.848874	2580.896849
587.201679	2576.780747
587.554428	2577.786457
587.907124	2576.894173
588.259765	2575.308730
588.612352	2578.237641
588.964884	2578.035995
589.317362	2580.614545
589.669786	2577.471385
590.022155	2574.497105
590.374470	2572.079871
590.726731	2574.597928
591.078937	2572.105077
591.431090	2579.008937
591.783188	2575.457444
592.135232	2576.185891
592.487222	2576.566498
592.839157	2579.772672
593.191038	2575.386868
593.542866	2574.272773
593.894639	2572.959553
594.246358	2576.072465
594.598022	2575.558268
594.949633	2572.440314
595.301190	2577.841910
595.652692	2575.817887
596.004141	2573.569532
596.355535	2575.341498
596.706876	2575.896025
597.058162	2575.175140
597.409395	2575.948957
597.760573	2575.449883
598.111698	2574.673545
598.462768	2575.278483
598.813785	2574.227403
599.164748	2575.850654
599.515657	2574.368555
599.866511	2573.546847
600.217312	2573.985427
600.568060	2575.344018
600.918753	2580.347364
601.269392	2577.748649
601.619978	2576.465675
601.970510	2574.295458
602.320988	2574.880232
602.671412	2574.335788
603.021783	2575.142372
603.372100	2574.736559
603.722363	2576.100192
604.072572	2578.615727
604.422728	2578.976170
604.772830	2578.925758
605.122878	2575.049111
605.472872	2576.954667
605.822813	2577.489029
606.172701	2578.212435
606.522534	2577.514235
606.872314	2577.363001
607.222041	2579.218145
607.571714	2574.426528
607.921333	2576.654718
608.270899	2578.840059
608.620411	2576.387537
608.969870	2581.451376
609.319276	2582.757035
609.668627	2586.290884
610.017926	2591.667275
610.367171	2592.027717
610.716362	2595.170877
611.065500	2592.340269
611.414585	2590.391863
611.763616	2589.822212
612.112594	2589.519743
612.461518	2586.588312
612.810389	2586.800041
613.159207	2586.641244
613.507971	2586.232911
613.856682	2586.608477
614.205340	2589.786924
614.553945	2589.272727
614.902496	2586.502612
615.250994	2588.020000
615.599439	2587.576378
615.947830	2591.314394
616.296169	2589.121492
616.644454	2588.629979
616.992686	2586.162335
617.340864	2590.464959
617.688990	2590.979157
618.037063	2593.275403
618.385082	2591.276585
618.733048	2594.538212
619.080961	2591.180803
619.428821	2593.013263
619.776628	2594.891092
620.124382	2592.642738
620.472083	2593.051071
620.819731	2596.295054
621.167326	2597.089036
621.514868	2593.900506
621.862357	2593.507296
622.209793	2596.214395
622.557176	2593.104003
622.904506	2593.570310
623.251783	2592.551997
623.599007	2596.499221
623.946179	2597.038624
624.293297	2595.659868
624.640363	2595.367482
624.987376	2592.350351
625.334336	2591.057295
625.681243	2590.901019
626.028097	2594.117275
626.374899	2597.157091
626.721647	2598.651793
627.068343	2596.418562
627.414987	2595.110383
627.761577	2601.104315
628.108115	2598.671958
628.454600	2597.567945
628.801032	2599.571804
629.147412	2602.145313
629.493739	2602.001640
629.840014	2599.836464
630.186236	2601.482401
630.532405	2605.346446
630.878521	2601.212699
631.224585	2603.345107
631.570597	2605.550612
631.916556	2604.192021
632.262462	2601.681527
632.608316	2605.842999
632.954117	2606.352156
633.299866	2609.291148
633.645562	2608.265274
633.991206	2609.896087
634.336797	2607.241919
634.682336	2611.960439
635.027823	2606.115222
635.373257	2608.108998
635.718639	2610.032198
636.063968	2608.108998
636.409245	2608.025819
636.754470	2607.642691
637.099642	2608.487084
637.444762	2608.063627
637.789829	2611.521859
638.134845	2608.829883
638.479808	2610.959770
638.824719	2616.094186
639.169577	2613.840790
639.514383	2614.659977
639.859137	2614.085286
640.203839	2616.384052
640.548489	2614.203753
640.893086	2619.169289
641.237632	2613.069493
641.582125	2620.916049
641.926566	2621.972171
642.270955	2619.212139
642.615292	2617.825822
642.959576	2618.355143
643.303809	2617.561161
643.647990	2622.607356
643.992118	2623.776904
644.336195	2625.816051
644.680219	2627.933335
645.024192	2633.496249
645.368112	2635.553039
645.711981	2636.851137
646.055797	2639.686786
646.399562	2641.483957
646.743274	2647.765235
647.086935	2654.475010
647.430544	2655.672284
647.774101	2662.921464
648.117606	2667.196362
648.461059	2663.813748
648.804460	2670.518482
649.147810	2670.548729
649.491108	2665.051351
649.834354	2668.769202
650.177548	2668.237360
650.520690	2667.085457
650.863781	2668.481856
651.206820	2668.955725
651.549807	2671.798936
651.892742	2672.096364
652.235626	2672.489574
652.578458	2675.859585
652.921238	2674.289266
653.263967	2682.085410
653.606644	2681.631706
653.949269	2683.746470
654.291843	2683.169258
654.634365	2685.818384
654.976836	2687.381142
655.319255	2689.816019
655.661622	2692.513037
656.003938	2694.758871
656.346203	2695.847760
656.688416	2698.201979
657.030577	2701.763554
657.372687	2705.829245
657.714746	2706.154399
658.056753	2709.032898
658.398708	2712.322251
658.740612	2712.022302
659.082465	2719.384907
659.424266	2715.483054
659.766016	2725.192317
660.107715	2726.762636
660.449362	2727.385218
660.790958	2740.368710
661.132503	2742.987590
661.473996	2745.437590
661.815438	2751.149218
662.156829	2753.425299
662.498168	2752.767428
662.839456	2762.166659
663.180693	2763.938625
663.521879	2769.441044
663.863013	2778.449586
664.204097	2778.394134
664.545129	2781.857406
664.886110	2783.251285
665.227040	2793.578089
665.567918	2802.049748
665.908746	2810.115594
666.249522	2810.105512
666.590248	2817.357212
666.930922	2830.128975
667.271545	2835.308761
667.612118	2846.399299
667.952639	2844.622292
668.293109	2847.946933
668.633528	2854.374404
668.973896	2854.891123
669.314213	2871.408463
669.654480	2861.774818
669.994695	2863.178780
670.334859	2870.344780
670.674973	2878.813918
671.015035	2884.833056
671.355047	2889.891854
671.695008	2887.454456
672.034918	2896.374778
672.374777	2908.410533
672.714585	2907.389699
673.054342	2924.713624
673.394049	2927.881989
673.733705	2931.861980
674.073310	2940.210131
674.412864	2958.466670
674.752368	2948.633899
675.091820	2944.517797
675.431223	2968.937146
675.770574	2956.016669
676.109875	2962.958338
676.449125	2966.194758
676.788324	2961.965230
677.127473	2962.756692
677.466571	2966.794656
677.805619	2971.775316
678.144616	2971.427476
678.483562	2985.565392
678.822458	2977.040801
679.161303	2982.487768
679.500098	2998.843791
679.838842	3001.621467
680.177535	2999.907475
680.516179	3005.346880
680.854771	3019.446987
681.193314	3038.537837
681.531805	3044.090668
681.870247	3094.885334
682.208638	3118.200670
682.546978	3156.475631
682.885268	3176.698220
683.223508	3153.823984
683.561697	3149.914569
683.899836	3159.573420
684.237925	3146.844507
684.575963	3151.810043
684.913951	3182.500588
685.251889	3167.422497
685.589776	3199.459029
685.927614	3202.576983
686.265401	3194.062474
686.603137	3223.827967
686.940824	3245.610793
687.278460	3273.458127
687.616046	3294.204995
687.953582	3321.858245
688.291068	3313.011020
688.628504	3340.223168
688.965889	3363.994729
689.303224	3386.100189
689.640510	3381.144734
689.977745	3348.533510
690.314930	3346.282635
690.652065	3350.232379
690.989150	3313.648726
691.326185	3309.482212
691.663170	3293.887403
692.000105	3275.686317
692.336990	3287.165024
692.673825	3258.707710
693.010610	3256.086310
693.347345	3233.534709
693.684030	3216.596432
694.020665	3222.371073
694.357251	3215.552913
694.693786	3237.265162
695.030272	3199.960624
695.366707	3205.493290
695.703093	3206.254505
696.039429	3215.336143
696.375716	3226.663616
696.711952	3204.921119
697.048139	3225.942731
697.384276	3237.645770
697.720363	3235.354565
698.056400	3236.335070
698.392388	3248.816967
698.728326	3246.256060
699.064214	3242.938981
699.400053	3274.010133
699.735842	3248.963160
700.071581	3243.823704
700.407270	3236.698033
700.742910	3241.509814
701.078501	3241.575349
701.414042	3225.753688
701.749533	3225.990622
702.084974	3210.993189
702.420366	3224.601784
702.755709	3225.312587
703.091002	3211.409084
703.426246	3220.742781
703.761440	3226.310735
704.096584	3224.974829
704.431679	3220.268912
704.766725	3230.631004
705.101721	3226.807289
705.436668	3235.228536
705.771565	3231.818196
706.106413	3249.661360
706.441212	3270.866973
706.775961	3257.218049
707.110661	3267.449071
707.445311	3305.915596
707.779913	3291.669295
708.114465	3322.692556
708.448967	3336.487673
708.783421	3345.667614
709.117825	3398.083011
709.452180	3410.106163
709.786485	3416.740322
710.120742	3479.159889
710.454949	3491.213288
710.789107	3505.283148
711.123216	3539.973848
711.457275	3588.918411
711.791286	3629.056078
712.125247	3614.265332
712.459159	3651.774037
712.793023	3691.231149
713.126837	3626.316211
713.460602	3653.009120
713.794318	3611.167543
714.127985	3657.616735
714.461602	3620.508801
714.795171	3590.468566
715.128691	3574.077254
715.462162	3528.119575
715.795584	3547.457441
716.128957	3523.537166
716.462281	3465.626911
716.795556	3524.232845
717.128782	3477.415649
717.461960	3420.241403
717.795088	3453.392031
718.128167	3447.393058
718.461198	3420.238883
718.794180	3409.571801
719.127113	3436.854526
719.459997	3415.931217
719.792833	3359.669419
720.125619	3387.426012
720.458357	3351.840507
720.791046	3363.341900
721.123686	3399.003022
721.456278	3357.816795
721.788821	3361.552290
722.121315	3344.553519
722.453761	3369.363558
722.786158	3379.846637
723.118506	3377.613406
723.450805	3376.849671
723.783056	3393.026734
724.115259	3369.663507
724.447412	3385.941392
724.779518	3385.538100
725.111574	3396.137126
725.443582	3426.484872
725.775542	3416.463058
726.107453	3465.231181
726.439315	3458.213894
726.771129	3459.443936
727.102895	3497.295440
727.434612	3536.041748
727.766281	3540.067109
728.097901	3571.039959
728.429473	3561.789441
728.760996	3572.083477
729.092471	3573.855443
729.423897	3583.816763
729.755276	3601.463322
730.086606	3590.803802
730.417887	3598.083228
730.749120	3632.176552
731.080305	3720.384141
731.411442	3748.702823
731.742530	3726.272209
732.073570	3798.728713
732.404562	3823.974812
732.735506	3755.742794
733.066401	3814.502484
733.397249	3805.461174
733.728048	3755.231117
734.058798	3681.635312
734.389501	3657.677229
734.720156	3615.316413
735.050762	3544.591545
735.381320	3526.455994
735.711831	3535.202396
736.042293	3511.929909
736.372707	3536.780277
736.703073	3499.077488
737.033391	3499.518588
737.363661	3503.904392
737.693883	3524.885675
738.024056	3562.434709
738.354182	3571.574321
738.684260	3577.480033
739.014290	3610.023201
739.344272	3643.806494
739.674207	3642.256339
740.004093	3664.707118
740.333931	3674.522244
740.663722	3677.156247
740.993464	3728.823033
741.323159	3749.280035
741.652806	3637.124444
741.982405	3636.292654
742.311956	3721.112588
742.641460	3676.014426
742.970915	3596.142384
743.300323	3627.034575
743.629683	3607.429528
743.958996	3569.388981
744.288260	3560.027558
744.617477	3558.447156
744.946647	3575.612285
745.275768	3511.211545
745.604842	3520.240251
745.933869	3518.604397
746.262847	3493.302846
746.591778	3508.917820
746.920662	3502.021521
747.249498	3497.444154
747.578286	3519.395858
747.907027	3557.577557
748.235720	3576.060948
748.564365	3539.719270
748.892963	3549.305024
749.221514	3643.473778
749.550017	3590.367742
749.878473	3529.440357
750.206881	3577.049014
750.535242	3558.242990
750.863555	3529.478166
751.191821	3561.378587
751.520039	3571.894434
751.848210	3530.438506
752.176334	3531.713917
752.504411	3581.172678
752.832440	3555.888771
753.160421	3492.105572
753.488356	3534.733569
753.816243	3587.890015
754.144082	3515.425949
754.471875	3488.118019
754.799620	3524.288298
755.127318	3538.136347
755.454969	3518.402751
755.782572	3504.567304
756.110129	3535.497303
756.437638	3551.263512
756.765100	3509.737007
757.092515	3511.473685
757.419882	3537.057541
757.747203	3536.003939
758.074477	3573.495001
758.401703	3576.398705
758.728882	3528.364071
759.056014	3543.232954
759.383099	3632.380719
759.710138	3627.334524
760.037129	3598.584823
760.364073	3601.455760
760.690970	3663.961027
761.017820	3671.220288
761.344623	3620.697845
761.671379	3663.340965
761.998088	3719.950602
762.324751	3794.244607
762.651366	3997.526615
762.977935	4405.247577
763.304456	4915.112397
763.630931	5202.836253
763.957359	5103.303711
764.283740	4882.400350
764.610074	4687.375752
764.936362	4327.500381
765.262602	4110.829068
765.588796	3914.345056
765.914943	3782.143317
766.241044	3762.591202
766.567097	3709.855692
766.893104	3596.447374
767.219064	3522.879295
767.544978	3519.136239
767.870845	3505.449506
768.196665	3453.540745
768.522438	3420.402720
768.848165	3422.888009
769.173846	3411.396699
769.499479	3397.294071
769.825066	3370.028990
770.150607	3348.493181
770.476101	3346.365814
770.801548	3359.324100
771.126949	3341.919516
771.452303	3318.662153
771.777611	3296.690284
772.102872	3306.366779
772.428087	3296.428144
772.753256	3294.152063
773.078378	3281.972635
773.403453	3247.808736
773.728482	3252.123963
774.053465	3229.191755
774.378401	3228.440623
774.703291	3244.907552
775.028135	3213.579301
775.352932	3182.770289
775.677683	3177.648477
776.002388	3201.604040
776.327046	3213.745659
776.651658	3166.585665
776.976224	3131.244656
777.300743	3147.555309
777.625216	3170.948784
777.949643	3173.197138
778.274024	3144.369300
778.598359	3117.406689
778.922647	3133.372023
779.246889	3137.571304
779.571086	3142.436017
779.895236	3135.575007
780.219339	3120.368367
780.543397	3109.749176
780.867409	3140.724546
781.191374	3156.861279
781.515294	3128.459418
781.839167	3124.580251
782.162995	3136.631129
782.486776	3135.489307
782.810511	3146.042963
783.134201	3153.829025
783.457844	3132.152064
783.781441	3100.831375
784.104993	3103.016715
784.428498	3120.171762
784.751958	3131.698360
785.075372	3119.027420
785.398739	3091.341403
785.722061	3097.289964
786.045337	3136.021149
786.368568	3158.703821
786.691752	3104.292127
787.014891	3117.565485
787.337983	3173.852488
787.661030	3238.235585
787.984031	3301.403763
788.306987	3381.232955
788.629897	3405.770771
788.952760	3392.134450
789.275579	3380.043242
789.598351	3382.646998
789.921078	3329.906447
790.243759	3219.051474
790.566395	3220.687328
790.888984	3231.553535
791.211529	3178.979342
791.534027	3154.892709
791.856480	3166.641118
792.178888	3125.580920
792.501249	3090.902822
792.823566	3102.626026
793.145836	3134.226498
793.468062	3106.835389
793.790241	3073.798187
794.112375	3088.049529
794.434464	3124.421454
794.756507	3147.091523
795.078505	3129.697022
795.400457	3125.165024
795.722364	3190.266485
796.044226	3239.465626
796.366042	3269.016870
796.687812	3276.664300
797.009538	3279.033643
797.331218	3249.479878
797.652852	3243.511152
797.974442	3248.206987
798.295986	3260.189810
798.617484	3220.679766
798.938938	3171.982220
799.260346	3201.049513
799.581709	3209.503528
799.903026	3173.212262
800.224299	3150.897594
800.545526	3155.351454
800.866708	3136.482415
801.187845	3097.693257
801.508936	3124.802061
801.829983	3135.073412
802.150984	3081.221286
802.471940	3074.849268
802.792851	3085.244127
803.113717	3091.565734
803.434538	3098.018411
803.755314	3062.569017
804.076045	3039.846016
804.396731	3055.123233
804.717372	3074.098136
805.037967	3070.032445
805.358518	3057.885785
805.679024	3070.244174
805.999485	3072.580749
806.319901	3073.493198
806.640272	3090.186978
806.960598	3098.792228
807.280879	3076.845565
807.601115	3079.555185
807.921306	3096.115375
808.241453	3125.943883
808.561554	3113.492233
808.881611	3072.041345
809.201623	3093.259562
809.521590	3110.170112
809.841513	3092.997422
810.161390	3113.169599
810.481223	3114.823097
810.801011	3074.791295
811.120755	3066.939698
811.440453	3097.123606
811.760107	3105.486880
812.079716	3084.485433
812.399281	3059.229253
812.718801	3076.921182
813.038276	3065.250911
813.357707	3067.587486
813.677093	3083.522573
813.996434	3054.432595
814.315731	3052.136349
814.634983	3057.868141
814.954191	3066.473391
815.273354	3094.262751
815.592473	3096.619491
815.911547	3086.020465
816.230577	3101.980758
816.549562	3137.785553
816.868502	3174.217972
817.187399	3187.519056
817.506250	3180.675690
817.825058	3161.975530
818.143821	3223.628841
818.462539	3296.718010
818.781213	3319.453614
819.099843	3340.296265
819.418429	3468.903661
819.736970	3597.223712
820.055466	3717.540931
820.373919	3941.617698
820.692327	4191.893343
821.010691	4391.333992
821.329011	5060.012803
821.647286	6268.795795
821.965517	8001.392481
822.283704	9398.346624
822.601847	10324.368777
822.919945	9985.540224
823.237999	9313.163727
823.556010	8436.350797
823.873976	7601.260977
824.191897	6532.337236
824.509775	5812.979706
824.827609	5206.183579
825.145398	4895.358636
825.463144	4855.462944
825.780845	4917.522069
826.098502	4934.326755
826.416116	5296.211025
826.733685	5922.702940
827.051210	6549.215019
827.368692	6711.963630
827.686129	6144.596888
828.003522	5341.553683
828.320872	4814.064989
828.638177	4448.538485
828.955439	4134.293119
829.272656	3834.404959
829.589830	3654.670180
829.906960	3558.595870
830.224046	3444.012964
830.541088	3369.451778
830.858086	3352.316896
831.175041	3310.450113
831.491952	3295.256076
831.808819	3307.803508
832.125642	3347.250537
832.442421	3437.618260
832.759157	3591.312959
833.075849	3881.058317
833.392497	4328.470803
833.709101	4693.268860
834.025662	4922.737142
834.342179	4823.295342
834.658653	4493.712265
834.975083	4137.514416
835.291469	3805.798932
835.607811	3542.290258
835.924110	3472.467757
836.240366	3342.433714
836.556578	3205.561346
836.872746	3138.438382
837.188871	3123.866927
837.504952	3088.735126
837.820990	3031.739841
838.136984	2994.286588
838.452935	3014.045391
838.768842	3015.295597
839.084706	3031.462577
839.400526	3115.720423
839.716303	3281.816360
840.032037	3562.003690
840.347727	3752.352618
840.663373	3648.449397
840.978977	3433.797066
841.294537	3247.692789
841.610054	3096.052361
841.925527	3022.829601
842.240957	2980.743528
842.556344	2952.538273
842.871687	2913.733991
843.186987	2880.255688
843.502244	2857.930938
843.817458	2829.516475
844.132629	2808.464616
844.447756	2816.762356
844.762840	2811.832107
845.077881	2788.496606
845.392879	2775.129987
845.707833	2772.785850
846.022745	2769.274686
846.337613	2775.835748
846.652438	2768.914244
846.967221	2765.491300
847.281960	2753.064856
847.596656	2751.789444
847.911309	2752.827922
848.225919	2747.559916
848.540485	2741.649163
848.855009	2745.465317
849.169490	2739.373082
849.483928	2731.723131
849.798323	2731.050137
850.112675	2728.073336
850.426984	2736.252608
850.741251	2740.003227
851.055474	2732.103738
851.369654	2724.710886
851.683792	2728.327914
851.997887	2736.237485
852.311938	2732.938049
852.625947	2731.314798
852.939914	2732.955693
853.253837	2735.708163
853.567718	2722.843139
853.881555	2718.616131
854.195350	2735.440982
854.509103	2733.177504
854.822812	2727.874210
855.136479	2726.316494
855.450103	2725.608212
855.763685	2720.103272
856.077224	2714.681511
856.390720	2728.075857
856.704173	2736.819738
857.017584	2730.382184
857.330953	2724.942779
857.644278	2735.249418
857.957561	2739.486508
858.270802	2740.706467
858.584000	2741.923906
858.897155	2737.033987
859.210268	2736.454254
859.523339	2733.779922
859.836367	2732.401167
860.149352	2726.888665
860.462295	2727.150805
860.775195	2737.454923
861.088054	2737.512897
861.400869	2722.187789
861.713642	2716.619834
862.026373	2730.828327
862.339062	2733.497617
862.651708	2735.362844
862.964312	2737.094481
863.276873	2734.173132
863.589392	2735.516600
863.901869	2743.927765
864.214303	2756.767584
864.526696	2772.914399
864.839045	2767.492638
865.151353	2769.070520
865.463619	2768.142947
865.775842	2767.616147
866.088023	2779.145266
866.400162	2790.059364
866.712258	2771.344080
867.024313	2762.106166
867.336325	2766.696136
867.648296	2783.939403
867.960224	2777.219545
868.272110	2766.824686
868.583954	2776.365069
868.895755	2787.596760
869.207515	2776.609565
869.519233	2775.956736
869.830909	2785.066101
870.142542	2794.593882
870.454134	2794.334262
870.765684	2797.076650
871.077191	2795.410548
871.388657	2796.360806
871.700081	2807.390851
872.011463	2817.352171
872.322803	2817.447952
872.634101	2815.295380
872.945357	2827.999087
873.256571	2843.777899
873.567744	2838.036025
873.878874	2830.093687
874.189963	2848.859382
874.501010	2855.367512
874.812015	2848.614886
875.122979	2851.884074
875.433900	2845.532221
875.744780	2847.094978
876.055618	2853.761904
876.366415	2854.366843
876.677169	2869.092053
876.987882	2872.194883
877.298554	2860.867411
877.609183	2873.308978
877.919771	2892.785476
878.230317	2916.710792
878.540822	2959.363995
878.851285	2989.321052
879.161707	3015.542613
879.472087	3085.226483
879.782425	3238.190214
880.092722	3544.914179
880.402977	3887.848752
880.713191	4193.380483
881.023363	4717.194177
881.333494	5319.435621
881.643583	5598.176140
881.953631	5554.444131
882.263637	5375.876379
882.573602	5165.309904
882.883526	4860.052915
883.193408	4496.313500
883.503248	4189.347560
883.813048	4014.384234
884.122806	3844.320909
884.432522	3629.477014
884.742197	3464.273361
885.051831	3320.933193
885.361424	3216.520814
885.670975	3169.996006
885.980485	3110.764968
886.289954	3056.330589
886.599382	3024.815816
886.908768	2995.826661
887.218113	2964.561425
887.527417	2926.225970
887.836680	2889.181051
888.145901	2887.477141
888.455082	2882.564537
888.764221	2847.652026
889.073319	2824.563541
889.382376	2825.332317
889.691392	2829.687874
890.000366	2826.910198
890.309300	2815.025678
890.618193	2826.842143
890.927044	2841.864781
891.235855	2841.587518
891.544625	2825.602019
891.853353	2827.386587
892.162041	2841.955522
892.470687	2874.143289
892.779293	2910.724422
893.087858	2944.968980
893.396381	2992.862462
893.704864	3068.182342
894.013306	3226.388873
894.321707	3429.058381
894.630068	3580.832400
894.938387	3589.311621
895.246665	3573.608427
895.554903	3505.179804
895.863100	3364.455995
896.171256	3245.908221
896.479371	3151.308448
896.787446	3063.496589
897.095480	2986.049343
897.403473	2933.575973
897.711425	2901.201683
898.019336	2895.910992
898.327207	2877.258722
898.635038	2854.245855
898.942827	2838.225068
899.250576	2831.066630
899.558284	2806.115439
899.865952	2786.681791
900.173579	2777.721140
900.481165	2774.215017
900.788711	2765.836619
901.096216	2746.299628
901.403681	2732.088615
901.711105	2740.502301
902.018489	2740.880387
902.325832	2741.142527
902.633135	2749.959505
902.940397	2771.500356
903.247619	2824.707214
903.554800	2956.296453
903.861941	3177.149403
904.169041	3465.062302
904.476101	3691.087476
904.783121	3692.143598
905.090100	3543.308571
905.397039	3353.110878
905.703938	3169.257477
906.010796	3033.715973
906.317614	2949.894188
906.624391	2882.614948
906.931129	2828.273830
907.237826	2782.999228
907.544483	2742.750655
907.851099	2721.245093
908.157675	2706.300592
908.464211	2692.230732
908.770707	2679.574915
909.077163	2670.621826
909.383578	2662.460198
909.689954	2651.772952
909.996289	2650.696666
910.302584	2651.069711
910.608839	2652.370329
910.915054	2648.584422
911.221229	2642.837507
911.527363	2643.818011
911.833458	2646.436891
912.139513	2652.728251
912.445527	2655.556338
912.751502	2660.652944
913.057436	2668.091167
913.363331	2678.685152
913.669186	2689.505988
913.975000	2715.157900
914.280775	2759.177255
914.586510	2814.138435
914.892205	2869.260932
915.197859	2953.438119
915.503475	3083.003334
915.809050	3228.070098
916.114585	3333.309226
916.420081	3361.703525
916.725536	3336.359124
917.030952	3258.992536
917.336328	3164.072650
917.641665	3066.765778
917.946961	2996.078718
918.252218	2949.324537
918.557435	2892.422513
918.862612	2849.678570
919.167750	2806.382620
919.472848	2777.569905
919.777906	2758.622728
920.082925	2738.944584
920.387904	2716.524052
920.692843	2703.033925
920.997743	2696.407328
921.302603	2685.715041
921.607423	2678.264215
921.912204	2667.481187
922.216946	2661.633449
922.521647	2656.617501
922.826310	2650.376552
923.130932	2641.983031
923.435516	2635.711836
923.740059	2632.339304
924.044564	2623.786986
924.349028	2621.326903
924.653454	2613.629061
924.957840	2611.610079
925.262186	2606.331991
925.566493	2601.920982
925.870761	2600.201948
926.174989	2595.175918
926.479178	2590.394383
926.783328	2585.585122
927.087438	2584.350040
927.391509	2583.203177
927.695541	2579.961715
927.999533	2581.078331
928.303486	2575.840572
928.607400	2577.567167
928.911275	2578.968608
929.215110	2578.373752
929.518906	2574.734039
929.822663	2574.169430
930.126381	2574.875191
930.430060	2575.102043
930.733699	2576.853844
931.037299	2578.572878
931.340861	2577.448700
931.644383	2578.976170
931.947866	2578.668659
932.251309	2576.062383
932.554714	2575.908628
932.858080	2573.251940
933.161407	2570.451579
933.464694	2572.009295
933.767943	2571.495098
934.071153	2570.295303
934.374323	2573.657752
934.677455	2574.048442
934.980548	2569.070302
935.283602	2570.267577
935.586617	2568.162895
935.889593	2570.254974
936.192530	2567.600806
936.495428	2567.409242
936.798287	2571.195149
937.101108	2575.948957
937.403890	2576.072465
937.706632	2578.729153
938.009336	2585.751481
938.312002	2593.613160
938.614628	2601.013574
938.917216	2607.995572
939.219765	2606.571446
939.522275	2604.005499
939.824747	2603.292175
940.127179	2601.560539
940.429573	2599.836464
940.731929	2595.251535
941.034246	2593.724065
941.336524	2594.220619
941.638763	2590.774990
941.940964	2589.981009
942.243126	2584.390369
942.545250	2588.224167
942.847335	2586.268199
943.149381	2579.974318
943.451389	2576.400140
943.753359	2577.436097
944.055290	2574.318144
944.357182	2574.444173
944.659036	2575.064234
944.960851	2572.831003
945.262628	2570.355797
945.564367	2573.158678
945.866067	2575.165058
946.167729	2573.960222
946.469352	2570.076013
946.770937	2571.442165
947.072484	2571.452248
947.373992	2570.015519
947.675462	2572.634398
947.976893	2566.395970
948.278286	2561.566545
948.579641	2563.656103
948.880958	2560.860783
949.182236	2566.325394
949.483476	2566.126269
949.784678	2565.423028
950.085841	2566.337997
950.386967	2564.808007
950.688054	2566.370765
950.989103	2566.678275
951.290114	2569.886969
951.591087	2568.019222
951.892021	2569.823955
952.192917	2572.460478
952.493776	2573.977866
952.794596	2574.623133
953.095378	2574.857547
953.396122	2572.740262
953.696828	2572.730180
953.997496	2570.333112
954.298126	2571.076682
954.598718	2567.903275
954.899272	2568.765313
955.199788	2564.707184
955.500266	2562.932698
955.800706	2557.357182
956.101108	2559.610577
956.401472	2559.403890
956.701798	2554.133364
957.002087	2557.687377
957.302337	2554.428271
957.602550	2549.707231
957.902724	2552.560524
958.202861	2551.912735
958.502960	2549.739998
958.803022	2548.073897
959.103045	2546.054915
959.403031	2547.511808
959.702979	2549.193033
960.002889	2545.079451
960.302762	2549.364432
960.602596	2546.455686
960.902393	2545.727240
961.202153	2548.089020
961.501875	2549.306459
961.801559	2546.541386
962.101205	2545.268495
962.400814	2545.661705
962.700385	2543.473844
962.999918	2543.766231
963.299414	2540.421425
963.598873	2540.819676
963.898293	2539.309851
964.197677	2545.041643
964.497022	2546.231355
964.796331	2547.027857
965.095601	2544.928217
965.394835	2544.250182
965.694030	2546.014585
965.993189	2544.114070
966.292309	2543.085675
966.591393	2544.030891
966.890439	2542.619368
967.189447	2543.362938
967.488419	2542.165664
967.787353	2543.105840
968.086249	2545.215563
968.385108	2545.739843
968.683930	2542.543751
968.982714	2544.789585
969.281462	2543.002496
969.580172	2545.772610
969.878844	2543.834286
970.177480	2545.059287
970.476078	2542.032074
970.774639	2547.065666
971.073162	2544.691282
971.371649	2543.433515
971.670098	2546.122970
971.968510	2542.188350
972.266885	2545.449976
972.565223	2545.760007
972.863524	2546.206149
973.161788	2544.207332
973.460014	2542.639533
973.758204	2545.797816
974.056356	2545.092054
974.354471	2542.795809
974.652550	2547.574823
974.950591	2543.060469
975.248595	2545.195398
975.546563	2545.825542
975.844493	2541.759852
976.142386	2545.598690
976.440243	2545.583567
976.738062	2542.773123
977.035845	2543.100798
977.333590	2544.925696
977.631299	2543.226827
977.928971	2540.403781
978.226606	2535.816331
978.524204	2540.839841
978.821765	2539.824048
979.119290	2542.117773
979.416777	2544.265305
979.714228	2542.720191
980.011642	2541.341436
980.309020	2542.531148
980.606360	2540.542413
980.903664	2544.804708
981.200931	2541.152393
981.498162	2545.228165
981.795356	2543.735984
982.092513	2545.288659
982.389633	2548.605738
982.686717	2550.128167
982.983764	2553.430123
983.280775	2557.705021
983.577749	2558.766184
983.874686	2557.631924
984.171587	2551.549772
984.468451	2554.135884
984.765279	2548.958619
985.062070	2547.499205
985.358824	2548.857796
985.655543	2546.579195
985.952224	2545.245809
986.248869	2544.529966
986.545478	2541.190201
986.842050	2545.364277
987.138586	2542.137938
987.435086	2541.482588
987.731549	2539.191384
988.027975	2543.204142
988.324366	2541.870757
988.620719	2542.437887
988.917037	2539.067875
989.213318	2543.287321
989.509563	2541.613658
989.805772	2540.776827
990.101944	2538.273894
990.398080	2539.458565
990.694180	2542.117773
990.990244	2539.201466
991.286271	2542.175747
991.582262	2539.897145
991.878217	2541.512835
992.174136	2541.139790
992.470019	2541.280942
992.765865	2538.510828
993.061676	2538.533513
993.357450	2542.377393
993.653188	2535.430683
993.948890	2542.455531
994.244556	2541.958977
994.540186	2543.088196
994.835780	2542.299255
995.131337	2542.904193
995.426859	2541.187681
995.722345	2540.302958
996.017795	2542.266488
996.313208	2544.078782
996.608586	2546.007024
996.903928	2544.696324
997.199234	2542.979811
997.494504	2546.004503
997.789738	2545.107178
998.084936	2544.303114
998.380099	2543.294883
998.675225	2541.943854
998.970316	2541.298586
999.265371	2542.049718
999.560390	2542.516025
999.855373	2542.725232
1000.150320	2540.464275
1000.445232	2541.774975
1000.740108	2541.946374
1001.034948	2540.681045
1001.329752	2539.869419
1001.624521	2540.466796
1001.919254	2538.911600
1002.213951	2540.544933
1002.508613	2541.772454
1002.803239	2539.962680
1003.097829	2539.307330
1003.392384	2538.755324
1003.686903	2541.094419
1003.981386	2541.056611
1004.275834	2540.542413
1004.570246	2540.870088
1004.864623	2541.439738
1005.158964	2541.263298
1005.453270	2542.410160
1005.747540	2542.117773
1006.041775	2539.196425
1006.335974	2538.004192
1006.630138	2539.508976
1006.924266	2539.647608
1007.218359	2542.689944
1007.512416	2536.663245
1007.806438	2536.638039
1008.100425	2539.826569
1008.394376	2532.438758
1008.688292	2538.785571
1008.982172	2538.669624
1009.276017	2538.248688
1009.569827	2538.878832
1009.863602	2542.447969
1010.157341	2541.122146
1010.451045	2538.926723
1010.744714	2538.964532
1011.038347	2539.579553
1011.331945	2539.118287
1011.625508	2538.599048
1011.919036	2540.986034
1012.212528	2540.280273
1012.505986	2540.318082
1012.799408	2536.910262
1013.092795	2542.014430
1013.386147	2538.818338
1013.679464	2541.727084
1013.972745	2541.641384
1014.265992	2540.560057
1014.559204	2540.439069
1014.852380	2538.967052
1015.145521	2541.170037
1015.438628	2538.843544
1015.731699	2538.147865
1016.024736	2538.389840
1016.317737	2538.833462
1016.610703	2540.454193
1016.903635	2541.389327
1017.196531	2537.706764
1017.489393	2538.543595
1017.782219	2540.827238
1018.075011	2540.194573
1018.367768	2539.113246
1018.660490	2537.996630
1018.953177	2537.996630
1019.245829	2537.996630
